Dividing Wavelength (nm)	Counts (n)	Blue Motor Position (mm): 0.000000	Red Motor Position (mm): 42.400000	
326.493990	1995.858343
326.888308	1995.858343
327.282561	1995.858343
327.676750	1972.510239
328.070874	1973.435290
328.464933	1978.725981
328.858929	1991.041520
329.252859	2003.992244
329.646726	2018.641837
330.040528	2028.915709
330.434265	2049.017310
330.827938	2070.401885
331.221547	2089.853177
331.615091	2106.763727
332.008571	2130.847840
332.401986	2152.502116
332.795338	2172.979283
333.188625	2193.007787
333.581847	2210.442618
333.975006	2227.645555
334.368100	2246.249934
334.761129	2262.532861
335.154095	2280.295366
335.546996	2311.374080
335.939833	2368.792822
336.332606	2382.285470
336.725315	2393.842315
337.117960	2403.755744
337.510540	2409.923596
337.903056	2421.430030
338.295508	2427.124013
338.687896	2432.639035
339.080220	2439.532813
339.472480	2444.745366
339.864676	2450.530090
340.256807	2452.264247
340.648875	2454.031172
341.040879	2456.607201
341.432818	2456.876903
341.824694	2458.663992
342.216506	2457.318004
342.608253	2457.360854
342.999937	2457.640638
343.391557	2455.535956
343.783113	2455.924125
344.174605	2455.704835
344.566033	2451.757611
344.957397	2454.605863
345.348697	2448.342230
345.739934	2447.291149
346.131106	2447.361725
346.522215	2447.497836
346.913260	2443.822835
347.304241	2441.471137
347.695159	2440.296548
348.086012	2442.290324
348.476802	2438.007864
348.867528	2436.644232
349.258191	2435.073913
349.648789	2436.356886
350.039324	2433.647266
350.429796	2435.184818
350.820203	2431.494693
351.210548	2433.869077
351.600828	2433.324632
351.991045	2431.033428
352.381198	2432.497883
352.771288	2432.301278
353.161314	2430.589806
353.551276	2433.075095
353.941175	2432.470157
354.331010	2431.787080
354.720782	2431.630805
355.110490	2432.717173
355.500135	2432.800352
355.889717	2432.258428
356.279235	2431.713984
356.668689	2435.537699
357.058080	2435.855292
357.447408	2435.026022
357.836672	2432.944025
358.225873	2434.708429
358.615010	2432.601227
359.004084	2437.866712
359.393095	2439.084151
359.782043	2439.989038
360.170927	2442.055911
360.559748	2441.856785
360.948505	2441.939964
361.337199	2444.420212
361.725830	2442.902825
362.114398	2447.240737
362.502903	2446.499688
362.891344	2447.633948
363.279722	2449.635286
363.668037	2449.592436
364.056289	2450.716613
364.444478	2450.134360
364.832603	2450.978753
365.220665	2451.508074
365.608665	2454.767180
365.996601	2454.305915
366.384474	2454.505040
366.772284	2455.598971
367.160031	2455.147787
367.547715	2458.689198
367.935336	2459.402521
368.322893	2461.618108
368.710388	2460.430917
369.097820	2465.502317
369.485189	2465.880404
369.872495	2465.789663
370.259738	2466.296299
370.646918	2469.300827
371.034035	2472.305354
371.421090	2476.131590
371.808081	2481.482775
372.195010	2483.375728
372.581875	2489.843529
372.968678	2499.036073
373.355418	2502.781650
373.742096	2513.962929
374.128710	2527.715197
374.515262	2537.414377
374.901751	2554.410627
375.288177	2572.793195
375.674540	2590.694332
376.060841	2614.206273
376.447079	2637.826600
376.833254	2660.935249
377.219367	2688.228056
377.605417	2723.543859
377.991404	2753.228694
378.377329	2791.614560
378.763191	2828.215857
379.148991	2876.530276
379.534727	2929.033893
379.920402	2974.432004
380.306013	3025.067874
380.691563	3089.763522
381.077049	3148.170330
381.462474	3206.536809
381.847835	3281.012296
382.233134	3356.483410
382.618371	3419.828028
383.003545	3505.885566
383.388657	3588.860438
383.773706	3683.767720
384.158693	3761.391407
384.543618	3855.804657
384.928480	3937.723407
385.313280	4044.242988
385.698017	4152.456396
386.082692	4273.776805
386.467305	4339.657124
386.851856	4472.030262
387.236344	4630.352740
387.620770	4697.584088
388.005133	4820.676462
388.389435	4973.367971
388.773674	5062.775355
389.157851	5196.247465
389.541965	5329.986756
389.926018	5358.900294
390.310008	5543.754364
390.693936	5664.323641
391.077802	5791.292662
391.461606	5927.159320
391.845348	6042.538728
392.229027	6166.949364
392.612645	6397.259519
392.996200	6519.250401
393.379694	6698.985179
393.763125	6927.500683
394.146494	7021.979468
394.529801	7164.129924
394.913047	7417.878924
395.296230	7417.871362
395.679351	7474.312120
396.062410	7747.053667
396.445408	7640.705485
396.828343	7798.871687
397.211217	7940.477699
397.594028	7821.602250
397.976778	8025.317797
398.359466	8200.422276
398.742092	8165.091350
399.124656	8320.583219
399.507158	8516.295935
399.889598	8535.520375
400.271977	8753.643541
400.654294	8788.677039
401.036549	8989.136001
401.418742	9011.445628
401.800874	9332.357920
402.182944	9409.598479
402.564952	9786.885995
402.946898	9600.093601
403.328783	9665.943673
403.710606	9864.550011
404.092367	10130.859045
404.474067	10500.509212
404.855705	10285.960225
405.237282	10234.621115
405.618797	10672.904071
406.000250	10932.483165
406.381642	11301.513271
406.762972	11256.284038
407.144240	11051.257791
407.525447	11310.327728
407.906593	11247.782132
408.287677	11510.849705
408.668700	11674.178048
409.049661	11647.810293
409.430560	11809.606126
409.811399	11777.851897
410.192176	11939.254520
410.572891	12025.435566
410.953545	12527.973069
411.334138	11988.176398
411.714669	12620.631997
412.095139	11891.935730
412.475547	12417.871749
412.855894	12252.295051
413.236180	12597.283893
413.616405	12275.900253
413.996568	12561.973131
414.376670	12531.012885
414.756711	12393.482646
415.136691	12701.618134
415.516609	12888.919685
415.896466	12960.945170
416.276262	13247.438984
416.655997	13683.581971
417.035670	13726.204927
417.415283	14398.299119
417.794834	14495.028779
418.174324	14225.886617
418.553753	14127.248880
418.933121	14639.427590
419.312428	14436.858905
419.691674	14352.384290
420.070859	14820.984746
420.449983	14465.112052
420.829045	15030.328742
421.208047	14769.244863
421.586988	15233.494803
421.965867	15493.051212
422.344686	15495.448281
422.723444	16071.067392
423.102141	14723.882041
423.480777	15946.324040
423.859352	15447.209480
424.237866	16590.533090
424.616319	16270.389573
424.994712	16950.930219
425.373044	16743.771564
425.751314	17422.293227
426.129524	16533.444543
426.507673	17670.996032
426.885762	17348.689861
427.263789	17545.362916
427.641756	17726.234475
428.019662	17791.066234
428.397508	17836.877720
428.775292	18148.988157
429.153016	18106.644985
429.530679	18191.051545
429.908282	18213.709011
430.285824	17928.803160
430.663305	18649.002563
431.040726	18238.138442
431.418086	18057.337460
431.795385	18717.199292
432.172624	19143.912801
432.549802	18695.262711
432.926920	18891.169512
433.303977	18764.157640
433.680974	19032.021871
434.057910	19330.400205
434.434786	19352.114975
434.811601	19256.275079
435.188355	20327.099335
435.565050	19965.028542
435.941683	19919.501882
436.318257	20823.050571
436.694770	20617.905856
437.071222	21227.600646
437.447614	20286.074425
437.823946	20311.033178
438.200218	20460.669747
438.576429	20239.728577
438.952580	20510.370483
439.328670	20477.484516
439.704700	20902.075698
440.080670	20457.224118
440.456580	21069.245401
440.832429	21252.650140
441.208218	20210.384020
441.583947	20661.834471
441.959616	20785.771238
442.335224	21016.469562
442.710773	21155.224801
443.086261	21706.757278
443.461689	21052.481044
443.837057	21184.329902
444.212365	21841.693843
444.587612	21843.276766
444.962800	21402.478273
445.337927	21848.017971
445.712995	20542.659073
446.088002	22431.634872
446.462949	22632.492085
446.837837	22824.108864
447.212664	22763.461262
447.587431	25664.567163
447.962139	28656.363421
448.336786	31085.435840
448.711374	29511.267496
449.085901	25739.655149
449.460369	25699.807349
449.834776	25611.566992
450.209124	28153.374734
450.583412	27661.340475
450.957640	28216.384116
451.331808	26836.211975
451.705917	25436.601145
452.079965	25484.028320
452.453954	25847.719844
452.827883	25716.312087
453.201752	25520.904361
453.575562	25688.321080
453.949311	26835.317170
454.323001	26890.175007
454.696632	26642.634188
455.070202	28227.341064
455.443713	28375.891265
455.817164	28981.520365
456.190556	29517.183290
456.563888	28956.244019
456.937160	29399.361443
457.310373	27694.695269
457.683526	28169.985336
458.056619	28156.265836
458.429653	28073.444720
458.802628	28662.947168
459.175542	28784.572566
459.548398	30104.873444
459.921194	31690.671730
460.293930	32371.713970
460.666607	34418.324129
461.039224	36206.834773
461.411782	36624.275079
461.784280	35415.580307
462.156719	34943.569510
462.529099	34398.623300
462.901419	33084.379369
463.273680	32000.690088
463.645882	32075.861254
464.018024	32048.271019
464.390106	32897.806265
464.762130	35635.230942
465.134094	39725.986135
465.505999	45055.766204
465.877845	49686.338234
466.249631	50883.045143
466.621358	49230.020549
466.993026	47140.043864
467.364634	45054.463066
467.736184	43064.414653
468.107674	41786.882924
468.479105	40960.340381
468.850477	40274.995516
469.221790	38830.813323
469.593043	37054.703918
469.964238	36157.726373
470.335373	36058.841620
470.706449	37818.794127
471.077467	40427.170306
471.448425	45017.201377
471.819324	47875.636431
472.190164	46015.546443
472.560945	42429.035184
472.931667	39285.285946
473.302330	38160.670057
473.672934	37329.141813
474.043479	37841.718774
474.413965	37013.041302
474.784393	36633.442417
475.154761	37558.600013
475.525070	37586.596060
475.895321	37103.656042
476.265513	37716.617500
476.635645	38702.828510
477.005719	38527.766881
477.375734	38996.982357
477.745691	39689.036998
478.115588	41058.879815
478.485427	43041.011096
478.855207	46431.812161
479.224928	49051.732582
479.594591	50695.322656
479.964194	49733.767930
480.333739	49891.548483
480.703226	49936.644125
481.072653	50565.820454
481.442022	51017.134794
481.811333	51295.388842
482.180584	50015.029026
482.549777	49498.575418
482.918912	48956.853025
483.287988	48680.922949
483.657005	47835.632354
484.025964	47190.770475
484.394864	47228.773213
484.763706	46793.517470
485.132489	45916.699499
485.501213	45745.842192
485.869879	45893.079173
486.238487	45472.553680
486.607036	45682.346339
486.975527	45147.142158
487.343959	45336.424883
487.712333	45414.469506
488.080648	45335.484707
488.448905	45782.609848
488.817104	45605.458660
489.185244	46576.919253
489.553326	48248.447402
489.921350	50958.425516
490.289315	53794.293845
490.657222	54379.377722
491.025070	54672.019223
491.392861	53789.706395
491.760593	52580.179832
492.128267	50954.011986
492.495883	49447.604311
492.863440	48024.867187
493.230939	46685.510748
493.598380	45561.293112
493.965763	45237.285551
494.333088	44412.721660
494.700354	43917.209005
495.067563	43622.740085
495.434713	43470.779544
495.801805	43539.361921
496.168839	43160.494004
496.535815	42813.478617
496.902733	42850.669730
497.269593	42427.338835
497.636395	42364.024464
498.003139	42771.601752
498.369825	42227.472209
498.736453	42525.948846
499.103023	42051.931670
499.469535	41923.485591
499.835989	42036.437684
500.202385	41680.370905
500.568723	41692.152082
500.935003	41894.861919
501.301226	41686.521113
501.667390	42318.848163
502.033497	42581.240221
502.399546	42002.651871
502.765537	41311.315594
503.131470	41696.023688
503.497345	42043.558314
503.863163	40702.238345
504.228923	41322.552326
504.594625	41737.678742
504.960269	41018.054031
505.325856	41718.073695
505.691385	41065.340054
506.056856	41214.313712
506.422270	41633.583957
506.787625	41211.924205
507.152924	41414.555904
507.518164	41515.908302
507.883347	40707.539118
508.248472	40985.475574
508.613540	41454.940588
508.978550	41763.181940
509.343503	41507.635769
509.708398	41710.486758
510.073236	42234.988569
510.438016	42233.934968
510.802738	41696.253061
511.167403	42307.974395
511.532010	42530.634598
511.896561	42844.227135
512.261053	43711.408940
512.625488	43243.972991
512.989866	43115.726037
513.354186	42953.531953
513.718449	42943.477372
514.082655	43626.399963
514.446803	43294.618943
514.810894	43818.341896
515.174927	43731.008946
515.538904	43607.825832
515.902822	44302.443899
516.266684	43742.880864
516.630488	44176.372203
516.994235	44035.466912
517.357925	44605.155106
517.721558	44762.219815
518.085133	45079.268063
518.448651	45212.299072
518.812112	44981.053783
519.175516	45079.217652
519.538863	45419.412357
519.902152	45386.181071
520.265385	45855.502412
520.628560	45889.300828
520.991678	45669.055337
521.354739	45902.412869
521.717743	46216.675879
522.080690	46122.484440
522.443580	46656.214083
522.806413	46705.597226
523.169189	46652.092940
523.531908	46825.811101
523.894569	46697.639765
524.257174	46862.293932
524.619722	47160.342070
524.982213	47143.194586
525.344647	47052.869712
525.707025	47092.231041
526.069345	47480.495669
526.431608	47423.543233
526.793815	47744.947038
527.155964	47253.174918
527.518057	47422.560208
527.880093	47202.768421
528.242072	47722.029953
528.603995	47420.216072
528.965860	47417.854291
529.327669	47526.342442
529.689421	47400.923576
530.051117	47366.300931
530.412755	47515.246863
530.774337	47575.002180
531.135862	47368.844193
531.497331	47562.043894
531.858743	47461.755179
532.220098	47811.981781
532.581396	47528.220272
532.942638	47169.222063
533.303824	47479.376533
533.664953	47435.992363
534.026025	47139.847259
534.387040	47632.851941
534.747999	47574.873631
535.108902	47738.154083
535.469748	47244.216788
535.830537	47355.487656
536.191270	47540.286274
536.551947	47203.816981
536.912567	47502.908639
537.273131	47633.782034
537.633638	47111.513454
537.994089	47453.432234
538.354483	47037.065694
538.714821	47616.639590
539.075103	47958.076940
539.435328	47711.940083
539.795497	47597.558823
540.155609	47578.041996
540.515665	48051.958348
540.875665	47500.993000
541.235609	47824.695571
541.595496	47782.153274
541.955328	48485.273248
542.315102	47829.925768
542.674821	47618.938356
543.034483	47658.818924
543.394090	47619.649159
543.753640	47578.344465
544.113134	48592.738045
544.472571	47569.779545
544.831953	48855.921564
545.191278	48059.227692
545.550548	47767.065100
545.909761	48237.916431
546.268918	48423.962735
546.628019	48727.578828
546.987064	48293.205286
547.346053	47570.591170
547.704986	48461.070668
548.063863	47998.839710
548.422684	48194.653249
548.781449	48052.023883
549.140158	48440.538048
549.498811	48282.994429
549.857408	47718.377637
550.215949	48574.484027
550.574434	48490.684926
550.932864	48254.244729
551.291237	48967.217638
551.649555	48575.391434
552.007817	48822.924691
552.366022	48461.274835
552.724173	48626.866656
553.082267	49042.769410
553.440305	49328.864973
553.798288	48639.204880
554.156215	48942.533628
554.514086	49165.191311
554.871902	48918.285678
555.229661	48934.540878
555.587365	48760.351369
555.945014	48827.741514
556.302606	48750.571531
556.660143	48986.447119
557.017625	49082.718034
557.375050	48857.794352
557.732421	49226.476618
558.089735	49195.665086
558.446994	49124.163880
558.804197	49613.501123
559.161345	49532.570439
559.518437	48782.933218
559.875474	49088.142316
560.232455	49251.470659
560.589381	49429.733421
560.946251	49118.976533
561.303065	49827.659420
561.659825	49624.258945
562.016528	49290.544642
562.373177	49013.180358
562.729770	49480.807871
563.086307	48989.567593
563.442789	49469.392178
563.799216	49519.662564
564.155587	49308.491150
564.511904	49322.155198
564.868164	49420.830743
565.224370	49668.686634
565.580520	49378.046470
565.936615	49601.818248
566.292654	49311.266305
566.648638	49567.397250
567.004567	49537.241068
567.360441	49565.279965
567.716260	49425.730745
568.072023	49688.697494
568.427732	49665.770326
568.783385	49213.450277
569.138982	49620.979674
569.494525	49560.760571
569.850013	49351.834991
570.205445	49302.721550
570.560823	49271.138721
570.916145	49151.789403
571.271412	49176.478454
571.626625	48916.904402
571.981782	48968.477926
572.336884	48666.205300
572.691931	48977.073093
573.046923	48565.800639
573.401860	48400.914579
573.756743	48420.323022
574.111570	48505.445425
574.466342	48360.303044
574.821059	48465.491760
575.175722	47985.024428
575.530330	47981.006628
575.884882	47708.476810
576.239380	47673.491203
576.593823	47626.540416
576.948211	47541.760812
577.302544	47061.169971
577.656823	47079.618074
578.011047	47284.278838
578.365216	47004.411620
578.719330	46786.346428
579.073389	46632.591236
579.427394	46713.703401
579.781344	46659.800864
580.135239	46311.061402
580.489080	46381.496404
580.842866	45849.410177
581.196597	46296.928528
581.550273	46209.676237
581.903895	46070.467294
582.257463	46468.100907
582.610975	45831.665316
582.964434	46093.525532
583.317837	45732.016828
583.671186	45558.777576
584.024481	45772.976203
584.377721	45306.233412
584.730906	45579.718529
585.084037	45584.530310
585.437113	45282.287931
585.790135	45308.000337
586.143103	44887.336213
586.496016	44997.951731
586.848874	45011.744328
587.201679	45020.886460
587.554428	44457.177076
587.907124	44630.948169
588.259765	44350.791085
588.612352	44604.910610
588.964884	43965.225995
589.317362	44244.445424
589.669786	44152.721630
590.022155	43909.140638
590.374470	44329.613198
590.726731	43828.653576
591.078937	43309.102178
591.431090	43409.244699
591.783188	43039.080334
592.135232	42693.010164
592.487222	42917.333948
592.839157	42982.674864
593.191038	42629.579845
593.542866	42375.707338
593.894639	41746.740216
594.246358	41991.208452
594.598022	41955.312916
594.949633	41542.555842
595.301190	41466.706641
595.652692	41270.477207
596.004141	41578.141347
596.355535	40571.022152
596.706876	40506.202996
597.058162	40316.741311
597.409395	40777.533019
597.760573	40839.070384
598.111698	40363.876099
598.462768	40365.887519
598.813785	40380.600127
599.164748	39796.103544
599.515657	40160.944451
599.866511	39609.477508
600.217312	40180.052945
600.568060	39102.763409
600.918753	39818.942492
601.269392	39751.585115
601.619978	39373.145695
601.970510	39573.244215
602.320988	39716.481040
602.671412	39960.150252
603.021783	39688.948778
603.372100	39315.948764
603.722363	39400.176362
604.072572	39443.946181
604.422728	39410.979555
604.772830	39206.578411
605.122878	39250.534752
605.472872	39144.751179
605.822813	39395.170497
606.172701	39181.783495
606.522534	39374.816838
606.872314	39606.513310
607.222041	39309.954832
607.571714	39639.406839
607.921333	39049.710306
608.270899	39299.275148
608.620411	39599.443092
608.969870	39367.237463
609.319276	39312.414915
609.668627	39313.103033
610.017926	39737.457281
610.367171	39857.764417
610.716362	39879.973221
611.065500	39768.238566
611.414585	39910.837685
611.763616	40139.559876
612.112594	40018.998162
612.461518	40173.769146
612.810389	40381.268080
613.159207	40195.705727
613.507971	40228.329554
613.856682	40617.574687
614.205340	40458.473351
614.553945	41059.232696
614.902496	40493.133804
615.250994	40855.854906
615.599439	40863.898067
615.947830	41008.780828
616.296169	40965.442029
616.644454	41032.063397
616.992686	41113.843516
617.340864	41548.900134
617.688990	41194.582636
618.037063	41684.401308
618.385082	41566.942423
618.733048	41801.812302
619.080961	41731.094995
619.428821	41668.556961
619.776628	41737.666139
620.124382	41514.859742
620.472083	41576.084556
620.819731	41640.888588
621.167326	41290.634260
621.514868	41234.422874
621.862357	40792.404423
622.209793	40759.054670
622.557176	40408.906206
622.904506	40153.191156
623.251783	39781.161564
623.599007	39540.338083
623.946179	39279.982652
624.293297	39186.449083
624.640363	38572.323119
624.987376	38509.666618
625.334336	38239.191070
625.681243	37844.410750
626.028097	37745.468024
626.374899	37543.506798
626.721647	37446.338558
627.068343	37268.610158
627.414987	37007.738008
627.761577	36734.479743
628.108115	36966.783674
628.454600	36404.367346
628.801032	36486.878431
629.147412	36399.618579
629.493739	36329.259194
629.840014	35937.216222
630.186236	36144.722717
630.532405	35743.550214
630.878521	35848.486873
631.224585	35671.625552
631.570597	35355.330957
631.916556	35431.228048
632.262462	35287.635822
632.608316	35248.481180
632.954117	35083.486735
633.299866	35020.336201
633.645562	34894.861882
633.991206	34406.515227
634.336797	33982.859178
634.682336	33939.719504
635.027823	33661.528470
635.373257	33464.119406
635.718639	33204.031156
636.063968	33032.982285
636.409245	32488.729233
636.754470	32481.162462
637.099642	32205.925544
637.444762	31728.976937
637.789829	31806.182208
638.134845	31443.655191
638.479808	31343.827742
638.824719	31195.950535
639.169577	30807.474179
639.514383	30801.331533
639.859137	30475.282305
640.203839	30623.404008
640.548489	30246.033313
640.893086	30256.740724
641.237632	29970.473762
641.582125	29988.805918
641.926566	29883.534022
642.270955	29788.223447
642.615292	29736.420550
642.959576	29647.222374
643.303809	29592.498129
643.647990	29647.066098
643.992118	29539.888647
644.336195	29463.580701
644.680219	29468.785693
645.024192	29629.956422
645.368112	29968.585850
645.711981	29880.716017
646.055797	30481.876134
646.399562	30321.471660
646.743274	30991.090646
647.086935	31268.333943
647.430544	31100.647522
647.774101	31107.773193
648.117606	31232.882028
648.461059	31422.749526
648.804460	31078.794120
649.147810	30539.206656
649.491108	30303.560440
649.834354	29957.628902
650.177548	29238.893954
650.520690	28824.725357
650.863781	28787.405695
651.206820	28611.870197
651.549807	28195.024748
651.892742	27765.853677
652.235626	27539.571404
652.578458	27383.242703
652.921238	26838.898910
653.263967	27017.693514
653.606644	26705.457047
653.949269	26594.471004
654.291843	26224.097431
654.634365	26456.537473
654.976836	26079.945637
655.319255	26011.355698
655.661622	25947.506964
656.003938	25710.174482
656.346203	25542.263729
656.688416	25657.176831
657.030577	25446.043226
657.372687	25266.023622
657.714746	25402.533027
658.056753	25431.615444
658.398708	24959.685306
658.740612	24930.078609
659.082465	25061.385543
659.424266	24860.916499
659.766016	24877.333017
660.107715	24734.295317
660.449362	24760.713484
660.790958	24679.334137
661.132503	24622.671568
661.473996	24577.326389
661.815438	24590.907258
662.156829	24668.959443
662.498168	24442.362098
662.839456	24387.055599
663.180693	24411.802623
663.521879	24462.761127
663.863013	24376.007911
664.204097	24305.792199
664.545129	24544.823550
664.886110	24442.246152
665.227040	24405.652416
665.567918	24415.699435
665.908746	24383.685588
666.249522	24426.111939
666.590248	24363.198339
666.930922	24376.900195
667.271545	24285.189003
667.612118	24277.108034
667.952639	24058.120311
668.293109	24022.098746
668.633528	23893.413212
668.973896	23785.459423
669.314213	23739.700869
669.654480	23500.815712
669.994695	23455.946922
670.334859	23310.791938
670.674973	23177.821423
671.015035	23221.155182
671.355047	23114.857412
671.695008	23012.025435
672.034918	22879.496021
672.374777	22853.014840
672.714585	22672.186131
673.054342	22754.518255
673.394049	22513.493128
673.733705	22650.133603
674.073310	22371.226726
674.412864	22347.682017
674.752368	22028.408099
675.091820	22151.870998
675.431223	21842.621416
675.770574	21610.128441
676.109875	21455.944751
676.449125	21220.127136
676.788324	21108.422728
677.127473	20713.503777
677.466571	20611.596852
677.805619	20334.172074
678.144616	20278.215266
678.483562	20157.547687
678.822458	19904.108718
679.161303	19799.673655
679.500098	19667.361010
679.838842	19538.362925
680.177535	19577.391538
680.516179	19649.477517
680.854771	19734.236957
681.193314	20164.799387
681.531805	20733.738969
681.870247	21100.351841
682.208638	21469.583593
682.546978	21544.071682
682.885268	21536.048686
683.223508	21192.093279
683.561697	20938.568611
683.899836	20768.563259
684.237925	20408.390461
684.575963	20251.756770
684.913951	19918.352499
685.251889	19943.762435
685.589776	19867.489777
685.927614	19782.821078
686.265401	19799.991248
686.603137	19780.504667
686.940824	19980.976232
687.278460	20126.116093
687.616046	20138.232506
687.953582	20411.427756
688.291068	20283.526122
688.628504	20394.832278
688.965889	20306.332302
689.303224	20044.507374
689.640510	19809.292176
689.977745	19366.875474
690.314930	18884.968892
690.652065	18553.351710
690.989150	18110.345192
691.326185	17559.558805
691.663170	17131.705996
692.000105	16682.135896
692.336990	16268.549552
692.673825	15979.898124
693.010610	15658.922818
693.347345	15292.864472
693.684030	14902.434669
694.020665	14710.954002
694.357251	14330.722452
694.693786	14253.315535
695.030272	14081.548300
695.366707	13764.656328
695.703093	13576.286053
696.039429	13518.705993
696.375716	13350.475128
696.711952	13290.898772
697.048139	13165.820183
697.384276	13040.953323
697.720363	13060.336559
698.056400	12914.632090
698.392388	12775.773507
698.728326	12709.081562
699.064214	12566.069069
699.400053	12509.925738
699.735842	12293.846761
700.071581	12119.130451
700.407270	11943.249635
700.742910	11821.586428
701.078501	11658.941161
701.414042	11484.928092
701.749533	11310.516771
702.084974	11114.680547
702.420366	11166.783393
702.755709	10932.639441
703.091002	10762.946641
703.426246	10734.968237
703.761440	10648.419187
704.096584	10501.567855
704.431679	10442.447723
704.766725	10362.253048
705.101721	10293.693355
705.436668	10303.082504
705.771565	10129.634045
706.106413	10244.101004
706.441212	10204.265807
706.775961	10221.753569
707.110661	10217.617303
707.445311	10338.216826
707.779913	10233.905271
708.114465	10299.077308
708.448967	10387.662984
708.783421	10649.412294
709.117825	10737.231715
709.452180	10805.045316
709.786485	10936.553897
710.120742	11247.613254
710.454949	11241.553787
710.789107	11409.603171
711.123216	11683.468895
711.457275	11719.266128
711.791286	11921.923033
712.125247	11946.334821
712.459159	11801.646144
712.793023	12035.732123
713.126837	11573.395300
713.460602	11628.432098
713.794318	11438.030237
714.127985	11242.148643
714.461602	10851.842348
714.795171	10783.630495
715.128691	10342.267393
715.462162	10090.282798
715.795584	9873.107369
716.128957	9731.876924
716.462281	9539.403149
716.795556	9404.045648
717.128782	9180.588942
717.461960	8940.330070
717.795088	8873.186942
718.128167	8686.818005
718.461198	8486.260741
718.794180	8407.643946
719.127113	8246.397599
719.459997	8152.256572
719.792833	7996.956266
720.125619	7953.993032
720.458357	7809.760580
720.791046	7724.978454
721.123686	7647.669839
721.456278	7530.740276
721.788821	7493.377764
722.121315	7377.690845
722.453761	7385.038327
722.786158	7335.198959
723.118506	7321.257648
723.450805	7249.217039
723.783056	7285.901516
724.115259	7233.468475
724.447412	7185.668254
724.779518	7255.276506
725.111574	7246.759477
725.443582	7299.706716
725.775542	7276.751822
726.107453	7423.565345
726.439315	7372.989969
726.771129	7486.660427
727.102895	7602.982531
727.434612	7667.118611
727.766281	7692.604164
728.097901	7759.044051
728.429473	7762.466995
728.760996	7734.488591
729.092471	7737.969508
729.423897	7678.166300
729.755276	7603.947912
730.086606	7621.803679
730.417887	7765.733663
730.749120	7905.202225
731.080305	7939.524921
731.411442	8018.557610
731.742530	8024.135647
732.073570	8031.188221
732.404562	8111.783668
732.735506	8040.370683
733.066401	7925.117303
733.397249	7729.880976
733.728048	7488.397104
734.058798	7210.332099
734.389501	6967.240099
734.720156	6786.328211
735.050762	6604.498833
735.381320	6469.980684
735.711831	6375.370829
736.042293	6252.197796
736.372707	6235.682976
736.703073	6156.360421
737.033391	6199.641247
737.363661	6169.825342
737.693883	6193.654877
738.024056	6240.051136
738.354182	6282.938753
738.684260	6363.100660
739.014290	6431.002482
739.344272	6479.037117
739.674207	6561.142389
740.004093	6586.764054
740.333931	6576.679225
740.663722	6576.664102
740.993464	6556.814559
741.323159	6493.928685
741.652806	6391.966307
741.982405	6311.411189
742.311956	6192.676893
742.641460	6141.531867
742.970915	6024.443507
743.300323	5910.314304
743.629683	5830.951419
743.958996	5731.406275
744.288260	5634.671574
744.617477	5538.388056
744.946647	5496.299462
745.275768	5411.043468
745.604842	5345.810938
745.933869	5283.318274
746.262847	5251.019601
746.591778	5228.334409
746.920662	5188.007699
747.249498	5173.600081
747.578286	5198.029513
747.907027	5231.643927
748.235720	5283.845075
748.564365	5283.870280
748.892963	5245.940639
749.221514	5252.761320
749.550017	5203.703331
749.878473	5175.046892
750.206881	5111.165391
750.535242	5075.279937
750.863555	5042.837592
751.191821	5006.778218
751.520039	5003.539277
751.848210	4969.725737
752.176334	4967.353874
752.504411	4934.611580
752.832440	4888.784971
753.160421	4900.034306
753.488356	4863.057442
753.816243	4833.269264
754.144082	4791.704951
754.471875	4769.997742
754.799620	4746.132920
755.127318	4732.786465
755.454969	4718.479671
755.782572	4701.274213
756.110129	4691.529662
756.437638	4665.718955
756.765100	4657.721164
757.092515	4652.410308
757.419882	4651.870905
757.747203	4651.855782
758.074477	4664.025127
758.401703	4648.765554
758.728882	4683.705792
759.056014	4685.031615
759.383099	4710.502045
759.710138	4727.120208
760.037129	4741.805090
760.364073	4741.084205
760.690970	4733.260334
761.017820	4720.599476
761.344623	4754.468468
761.671379	4818.481040
761.998088	4937.260707
762.324751	5293.098113
762.651366	5958.485050
762.977935	6790.628315
763.304456	7290.587268
763.630931	7384.745940
763.957359	7099.076354
764.283740	6645.990050
764.610074	6205.483944
764.936362	5722.987548
765.262602	5367.901274
765.588796	5022.824211
765.914943	4786.010968
766.241044	4587.828087
766.567097	4432.638686
766.893104	4304.399294
767.219064	4219.108012
767.544978	4125.168631
767.870845	4047.718863
768.196665	3999.351513
768.522438	3948.251857
768.848165	3905.870877
769.173846	3859.847662
769.499479	3829.625945
769.825066	3789.326961
770.150607	3744.158223
770.476101	3725.682394
770.801548	3697.013352
771.126949	3657.836025
771.452303	3635.780977
771.777611	3594.579627
772.102872	3586.765838
772.428087	3555.576219
772.753256	3528.797610
773.078378	3507.692819
773.403453	3475.260556
773.728482	3450.294242
774.053465	3429.890172
774.378401	3409.629774
774.703291	3385.079355
775.028135	3365.192003
775.352932	3354.088862
775.677683	3331.741427
776.002388	3312.703509
776.327046	3308.317705
776.651658	3290.590488
776.976224	3270.481325
777.300743	3265.901437
777.625216	3248.685897
777.949643	3238.774988
778.274024	3237.890266
778.598359	3219.908470
778.922647	3214.973180
779.246889	3208.286090
779.571086	3204.832899
779.895236	3212.082078
780.219339	3206.262066
780.543397	3207.509752
780.867409	3216.001576
781.191374	3210.466389
781.515294	3200.850388
781.839167	3210.118549
782.162995	3202.408104
782.486776	3189.036444
782.810511	3180.209383
783.134201	3163.213133
783.457844	3156.878923
783.781441	3145.932058
784.104993	3130.795993
784.428498	3128.403966
784.751958	3121.636217
785.075372	3112.214300
785.398739	3100.680140
785.722061	3102.994030
786.045337	3103.155347
786.368568	3122.422637
786.691752	3120.799385
787.014891	3171.004236
787.337983	3226.920715
787.661030	3314.830876
787.984031	3392.557907
788.306987	3434.487704
788.629897	3441.625978
788.952760	3419.213008
789.275579	3377.847820
789.598351	3316.088644
789.921078	3262.906992
790.243759	3209.097715
790.566395	3169.771674
790.888984	3132.494862
791.211529	3105.076026
791.534027	3075.378589
791.856480	3049.653581
792.178888	3036.473484
792.501249	3025.662730
792.823566	3003.837054
793.145836	3002.995182
793.468062	2995.065447
793.790241	2991.440857
794.112375	2997.570900
794.434464	3013.410205
794.756507	3016.971781
795.078505	3036.181097
795.400457	3074.899679
795.722364	3120.696042
796.044226	3156.702483
796.366042	3182.296421
796.687812	3170.404339
797.009538	3171.147909
797.331218	3154.514622
797.652852	3138.761016
797.974442	3113.066255
798.295986	3099.732403
798.617484	3074.849268
798.938938	3052.922769
799.260346	3038.991541
799.581709	3016.434898
799.903026	3006.975173
800.224299	2991.652585
800.545526	2973.935450
800.866708	2961.375415
801.187845	2953.707820
801.508936	2940.605862
801.829983	2935.728545
802.150984	2919.372522
802.471940	2912.095616
802.792851	2911.294073
803.113717	2906.590676
803.434538	2903.669327
803.755314	2897.657751
804.076045	2894.527195
804.396731	2884.502860
804.717372	2887.179713
805.037967	2891.124416
805.358518	2896.324366
805.679024	2906.895666
805.999485	2902.779564
806.319901	2909.854823
806.640272	2912.801378
806.960598	2918.008889
807.280879	2912.372879
807.601115	2917.550144
807.921306	2913.764238
808.241453	2910.787437
808.561554	2909.126376
808.881611	2904.402815
809.201623	2901.420973
809.521590	2895.081722
809.841513	2892.150291
810.161390	2890.564848
810.481223	2874.382744
810.801011	2868.708925
811.120755	2868.693802
811.440453	2857.900692
811.760107	2850.260823
812.079716	2846.104392
812.399281	2833.612412
812.718801	2832.170642
813.038276	2823.318376
813.357707	2822.990701
813.677093	2822.786534
813.996434	2812.802529
814.315731	2815.623055
814.634983	2815.993580
814.954191	2816.119608
815.273354	2819.338385
815.592473	2826.806855
815.911547	2838.663648
816.230577	2844.839062
816.549562	2858.485465
816.868502	2864.250025
817.187399	2871.075747
817.506250	2878.554299
817.825058	2882.909856
818.143821	2899.432238
818.462539	2923.816299
818.781213	2954.380814
819.099843	3008.006088
819.418429	3096.024635
819.736970	3187.912266
820.055466	3283.873150
820.373919	3401.720204
820.692327	3599.235132
821.010691	4007.631608
821.329011	5096.977063
821.647286	6952.913140
821.965517	9019.299745
822.283704	10076.470036
822.601847	10126.664805
822.919945	9037.110142
823.237999	7963.170453
823.556010	7013.535535
823.873976	6217.691098
824.191897	5539.439136
824.509775	5041.531933
824.827609	4593.834621
825.145398	4323.515349
825.463144	4190.980894
825.780845	4218.394689
826.098502	4406.636414
826.416116	4762.456176
826.733685	5074.808589
827.051210	5124.952947
827.368692	4894.728492
827.686129	4525.917676
828.003522	4178.713246
828.320872	3872.853839
828.638177	3643.362872
828.955439	3468.873414
829.272656	3317.031340
829.589830	3193.593647
829.906960	3092.999942
830.224046	3017.964888
830.541088	2959.711835
830.858086	2924.486772
831.175041	2893.067781
831.491952	2879.068497
831.808819	2882.027654
832.125642	2907.412384
832.442421	2977.035760
832.759157	3125.056640
833.075849	3367.231150
833.392497	3618.318420
833.709101	3772.393726
834.025662	3727.900502
834.342179	3580.093871
834.658653	3406.761358
834.975083	3258.420365
835.291469	3146.423570
835.607811	3047.367418
835.924110	2976.831593
836.240366	2916.060483
836.556578	2853.633355
836.872746	2804.025880
837.188871	2769.584717
837.504952	2738.120356
837.820990	2717.870041
838.136984	2701.385467
838.452935	2697.481094
838.768842	2699.474870
839.084706	2737.107084
839.400526	2838.474605
839.716303	2956.162862
840.032037	3029.103317
840.347727	3006.793691
840.663373	2926.634304
840.978977	2850.817870
841.294537	2795.730662
841.610054	2749.780544
841.925527	2719.518498
842.240957	2695.535208
842.556344	2669.714418
842.871687	2645.491674
843.186987	2628.404683
843.502244	2611.698299
843.817458	2598.321598
844.132629	2588.158632
844.447756	2582.865420
844.762840	2571.767320
845.077881	2567.255487
845.392879	2562.698284
845.707833	2561.390105
846.022745	2554.539177
846.337613	2557.238714
846.652438	2554.440874
846.967221	2555.060936
847.281960	2549.356870
847.596656	2548.099102
847.911309	2546.987528
848.225919	2545.636499
848.540485	2542.314378
848.855009	2541.046528
849.169490	2538.808256
849.483928	2539.408153
849.798323	2540.678524
850.112675	2536.499407
850.426984	2536.438914
850.741251	2538.079809
851.055474	2532.748789
851.369654	2534.810621
851.683792	2535.662576
851.997887	2534.165353
852.311938	2533.353728
852.625947	2536.121321
852.939914	2533.494880
853.253837	2534.288862
853.567718	2532.285003
853.881555	2534.054448
854.195350	2533.293234
854.509103	2532.796680
854.822812	2529.436751
855.136479	2530.291227
855.450103	2535.526465
855.763685	2532.627801
856.077224	2531.428007
856.390720	2532.622760
856.704173	2532.201824
857.017584	2536.587628
857.330953	2535.559232
857.644278	2534.815662
857.957561	2538.533513
858.270802	2535.534027
858.584000	2537.477391
858.897155	2534.586290
859.210268	2533.986392
859.523339	2529.746782
859.836367	2531.677544
860.149352	2534.750127
860.462295	2533.729293
860.775195	2526.318797
861.088054	2525.237470
861.400869	2528.433561
861.713642	2524.166225
862.026373	2532.411032
862.339062	2530.989426
862.651708	2532.388347
862.964312	2532.063192
863.276873	2533.925898
863.589392	2535.602082
863.901869	2542.195911
864.214303	2541.308668
864.526696	2548.396531
864.839045	2546.216232
865.151353	2550.521377
865.463619	2550.934752
865.775842	2551.554813
866.088023	2550.652447
866.400162	2550.760832
866.712258	2546.291849
867.024313	2550.327293
867.336325	2551.509443
867.648296	2549.860986
867.960224	2548.197405
868.272110	2549.929041
868.583954	2549.245965
868.895755	2552.285781
869.207515	2550.970040
869.519233	2555.255020
869.830909	2554.594629
870.142542	2555.988508
870.454134	2556.613611
870.765684	2558.501523
871.077191	2559.532439
871.388657	2560.124775
871.700081	2563.555280
872.011463	2567.956207
872.322803	2568.238512
872.634101	2570.867474
872.945357	2575.933833
873.256571	2579.394586
873.567744	2578.106571
873.878874	2580.947261
874.189963	2584.536562
874.501010	2584.342478
874.812015	2582.923393
875.122979	2583.916501
875.433900	2584.796182
875.744780	2586.308528
876.055618	2588.544280
876.366415	2587.568817
876.677169	2586.288363
876.987882	2586.225349
877.298554	2590.999322
877.609183	2596.174066
877.919771	2602.173039
878.230317	2612.207456
878.540822	2626.660444
878.851285	2642.940850
879.161707	2669.490087
879.472087	2717.537324
879.782425	2789.126750
880.092722	2940.535285
880.402977	3217.581977
880.713191	3605.193776
881.023363	4006.255373
881.333494	4225.081779
881.643583	4252.777878
881.953631	4138.817555
882.263637	3983.086230
882.573602	3827.922035
882.883526	3689.665870
883.193408	3559.906570
883.503248	3433.156839
883.813048	3317.467400
884.122806	3218.688511
884.432522	3115.861575
884.742197	3022.486803
885.051831	2943.010492
885.361424	2874.135728
885.670975	2821.130515
885.980485	2777.645522
886.289954	2740.315778
886.599382	2712.279401
886.908768	2688.248221
887.218113	2667.619819
887.527417	2649.685914
887.836680	2633.080353
888.145901	2621.667181
888.455082	2610.977414
888.764221	2604.673452
889.073319	2593.250197
889.382376	2589.905391
889.691392	2588.335072
890.000366	2585.496902
890.309300	2584.163517
890.618193	2586.883220
890.927044	2584.516398
891.235855	2585.759042
891.544625	2587.152921
891.853353	2586.522777
892.162041	2594.981833
892.470687	2610.720316
892.779293	2623.436626
893.087858	2643.114770
893.396381	2675.352949
893.704864	2728.254817
894.013306	2791.138171
894.321707	2859.148377
894.630068	2900.253946
894.938387	2906.469688
895.246665	2887.091493
895.554903	2850.893488
895.863100	2814.808908
896.171256	2782.016203
896.479371	2755.177100
896.787446	2731.816393
897.095480	2704.458051
897.403473	2685.205884
897.711425	2666.969510
898.019336	2652.647592
898.327207	2638.880201
898.635038	2623.900412
898.942827	2609.500356
899.250576	2601.840323
899.558284	2588.161152
899.865952	2582.391552
900.173579	2572.863771
900.481165	2568.299006
900.788711	2563.275496
901.096216	2560.749878
901.403681	2553.949362
901.711105	2556.227963
902.018489	2555.713765
902.325832	2561.019580
902.633135	2566.907647
902.940397	2591.795824
903.247619	2638.005561
903.554800	2734.100035
903.861941	2853.590505
904.169041	2938.806170
904.476101	2965.385653
904.783121	2936.005809
905.090100	2887.877913
905.397039	2836.115345
905.703938	2795.057668
906.010796	2752.850607
906.317614	2723.047306
906.624391	2691.721576
906.931129	2666.946825
907.237826	2645.083341
907.544483	2623.406379
907.851099	2602.858636
908.157675	2577.267219
908.464211	2559.333314
908.770707	2545.081972
909.077163	2535.350024
909.383578	2522.984074
909.689954	2519.520801
909.996289	2514.882940
910.302584	2512.780779
910.608839	2509.181395
910.915054	2511.785151
911.221229	2509.559481
911.527363	2511.394461
911.833458	2511.434791
912.139513	2513.478978
912.445527	2514.943434
912.751502	2520.944927
913.057436	2525.527336
913.363331	2533.973789
913.669186	2545.392003
913.975000	2559.048489
914.280775	2583.301480
914.586510	2619.267592
914.892205	2667.014881
915.197859	2726.140053
915.503475	2792.224539
915.809050	2852.446163
916.114585	2886.239538
916.420081	2895.671537
916.725536	2888.011503
917.030952	2863.355220
917.336328	2835.961590
917.641665	2814.161120
917.946961	2787.238838
918.252218	2761.181114
918.557435	2734.470560
918.862612	2710.560367
919.167750	2689.521112
919.472848	2667.161074
919.777906	2644.533855
920.082925	2625.427882
920.387904	2604.262597
920.692843	2590.621235
920.997743	2577.441138
921.302603	2562.410938
921.607423	2555.295350
921.912204	2546.395193
922.216946	2540.842362
922.521647	2533.827596
922.826310	2530.097142
923.130932	2521.784279
923.435516	2518.101717
923.740059	2514.010820
924.044564	2508.778102
924.349028	2507.290962
924.653454	2498.652945
924.957840	2494.831750
925.262186	2493.546256
925.566493	2490.836636
925.870761	2483.514360
926.174989	2490.990391
926.479178	2485.104844
926.783328	2483.610142
927.087438	2480.671149
927.391509	2481.288691
927.695541	2478.785758
927.999533	2476.925572
928.303486	2477.830459
928.607400	2476.015644
928.911275	2476.136631
929.215110	2472.411219
929.518906	2472.202011
929.822663	2472.829634
930.126381	2472.325519
930.430060	2472.570015
930.733699	2473.724439
931.037299	2474.775520
931.340861	2472.391054
931.644383	2474.125211
931.947866	2474.861219
932.251309	2471.730663
932.554714	2472.973307
932.858080	2475.599748
933.161407	2473.104377
933.464694	2472.126393
933.767943	2468.829479
934.071153	2471.919706
934.374323	2467.579273
934.677455	2470.835858
934.980548	2469.263018
935.283602	2468.453913
935.586617	2467.848974
935.889593	2468.027935
936.192530	2468.358131
936.495428	2470.114973
936.798287	2469.313430
937.101108	2473.981538
937.403890	2476.620582
937.706632	2480.771972
938.009336	2484.817498
938.312002	2487.897643
938.614628	2488.111892
938.917216	2491.575165
939.219765	2492.873262
939.522275	2494.284785
939.824747	2496.855774
940.127179	2492.028869
940.429573	2488.121975
940.731929	2497.059940
941.034246	2488.863024
941.336524	2491.625577
941.638763	2488.878148
941.940964	2491.250011
942.243126	2488.699187
942.545250	2487.113744
942.847335	2482.969915
943.149381	2486.571820
943.451389	2482.732981
943.753359	2479.378093
944.055290	2479.100830
944.357182	2478.422795
944.659036	2478.137969
944.960851	2476.880202
945.262628	2476.935654
945.564367	2477.437249
945.866067	2473.336270
946.167729	2476.076138
946.469352	2476.055973
946.770937	2474.709985
947.072484	2473.842906
947.373992	2469.421814
947.675462	2474.727629
947.976893	2472.353245
948.278286	2470.805611
948.579641	2473.716878
948.880958	2469.850312
949.182236	2471.839048
949.483476	2469.875518
949.784678	2470.649335
950.085841	2472.312916
950.386967	2472.799387
950.688054	2471.027422
950.989103	2472.287710
951.290114	2468.053141
951.591087	2476.504636
951.892021	2475.453555
952.192917	2478.377424
952.493776	2478.629482
952.794596	2479.468834
953.095378	2479.052939
953.396122	2478.077476
953.696828	2478.523618
953.997496	2478.977322
954.298126	2472.456589
954.598718	2476.156796
954.899272	2472.426342
955.199788	2474.634367
955.500266	2467.102884
955.800706	2469.409212
956.101108	2462.976699
956.401472	2463.911833
956.701798	2458.021245
957.002087	2457.829681
957.302337	2459.558797
957.602550	2459.205916
957.902724	2456.955041
958.202861	2452.826336
958.502960	2454.275668
958.803022	2454.840277
959.103045	2454.736933
959.403031	2449.368104
959.702979	2451.659309
960.002889	2449.806685
960.302762	2448.208639
960.602596	2448.644699
960.902393	2450.681325
961.202153	2447.507919
961.501875	2445.894749
961.801559	2446.018258
962.101205	2445.004986
962.400814	2446.681169
962.700385	2443.742177
962.999918	2444.798298
963.299414	2443.734615
963.598873	2445.514142
963.898293	2444.931889
964.197677	2445.221755
964.497022	2444.387444
964.796331	2442.209666
965.095601	2441.909717
965.394835	2440.430139
965.694030	2441.345108
965.993189	2441.776127
966.292309	2442.978442
966.591393	2443.926179
966.890439	2441.566919
967.189447	2442.015582
967.488419	2439.835282
967.787353	2444.289142
968.086249	2441.211517
968.385108	2442.186981
968.683930	2440.974583
968.982714	2444.137907
969.281462	2444.049687
969.580172	2440.346960
969.878844	2444.064811
970.177480	2442.174378
970.476078	2444.669749
970.774639	2443.900973
971.073162	2444.523556
971.371649	2439.716815
971.670098	2441.829059
971.968510	2443.225458
972.266885	2439.462237
972.565223	2445.430963
972.863524	2442.723864
973.161788	2444.183278
973.460014	2441.105653
973.758204	2443.512804
974.056356	2443.626230
974.354471	2445.030192
974.652550	2444.200922
974.950591	2444.261416
975.248595	2443.873247
975.546563	2444.352156
975.844493	2444.931889
976.142386	2445.083124
976.440243	2442.895263
976.738062	2444.566405
977.035845	2442.804522
977.333590	2440.848554
977.631299	2441.677824
977.928971	2441.912238
978.226606	2438.854778
978.524204	2441.937444
978.821765	2442.073555
979.119290	2440.062134
979.416777	2440.697320
979.714228	2441.493822
980.011642	2441.335026
980.309020	2442.744028
980.606360	2443.142279
980.903664	2443.969029
981.200931	2445.879626
981.498162	2447.959102
981.795356	2452.423044
982.092513	2455.016717
982.389633	2463.274127
982.686717	2470.064562
982.983764	2471.390385
983.280775	2475.708133
983.577749	2476.239975
983.874686	2475.877012
984.171587	2472.050776
984.468451	2469.878039
984.765279	2469.084057
985.062070	2462.651545
985.358824	2462.497790
985.655543	2457.933025
985.952224	2457.355813
986.248869	2451.442539
986.545478	2442.728905
986.842050	2443.956426
987.138586	2438.149017
987.435086	2436.709767
987.731549	2435.431835
988.027975	2441.100612
988.324366	2433.259097
988.620719	2435.620878
988.917037	2434.499221
989.213318	2435.903182
989.509563	2433.107863
989.805772	2433.044848
990.101944	2434.030394
990.398080	2431.051072
990.694180	2433.664910
990.990244	2434.358069
991.286271	2435.152051
991.582262	2432.555856
991.878217	2433.178439
992.174136	2431.832451
992.470019	2433.085178
992.765865	2432.543253
993.061676	2432.780188
993.357450	2434.221958
993.653188	2433.833789
993.948890	2435.976279
994.244556	2435.129365
994.540186	2436.432504
994.835780	2437.113059
995.131337	2441.387958
995.426859	2441.675304
995.722345	2446.398865
996.017795	2447.951540
996.313208	2449.988166
996.608586	2452.957406
996.903928	2451.755091
997.199234	2450.852724
997.494504	2452.254165
997.789738	2450.870368
998.084936	2449.773917
998.380099	2450.323403
998.675225	2445.430963
998.970316	2446.250151
999.265371	2442.948195
999.560390	2438.426280
999.855373	2438.524582
1000.150320	2437.700354
1000.445232	2435.406629
1000.740108	2431.489652
1001.034948	2437.798656
1001.329752	2432.757502
1001.624521	2433.180959
1001.919254	2427.053437
1002.213951	2429.765578
1002.508613	2427.648293
1002.803239	2428.439754
1003.097829	2424.880700
1003.392384	2427.645773
1003.686903	2429.642069
1003.981386	2429.349683
1004.275834	2428.396904
1004.570246	2429.725248
1004.864623	2425.868766
1005.158964	2427.088725
1005.453270	2427.708787
1005.747540	2426.796338
1006.041775	2426.037644
1006.335974	2427.423962
1006.630138	2425.631832
1006.924266	2425.641914
1007.218359	2426.093097
1007.512416	2427.776843
1007.806438	2422.513878
1008.100425	2426.259455
1008.394376	2427.232398
1008.688292	2426.123344
1008.982172	2426.173756
1009.276017	2426.463622
1009.569827	2424.356420
1009.863602	2427.141657
1010.157341	2425.059661
1010.451045	2424.777356
1010.744714	2423.343148
1011.038347	2427.721390
1011.331945	2421.535894
1011.625508	2425.190731
1011.919036	2422.612180
1012.212528	2425.762902
1012.505986	2423.229722
1012.799408	2420.492375
1013.092795	2422.274423
1013.386147	2420.522622
1013.679464	2425.213416
1013.972745	2422.639907
1014.265992	2421.808116
1014.559204	2424.361461
1014.852380	2423.070925
1015.145521	2425.989753
1015.438628	2423.317942
1015.731699	2425.558735
1016.024736	2426.793817
1016.317737	2424.558066
1016.610703	2423.754002
1016.903635	2421.495565
1017.196531	2416.686304
1017.489393	2422.803744
1017.782219	2416.507343
1018.075011	2423.426327
1018.367768	2421.666964
1018.660490	2425.856163
1018.953177	2425.856163
1019.245829	2425.856163
