Dividing Wavelength (nm)	Counts (n)	Blue Motor Position (mm): 0.000000	Red Motor Position (mm): 30.200000	
326.493990	1989.695532
326.888308	1989.695532
327.282561	1989.695532
327.676750	1966.118056
328.070874	1965.480350
328.464933	1973.016875
328.858929	1980.883595
329.252859	1994.474546
329.646726	2007.516011
330.040528	2024.285409
330.434265	2045.707793
330.827938	2060.702705
331.221547	2082.977043
331.615091	2100.232913
332.008571	2122.943311
332.401986	2143.359984
332.795338	2164.064003
333.188625	2185.993022
333.581847	2203.256453
333.975006	2221.482745
334.368100	2237.990003
334.761129	2253.622621
335.154095	2270.921341
335.546996	2292.258024
335.939833	2319.492858
336.332606	2335.450630
336.725315	2344.638133
337.117960	2354.317149
337.510540	2363.731503
337.903056	2372.208204
338.295508	2377.002341
338.687896	2385.380739
339.080220	2394.971534
339.472480	2398.437327
339.864676	2401.265414
340.256807	2403.496125
340.648875	2408.519635
341.040879	2408.743966
341.432818	2408.381003
341.824694	2412.262692
342.216506	2408.625499
342.608253	2407.952505
342.999937	2410.702454
343.391557	2406.848492
343.783113	2406.722463
344.174605	2406.162895
344.566033	2403.236506
344.957397	2402.379509
345.348697	2402.071999
345.739934	2397.396329
346.131106	2395.016904
346.522215	2395.435320
346.913260	2392.138405
347.304241	2392.730741
347.695159	2388.269320
348.086012	2390.736965
348.476802	2388.372663
348.867528	2390.394166
349.258191	2386.245297
349.648789	2386.232694
350.039324	2382.655995
350.429796	2384.080121
350.820203	2381.509133
351.210548	2380.684904
351.600828	2381.438556
351.991045	2382.900491
352.381198	2381.536859
352.771288	2380.677342
353.161314	2384.216232
353.551276	2382.119112
353.941175	2383.883516
354.331010	2383.344113
354.720782	2381.398227
355.110490	2381.307486
355.500135	2380.382435
355.889717	2382.870244
356.279235	2384.317055
356.668689	2384.117930
357.058080	2383.696993
357.447408	2384.246479
357.836672	2383.326468
358.225873	2384.604401
358.615010	2383.891078
359.004084	2388.158414
359.393095	2386.885523
359.782043	2390.469783
360.170927	2388.508775
360.559748	2390.081615
360.948505	2392.894578
361.337199	2392.007335
361.725830	2393.615463
362.114398	2395.972203
362.502903	2396.080588
362.891344	2398.243243
363.279722	2396.529250
363.668037	2396.791390
364.056289	2398.084446
364.444478	2399.584190
364.832603	2400.138717
365.220665	2403.213820
365.608665	2401.076371
365.996601	2401.237688
366.384474	2402.195507
366.772284	2404.751372
367.160031	2407.511404
367.547715	2407.410581
367.935336	2405.111815
368.322893	2408.456620
368.710388	2410.757907
369.097820	2414.077507
369.485189	2410.906621
369.872495	2414.228742
370.259738	2417.560944
370.646918	2419.786614
371.034035	2419.239648
371.421090	2425.117634
371.808081	2428.210382
372.195010	2432.886052
372.581875	2439.240426
372.968678	2442.928030
373.355418	2453.685853
373.742096	2463.362347
374.128710	2471.062710
374.515262	2483.277426
374.901751	2500.049345
375.288177	2518.222704
375.674540	2534.271218
376.060841	2556.109496
376.447079	2583.054463
376.833254	2608.562702
377.219367	2634.365848
377.605417	2671.481343
377.991404	2695.646114
378.377329	2736.139182
378.763191	2771.278545
379.148991	2820.528097
379.534727	2867.846888
379.920402	2917.376225
380.306013	2966.940849
380.691563	3030.262783
381.077049	3087.079107
381.462474	3141.205976
381.847835	3214.658108
382.233134	3290.482103
382.618371	3350.870085
383.003545	3437.477108
383.388657	3517.790251
383.773706	3612.914303
384.158693	3687.656971
384.543618	3783.827063
384.928480	3862.983260
385.313280	3967.141060
385.698017	4068.894230
386.082692	4189.763455
386.467305	4257.100668
386.851856	4382.000296
387.236344	4542.525757
387.620770	4604.194192
388.005133	4728.771186
388.389435	4878.692581
388.773674	4961.939675
389.157851	5095.300880
389.541965	5230.829780
389.926018	5254.533286
390.310008	5434.983908
390.693936	5565.113733
391.077802	5678.988357
391.461606	5812.778060
391.845348	5928.722078
392.229027	6050.891920
392.612645	6277.443895
392.996200	6390.474126
393.379694	6567.083389
393.763125	6792.322143
394.146494	6890.107925
394.529801	7030.062958
394.913047	7278.627131
395.296230	7274.611852
395.679351	7333.293403
396.062410	7597.407015
396.445408	7494.406160
396.828343	7649.061198
397.211217	7785.280737
397.594028	7666.982500
397.976778	7878.000159
398.359466	8043.654995
398.742092	8017.914863
399.124656	8168.473964
399.507158	8357.839867
399.889598	8377.732260
400.271977	8587.792100
400.654294	8621.267882
401.036549	8818.008993
401.418742	8845.150565
401.800874	9149.273294
402.182944	9233.901665
402.564952	9606.206000
402.946898	9420.994007
403.328783	9488.283329
403.710606	9680.719295
404.092367	9935.806720
404.474067	10304.236929
404.855705	10093.120967
405.237282	10042.573318
405.618797	10481.400719
406.000250	10728.686959
406.381642	11096.381159
406.762972	11044.447192
407.144240	10848.565598
407.525447	11102.523805
407.906593	11038.458301
408.287677	11304.429578
408.668700	11456.737959
409.049661	11426.448186
409.430560	11587.039183
409.811399	11560.270656
410.192176	11721.353166
410.572891	11802.578757
410.953545	12284.099690
411.334138	11765.117943
411.714669	12364.896783
412.095139	11672.035558
412.475547	12180.012466
412.855894	12024.283662
413.236180	12348.225688
413.616405	12030.164168
413.996568	12310.459884
414.376670	12276.558124
414.756711	12162.191987
415.136691	12449.729320
415.516609	12624.869087
415.896466	12693.607741
416.276262	12996.356755
416.655997	13431.511676
417.035670	13461.884628
417.415283	14119.886275
417.794834	14212.174678
418.174324	13956.552890
418.553753	13854.842570
418.933121	14349.841028
419.312428	14159.406400
419.691674	14071.370210
420.070859	14521.903171
420.449983	14183.223332
420.829045	14735.290172
421.208047	14483.298014
421.586988	14945.221462
421.965867	15194.027610
422.344686	15186.682649
422.723444	15752.610141
423.102141	14434.199697
423.480777	15634.914323
423.859352	15138.027952
424.237866	16255.918941
424.616319	15951.486181
424.994712	16620.671628
425.373044	16408.512148
425.751314	17084.649346
426.129524	16204.743668
426.507673	17302.459959
426.885762	17004.658837
427.263789	17194.067590
427.641756	17361.650667
428.019662	17429.260102
428.397508	17480.566445
428.775292	17777.359337
429.153016	17735.227893
429.530679	17818.159915
429.908282	17842.748143
430.285824	17546.323256
430.663305	18273.388711
431.040726	17863.729426
431.418086	17691.390020
431.795385	18338.117126
432.172624	18762.242002
432.549802	18324.621957
432.926920	18501.813474
433.303977	18390.653511
433.680974	18650.708994
434.057910	18940.101471
434.434786	18963.139544
434.811601	18866.467858
435.188355	19917.198074
435.565050	19558.000739
435.941683	19506.792699
436.318257	20402.830068
436.694770	20208.982580
437.071222	20802.432252
437.447614	19866.516834
437.823946	19899.357431
438.200218	20051.754032
438.576429	19828.297326
438.952580	20102.016857
439.328670	20064.054448
439.704700	20482.916359
440.080670	20050.408044
440.456580	20646.642954
440.832429	20811.730660
441.208218	19809.849224
441.583947	20261.324880
441.959616	20364.371106
442.335224	20595.094635
442.710773	20725.244624
443.086261	21263.463415
443.461689	20630.428082
443.837057	20751.743450
444.212365	21401.404507
444.587612	21389.209956
444.962800	20968.762602
445.337927	21393.454608
445.712995	20120.424630
446.088002	21982.644505
446.462949	22178.742869
446.837837	22352.408098
447.212664	22302.175521
447.587431	25139.155424
447.962139	28092.217977
448.336786	30484.313532
448.711374	28929.556151
449.085901	25229.472736
449.460369	25169.125083
449.834776	25090.611633
450.209124	27577.417866
450.583412	27108.658614
450.957640	27653.645154
451.331808	26286.489272
451.705917	24915.383646
452.079965	24930.181953
452.453954	25308.618852
452.827883	25195.860843
453.201752	24988.891231
453.575562	25153.467260
453.949311	26276.427129
454.323001	26332.663720
454.696632	26098.207217
455.070202	27652.147931
455.443713	27788.410319
455.817164	28373.090904
456.190556	28910.314067
456.563888	28364.074801
456.937160	28800.260637
457.310373	27117.606662
457.683526	27567.945538
458.056619	27548.363176
458.429653	27484.096026
458.802628	28055.402430
459.175542	28168.399893
459.548398	29471.114706
459.921194	31045.779603
460.293930	31707.315099
460.666607	33728.149839
461.039224	35487.033621
461.411782	35892.722998
461.784280	34706.302563
462.156719	34213.665886
462.529099	33651.196625
462.901419	32367.058465
463.273680	31291.061985
463.645882	31383.489020
464.018024	31343.426971
464.390106	32176.626358
464.762130	34866.243252
465.134094	38909.689737
465.505999	44192.869379
465.877845	48789.123755
466.249631	49977.633747
466.621358	48281.129202
466.993026	46171.512182
467.364634	44072.025360
467.736184	42105.030144
468.107674	40839.854283
468.479105	40037.761336
468.850477	39343.158392
469.221790	37917.182327
469.593043	36164.995717
469.964238	35264.834683
470.335373	35180.370151
470.706449	36882.848463
471.077467	39412.827138
471.448425	43957.394563
471.819324	46788.541851
472.190164	44953.950020
472.560945	41392.299210
472.931667	38282.358470
473.302330	37158.254259
473.672934	36326.335325
474.043479	36807.284087
474.413965	35998.970356
474.784393	35606.400583
475.154761	36483.760478
475.525070	36493.414287
475.895321	36015.696905
476.265513	36577.914108
476.635645	37493.254056
477.005719	37297.208624
477.375734	37727.196362
477.745691	38389.379646
478.115588	39687.018016
478.485427	41590.083840
478.855207	44838.913409
479.224928	47377.842653
479.594591	48968.455241
479.964194	47952.461095
480.333739	48063.361438
480.703226	48044.777225
481.072653	48584.641952
481.442022	48998.351804
481.811333	49201.366631
482.180584	47865.556644
482.549777	47266.997762
482.918912	46651.435069
483.287988	46307.169632
483.657005	45419.472851
484.025964	44693.841605
484.394864	44628.846008
484.763706	44124.571827
485.132489	43181.460163
485.501213	42926.287037
485.869879	42959.306595
486.238487	42461.280924
486.607036	42540.565671
486.975527	41903.323496
487.343959	41983.505568
487.712333	41939.886985
488.080648	41730.595921
488.448905	42014.102852
488.817104	41694.876826
489.185244	42457.006026
489.553326	43836.898383
489.921350	46244.674447
490.289315	48922.376574
490.657222	49362.635663
491.025070	49480.825515
491.392861	48399.114887
491.760593	46979.931777
492.128267	45175.087795
492.495883	43559.498810
492.863440	42079.161463
493.230939	40651.113483
493.598380	39464.325045
493.965763	38965.223088
494.333088	38038.308651
494.700354	37409.286077
495.067563	36921.130985
495.434713	36607.175485
495.801805	36453.601775
496.168839	35904.461324
496.535815	35412.182569
496.902733	35219.330708
497.269593	34646.358203
497.636395	34357.626117
498.003139	34446.632729
498.369825	33783.443735
498.736453	33795.882782
499.103023	33176.198945
499.469535	32829.359999
499.835989	32661.320697
500.202385	32143.599238
500.568723	31914.811512
500.935003	31782.955092
501.301226	31379.481303
501.667390	31584.313466
502.033497	31539.558102
502.399546	30825.753403
502.765537	30061.189325
503.131470	30088.222513
503.497345	30068.995552
503.863163	28808.785228
504.228923	28982.001795
504.594625	28993.210801
504.960269	28194.739922
505.325856	28407.947962
505.691385	27675.483432
506.056856	27480.720974
506.422270	27491.887130
506.787625	26914.148214
507.152924	26757.131395
507.518164	26537.415225
507.883347	25724.423303
508.248472	25596.383037
508.613540	25599.264056
508.978550	25495.691030
509.343503	25031.501583
509.708398	24855.439285
510.073236	24859.704102
510.438016	24552.533995
510.802738	23925.048973
511.167403	23989.981555
511.532010	23816.185255
511.896561	23669.674201
512.261053	23836.692669
512.625488	23260.440894
512.989866	22884.501887
513.354186	22479.530875
513.718449	22179.962828
514.082655	22215.729815
514.446803	21750.237230
514.810894	21696.188499
515.174927	21352.127229
515.538904	20991.919142
515.902822	21010.589056
516.266684	20459.419541
516.630488	20344.662715
516.994235	19979.630244
517.357925	19939.306055
517.721558	19710.067145
518.085133	19541.165806
518.448651	19309.497061
518.812112	18915.457791
519.175516	18670.944185
519.538863	18524.861629
519.902152	18216.915185
520.265385	18110.070449
520.628560	17826.026636
520.991678	17464.656564
521.354739	17271.600536
521.717743	17108.246987
522.080690	16807.970658
522.443580	16715.427676
522.806413	16482.107953
523.169189	16195.646906
523.531908	15990.698796
523.894569	15684.468865
524.257174	15486.837990
524.619722	15325.972250
524.982213	15073.349949
525.344647	14808.951512
525.707025	14584.728550
526.069345	14455.448160
526.431608	14214.165934
526.793815	14062.154981
527.155964	13708.946537
527.518057	13526.081202
527.880093	13249.100045
528.242072	13168.910410
528.603995	12864.525541
528.965860	12655.083243
529.327669	12464.247843
529.689421	12240.108061
530.051117	12028.177953
530.412755	11861.504804
530.774337	11687.635408
531.135862	11458.618310
531.497331	11313.445682
531.858743	11108.084197
532.220098	11005.037972
532.581396	10768.570048
532.942638	10529.120281
533.303824	10423.969374
533.664953	10252.842365
534.026025	10044.965345
534.387040	9966.598088
534.747999	9800.000556
535.108902	9674.526237
535.469748	9444.997461
535.830537	9320.622114
536.191270	9200.526706
536.551947	9005.965893
536.912567	8920.551103
537.273131	8801.421076
537.633638	8594.814427
537.994089	8513.004062
538.354483	8327.353489
538.714821	8280.909339
539.075103	8203.464613
539.435328	8050.395017
539.795497	7917.792507
540.155609	7794.518651
540.515665	7737.009168
540.875665	7562.257570
541.235609	7479.660785
541.595496	7373.814198
541.955328	7339.615010
542.315102	7167.303331
542.674821	7042.295318
543.034483	6945.409382
543.394090	6845.778538
543.753640	6742.810450
544.113134	6749.172387
544.472571	6563.363018
544.831953	6584.119968
545.191278	6424.116266
545.550548	6306.856507
545.909761	6265.715650
546.268918	6195.535227
546.628019	6135.308562
546.987064	6023.389906
547.346053	5881.476384
547.704986	5870.920208
548.063863	5762.646305
548.422684	5699.591553
548.781449	5617.072906
549.140158	5567.931738
549.498811	5494.504812
549.857408	5385.681423
550.215949	5366.557806
550.574434	5294.181961
550.932864	5214.808993
551.291237	5195.816446
551.649555	5110.535247
552.007817	5064.479265
552.366022	4985.786853
552.724173	4938.132826
553.082267	4897.518770
553.440305	4859.029561
553.798288	4771.694091
554.156215	4729.706320
554.514086	4688.920865
554.871902	4623.416112
555.229661	4576.465326
555.587365	4516.722612
555.945014	4472.204182
556.302606	4421.318775
556.660143	4385.410636
557.017625	4347.763299
557.375050	4289.817756
557.732421	4260.281636
558.089735	4217.953588
558.446994	4174.340045
558.804197	4147.853823
559.161345	4109.178091
559.518437	4041.883728
559.875474	4016.441024
560.232455	3983.373576
560.589381	3954.311324
560.946251	3911.595107
561.303065	3897.318559
561.659825	3856.417157
562.016528	3814.885611
562.373177	3777.129890
562.729770	3759.316973
563.086307	3717.820715
563.442789	3700.118703
563.799216	3679.671783
564.155587	3644.925630
564.511904	3619.664408
564.868164	3596.681788
565.224370	3579.650249
565.580520	3546.287893
565.936615	3533.521171
566.292654	3505.406656
566.648638	3487.712206
567.004567	3465.306798
567.360441	3450.074952
567.716260	3426.830191
568.072023	3413.468613
568.427732	3396.363978
568.783385	3368.645193
569.138982	3360.284440
569.494525	3347.744570
569.850013	3324.822443
570.205445	3313.613437
570.560823	3300.138433
570.916145	3287.278450
571.271412	3276.586162
571.626625	3257.008842
571.981782	3247.002151
572.336884	3230.767115
572.691931	3225.095817
573.046923	3209.916903
573.401860	3194.803524
573.756743	3184.113757
574.111570	3175.344670
574.466342	3164.410407
574.821059	3159.858245
575.175722	3142.373003
575.530330	3133.661889
575.884882	3120.781741
576.239380	3112.325206
576.593823	3105.502004
576.948211	3095.611260
577.302544	3083.908221
577.656823	3077.735328
578.011047	3075.013105
578.365216	3064.277968
578.719330	3056.726320
579.073389	3049.625855
579.427394	3046.326419
579.781344	3035.699667
580.135239	3027.182638
580.489080	3022.244828
580.842866	3011.839886
581.196597	3013.112777
581.550273	3007.433918
581.903895	2998.770695
582.257463	3000.807321
582.610975	2986.578664
582.964434	2986.256030
583.317837	2975.024339
583.671186	2973.648104
584.024481	2967.926395
584.377721	2960.614201
584.730906	2959.827781
585.084037	2953.440639
585.437113	2944.457303
585.790135	2941.220882
586.143103	2933.976744
586.496016	2932.950869
586.848874	2925.280754
587.201679	2922.956782
587.554428	2913.252561
587.907124	2911.785585
588.259765	2903.513052
588.612352	2908.529000
588.964884	2895.225395
589.317362	2895.381670
589.669786	2891.436968
590.022155	2885.621997
590.374470	2887.940927
590.726731	2876.232847
591.078937	2869.855788
591.431090	2866.788246
591.783188	2861.424458
592.135232	2853.587984
592.487222	2851.687469
592.839157	2851.163189
593.191038	2847.868795
593.542866	2840.715398
593.894639	2831.313646
594.246358	2835.631394
594.598022	2826.549756
594.949633	2822.138746
595.301190	2817.150524
595.652692	2812.994093
596.004141	2813.835966
596.355535	2805.487815
596.706876	2797.336269
597.058162	2797.830302
597.409395	2797.933646
597.760573	2794.689663
598.111698	2790.031637
598.462768	2787.238838
598.813785	2784.473765
599.164748	2777.847168
599.515657	2777.280039
599.866511	2770.108997
600.217312	2772.904317
600.568060	2761.334869
600.918753	2767.263266
601.269392	2764.576331
601.619978	2757.024682
601.970510	2759.767070
602.320988	2756.049219
602.671412	2756.069384
603.021783	2752.243148
603.372100	2748.230390
603.722363	2745.276273
604.072572	2743.852147
604.422728	2746.057652
604.772830	2736.313102
605.122878	2733.331259
605.472872	2732.381002
605.822813	2732.849829
606.172701	2733.548029
606.522534	2731.289592
606.872314	2731.806310
607.222041	2727.488562
607.571714	2727.922101
607.921333	2721.918087
608.270899	2722.288612
608.620411	2721.015721
608.969870	2720.625031
609.319276	2718.885833
609.668627	2720.514126
610.017926	2719.699979
610.367171	2716.060266
610.716362	2713.847200
611.065500	2715.034392
611.414585	2712.070193
611.763616	2714.729402
612.112594	2714.237889
612.461518	2709.675645
612.810389	2710.310830
613.159207	2708.143134
613.507971	2708.057435
613.856682	2709.715974
614.205340	2706.230016
614.553945	2709.736139
614.902496	2705.390664
615.250994	2707.487784
615.599439	2703.190201
615.947830	2708.317054
616.296169	2703.490149
616.644454	2703.477546
616.992686	2702.386137
617.340864	2703.946374
617.688990	2701.077957
618.037063	2702.338246
618.385082	2701.103163
618.733048	2702.938143
619.080961	2700.704912
619.428821	2700.087370
619.776628	2698.756506
620.124382	2696.447657
620.472083	2695.426824
620.819731	2696.639221
621.167326	2690.851977
621.514868	2690.468849
621.862357	2687.461801
622.209793	2686.143539
622.557176	2682.045081
622.904506	2678.402847
623.251783	2674.576611
623.599007	2672.802125
623.946179	2671.120900
624.293297	2668.232319
624.640363	2669.651404
624.987376	2665.507576
625.334336	2662.878614
625.681243	2665.084119
626.028097	2660.181597
626.374899	2660.877276
626.721647	2656.375525
627.068343	2659.185969
627.414987	2656.519198
627.761577	2652.566934
628.108115	2652.813950
628.454600	2651.394865
628.801032	2651.732623
629.147412	2651.568785
629.493739	2649.879999
629.840014	2645.789102
630.186236	2646.933444
630.532405	2644.427991
630.878521	2642.535037
631.224585	2644.949750
631.570597	2642.877836
631.916556	2640.291724
632.262462	2641.766262
632.608316	2640.261477
632.954117	2638.348359
633.299866	2639.648977
633.645562	2638.683596
633.991206	2633.690333
634.336797	2631.918367
634.682336	2632.493059
635.027823	2629.518778
635.373257	2626.655403
635.718639	2626.602471
636.063968	2625.773201
636.409245	2621.352109
636.754470	2621.526029
637.099642	2620.182561
637.444762	2616.752056
637.789829	2615.811881
638.134845	2614.072683
638.479808	2615.378342
638.824719	2613.966819
639.169577	2608.613113
639.514383	2612.235182
639.859137	2608.875253
640.203839	2608.192177
640.548489	2605.008688
640.893086	2605.026332
641.237632	2603.030035
641.582125	2606.205962
641.926566	2600.325456
642.270955	2604.229830
642.615292	2606.153030
642.959576	2602.737648
643.303809	2605.059100
643.647990	2603.776126
643.992118	2603.922320
644.336195	2599.163470
644.680219	2600.554829
645.024192	2606.581528
645.368112	2606.052207
645.711981	2601.502566
646.055797	2608.048504
646.399562	2608.676128
646.743274	2612.270470
647.086935	2611.945316
647.430544	2611.403392
647.774101	2612.237703
648.117606	2612.212497
648.461059	2616.487396
648.804460	2613.061932
649.147810	2611.708382
649.491108	2608.547578
649.834354	2605.505242
650.177548	2602.946856
650.520690	2598.530806
650.863781	2599.009715
651.206820	2601.999119
651.549807	2596.068202
651.892742	2595.581731
652.235626	2593.093921
652.578458	2592.809096
652.921238	2586.941193
653.263967	2589.494537
653.606644	2590.326328
653.949269	2589.986050
654.291843	2588.486307
654.634365	2585.572520
654.976836	2585.002869
655.319255	2587.329362
655.661622	2584.160997
656.003938	2584.798702
656.346203	2580.801068
656.688416	2584.413054
657.030577	2581.766448
657.372687	2582.315934
657.714746	2583.162848
658.056753	2580.843917
658.398708	2576.233782
658.740612	2577.486509
659.082465	2577.574729
659.424266	2580.047415
659.766016	2576.798391
660.107715	2581.285018
660.449362	2580.637230
660.790958	2582.250399
661.132503	2580.009606
661.473996	2576.901735
661.815438	2578.519945
662.156829	2579.916345
662.498168	2580.065059
662.839456	2580.745615
663.180693	2579.689493
663.521879	2580.947261
663.863013	2578.565316
664.204097	2578.227558
664.545129	2580.266705
664.886110	2581.466500
665.227040	2582.809967
665.567918	2581.252251
665.908746	2582.656212
666.249522	2583.525811
666.590248	2583.654361
666.930922	2582.883064
667.271545	2583.200657
667.612118	2584.196285
667.952639	2581.892477
668.293109	2581.491706
668.633528	2581.857189
668.973896	2582.527663
669.314213	2582.648650
669.654480	2583.689649
669.994695	2582.888105
670.334859	2577.806622
670.674973	2577.839390
671.015035	2578.056159
671.355047	2579.147569
671.695008	2578.429205
672.034918	2579.770152
672.374777	2578.159503
672.714585	2580.274267
673.054342	2579.686972
673.394049	2579.613876
673.733705	2578.595563
674.073310	2581.441294
674.412864	2576.382496
674.752368	2574.711354
675.091820	2576.057342
675.431223	2571.923596
675.770574	2573.478792
676.109875	2568.130127
676.449125	2569.753379
676.788324	2565.803635
677.127473	2567.477298
677.466571	2562.708366
677.805619	2566.791701
678.144616	2565.410425
678.483562	2567.714232
678.822458	2564.979406
679.161303	2562.882286
679.500098	2564.208110
679.838842	2562.983109
680.177535	2566.229612
680.516179	2567.033676
680.854771	2565.062585
681.193314	2570.746486
681.531805	2572.788153
681.870247	2578.610686
682.208638	2579.974318
682.546978	2583.087231
682.885268	2585.539752
683.223508	2579.298804
683.561697	2578.608166
683.899836	2576.924420
684.237925	2578.088927
684.575963	2578.300655
684.913951	2572.165571
685.251889	2575.399471
685.589776	2574.103895
685.927614	2574.189594
686.265401	2575.401992
686.603137	2574.973494
686.940824	2578.351067
687.278460	2579.820563
687.616046	2580.843917
687.953582	2583.215780
688.291068	2581.799216
688.628504	2580.561613
688.965889	2584.108064
689.303224	2584.203846
689.640510	2581.143866
689.977745	2576.231262
690.314930	2573.108267
690.652065	2570.499470
690.989150	2566.690878
691.326185	2564.082081
691.663170	2561.959755
692.000105	2556.525391
692.336990	2552.487427
692.673825	2552.268137
693.010610	2550.483568
693.347345	2546.203629
693.684030	2540.865047
694.020665	2540.895294
694.357251	2533.399098
694.693786	2541.626261
695.030272	2535.385312
695.366707	2535.922195
695.703093	2535.481094
696.039429	2534.339273
696.375716	2533.905734
696.711952	2534.828265
697.048139	2531.417924
697.384276	2530.898686
697.720363	2532.287523
698.056400	2534.039324
698.392388	2528.867101
698.728326	2533.308357
699.064214	2528.617563
699.400053	2529.063706
699.735842	2528.990609
700.071581	2527.838705
700.407270	2525.610515
700.742910	2525.040865
701.078501	2522.119516
701.414042	2521.242355
701.749533	2519.533404
702.084974	2518.711696
702.420366	2519.669515
702.755709	2518.008455
703.091002	2516.468383
703.426246	2515.659277
703.761440	2514.966119
704.096584	2515.835718
704.431679	2512.871519
704.766725	2514.207425
705.101721	2513.524349
705.436668	2514.804802
705.771565	2512.924452
706.106413	2513.254647
706.441212	2509.922444
706.775961	2517.264885
707.110661	2514.444359
707.445311	2516.052487
707.779913	2513.105933
708.114465	2520.110616
708.448967	2518.139525
708.783421	2523.881399
709.117825	2521.829650
709.452180	2524.700587
709.786485	2526.217974
710.120742	2531.246525
710.454949	2530.230733
710.789107	2530.485311
711.123216	2534.482946
711.457275	2535.203831
711.791286	2536.038142
712.125247	2539.700540
712.459159	2538.662062
712.793023	2543.360418
713.126837	2538.450334
713.460602	2540.255067
713.794318	2538.223482
714.127985	2536.189377
714.461602	2531.501103
714.795171	2530.891124
715.128691	2525.900382
715.462162	2526.797707
715.795584	2521.065915
716.128957	2522.429547
716.462281	2517.521984
716.795556	2520.760925
717.128782	2513.758763
717.461960	2511.618793
717.795088	2511.976715
718.128167	2510.371107
718.461198	2509.133504
718.794180	2509.035201
719.127113	2504.740138
719.459997	2507.948833
719.792833	2498.597492
720.125619	2504.024294
720.458357	2501.748213
720.791046	2502.776609
721.123686	2498.093377
721.456278	2500.656804
721.788821	2498.196721
722.121315	2497.858963
722.453761	2499.449447
722.786158	2498.703357
723.118506	2494.730927
723.450805	2496.991885
723.783056	2497.196052
724.115259	2497.062461
724.447412	2498.315188
724.779518	2498.310147
725.111574	2497.117914
725.443582	2498.552122
725.775542	2501.153357
726.107453	2503.832731
726.439315	2502.121259
726.771129	2507.691734
727.102895	2506.000427
727.434612	2510.237517
727.766281	2507.207783
728.097901	2508.866323
728.429473	2506.338184
728.760996	2507.306086
729.092471	2508.999913
729.423897	2508.319358
729.755276	2510.885305
730.086606	2512.579133
730.417887	2514.398989
730.749120	2514.590553
731.080305	2517.511902
731.411442	2518.109278
731.742530	2518.079031
732.073570	2523.480628
732.404562	2521.544825
732.735506	2523.405010
733.066401	2521.000380
733.397249	2517.653054
733.728048	2514.456962
734.058798	2509.607372
734.389501	2504.813235
734.720156	2505.715602
735.050762	2501.561691
735.381320	2499.774602
735.711831	2500.863491
736.042293	2497.324601
736.372707	2494.945176
736.703073	2494.786380
737.033391	2496.288644
737.363661	2494.877121
737.693883	2496.283603
738.024056	2498.168994
738.354182	2498.171515
738.684260	2500.351814
739.014290	2500.649242
739.344272	2506.038235
739.674207	2502.718636
740.004093	2507.149810
740.333931	2506.330622
740.663722	2508.372290
740.993464	2508.069820
741.323159	2505.513955
741.652806	2503.951198
741.982405	2502.973214
742.311956	2501.425580
742.641460	2502.310302
742.970915	2496.124806
743.300323	2496.996926
743.629683	2495.381236
743.958996	2495.509786
744.288260	2493.795793
744.617477	2491.703714
744.946647	2486.912098
745.275768	2487.219608
745.604842	2485.069556
745.933869	2483.282467
746.262847	2482.753146
746.591778	2488.260606
746.920662	2485.861017
747.249498	2485.926552
747.578286	2485.314052
747.907027	2488.774804
748.235720	2488.084166
748.564365	2488.626090
748.892963	2490.960144
749.221514	2489.936790
749.550017	2492.170021
749.878473	2487.277581
750.206881	2487.711121
750.535242	2487.499392
750.863555	2484.726758
751.191821	2486.266830
751.520039	2485.041830
751.848210	2484.923363
752.176334	2485.634165
752.504411	2485.704741
752.832440	2483.716006
753.160421	2485.798003
753.488356	2484.401603
753.816243	2486.065184
754.144082	2482.115440
754.471875	2484.898157
754.799620	2482.024699
755.127318	2484.119298
755.454969	2484.356233
755.782572	2483.080821
756.110129	2483.960502
756.437638	2484.106696
756.765100	2481.765080
757.092515	2481.490337
757.419882	2482.286839
757.747203	2483.224494
758.074477	2484.552838
758.401703	2484.721716
758.728882	2482.720378
759.056014	2485.440081
759.383099	2485.755153
759.710138	2486.919659
760.037129	2488.200112
760.364073	2486.682725
760.690970	2488.230359
761.017820	2487.446460
761.344623	2489.611636
761.671379	2490.987871
761.998088	2492.424599
762.324751	2505.198883
762.651366	2523.881399
762.977935	2549.949206
763.304456	2563.857749
763.630931	2569.019891
763.957359	2563.774570
764.283740	2551.655637
764.610074	2539.829090
764.936362	2528.252080
765.262602	2511.948988
765.588796	2503.840292
765.914943	2494.821668
766.241044	2488.091728
766.567097	2487.249855
766.893104	2482.259113
767.219064	2479.131077
767.544978	2477.061683
767.870845	2473.154789
768.196665	2473.127062
768.522438	2470.982052
768.848165	2469.540282
769.173846	2470.545992
769.499479	2466.747482
769.825066	2466.510548
770.150607	2466.979375
770.476101	2465.381330
770.801548	2462.250773
771.126949	2461.350927
771.452303	2461.623149
771.777611	2461.053499
772.102872	2459.762964
772.428087	2458.114506
772.753256	2459.190793
773.078378	2457.544856
773.403453	2459.248766
773.728482	2455.157870
774.053465	2454.820112
774.378401	2453.058229
774.703291	2452.788527
775.028135	2454.749536
775.352932	2453.988322
775.677683	2453.711058
776.002388	2457.391101
776.327046	2453.156532
776.651658	2452.596963
776.976224	2449.063115
777.300743	2451.414813
777.625216	2449.390790
777.949643	2450.535132
778.274024	2452.826336
778.598359	2445.597321
778.922647	2447.064297
779.246889	2450.152004
779.571086	2446.945830
779.895236	2449.075717
780.219339	2451.210646
780.543397	2452.642334
780.867409	2449.804164
781.191374	2452.740636
781.515294	2449.078238
781.839167	2449.441201
782.162995	2454.058898
782.486776	2454.071501
782.810511	2451.613938
783.134201	2449.935234
783.457844	2450.434308
783.781441	2448.972374
784.104993	2449.340378
784.428498	2447.956581
784.751958	2449.713423
785.075372	2447.213011
785.398739	2446.905501
785.722061	2450.341047
786.045337	2448.248968
786.368568	2448.586726
786.691752	2450.426747
787.014891	2454.119392
787.337983	2453.156532
787.661030	2456.337500
787.984031	2460.367902
788.306987	2466.407204
788.629897	2464.201700
788.952760	2466.071968
789.275579	2461.799590
789.598351	2462.787656
789.921078	2458.303550
790.243759	2455.631738
790.566395	2453.209464
790.888984	2452.536470
791.211529	2453.156532
791.534027	2456.173662
791.856480	2450.530090
792.178888	2451.593774
792.501249	2450.835080
792.823566	2447.129832
793.145836	2447.119750
793.468062	2447.704524
793.790241	2445.877105
794.112375	2448.707713
794.434464	2446.681169
794.756507	2447.971705
795.078505	2448.672425
795.400457	2450.386418
795.722364	2448.498505
796.044226	2453.058229
796.366042	2452.617128
796.687812	2455.946810
797.009538	2456.594598
797.331218	2456.839094
797.652852	2455.460339
797.974442	2451.215687
798.295986	2453.050667
798.617484	2451.664350
798.938938	2452.183589
799.260346	2452.067642
799.581709	2450.353650
799.903026	2452.024793
800.224299	2449.902467
800.545526	2448.412806
800.866708	2448.551438
801.187845	2446.991200
801.508936	2446.986159
801.829983	2446.837445
802.150984	2444.379883
802.471940	2446.300562
802.792851	2445.158741
803.113717	2446.749225
803.434538	2443.923658
803.755314	2445.975408
804.076045	2441.997937
804.396731	2445.688062
804.717372	2443.822835
805.037967	2446.401385
805.358518	2442.774275
805.679024	2443.215376
805.999485	2443.578339
806.319901	2447.006324
806.640272	2444.818463
806.960598	2446.272836
807.280879	2444.780654
807.601115	2449.536983
807.921306	2443.558175
808.241453	2444.594132
808.561554	2446.537497
808.881611	2447.384410
809.201623	2446.482044
809.521590	2445.015068
809.841513	2446.910542
810.161390	2445.196550
810.481223	2445.592280
810.801011	2444.883998
811.120755	2446.484564
811.440453	2443.336364
811.760107	2445.211673
812.079716	2441.004830
812.399281	2441.395520
812.718801	2441.272011
813.038276	2439.726898
813.357707	2442.713781
813.677093	2441.324943
813.996434	2442.844851
814.315731	2443.303596
814.634983	2441.864347
814.954191	2441.851744
815.273354	2441.173709
815.592473	2443.311158
815.911547	2445.861982
816.230577	2446.721499
816.549562	2448.221242
816.868502	2451.019082
817.187399	2448.438012
817.506250	2449.655450
817.825058	2452.138218
818.143821	2454.983950
818.462539	2456.420679
818.781213	2458.323714
819.099843	2464.862091
819.418429	2470.387195
819.736970	2479.010089
820.055466	2487.166676
820.373919	2499.618326
820.692327	2518.729340
821.010691	2550.407951
821.329011	2626.370578
821.647286	2737.477608
821.965517	2858.974457
822.283704	2927.738316
822.601847	2952.623972
822.919945	2904.720408
823.237999	2844.912159
823.556010	2784.703138
823.873976	2731.297154
824.191897	2678.785975
824.509775	2645.998310
824.827609	2607.763679
825.145398	2589.229877
825.463144	2577.768813
825.780845	2579.639082
826.098502	2594.260948
826.416116	2621.407562
826.733685	2648.957467
827.051210	2657.406441
827.368692	2639.207876
827.686129	2612.220059
828.003522	2580.990111
828.320872	2549.384597
828.638177	2529.073788
828.955439	2509.705675
829.272656	2497.163284
829.589830	2484.653661
829.906960	2482.427991
830.224046	2468.884932
830.541088	2464.085753
830.858086	2460.564507
831.175041	2461.645835
831.491952	2458.301029
831.808819	2459.997377
832.125642	2460.940073
832.442421	2469.149592
832.759157	2487.088538
833.075849	2509.617455
833.392497	2532.955476
833.709101	2548.875440
834.025662	2546.241437
834.342179	2531.838861
834.658653	2516.097858
834.975083	2500.520692
835.291469	2493.410145
835.607811	2477.835500
835.924110	2472.476754
836.240366	2466.555918
836.556578	2457.781790
836.872746	2452.803651
837.188871	2448.858948
837.504952	2444.672270
837.820990	2441.929882
838.136984	2442.247475
838.452935	2439.356373
838.768842	2439.305961
839.084706	2443.911055
839.400526	2457.990998
839.716303	2468.048100
840.032037	2476.703761
840.347727	2471.919706
840.663373	2465.570373
840.978977	2459.901595
841.294537	2451.767694
841.610054	2446.103957
841.925527	2442.209666
842.240957	2440.372165
842.556344	2436.036773
842.871687	2435.809921
843.186987	2432.331525
843.502244	2429.926895
843.817458	2429.314394
844.132629	2424.182500
844.447756	2426.309867
844.762840	2424.356420
845.077881	2423.441450
845.392879	2420.648651
845.707833	2424.439599
846.022745	2416.784607
846.337613	2424.782397
846.652438	2425.059661
846.967221	2424.038827
847.281960	2425.278951
847.596656	2421.661923
847.911309	2421.286357
848.225919	2421.717376
848.540485	2420.401634
848.855009	2421.082190
849.169490	2421.873651
849.483928	2419.763928
849.798323	2420.870462
850.112675	2420.278126
850.426984	2420.399114
850.741251	2422.569331
851.055474	2420.406676
851.369654	2423.149063
851.683792	2421.556059
851.997887	2421.573703
852.311938	2420.636048
852.625947	2420.331058
852.939914	2419.469021
853.253837	2418.120512
853.567718	2420.449525
853.881555	2419.471542
854.195350	2419.463980
854.509103	2420.847777
854.822812	2422.566810
855.136479	2418.223856
855.450103	2423.292736
855.763685	2421.238466
856.077224	2421.271233
856.390720	2422.166038
856.704173	2420.383990
857.017584	2421.525812
857.330953	2421.377098
857.644278	2420.555390
857.957561	2423.128899
858.270802	2423.764084
858.584000	2423.575041
858.897155	2421.460277
859.210268	2421.440112
859.523339	2422.052612
859.836367	2419.776531
860.149352	2418.806109
860.462295	2420.295770
860.775195	2420.779721
861.088054	2417.795358
861.400869	2421.089752
861.713642	2418.473393
862.026373	2421.377098
862.339062	2421.518250
862.651708	2422.034968
862.964312	2422.871800
863.276873	2421.989598
863.589392	2422.024886
863.901869	2422.982705
864.214303	2422.564289
864.526696	2423.464135
864.839045	2428.394384
865.151353	2422.781059
865.463619	2423.529670
865.775842	2425.682243
866.088023	2422.178641
866.400162	2425.460432
866.712258	2424.023703
867.024313	2424.711821
867.336325	2424.001018
867.648296	2424.593354
867.960224	2424.560586
868.272110	2425.462953
868.583954	2424.394228
868.895755	2427.081163
869.207515	2426.110741
869.519233	2426.884558
869.830909	2425.079825
870.142542	2425.513364
870.454134	2426.922367
870.765684	2425.591502
871.077191	2427.668458
871.388657	2431.613161
871.700081	2427.464291
872.011463	2427.411359
872.322803	2426.851791
872.634101	2430.536874
872.945357	2425.165525
873.256571	2428.308684
873.567744	2433.188521
873.878874	2429.667275
874.189963	2428.754826
874.501010	2431.338418
874.812015	2429.508479
875.122979	2430.385640
875.433900	2433.533840
875.744780	2433.576690
876.055618	2435.101639
876.366415	2433.964859
876.677169	2432.074426
876.987882	2434.431166
877.298554	2430.115938
877.609183	2435.131886
877.919771	2432.076947
878.230317	2436.296392
878.540822	2440.909048
878.851285	2444.652105
879.161707	2450.971191
879.472087	2458.618622
879.782425	2476.807105
880.092722	2503.074037
880.402977	2543.675490
880.713191	2590.165011
881.023363	2634.801907
881.333494	2663.221412
881.643583	2674.879081
881.953631	2673.467557
882.263637	2659.160763
882.573602	2639.245685
882.883526	2624.013838
883.193408	2602.457864
883.503248	2581.227045
883.813048	2563.845147
884.122806	2546.072559
884.432522	2530.923891
884.742197	2513.756242
885.051831	2500.518172
885.361424	2490.365288
885.670975	2481.439925
885.980485	2472.207052
886.289954	2465.275465
886.599382	2458.371605
886.908768	2455.417489
887.218113	2451.782817
887.527417	2448.788372
887.836680	2445.123453
888.145901	2442.786878
888.455082	2440.415015
888.764221	2438.718667
889.073319	2435.792277
889.382376	2437.662545
889.691392	2434.206834
890.000366	2437.312185
890.309300	2433.274221
890.618193	2435.358738
890.927044	2433.622060
891.235855	2433.362441
891.544625	2435.351176
891.853353	2436.492998
892.162041	2438.247319
892.470687	2444.019440
892.779293	2442.413833
893.087858	2449.622683
893.396381	2448.387600
893.704864	2460.488890
894.013306	2472.542289
894.321707	2493.425268
894.630068	2499.404077
894.938387	2506.781806
895.246665	2499.373830
895.554903	2493.962151
895.863100	2484.943527
896.171256	2478.155613
896.479371	2471.103039
896.787446	2467.244036
897.095480	2461.819754
897.403473	2459.495782
897.711425	2453.398507
898.019336	2454.011007
898.327207	2450.421706
898.635038	2444.397527
898.942827	2441.854265
899.250576	2440.505756
899.558284	2434.330343
899.865952	2434.975610
900.173579	2435.484767
900.481165	2432.449992
900.788711	2430.126020
901.096216	2431.590475
901.403681	2430.660383
901.711105	2429.654672
902.018489	2431.761875
902.325832	2434.431166
902.633135	2432.805393
902.940397	2436.838317
903.247619	2447.749894
903.554800	2472.408698
903.861941	2494.375526
904.169041	2514.504853
904.476101	2518.668846
904.783121	2514.421674
905.090100	2504.712412
905.397039	2492.817809
905.703938	2486.193733
906.010796	2474.117649
906.317614	2468.592545
906.624391	2462.757409
906.931129	2456.035030
907.237826	2454.931018
907.544483	2445.040274
907.851099	2441.030036
908.157675	2434.756320
908.464211	2431.950918
908.770707	2423.620411
909.077163	2422.284505
909.383578	2419.784093
909.689954	2420.303332
909.996289	2415.705800
910.302584	2421.407345
910.608839	2419.625297
910.915054	2420.202509
911.221229	2418.455749
911.527363	2424.419434
911.833458	2417.997004
912.139513	2417.495409
912.445527	2422.685277
912.751502	2421.508168
913.057436	2426.506472
913.363331	2428.490166
913.669186	2427.945721
913.975000	2434.196752
914.280775	2436.780343
914.586510	2449.050512
914.892205	2458.026286
915.197859	2474.341981
915.503475	2490.292191
915.809050	2505.513955
916.114585	2512.437980
916.420081	2517.637930
916.725536	2511.714575
917.030952	2509.375479
917.336328	2502.547236
917.641665	2499.908192
917.946961	2492.419558
918.252218	2488.807572
918.557435	2479.453711
918.862612	2470.016671
919.167750	2469.590693
919.472848	2459.117696
919.777906	2455.770370
920.082925	2448.581684
920.387904	2444.828545
920.692843	2443.757300
920.997743	2437.647422
921.302603	2435.877977
921.607423	2432.699529
921.912204	2433.173398
922.216946	2431.257759
922.521647	2427.673499
922.826310	2426.962696
923.130932	2426.062850
923.435516	2424.598395
923.740059	2422.130750
924.044564	2420.426840
924.349028	2421.467838
924.653454	2415.637744
924.957840	2418.012128
925.262186	2414.170768
925.566493	2416.346026
925.870761	2412.318144
926.174989	2418.135636
926.479178	2415.100861
926.783328	2414.584143
927.087438	2415.274781
927.391509	2414.017013
927.695541	2411.718247
927.999533	2414.816036
928.303486	2412.784451
928.607400	2414.468196
928.911275	2411.519121
929.215110	2413.033988
929.518906	2412.721437
929.822663	2413.313772
930.126381	2408.628020
930.430060	2412.300500
930.733699	2411.667835
931.037299	2414.808474
931.340861	2408.617937
931.644383	2413.699420
931.947866	2412.658422
932.251309	2413.510377
932.554714	2412.517270
932.858080	2413.157496
933.161407	2410.412588
933.464694	2412.487023
933.767943	2411.191446
934.071153	2413.603638
934.374323	2409.971487
934.677455	2412.056004
934.980548	2415.380645
935.283602	2412.184554
935.586617	2411.698082
935.889593	2412.562640
936.192530	2412.683628
936.495428	2411.209090
936.798287	2413.769997
937.101108	2414.271591
937.403890	2413.550706
937.706632	2414.475758
938.009336	2414.881571
938.312002	2418.191088
938.614628	2419.136305
938.917216	2418.738054
939.219765	2418.642272
939.522275	2418.806109
939.824747	2419.035482
940.127179	2417.923907
940.429573	2415.857034
940.731929	2417.087076
941.034246	2414.047260
941.336524	2417.603794
941.638763	2414.558937
941.940964	2420.046233
942.243126	2413.452404
942.545250	2417.076993
942.847335	2415.635223
943.149381	2415.978022
943.451389	2415.778896
943.753359	2414.596746
944.055290	2417.094638
944.357182	2415.660429
944.659036	2414.823598
944.960851	2413.974163
945.262628	2411.549368
945.564367	2413.684297
945.866067	2411.347722
946.167729	2416.751839
946.469352	2412.136663
946.770937	2414.185892
947.072484	2411.778741
947.373992	2415.113464
947.675462	2412.020716
947.976893	2415.244534
948.278286	2411.861920
948.579641	2413.679256
948.880958	2412.139183
949.182236	2413.878381
949.483476	2408.784295
949.784678	2412.025757
950.085841	2413.696900
950.386967	2413.749832
950.688054	2411.519121
950.989103	2411.624986
951.290114	2415.443660
951.591087	2415.524318
951.892021	2411.751014
952.192917	2414.037178
952.493776	2413.986766
952.794596	2415.292425
953.095378	2415.020203
953.396122	2415.272260
953.696828	2414.019534
953.997496	2415.108423
954.298126	2413.102044
954.598718	2416.444329
954.899272	2413.154976
955.199788	2412.449214
955.500266	2412.398803
955.800706	2411.430901
956.101108	2407.362690
956.401472	2407.178688
956.701798	2404.771537
957.002087	2408.144069
957.302337	2406.256157
957.602550	2406.717422
957.902724	2407.886970
958.202861	2405.802453
958.502960	2406.656928
958.803022	2406.656928
959.103045	2407.453431
959.403031	2406.760272
959.702979	2406.566188
960.002889	2408.058369
960.302762	2407.581980
960.602596	2405.202556
960.902393	2405.741959
961.202153	2404.680796
961.501875	2405.318502
961.801559	2406.311609
962.101205	2402.853378
962.400814	2403.455796
962.700385	2403.949829
962.999918	2406.946795
963.299414	2404.025446
963.598873	2405.583163
963.898293	2406.198183
964.197677	2406.707340
964.497022	2404.837072
964.796331	2406.369583
965.095601	2405.169788
965.394835	2404.695920
965.694030	2403.478481
965.993189	2401.300702
966.292309	2403.672565
966.591393	2407.226579
966.890439	2400.330280
967.189447	2402.364386
967.488419	2405.212638
967.787353	2402.112328
968.086249	2406.011661
968.385108	2404.413615
968.683930	2401.572925
968.982714	2406.135169
969.281462	2404.658111
969.580172	2405.366393
969.878844	2404.756413
970.177480	2406.435118
970.476078	2402.727349
970.774639	2407.438307
971.073162	2404.121228
971.371649	2403.803635
971.670098	2402.992010
971.968510	2404.050652
972.266885	2398.512944
972.565223	2408.116343
972.863524	2404.786660
973.161788	2406.044428
973.460014	2404.078378
973.758204	2403.952349
974.056356	2403.463357
974.354471	2405.706671
974.652550	2403.332287
974.950591	2407.234141
975.248595	2403.370096
975.546563	2404.436300
975.844493	2405.076527
976.142386	2407.889491
976.440243	2407.062741
976.738062	2403.065106
977.035845	2403.564181
977.333590	2404.484191
977.631299	2403.753224
977.928971	2405.812535
978.226606	2405.341187
978.524204	2405.835220
978.821765	2403.307082
979.119290	2407.012330
979.416777	2404.655590
979.714228	2401.983779
980.011642	2401.802297
980.309020	2407.087947
980.606360	2405.573080
980.903664	2405.326064
981.200931	2406.072155
981.498162	2407.186250
981.795356	2407.007289
982.092513	2409.217835
982.389633	2410.568864
982.686717	2413.757394
982.983764	2414.989956
983.280775	2417.959195
983.577749	2413.558268
983.874686	2419.912643
984.171587	2415.980543
984.468451	2416.068763
984.765279	2416.320820
985.062070	2414.460635
985.358824	2413.205387
985.655543	2411.882084
985.952224	2410.170613
986.248869	2410.183216
986.545478	2404.118707
986.842050	2403.191135
987.138586	2400.168963
987.435086	2399.972358
987.731549	2398.754920
988.027975	2404.297668
988.324366	2402.258522
988.620719	2402.266083
988.917037	2403.228944
989.213318	2402.230795
989.509563	2401.267935
989.805772	2403.743142
990.101944	2402.797925
990.398080	2400.736093
990.694180	2400.020249
990.990244	2403.349932
991.286271	2400.378171
991.582262	2403.286917
991.878217	2401.010836
992.174136	2402.308933
992.470019	2404.121228
992.765865	2403.659962
993.061676	2404.811866
993.357450	2403.372617
993.653188	2402.666855
993.948890	2401.819941
994.244556	2403.007133
994.540186	2403.128121
994.835780	2404.890004
995.131337	2406.578791
995.426859	2406.667011
995.722345	2409.003586
996.017795	2406.228430
996.313208	2407.156003
996.608586	2410.742784
996.903928	2411.211611
997.199234	2411.977866
997.494504	2410.324368
997.789738	2408.537279
998.084936	2405.895714
998.380099	2405.139541
998.675225	2406.505694
998.970316	2406.916548
999.265371	2407.158523
999.560390	2407.234141
999.855373	2406.125087
1000.150320	2401.469581
1000.445232	2405.167267
1000.740108	2405.066444
1001.034948	2403.649880
1001.329752	2405.341187
1001.624521	2401.890518
1001.919254	2399.337173
1002.213951	2400.073182
1002.508613	2398.709549
1002.803239	2401.111659
1003.097829	2397.950856
1003.392384	2398.301216
1003.686903	2403.170971
1003.981386	2402.679458
1004.275834	2400.690723
1004.570246	2400.821793
1004.864623	2401.462019
1005.158964	2401.484705
1005.453270	2400.932698
1005.747540	2399.218706
1006.041775	2401.603172
1006.335974	2402.402195
1006.630138	2402.288769
1006.924266	2398.389436
1007.218359	2401.540157
1007.512416	2401.124262
1007.806438	2401.386402
1008.100425	2399.886659
1008.394376	2401.552760
1008.688292	2398.888510
1008.982172	2400.864643
1009.276017	2402.876063
1009.569827	2401.207441
1009.863602	2401.172153
1010.157341	2400.463871
1010.451045	2403.228944
1010.744714	2400.743655
1011.038347	2400.264745
1011.331945	2400.035373
1011.625508	2399.627039
1011.919036	2400.935219
1012.212528	2401.898079
1012.505986	2399.828686
1012.799408	2399.344735
1013.092795	2398.918757
1013.386147	2400.816752
1013.679464	2399.770712
1013.972745	2399.019580
1014.265992	2401.472102
1014.559204	2402.523182
1014.852380	2397.189642
1015.145521	2400.136196
1015.438628	2401.540157
1015.731699	2402.319016
1016.024736	2401.620816
1016.317737	2401.605692
1016.610703	2402.898748
1016.903635	2397.552605
1017.196531	2396.640156
1017.489393	2398.361710
1017.782219	2396.511606
1018.075011	2399.309447
1018.367768	2398.505383
1018.660490	2400.105949
1018.953177	2400.105949
1019.245829	2400.105949
