Dividing Wavelength (nm)	Counts (n)	Blue Motor Position (mm): 0.000000	Red Motor Position (mm): 12.000000	
326.493990	1978.788996
326.888308	1978.788996
327.282561	1978.788996
327.676750	1954.664554
328.070874	1955.650100
328.464933	1963.078240
328.858929	1972.961422
329.252859	1983.028606
329.646726	1998.729280
330.040528	2012.042967
330.434265	2033.140196
330.827938	2050.819522
331.221547	2074.195353
331.615091	2089.911150
332.008571	2114.680859
332.401986	2132.478653
332.795338	2154.488331
333.188625	2173.929541
333.581847	2193.587520
333.975006	2211.294573
334.368100	2229.104969
334.761129	2246.796899
335.154095	2260.760895
335.546996	2274.931578
335.939833	2289.124947
336.332606	2301.722791
336.725315	2315.018834
337.117960	2324.047540
337.510540	2329.393684
337.903056	2339.922134
338.295508	2345.376662
338.687896	2353.162724
339.080220	2360.391739
339.472480	2365.440455
339.864676	2366.821731
340.256807	2371.699047
340.648875	2372.140148
341.040879	2374.592669
341.432818	2374.519573
341.824694	2374.050745
342.216506	2377.256919
342.608253	2375.863040
342.999937	2374.963194
343.391557	2375.028729
343.783113	2372.253574
344.174605	2371.769623
344.566033	2370.181660
344.957397	2367.459437
345.348697	2364.941380
345.739934	2365.689992
346.131106	2364.497759
346.522215	2362.027593
346.913260	2360.419465
347.304241	2360.091790
347.695159	2357.351923
348.086012	2355.272447
348.476802	2352.235152
348.867528	2353.134998
349.258191	2352.903105
349.648789	2351.836901
350.039324	2346.130315
350.429796	2349.283557
350.820203	2346.972188
351.210548	2347.778772
351.600828	2349.757425
351.991045	2347.801457
352.381198	2344.191991
352.771288	2347.088134
353.161314	2347.395644
353.551276	2348.340861
353.941175	2345.696776
354.331010	2349.475120
354.720782	2349.366736
355.110490	2347.539317
355.500135	2348.166941
355.889717	2347.065449
356.279235	2351.569720
356.668689	2348.875223
357.058080	2348.837414
357.447408	2348.469410
357.836672	2347.937568
358.225873	2353.336644
358.615010	2346.594101
359.004084	2353.553414
359.393095	2351.955368
359.782043	2354.677591
360.170927	2353.583661
360.559748	2357.235977
360.948505	2357.019207
361.337199	2355.038034
361.725830	2356.026100
362.114398	2359.476770
362.502903	2358.947448
362.891344	2357.992150
363.279722	2360.008611
363.668037	2360.860566
364.056289	2361.137830
364.444478	2362.226719
364.832603	2362.478777
365.220665	2363.093798
365.608665	2361.349558
365.996601	2367.300640
366.384474	2364.487677
366.772284	2366.718387
367.160031	2365.702595
367.547715	2365.011957
367.935336	2367.310723
368.322893	2369.178470
368.710388	2367.613192
369.097820	2372.742566
369.485189	2368.094622
369.872495	2371.431866
370.259738	2372.896321
370.646918	2377.844214
371.034035	2375.984028
371.421090	2378.476878
371.808081	2382.088865
372.195010	2387.916439
372.581875	2392.637480
372.968678	2398.127296
373.355418	2404.443862
373.742096	2414.208577
374.128710	2423.711152
374.515262	2434.597524
374.901751	2448.228804
375.288177	2464.121041
375.674540	2483.408496
376.060841	2501.087822
376.447079	2524.859383
376.833254	2551.658157
377.219367	2571.880746
377.605417	2607.055397
377.991404	2635.742083
378.377329	2676.421674
378.763191	2709.169009
379.148991	2753.488313
379.534727	2800.330715
379.920402	2847.631861
380.306013	2895.401835
380.691563	2956.616566
381.077049	3008.863085
381.462474	3065.029100
381.847835	3136.452168
382.233134	3207.892880
382.618371	3266.501334
383.003545	3349.667770
383.388657	3428.879420
383.773706	3516.829911
384.158693	3592.827826
384.543618	3683.356866
384.928480	3761.842591
385.313280	3864.712376
385.698017	3963.047643
386.082692	4084.166406
386.467305	4142.968945
386.851856	4266.552831
387.236344	4421.333898
387.620770	4480.638032
388.005133	4599.964664
388.389435	4743.400615
388.773674	4827.353470
389.157851	4954.531700
389.541965	5082.284620
389.926018	5105.647848
390.310008	5278.166215
390.693936	5400.139453
391.077802	5510.649107
391.461606	5636.312469
391.845348	5746.474284
392.229027	5859.131469
392.612645	6075.104582
392.996200	6186.085584
393.379694	6342.827660
393.763125	6549.018414
394.146494	6625.838037
394.529801	6741.557724
394.913047	6958.667617
395.296230	6940.138856
395.679351	6975.409289
396.062410	7193.920623
396.445408	7069.537713
396.828343	7180.546442
397.211217	7278.060001
397.594028	7131.561550
397.976778	7279.181658
398.359466	7386.830457
398.742092	7318.306053
399.124656	7397.666417
399.507158	7513.255034
399.889598	7475.005279
400.271977	7603.000175
400.654294	7564.218579
401.036549	7663.153743
401.418742	7610.803881
401.800874	7782.873586
402.182944	7768.045032
402.564952	7980.733833
402.946898	7747.124243
403.328783	7704.476082
403.710606	7757.020028
404.092367	7855.481324
404.474067	8016.389914
404.855705	7761.967921
405.237282	7618.169007
405.618797	7801.021739
406.000250	7855.148608
406.381642	7969.867626
406.762972	7807.645816
407.144240	7559.673978
407.525447	7587.564162
407.906593	7423.630880
408.287677	7437.824249
408.668700	7392.249698
409.049661	7249.227122
409.430560	7197.283072
409.811399	7047.956534
410.192176	6996.062896
410.572891	6891.705970
410.953545	6970.978115
411.334138	6598.615806
411.714669	6717.367747
412.095139	6287.521161
412.475547	6348.357806
412.855894	6160.151368
413.236180	6141.015148
413.616405	5894.580863
413.996568	5854.125603
414.376670	5715.120827
414.756711	5549.944901
415.136691	5500.841542
415.516609	5427.313793
415.896466	5320.022915
416.276262	5268.721613
416.655997	5257.842803
417.035670	5136.971057
417.415283	5170.706459
417.794834	5060.746291
418.174324	4878.881624
418.553753	4732.748657
418.933121	4707.946180
419.312428	4553.296183
419.691674	4424.557716
420.070859	4388.213518
420.449983	4230.710228
420.829045	4203.354406
421.208047	4066.781987
421.586988	4026.470400
421.965867	3958.361891
422.344686	3863.689022
422.723444	3830.019155
423.102141	3612.911782
423.480777	3644.366062
423.859352	3521.056918
424.237866	3531.746685
424.616319	3436.917540
424.994712	3407.469640
425.373044	3328.893175
425.751314	3299.904020
426.129524	3187.514015
426.507673	3181.817511
426.885762	3111.695061
427.263789	3064.038513
427.641756	3022.945548
428.019662	2979.644557
428.397508	2936.192331
428.775292	2902.729152
429.153016	2864.154243
429.530679	2831.048986
429.908282	2794.823254
430.285824	2757.569127
430.663305	2745.104874
431.040726	2712.939792
431.418086	2684.575740
431.795385	2670.911692
432.172624	2660.040444
432.549802	2631.404170
432.926920	2619.605349
433.303977	2606.095057
433.680974	2594.457553
434.057910	2583.475400
434.434786	2569.118193
434.811601	2559.655948
435.188355	2557.228632
435.565050	2546.894267
435.941683	2538.034439
436.318257	2536.443955
436.694770	2527.989940
437.071222	2528.768798
437.447614	2513.799092
437.823946	2511.795233
438.200218	2505.539161
438.576429	2502.428769
438.952580	2500.908861
439.328670	2496.500372
439.704700	2495.277892
440.080670	2488.200113
440.456580	2490.826554
440.832429	2489.304125
441.208218	2483.007724
441.583947	2476.708802
441.959616	2478.347177
442.335224	2480.146869
442.710773	2476.567650
443.086261	2479.504122
443.461689	2471.493729
443.837057	2473.863071
444.212365	2474.742752
444.587612	2471.707978
444.962800	2467.861577
445.337927	2469.636063
445.712995	2463.420321
446.088002	2467.924592
446.462949	2467.705302
446.837837	2467.566670
447.212664	2465.338480
447.587431	2473.573205
447.962139	2484.963692
448.336786	2494.801503
448.711374	2486.934783
449.085901	2472.756538
449.460369	2472.469192
449.834776	2471.075313
450.209124	2479.433546
450.583412	2478.763073
450.957640	2477.464975
451.331808	2474.210911
451.705917	2468.010291
452.079965	2465.827472
452.453954	2467.475929
452.827883	2467.112966
453.201752	2466.336628
453.575562	2467.453244
453.949311	2466.026597
454.323001	2469.759572
454.696632	2465.456947
455.070202	2473.943729
455.443713	2472.166723
455.817164	2475.206538
456.190556	2470.125055
456.563888	2472.375931
456.937160	2471.836527
457.310373	2470.147741
457.683526	2471.914665
458.056619	2473.628657
458.429653	2469.119345
458.802628	2471.226547
459.175542	2468.201855
459.548398	2478.422795
459.921194	2478.765593
460.293930	2478.228710
460.666607	2488.565596
461.039224	2492.245638
461.411782	2490.829074
461.784280	2490.060298
462.156719	2489.929228
462.529099	2487.169197
462.901419	2483.141315
463.273680	2476.776858
463.645882	2480.930769
464.018024	2475.977835
464.390106	2481.863382
464.762130	2490.559373
465.134094	2501.176042
465.505999	2516.632220
465.877845	2525.872655
466.249631	2529.315763
466.621358	2525.139167
466.993026	2518.699093
467.364634	2516.445697
467.736184	2507.764831
468.107674	2505.340036
468.479105	2500.533295
468.850477	2502.186794
469.221790	2494.705722
469.593043	2490.055257
469.964238	2487.091059
470.335373	2486.748260
470.706449	2492.800165
471.077467	2496.558346
471.448425	2511.407064
471.819324	2519.455266
472.190164	2511.437311
472.560945	2503.603358
472.931667	2494.332676
473.302330	2492.157418
473.672934	2490.597181
474.043479	2490.168683
474.413965	2486.881851
474.784393	2483.405975
475.154761	2486.932262
475.525070	2486.110554
475.895321	2485.140132
476.265513	2483.952940
476.635645	2491.960813
477.005719	2488.855463
477.375734	2491.224805
477.745691	2494.304950
478.115588	2494.889724
478.485427	2502.683347
478.855207	2511.328926
479.224928	2521.222191
479.594591	2520.100534
479.964194	2523.286543
480.333739	2517.181706
480.703226	2523.430216
481.072653	2522.711852
481.442022	2521.254958
481.811333	2525.265196
482.180584	2521.449043
482.549777	2518.416789
482.918912	2514.797240
483.287988	2516.009638
483.657005	2516.276819
484.025964	2512.808505
484.394864	2514.018382
484.763706	2511.515449
485.132489	2507.495129
485.501213	2509.403206
485.869879	2506.628050
486.238487	2508.150479
486.607036	2506.507063
486.975527	2506.204593
487.343959	2508.954543
487.712333	2508.457989
488.080648	2505.781137
488.448905	2508.737773
488.817104	2508.389934
489.185244	2511.427229
489.553326	2516.392765
489.921350	2524.589682
490.289315	2529.472039
490.657222	2533.613347
491.025070	2533.968748
491.392861	2533.038655
491.760593	2527.460619
492.128267	2523.861235
492.495883	2518.197498
492.863440	2516.803619
493.230939	2510.247599
493.598380	2507.905983
493.965763	2502.491784
494.333088	2502.741321
494.700354	2501.458347
495.067563	2500.724859
495.434713	2498.620177
495.801805	2504.777947
496.168839	2503.366424
496.535815	2504.072185
496.902733	2502.471619
497.269593	2503.931033
497.636395	2500.137565
498.003139	2505.264418
498.369825	2502.703512
498.736453	2505.907165
499.103023	2504.931702
499.469535	2502.784171
499.835989	2504.195694
500.202385	2503.880622
500.568723	2506.194511
500.935003	2506.451610
501.301226	2504.840961
501.667390	2509.130983
502.033497	2511.739780
502.399546	2512.677435
502.765537	2509.990500
503.131470	2512.508556
503.497345	2519.520801
503.863163	2512.251457
504.228923	2516.680111
504.594625	2520.297139
504.960269	2518.956192
505.325856	2523.319311
505.691385	2525.418951
506.056856	2525.981040
506.422270	2527.334590
506.787625	2530.888603
507.152924	2529.701412
507.518164	2534.430014
507.883347	2532.839530
508.248472	2536.837165
508.613540	2541.837989
508.978550	2544.237579
509.343503	2545.724719
509.708398	2548.996428
510.073236	2554.428271
510.438016	2555.479352
510.802738	2554.934907
511.167403	2560.686864
511.532010	2560.495300
511.896561	2561.997564
512.261053	2575.790161
512.625488	2570.176836
512.989866	2569.158523
513.354186	2573.302351
513.718449	2574.295458
514.082655	2578.819894
514.446803	2580.004565
514.810894	2584.529001
515.174927	2587.704928
515.538904	2586.719382
515.902822	2590.679208
516.266684	2588.947572
516.630488	2592.138622
516.994235	2592.509147
517.357925	2595.130547
517.721558	2597.948552
518.085133	2600.194386
518.448651	2601.043821
518.812112	2601.184973
519.175516	2600.955601
519.538863	2601.507607
519.902152	2600.635487
520.265385	2600.882504
520.628560	2604.817124
520.991678	2602.180601
521.354739	2604.842330
521.717743	2603.750920
522.080690	2603.168667
522.443580	2603.375354
522.806413	2603.090529
523.169189	2602.714963
523.531908	2605.757300
523.894569	2600.509458
524.257174	2602.714963
524.619722	2600.489294
524.982213	2600.378388
525.344647	2598.409818
525.707025	2596.161463
526.069345	2593.247676
526.431608	2593.744230
526.793815	2593.532502
527.155964	2591.672316
527.518057	2585.375915
527.880093	2585.345668
528.242072	2584.370204
528.603995	2582.787282
528.965860	2577.821746
529.327669	2576.924420
529.689421	2574.156827
530.051117	2571.548030
530.412755	2566.577452
530.774337	2562.539488
531.135862	2559.131668
531.497331	2556.260731
531.858743	2553.183106
532.220098	2552.331151
532.581396	2547.320244
532.942638	2545.313865
533.303824	2545.868392
533.664953	2542.190870
534.026025	2535.849099
534.387040	2535.284489
534.747999	2529.774508
535.108902	2532.118645
535.469748	2525.330731
535.830537	2523.178158
536.191270	2522.081707
536.551947	2519.893847
536.912567	2518.507529
537.273131	2513.635254
537.633638	2511.497805
537.994089	2506.328102
538.354483	2506.101250
538.714821	2506.585201
539.075103	2504.394819
539.435328	2501.533964
539.795497	2499.968686
540.155609	2496.550784
540.515665	2494.627584
540.875665	2493.268993
541.235609	2490.526605
541.595496	2490.665237
541.955328	2488.915956
542.315102	2485.926552
542.674821	2479.511684
543.034483	2478.997486
543.394090	2482.110399
543.753640	2481.379431
544.113134	2482.269195
544.472571	2476.660911
544.831953	2476.867599
545.191278	2475.566981
545.550548	2473.721919
545.909761	2472.176805
546.268918	2473.590849
546.628019	2471.282000
546.987064	2472.184367
547.346053	2470.679582
547.704986	2469.915848
548.063863	2468.658080
548.422684	2467.856536
548.781449	2468.164047
549.140158	2468.048100
549.498811	2469.464664
549.857408	2465.867801
550.215949	2465.913171
550.574434	2462.898561
550.932864	2464.032821
551.291237	2462.684312
551.649555	2466.921402
552.007817	2464.589868
552.366022	2464.766309
552.724173	2463.788325
553.082267	2463.563994
553.440305	2460.617439
553.798288	2464.118521
554.156215	2461.832357
554.514086	2460.627522
554.871902	2460.836729
555.229661	2461.371092
555.587365	2462.205403
555.945014	2464.249591
556.302606	2461.444188
556.660143	2462.923767
557.017625	2463.017028
557.375050	2461.731534
557.732421	2461.159363
558.089735	2462.701956
558.446994	2457.343210
558.804197	2462.084415
559.161345	2460.443519
559.518437	2462.175156
559.875474	2458.774898
560.232455	2461.988633
560.589381	2457.736420
560.946251	2461.688684
561.303065	2464.176494
561.659825	2463.800928
562.016528	2459.647017
562.373177	2461.005608
562.729770	2457.945628
563.086307	2460.619960
563.442789	2460.249435
563.799216	2460.783797
564.155587	2457.580144
564.511904	2459.016873
564.868164	2459.233643
565.224370	2459.553756
565.580520	2457.673405
565.936615	2457.307922
566.292654	2459.092490
566.648638	2459.752881
567.004567	2455.661985
567.360441	2457.943107
567.716260	2457.005453
568.072023	2458.003601
568.427732	2453.597632
568.783385	2457.310442
569.138982	2450.862807
569.494525	2454.961265
569.850013	2454.527725
570.205445	2458.031327
570.560823	2454.076542
570.916145	2456.957562
571.271412	2456.090483
571.626625	2458.364043
571.981782	2454.986470
572.336884	2456.551749
572.691931	2458.139712
573.046923	2456.274485
573.401860	2454.197530
573.756743	2453.892540
574.111570	2456.551749
574.466342	2455.422530
574.821059	2454.636110
575.175722	2454.734413
575.530330	2454.452108
575.884882	2451.984463
576.239380	2451.906325
576.593823	2456.012345
576.948211	2453.930349
577.302544	2456.133333
577.656823	2453.529577
578.011047	2456.130812
578.365216	2450.557817
578.719330	2451.941613
579.073389	2452.849021
579.427394	2454.777263
579.781344	2454.331120
580.135239	2453.985801
580.489080	2450.880451
580.842866	2449.680656
581.196597	2449.713423
581.550273	2450.693928
581.903895	2449.345419
582.257463	2449.869699
582.610975	2449.529421
582.964434	2449.226952
583.317837	2452.896912
583.671186	2448.604370
584.024481	2450.928342
584.377721	2447.255861
584.730906	2449.708382
585.084037	2450.658640
585.437113	2447.573454
585.790135	2449.282405
586.143103	2450.499843
586.496016	2448.301900
586.848874	2446.739143
587.201679	2446.471962
587.554428	2445.554472
587.907124	2445.214194
588.259765	2444.798298
588.612352	2448.153186
588.964884	2447.518001
589.317362	2446.724019
589.669786	2448.475820
590.022155	2448.458176
590.374470	2447.540686
590.726731	2446.550099
591.078937	2445.572116
591.431090	2446.802157
591.783188	2445.516663
592.135232	2448.100254
592.487222	2445.090685
592.839157	2442.330654
593.191038	2446.446756
593.542866	2445.052877
593.894639	2445.340222
594.246358	2443.999276
594.598022	2446.882816
594.949633	2442.176898
595.301190	2445.115891
595.652692	2446.726540
596.004141	2444.974739
596.355535	2442.320571
596.706876	2443.538010
597.058162	2442.106322
597.409395	2440.876281
597.760573	2444.331992
598.111698	2442.277722
598.462768	2444.384924
598.813785	2440.702361
599.164748	2444.750408
599.515657	2443.432146
599.866511	2441.125818
600.217312	2444.342074
600.568060	2443.971549
600.918753	2446.078752
601.269392	2443.510284
601.619978	2442.454162
601.970510	2444.377362
602.320988	2445.620007
602.671412	2442.950716
603.021783	2441.256888
603.372100	2442.701178
603.722363	2442.015582
604.072572	2445.940120
604.422728	2441.423246
604.772830	2438.663214
605.122878	2436.543409
605.472872	2439.835282
605.822813	2434.347987
606.172701	2442.877619
606.522534	2440.367124
606.872314	2443.943823
607.222041	2437.251691
607.571714	2443.437187
607.921333	2437.438214
608.270899	2441.879470
608.620411	2442.507094
608.969870	2439.207659
609.319276	2439.671445
609.668627	2441.831579
610.017926	2440.067176
610.367171	2439.416867
610.716362	2442.449121
611.065500	2444.324430
611.414585	2442.592794
611.763616	2438.169181
612.112594	2441.135900
612.461518	2443.573298
612.810389	2438.285128
613.159207	2440.180602
613.507971	2441.602207
613.856682	2442.330654
614.205340	2440.072217
614.553945	2441.196394
614.902496	2439.127000
615.250994	2443.336364
615.599439	2443.021292
615.947830	2442.716302
616.296169	2438.922834
616.644454	2444.415171
616.992686	2442.933072
617.340864	2440.089861
617.688990	2441.962649
618.037063	2441.261929
618.385082	2443.792588
618.733048	2439.225303
619.080961	2442.277722
619.428821	2443.008689
619.776628	2442.436518
620.124382	2441.831579
620.472083	2441.924841
620.819731	2443.525407
621.167326	2443.447269
621.514868	2441.151024
621.862357	2440.243616
622.209793	2435.772113
622.557176	2441.070365
622.904506	2438.035591
623.251783	2433.556525
623.599007	2438.380910
623.946179	2433.448141
624.293297	2436.457709
624.640363	2439.006013
624.987376	2438.832093
625.334336	2437.294541
625.681243	2437.768409
626.028097	2436.613985
626.374899	2437.841506
626.721647	2437.395364
627.068343	2432.828079
627.414987	2435.346135
627.761577	2437.304623
628.108115	2436.314037
628.454600	2435.638522
628.801032	2436.432504
629.147412	2435.883018
629.493739	2434.952925
629.840014	2434.930240
630.186236	2434.892431
630.532405	2435.648604
630.878521	2433.312029
631.224585	2434.910075
631.570597	2436.525765
631.916556	2434.511824
632.262462	2436.228337
632.608316	2433.511155
632.954117	2432.981834
633.299866	2435.031063
633.645562	2435.063830
633.991206	2433.160795
634.336797	2430.289858
634.682336	2432.664241
635.027823	2434.121135
635.373257	2430.637697
635.718639	2433.281782
636.063968	2430.728438
636.409245	2433.758172
636.754470	2432.223140
637.099642	2430.446133
637.444762	2430.859508
637.789829	2431.799683
638.134845	2431.630805
638.479808	2430.526792
638.824719	2430.907399
639.169577	2429.674837
639.514383	2429.730290
639.859137	2431.023346
640.203839	2430.667944
640.548489	2428.769950
640.893086	2428.931267
641.237632	2424.643765
641.582125	2428.603592
641.926566	2425.231060
642.270955	2427.492017
642.615292	2428.265834
642.959576	2427.315577
643.303809	2429.425300
643.647990	2430.597368
643.992118	2429.321956
644.336195	2427.905392
644.680219	2428.389343
645.024192	2429.528643
645.368112	2427.975968
645.711981	2429.226174
646.055797	2428.868252
646.399562	2430.194076
646.743274	2430.693150
647.086935	2429.861360
647.430544	2429.881524
647.774101	2429.347162
648.117606	2429.707604
648.461059	2432.220620
648.804460	2435.159612
649.147810	2432.815476
649.491108	2427.320618
649.834354	2429.321956
650.177548	2428.757347
650.520690	2427.771801
650.863781	2429.808427
651.206820	2428.336411
651.549807	2425.147881
651.892742	2430.620053
652.235626	2425.057140
652.578458	2429.977306
652.921238	2424.991605
653.263967	2428.343972
653.606644	2426.125865
653.949269	2425.389856
654.291843	2424.845412
654.634365	2429.538726
654.976836	2426.256935
655.319255	2428.238108
655.661622	2427.383632
656.003938	2427.774322
656.346203	2425.914136
656.688416	2426.340114
657.030577	2424.845412
657.372687	2427.416400
657.714746	2425.097469
658.056753	2424.903385
658.398708	2421.520771
658.740612	2425.906574
659.082465	2421.888775
659.424266	2423.126378
659.766016	2422.488672
660.107715	2426.483787
660.449362	2428.643921
660.790958	2426.715680
661.132503	2426.524116
661.473996	2424.719383
661.815438	2428.641400
662.156829	2427.739034
662.498168	2426.342634
662.839456	2424.144691
663.180693	2424.026224
663.521879	2423.842222
663.863013	2424.553025
664.204097	2424.200144
664.545129	2423.897675
664.886110	2425.752819
665.227040	2425.160484
665.567918	2425.377253
665.908746	2424.227870
666.249522	2427.877666
666.590248	2424.784918
666.930922	2424.298446
667.271545	2426.307346
667.612118	2426.914805
667.952639	2423.557397
668.293109	2424.258117
668.633528	2423.196954
668.973896	2425.790628
669.314213	2425.389856
669.654480	2426.040165
669.994695	2425.531008
670.334859	2426.241811
670.674973	2423.668302
671.015035	2423.746440
671.355047	2422.919691
671.695008	2424.605957
672.034918	2421.004052
672.374777	2426.524116
672.714585	2423.204516
673.054342	2422.705442
673.394049	2425.664599
673.733705	2428.757347
674.073310	2424.192582
674.412864	2424.527819
674.752368	2425.473035
675.091820	2421.934145
675.431223	2421.941707
675.770574	2421.591347
676.109875	2421.646799
676.449125	2421.281316
676.788324	2421.092272
677.127473	2421.442633
677.466571	2418.465831
677.805619	2422.798703
678.144616	2420.114289
678.483562	2422.813827
678.822458	2420.535225
679.161303	2421.432550
679.500098	2420.797365
679.838842	2423.101172
680.177535	2423.912798
680.516179	2422.191244
680.854771	2420.900709
681.193314	2422.075297
681.531805	2420.273085
681.870247	2424.565628
682.208638	2425.679722
682.546978	2424.502613
682.885268	2425.188210
683.223508	2426.725762
683.561697	2423.081008
683.899836	2424.865576
684.237925	2423.257448
684.575963	2426.839188
684.913951	2423.249886
685.251889	2424.384146
685.589776	2424.202664
685.927614	2423.360792
686.265401	2423.494382
686.603137	2422.080339
686.940824	2423.348189
687.278460	2422.526481
687.616046	2423.665782
687.953582	2425.407500
688.291068	2424.212747
688.628504	2424.767274
688.965889	2425.775504
689.303224	2425.157963
689.640510	2425.475556
689.977745	2425.757860
690.314930	2423.743919
690.652065	2422.992787
690.989150	2420.268044
691.326185	2425.294074
691.663170	2423.479259
692.000105	2421.858528
692.336990	2420.033630
692.673825	2420.179824
693.010610	2420.792324
693.347345	2416.547672
693.684030	2414.992476
694.020665	2416.870306
694.357251	2415.355439
694.693786	2418.342323
695.030272	2418.012128
695.366707	2417.351736
695.703093	2417.185378
696.039429	2417.709658
696.375716	2415.554565
696.711952	2416.414082
697.048139	2415.915008
697.384276	2417.760070
697.720363	2416.595563
698.056400	2416.651016
698.392388	2416.194792
698.728326	2416.252765
699.064214	2417.508012
699.400053	2414.931982
699.735842	2414.372414
700.071581	2413.999369
700.407270	2416.101530
700.742910	2415.849473
701.078501	2414.954668
701.414042	2415.942734
701.749533	2413.878381
702.084974	2413.122208
702.420366	2415.204205
702.755709	2416.073804
703.091002	2415.204205
703.426246	2412.741601
703.761440	2414.251427
704.096584	2409.293452
704.431679	2412.918042
704.766725	2414.740419
705.101721	2416.325862
705.436668	2415.725964
705.771565	2413.807805
706.106413	2413.154976
706.441212	2412.817218
706.775961	2415.052970
707.110661	2415.549524
707.445311	2413.734708
707.779913	2415.201684
708.114465	2416.300656
708.448967	2417.281160
708.783421	2414.306879
709.117825	2414.556417
709.452180	2416.746798
709.786485	2414.846283
710.120742	2415.612538
710.454949	2417.883578
710.789107	2413.898546
711.123216	2412.083731
711.457275	2417.291243
711.791286	2414.385017
712.125247	2415.206725
712.459159	2416.754360
712.793023	2417.112282
713.126837	2418.397776
713.460602	2417.757549
713.794318	2417.747467
714.127985	2418.453228
714.461602	2418.680080
714.795171	2417.339133
715.128691	2417.089596
715.462162	2416.572878
715.795584	2416.610687
716.128957	2415.945254
716.462281	2412.560120
716.795556	2416.976170
717.128782	2414.712692
717.461960	2408.912845
717.795088	2410.914183
718.128167	2415.206725
718.461198	2415.463824
718.794180	2412.355953
719.127113	2409.900911
719.459997	2412.849986
719.792833	2410.894018
720.125619	2412.640778
720.458357	2410.538617
720.791046	2412.907959
721.123686	2413.926272
721.456278	2409.096847
721.788821	2410.508370
722.121315	2412.066087
722.453761	2412.310582
722.786158	2409.908473
723.118506	2411.246899
723.450805	2411.259502
723.783056	2408.713719
724.115259	2412.441652
724.447412	2408.207083
724.779518	2409.411919
725.111574	2409.623648
725.443582	2411.461148
725.775542	2411.141035
726.107453	2412.676066
726.439315	2410.415109
726.771129	2417.044226
727.102895	2411.647671
727.434612	2415.239493
727.766281	2411.282187
728.097901	2408.665828
728.429473	2409.530386
728.760996	2414.511046
729.092471	2407.508883
729.423897	2411.955181
729.755276	2412.890315
730.086606	2412.948288
730.417887	2414.463155
730.749120	2413.243196
731.080305	2415.393248
731.411442	2417.571027
731.742530	2413.142373
732.073570	2415.662950
732.404562	2415.736047
732.735506	2415.617579
733.066401	2415.554565
733.397249	2415.703279
733.728048	2412.199677
734.058798	2412.655902
734.389501	2410.094995
734.720156	2412.303021
735.050762	2411.314955
735.381320	2410.304203
735.711831	2410.052146
736.042293	2410.168092
736.372707	2410.692372
736.703073	2412.126580
737.033391	2410.001734
737.363661	2407.448390
737.693883	2411.070459
738.024056	2413.210428
738.354182	2411.814029
738.684260	2410.415109
739.014290	2411.435942
739.344272	2413.212949
739.674207	2412.308062
740.004093	2411.148597
740.333931	2411.569533
740.663722	2415.506674
740.993464	2411.839235
741.323159	2410.654563
741.652806	2409.734553
741.982405	2412.245048
742.311956	2410.604152
742.641460	2412.391241
742.970915	2409.966446
743.300323	2409.089285
743.629683	2410.120201
743.958996	2410.475602
744.288260	2413.462486
744.617477	2408.060890
744.946647	2404.532082
745.275768	2407.803791
745.604842	2406.183060
745.933869	2406.908986
746.262847	2402.523182
746.591778	2409.033833
746.920662	2408.469223
747.249498	2408.501991
747.578286	2408.476785
747.907027	2411.357804
748.235720	2408.280180
748.564365	2410.067269
748.892963	2406.530900
749.221514	2411.872002
749.550017	2410.629358
749.878473	2410.059707
750.206881	2408.491908
750.535242	2408.539799
750.863555	2409.860582
751.191821	2407.055180
751.520039	2410.894018
751.848210	2407.592063
752.176334	2408.058369
752.504411	2408.297824
752.832440	2407.324881
753.160421	2410.359656
753.488356	2411.675397
753.816243	2409.371590
754.144082	2405.510066
754.471875	2412.076169
754.799620	2404.637946
755.127318	2409.737073
755.454969	2407.871847
755.782572	2408.897721
756.110129	2409.422001
756.437638	2412.411406
756.765100	2407.854202
757.092515	2406.409912
757.419882	2406.392268
757.747203	2411.085582
758.074477	2407.460993
758.401703	2407.140879
758.728882	2406.475447
759.056014	2407.836558
759.383099	2406.067113
759.710138	2411.405695
760.037129	2408.643143
760.364073	2409.180026
760.690970	2408.270098
761.017820	2408.844789
761.344623	2408.829666
761.671379	2410.102557
761.998088	2405.290776
762.324751	2412.466858
762.651366	2412.645819
762.977935	2419.229566
763.304456	2418.717889
763.630931	2420.104206
763.957359	2423.408683
764.283740	2420.426840
764.610074	2414.495923
764.936362	2416.875347
765.262602	2412.991138
765.588796	2409.089285
765.914943	2409.104409
766.241044	2409.311096
766.567097	2405.729356
766.893104	2408.723802
767.219064	2406.656928
767.544978	2406.553585
767.870845	2406.510735
768.196665	2406.787998
768.522438	2408.081054
768.848165	2406.311609
769.173846	2403.642318
769.499479	2408.060890
769.825066	2404.274983
770.150607	2405.694068
770.476101	2405.799932
770.801548	2405.298337
771.126949	2403.924623
771.452303	2405.154665
771.777611	2405.948646
772.102872	2402.961763
772.428087	2403.536454
772.753256	2405.293296
773.078378	2404.743811
773.403453	2404.731208
773.728482	2404.254819
774.053465	2402.928995
774.378401	2403.770868
774.703291	2401.391443
775.028135	2402.240878
775.352932	2401.399005
775.677683	2402.044273
776.002388	2403.231464
776.327046	2399.306926
776.651658	2402.901269
776.976224	2402.457647
777.300743	2402.180384
777.625216	2402.586197
777.949643	2403.642318
778.274024	2403.017215
778.598359	2399.695095
778.922647	2396.251987
779.246889	2399.619478
779.571086	2399.367420
779.895236	2400.284910
780.219339	2400.751217
780.543397	2403.420508
780.867409	2402.976886
781.191374	2402.180384
781.515294	2399.092677
781.839167	2403.138203
782.162995	2401.729201
782.486776	2401.724159
782.810511	2401.073851
783.134201	2401.945970
783.457844	2399.558984
783.781441	2401.146947
784.104993	2403.785991
784.428498	2403.360014
784.751958	2402.026629
785.075372	2404.837072
785.398739	2402.901269
785.722061	2401.230126
786.045337	2399.145609
786.368568	2400.239540
786.691752	2401.298182
787.014891	2403.370096
787.337983	2399.400188
787.661030	2402.865981
787.984031	2403.929664
788.306987	2405.142062
788.629897	2403.922103
788.952760	2404.448903
789.275579	2405.429408
789.598351	2405.043759
789.921078	2404.834551
790.243759	2405.290776
790.566395	2404.078378
790.888984	2404.900086
791.211529	2403.123080
791.534027	2403.375137
791.856480	2403.402864
792.178888	2403.221382
792.501249	2401.671227
792.823566	2404.408574
793.145836	2402.412277
793.468062	2402.729870
793.790241	2400.715929
794.112375	2401.787174
794.434464	2399.778274
794.756507	2404.257339
795.078505	2400.839437
795.400457	2402.543347
795.722364	2399.228788
796.044226	2402.306413
796.366042	2401.772050
796.687812	2401.164591
797.009538	2403.513769
797.331218	2402.712226
797.652852	2403.609551
797.974442	2397.643345
798.295986	2402.906310
798.617484	2402.717267
798.938938	2403.047462
799.260346	2400.993192
799.581709	2400.910013
799.903026	2403.624674
800.224299	2401.572925
800.545526	2402.664335
800.866708	2401.411608
801.187845	2403.909500
801.508936	2401.073851
801.829983	2401.784653
802.150984	2403.753224
802.471940	2399.173336
802.792851	2402.576114
803.113717	2400.874725
803.434538	2399.564025
803.755314	2403.445713
804.076045	2402.122411
804.396731	2401.411608
804.717372	2398.303737
805.037967	2401.628378
805.358518	2397.534961
805.679024	2400.844478
805.999485	2405.205076
806.319901	2401.840106
806.640272	2401.250291
806.960598	2399.707698
807.280879	2401.388923
807.601115	2400.047976
807.921306	2401.010836
808.241453	2401.159550
808.561554	2399.758109
808.881611	2399.725342
809.201623	2401.862791
809.521590	2401.126783
809.841513	2400.557132
810.161390	2401.953532
810.481223	2398.336504
810.801011	2401.456978
811.120755	2400.398336
811.440453	2401.154509
811.760107	2398.167625
812.079716	2399.780795
812.399281	2396.882131
812.718801	2397.013201
813.038276	2395.916750
813.357707	2399.876577
813.677093	2401.477143
813.996434	2402.182904
814.315731	2399.591751
814.634983	2399.269117
814.954191	2401.552760
815.273354	2401.577966
815.592473	2401.814900
815.911547	2401.373799
816.230577	2401.391443
816.549562	2405.565519
816.868502	2402.714746
817.187399	2405.068965
817.506250	2401.739283
817.825058	2402.581156
818.143821	2402.066958
818.462539	2402.094684
818.781213	2402.445044
819.099843	2403.377658
819.418429	2407.067782
819.736970	2406.873698
820.055466	2409.855541
820.373919	2411.657753
820.692327	2412.194636
821.010691	2421.498085
821.329011	2432.792791
821.647286	2457.229784
821.965517	2478.846252
822.283704	2491.610453
822.601847	2496.233191
822.919945	2488.603405
823.237999	2471.440797
823.556010	2468.703450
823.873976	2456.140895
824.191897	2441.866867
824.509775	2438.128852
824.827609	2430.448654
825.145398	2426.335073
825.463144	2423.345668
825.780845	2423.943045
826.098502	2428.142326
826.416116	2435.227668
826.733685	2437.012236
827.051210	2437.150868
827.368692	2437.511311
827.686129	2431.098963
828.003522	2423.754002
828.320872	2413.933834
828.638177	2414.044739
828.955439	2409.812691
829.272656	2406.185581
829.589830	2405.341187
829.906960	2408.524676
830.224046	2407.246743
830.541088	2403.354973
830.858086	2402.243398
831.175041	2404.017884
831.491952	2400.980589
831.808819	2401.920764
832.125642	2403.954870
832.442421	2403.130641
832.759157	2411.705644
833.075849	2414.563978
833.392497	2417.016500
833.709101	2418.697724
834.025662	2419.945410
834.342179	2418.599422
834.658653	2415.620100
834.975083	2407.823956
835.291469	2419.809299
835.607811	2405.774727
835.924110	2404.985786
836.240366	2408.481826
836.556578	2400.055537
836.872746	2404.350601
837.188871	2397.963459
837.504952	2400.713408
837.820990	2397.658469
838.136984	2400.267266
838.452935	2399.231309
838.768842	2400.814231
839.084706	2401.779612
839.400526	2403.049983
839.716303	2406.304048
840.032037	2402.676938
840.347727	2404.128790
840.663373	2403.768347
840.978977	2407.667680
841.294537	2402.140055
841.610054	2400.045455
841.925527	2401.618295
842.240957	2399.569066
842.556344	2400.557132
842.871687	2398.913716
843.186987	2394.724517
843.502244	2395.478170
843.817458	2397.315670
844.132629	2396.526730
844.447756	2398.230640
844.762840	2392.438354
845.077881	2393.343241
845.392879	2391.704866
845.707833	2394.921122
846.022745	2387.747560
846.337613	2394.454816
846.652438	2394.563200
846.967221	2394.986657
847.281960	2393.398694
847.596656	2396.579662
847.911309	2395.369785
848.225919	2397.660989
848.540485	2395.553787
848.855009	2394.916081
849.169490	2394.119579
849.483928	2395.135371
849.798323	2395.548746
850.112675	2396.483880
850.426984	2394.580844
850.741251	2395.339538
851.055474	2395.221071
851.369654	2395.899106
851.683792	2394.948849
851.997887	2395.397511
852.311938	2397.303068
852.625947	2396.355331
852.939914	2399.322050
853.253837	2396.466236
853.567718	2395.142933
853.881555	2395.354662
854.195350	2396.803993
854.509103	2395.858777
854.822812	2394.623694
855.136479	2397.020763
855.450103	2397.534961
855.763685	2398.263407
856.077224	2397.035886
856.390720	2396.201575
856.704173	2393.718807
857.017584	2398.369272
857.330953	2401.000754
857.644278	2395.589075
857.957561	2401.502349
858.270802	2395.412635
858.584000	2396.088149
858.897155	2395.450443
859.210268	2396.027656
859.523339	2392.602192
859.836367	2394.384239
860.149352	2393.711245
860.462295	2397.086298
860.775195	2393.060937
861.088054	2392.929867
861.400869	2392.637480
861.713642	2390.026162
862.026373	2393.262583
862.339062	2394.721997
862.651708	2397.078736
862.964312	2394.911040
863.276873	2393.985988
863.589392	2394.686709
863.901869	2394.938766
864.214303	2394.996740
864.526696	2398.470095
864.839045	2396.551936
865.151353	2393.239898
865.463619	2396.690567
865.775842	2394.560680
866.088023	2394.245608
866.400162	2398.412121
866.712258	2393.597819
867.024313	2395.337017
867.336325	2393.643190
867.648296	2395.150495
867.960224	2397.597975
868.272110	2398.155022
868.583954	2396.322563
868.895755	2396.277193
869.207515	2395.705022
869.519233	2395.994888
869.830909	2395.999929
870.142542	2396.211658
870.454134	2398.649056
870.765684	2395.165618
871.077191	2397.131668
871.388657	2398.770043
871.700081	2396.660320
872.011463	2395.084960
872.322803	2397.436658
872.634101	2399.685013
872.945357	2395.946997
873.256571	2399.874056
873.567744	2394.588406
873.878874	2395.982285
874.189963	2398.384395
874.501010	2396.398180
874.812015	2399.102759
875.122979	2397.885321
875.433900	2397.545043
875.744780	2399.584190
876.055618	2402.583676
876.366415	2399.826165
876.677169	2397.280382
876.987882	2395.130330
877.298554	2393.562531
877.609183	2395.084960
877.919771	2395.115207
878.230317	2397.078736
878.540822	2399.511093
878.851285	2398.056720
879.161707	2399.561504
879.472087	2403.017215
879.782425	2407.871847
880.092722	2409.053997
880.402977	2415.761252
880.713191	2428.671647
881.023363	2437.682710
881.333494	2443.860644
881.643583	2445.735953
881.953631	2443.583380
882.263637	2442.875098
882.573602	2436.069541
882.883526	2434.509303
883.193408	2431.971083
883.503248	2424.361461
883.813048	2425.664599
884.122806	2419.050605
884.432522	2415.642785
884.742197	2411.481313
885.051831	2410.828483
885.361424	2410.483164
885.670975	2405.323543
885.980485	2405.061403
886.289954	2402.006464
886.599382	2403.012174
886.908768	2402.205590
887.218113	2401.797256
887.527417	2401.494787
887.836680	2396.761143
888.145901	2397.209806
888.455082	2396.856925
888.764221	2399.334653
889.073319	2395.982285
889.382376	2399.163253
889.691392	2398.278531
890.000366	2398.898593
890.309300	2396.930022
890.618193	2397.000598
890.927044	2398.757440
891.235855	2398.613768
891.544625	2395.866339
891.853353	2399.090157
892.162041	2398.966648
892.470687	2398.628891
892.779293	2399.443037
893.087858	2399.924468
893.396381	2397.338356
893.704864	2401.588048
894.013306	2402.399674
894.321707	2408.360838
894.630068	2409.661456
894.938387	2411.420819
895.246665	2411.365366
895.554903	2407.012330
895.863100	2407.476116
896.171256	2404.819428
896.479371	2405.258008
896.787446	2406.402350
897.095480	2402.618964
897.403473	2401.986299
897.711425	2397.724004
898.019336	2399.740465
898.327207	2397.804662
898.635038	2400.179046
898.942827	2399.483367
899.250576	2398.490259
899.558284	2399.422873
899.865952	2397.164436
900.173579	2396.972872
900.481165	2399.062430
900.788711	2398.616288
901.096216	2397.635784
901.403681	2397.837430
901.711105	2397.444220
902.018489	2396.867008
902.325832	2397.948335
902.633135	2399.017060
902.940397	2396.541853
903.247619	2400.380692
903.554800	2402.770199
903.861941	2407.924779
904.169041	2412.056004
904.476101	2413.999369
904.783121	2413.154976
905.090100	2409.895870
905.397039	2410.306724
905.703938	2405.890673
906.010796	2403.299520
906.317614	2403.153327
906.624391	2404.096022
906.931129	2399.987482
907.237826	2400.826834
907.544483	2402.124931
907.851099	2397.998747
908.157675	2398.883469
908.464211	2396.158726
908.770707	2393.844836
909.077163	2393.171842
909.383578	2390.469783
909.689954	2392.478683
909.996289	2393.088663
910.302584	2395.236194
910.608839	2393.307953
910.915054	2395.163098
911.221229	2395.664693
911.527363	2394.787532
911.833458	2394.026318
912.139513	2395.079919
912.445527	2394.109497
912.751502	2393.996071
913.057436	2396.206617
913.363331	2397.174518
913.669186	2397.139230
913.975000	2395.019425
914.280775	2396.342728
914.586510	2399.092677
914.892205	2400.000085
915.197859	2403.871691
915.503475	2407.362690
915.809050	2408.461662
916.114585	2411.272105
916.420081	2415.821746
916.725536	2412.124060
917.030952	2413.656571
917.336328	2414.417785
917.641665	2412.350912
917.946961	2407.241702
918.252218	2410.092475
918.557435	2403.423028
918.862612	2402.402195
919.167750	2405.610889
919.472848	2403.470919
919.777906	2402.238357
920.082925	2400.536968
920.387904	2399.541340
920.692843	2399.627039
920.997743	2397.799621
921.302603	2397.776936
921.607423	2399.044786
921.912204	2399.067471
922.216946	2393.653272
922.521647	2395.558828
922.826310	2394.573283
923.130932	2394.502707
923.435516	2396.224261
923.740059	2392.516492
924.044564	2392.261914
924.349028	2394.653941
924.653454	2389.998436
924.957840	2391.588920
925.262186	2389.098590
925.566493	2391.972047
925.870761	2390.086656
926.174989	2393.698643
926.479178	2391.873745
926.783328	2392.251831
927.087438	2395.427758
927.391509	2392.854249
927.695541	2392.188817
927.999533	2394.462377
928.303486	2391.107489
928.607400	2391.132695
928.911275	2391.271327
929.215110	2392.045144
929.518906	2393.330638
929.822663	2393.517161
930.126381	2391.462891
930.430060	2392.365257
930.733699	2393.542367
931.037299	2392.312325
931.340861	2394.525392
931.644383	2392.806358
931.947866	2391.397356
932.251309	2392.387943
932.554714	2390.610936
932.858080	2393.476832
933.161407	2392.453478
933.464694	2394.984137
933.767943	2391.417520
934.071153	2392.513971
934.374323	2393.295350
934.677455	2391.551111
934.980548	2391.717469
935.283602	2395.054713
935.586617	2393.509599
935.889593	2391.961965
936.192530	2391.064640
936.495428	2391.788045
936.798287	2392.549259
937.101108	2393.204609
937.403890	2392.773591
937.706632	2391.969527
938.009336	2394.560680
938.312002	2390.177397
938.614628	2391.228477
938.917216	2391.261245
939.219765	2391.430123
939.522275	2396.002450
939.824747	2395.662172
940.127179	2391.767881
940.429573	2386.414175
940.731929	2390.847870
941.034246	2388.271840
941.336524	2391.656975
941.638763	2395.047151
941.940964	2391.276368
942.243126	2392.277037
942.545250	2391.379712
942.847335	2392.942469
943.149381	2394.585886
943.451389	2393.804507
943.753359	2394.101935
944.055290	2393.567572
944.357182	2392.738303
944.659036	2395.077398
944.960851	2394.043962
945.262628	2392.244270
945.564367	2396.854405
945.866067	2394.837943
946.167729	2393.590258
946.469352	2393.378529
946.770937	2394.800135
947.072484	2391.699825
947.373992	2394.381719
947.675462	2394.374157
947.976893	2392.985319
948.278286	2391.382232
948.579641	2391.084804
948.880958	2396.458674
949.182236	2391.324259
949.483476	2393.295350
949.784678	2393.620505
950.085841	2392.087994
950.386967	2389.900133
950.688054	2391.624208
950.989103	2392.675288
951.290114	2391.581358
951.591087	2391.268806
951.892021	2392.113200
952.192917	2391.314177
952.493776	2392.705535
952.794596	2393.353323
953.095378	2393.844836
953.396122	2393.370968
953.696828	2391.543549
953.997496	2392.148488
954.298126	2392.498848
954.598718	2393.857439
954.899272	2392.269475
955.199788	2391.954403
955.500266	2393.101266
955.800706	2391.420041
956.101108	2386.172200
956.401472	2388.796120
956.701798	2387.785369
957.002087	2388.849053
957.302337	2391.306615
957.602550	2393.401214
957.902724	2390.240411
958.202861	2392.261914
958.502960	2390.184958
958.803022	2393.575134
959.103045	2390.374002
959.403031	2391.649413
959.702979	2392.193858
960.002889	2391.876265
960.302762	2390.384084
960.602596	2388.481048
960.902393	2390.832747
961.202153	2391.770401
961.501875	2391.972047
961.801559	2391.205792
962.101205	2392.778632
962.400814	2388.869217
962.700385	2389.300236
962.999918	2390.232849
963.299414	2388.917108
963.598873	2389.839639
963.898293	2392.173693
964.197677	2388.246635
964.497022	2390.928528
964.796331	2389.564896
965.095601	2388.806203
965.394835	2389.554814
965.694030	2388.944834
965.993189	2391.107489
966.292309	2390.091697
966.591393	2389.789228
966.890439	2387.450132
967.189447	2391.611605
967.488419	2389.143960
967.787353	2388.392828
968.086249	2389.610267
968.385108	2389.249824
968.683930	2391.432644
968.982714	2390.421892
969.281462	2390.520195
969.580172	2389.385935
969.878844	2389.761501
970.177480	2389.698487
970.476078	2388.604557
970.774639	2390.626059
971.073162	2389.350647
971.371649	2389.151522
971.670098	2387.127498
971.968510	2386.484751
972.266885	2383.326468
972.565223	2391.057078
972.863524	2390.391646
973.161788	2390.532798
973.460014	2389.902654
973.758204	2389.106151
974.056356	2388.463404
974.354471	2390.928528
974.652550	2389.718652
974.950591	2391.397356
975.248595	2390.484907
975.546563	2391.624208
975.844493	2390.696635
976.142386	2389.406100
976.440243	2389.214536
976.738062	2391.049516
977.035845	2390.862993
977.333590	2390.406769
977.631299	2389.476676
977.928971	2389.690925
978.226606	2388.307128
978.524204	2390.774773
978.821765	2390.205123
979.119290	2389.786707
979.416777	2388.826367
979.714228	2389.524567
980.011642	2389.769063
980.309020	2393.166801
980.606360	2387.482900
980.903664	2392.085473
981.200931	2387.921480
981.498162	2392.173693
981.795356	2389.743857
982.092513	2393.091183
982.389633	2388.024824
982.686717	2391.215874
982.983764	2392.753426
983.280775	2392.637480
983.577749	2392.057747
983.874686	2392.992881
984.171587	2393.882645
984.468451	2393.340721
984.765279	2393.668396
985.062070	2390.174876
985.358824	2388.397869
985.655543	2391.636811
985.952224	2392.498848
986.248869	2391.634290
986.545478	2386.041130
986.842050	2389.048178
987.138586	2385.620193
987.435086	2386.893085
987.731549	2385.920142
988.027975	2391.692263
988.324366	2385.980636
988.620719	2390.280740
988.917037	2388.478528
989.213318	2390.343755
989.509563	2389.300236
989.805772	2389.990874
990.101944	2389.471635
990.398080	2390.326111
990.694180	2387.505585
990.990244	2392.060268
991.286271	2386.552807
991.582262	2389.600184
991.878217	2388.208826
992.174136	2390.832747
992.470019	2390.172355
992.765865	2388.382746
993.061676	2389.123795
993.357450	2387.997097
993.653188	2389.330483
993.948890	2389.269989
994.244556	2390.638662
994.540186	2391.021790
994.835780	2390.515154
995.131337	2391.609084
995.426859	2391.288971
995.722345	2393.688560
996.017795	2392.634959
996.313208	2390.817623
996.608586	2390.258055
996.903928	2390.331152
997.199234	2389.955586
997.494504	2388.723024
997.789738	2393.295350
998.084936	2389.801831
998.380099	2392.818961
998.675225	2390.247973
998.970316	2388.395349
999.265371	2392.312325
999.560390	2391.528426
999.855373	2391.223436
1000.150320	2389.537170
1000.445232	2390.767212
1000.740108	2388.927190
1001.034948	2388.193703
1001.329752	2388.579351
1001.624521	2386.575492
1001.919254	2385.307642
1002.213951	2388.602036
1002.508613	2385.400903
1002.803239	2388.193702
1003.097829	2385.234545
1003.392384	2386.315873
1003.686903	2387.187992
1003.981386	2389.680843
1004.275834	2389.224618
1004.570246	2388.884341
1004.864623	2389.852242
1005.158964	2390.744526
1005.453270	2389.285112
1005.747540	2388.037427
1006.041775	2386.446943
1006.335974	2388.972561
1006.630138	2388.501213
1006.924266	2389.995915
1007.218359	2388.970040
1007.512416	2387.447612
1007.806438	2386.290667
1008.100425	2388.803682
1008.394376	2391.667057
1008.688292	2388.521378
1008.982172	2389.466594
1009.276017	2386.837632
1009.569827	2387.893754
1009.863602	2386.197406
1010.157341	2388.299567
1010.451045	2386.361243
1010.744714	2387.223280
1011.038347	2388.319731
1011.331945	2388.604557
1011.625508	2387.760163
1011.919036	2387.245966
1012.212528	2389.567417
1012.505986	2390.079094
1012.799408	2388.135729
1013.092795	2387.455173
1013.386147	2388.841491
1013.679464	2388.823847
1013.972745	2388.836450
1014.265992	2386.764535
1014.559204	2389.980792
1014.852380	2387.908877
1015.145521	2388.874258
1015.438628	2388.445760
1015.731699	2387.918960
1016.024736	2387.442571
1016.317737	2389.267468
1016.610703	2388.634803
1016.903635	2387.369474
1017.196531	2382.663557
1017.489393	2384.299411
1017.782219	2381.743546
1018.075011	2390.336193
1018.367768	2388.347458
1018.660490	2387.777807
1018.953177	2387.777807
1019.245829	2387.777807
