Dividing Wavelength (nm)	Counts (n)	Blue Motor Position (mm): 0.000000	Red Motor Position (mm): 20.800000	
326.493990	1985.390387
326.888308	1985.390387
327.282561	1985.390387
327.676750	1957.268310
328.070874	1959.622529
328.464933	1966.675103
328.858929	1976.157513
329.252859	1989.090594
329.646726	2001.327995
330.040528	2017.293329
330.434265	2037.324354
330.827938	2057.511654
331.221547	2075.029664
331.615091	2096.746955
332.008571	2115.401744
332.401986	2136.912348
332.795338	2157.296253
333.188625	2176.114881
333.581847	2200.022553
333.975006	2214.314224
334.368100	2233.465568
334.761129	2251.505337
335.154095	2264.340114
335.546996	2281.001128
335.939833	2301.148099
336.332606	2310.338123
336.725315	2322.323466
337.117960	2330.301092
337.510540	2337.426763
337.903056	2349.270954
338.295508	2350.987467
338.687896	2362.824096
339.080220	2370.915148
339.472480	2373.481095
339.864676	2377.735829
340.256807	2383.848228
340.648875	2383.767569
341.040879	2381.690614
341.432818	2387.283774
341.824694	2386.141953
342.216506	2387.797972
342.608253	2387.094731
342.999937	2385.143804
343.391557	2386.182282
343.783113	2383.359236
344.174605	2383.853269
344.566033	2377.919831
344.957397	2377.682897
345.348697	2375.991590
345.739934	2371.615868
346.131106	2372.152751
346.522215	2371.875487
346.913260	2369.370034
347.304241	2370.103522
347.695159	2367.328367
348.086012	2366.796525
348.476802	2366.045393
348.867528	2363.426514
349.258191	2361.697398
349.648789	2360.946266
350.039324	2357.402335
350.429796	2362.854343
350.820203	2360.306039
351.210548	2359.489373
351.600828	2355.272447
351.991045	2357.235977
352.381198	2358.186234
352.771288	2360.288395
353.161314	2361.205885
353.551276	2358.806296
353.941175	2357.921574
354.331010	2357.966944
354.720782	2355.650534
355.110490	2357.417458
355.500135	2360.477439
355.889717	2357.714886
356.279235	2359.663292
356.668689	2362.700588
357.058080	2358.876872
357.447408	2361.599095
357.836672	2360.341328
358.225873	2358.617253
358.615010	2359.315453
359.004084	2364.928778
359.393095	2364.356607
359.782043	2365.289220
360.170927	2367.351052
360.559748	2365.465660
360.948505	2369.642256
361.337199	2368.772657
361.725830	2368.321474
362.114398	2371.429345
362.502903	2369.395240
362.891344	2371.205014
363.279722	2371.333563
363.668037	2371.993955
364.056289	2372.109901
364.444478	2374.582587
364.832603	2373.478574
365.220665	2375.437063
365.608665	2376.089892
365.996601	2378.945706
366.384474	2378.043339
366.772284	2379.981663
367.160031	2376.536034
367.547715	2382.338402
367.935336	2378.297918
368.322893	2380.533669
368.710388	2380.752959
369.097820	2385.872251
369.485189	2384.493496
369.872495	2387.530791
370.259738	2387.790410
370.646918	2390.341234
371.034035	2389.574979
371.421090	2393.675957
371.808081	2399.276679
372.195010	2402.248439
372.581875	2410.137845
372.968678	2414.296797
373.355418	2422.186203
373.742096	2430.597368
374.128710	2440.256219
374.515262	2450.391459
374.901751	2463.974848
375.288177	2483.811788
375.674540	2502.020436
376.060841	2522.361492
376.447079	2545.112219
376.833254	2568.246074
377.219367	2596.030393
377.605417	2630.406021
377.991404	2657.451812
378.377329	2699.595858
378.763191	2733.492576
379.148991	2776.934720
379.534727	2826.900116
379.920402	2872.764534
380.306013	2918.492840
380.691563	2983.284270
381.077049	3036.289482
381.462474	3090.774273
381.847835	3167.094822
382.233134	3236.060327
382.618371	3294.537711
383.003545	3380.552399
383.388657	3457.913946
383.773706	3548.160682
384.158693	3620.649954
384.543618	3711.599931
384.928480	3791.653454
385.313280	3894.477869
385.698017	3998.907891
386.082692	4119.078917
386.467305	4180.858257
386.851856	4308.482628
387.236344	4457.252120
387.620770	4521.937685
388.005133	4640.664420
388.389435	4787.714878
388.773674	4867.246641
389.157851	4997.787320
389.541965	5131.143483
389.926018	5152.901103
390.310008	5331.483978
390.693936	5450.626608
391.077802	5565.252365
391.461606	5704.307552
391.845348	5808.772863
392.229027	5932.669301
392.612645	6152.549308
392.996200	6264.576350
393.379694	6442.382887
393.763125	6664.836403
394.146494	6755.405773
394.529801	6883.335134
394.913047	7130.578525
395.296230	7124.791280
395.679351	7181.902512
396.062410	7433.498939
396.445408	7331.208886
396.828343	7484.344017
397.211217	7608.442101
397.594028	7497.025039
397.976778	7697.110956
398.359466	7859.352931
398.742092	7840.388110
399.124656	7982.757856
399.507158	8165.197214
399.889598	8187.015328
400.271977	8394.083243
400.654294	8425.761853
401.036549	8618.953992
401.418742	8638.730439
401.800874	8937.822096
402.182944	9016.068366
402.564952	9378.116473
402.946898	9201.968476
403.328783	9255.341692
403.710606	9449.133728
404.092367	9704.135454
404.474067	10055.541686
404.855705	9857.026089
405.237282	9804.653541
405.618797	10228.475948
406.000250	10474.325459
406.381642	10826.382000
406.762972	10783.791812
407.144240	10585.112377
407.525447	10827.486013
407.906593	10774.289237
408.287677	11016.279745
408.668700	11173.604074
409.049661	11145.348407
409.430560	11308.223046
409.811399	11275.831112
410.192176	11435.807088
410.572891	11515.086794
410.953545	11981.789256
411.334138	11465.025616
411.714669	12054.240719
412.095139	11374.529343
412.475547	11870.125177
412.855894	11707.295908
413.236180	12035.958974
413.616405	11718.633463
413.996568	11999.264416
414.376670	11965.324847
414.756711	11846.719100
415.136691	12118.427210
415.516609	12281.296809
415.896466	12355.061492
416.276262	12646.198209
416.655997	13089.902927
417.035670	13119.781846
417.415283	13749.011107
417.794834	13841.370087
418.174324	13583.966251
418.553753	13486.117454
418.933121	13956.424341
419.312428	13767.799487
419.691674	13682.019213
420.070859	14119.926604
420.449983	13785.567034
420.829045	14310.159586
421.208047	14064.408377
421.586988	14489.279343
421.965867	14735.383433
422.344686	14722.553697
422.723444	15267.504948
423.102141	13976.649450
423.480777	15122.337361
423.859352	14633.947856
424.237866	15687.619586
424.616319	15383.426281
424.994712	15992.979918
425.373044	15769.896258
425.751314	16394.981691
426.129524	15526.398445
426.507673	16534.077208
426.885762	16217.112139
427.263789	16359.617997
427.641756	16483.627861
428.019662	16486.803788
428.397508	16479.655431
428.775292	16704.097683
429.153016	16613.976976
429.530679	16627.867875
429.908282	16583.185608
430.285824	16254.507418
430.663305	16822.116136
431.040726	16384.785957
431.418086	16148.731408
431.795385	16631.810057
432.172624	16907.233498
432.549802	16427.187102
432.926920	16486.239178
433.303977	16280.222344
433.680974	16390.545475
434.057910	16517.191863
434.434786	16425.105106
434.811601	16231.267699
435.188355	16976.536760
435.565050	16554.546813
435.941683	16380.566511
436.318257	16954.191846
436.694770	16649.159188
437.071222	16968.065101
437.447614	16072.045375
437.823946	15937.645693
438.200218	15895.257151
438.576429	15571.010136
438.952580	15600.276554
439.328670	15414.346198
439.704700	15547.793102
440.080670	15068.016408
440.456580	15309.160002
440.832429	15248.131794
441.208218	14380.428229
441.583947	14481.175689
441.959616	14381.466707
442.335224	14348.646275
442.710773	14244.193567
443.086261	14388.826791
443.461689	13803.092605
443.837057	13685.931149
444.212365	13872.509294
444.587612	13670.926154
444.962800	13225.961148
445.337927	13258.040531
445.712995	12335.259840
446.088002	13169.631295
446.462949	13066.882498
446.837837	12931.063731
447.212664	12682.807068
447.587431	13889.538312
447.962139	15111.350166
448.336786	16046.375820
448.711374	15048.371031
449.085901	13045.054302
449.460369	12716.754198
449.834776	12427.099581
450.209124	13268.175771
450.583412	12842.306656
450.957640	12819.339159
451.331808	12009.939059
451.705917	11229.880995
452.079965	10999.767445
452.453954	10900.126519
452.827883	10636.998453
453.201752	10349.589669
453.575562	10187.201501
453.949311	10333.848666
454.323001	10142.322629
454.696632	9850.739770
455.070202	10095.621380
455.443713	9931.335217
455.817164	9878.791270
456.190556	9791.717941
456.563888	9436.863560
456.937160	9325.678391
457.310373	8699.597330
457.683526	8589.410310
458.056619	8377.709575
458.429653	8166.588572
458.802628	8093.136440
459.175542	7929.561080
459.548398	8013.100561
459.921194	8146.335737
460.293930	8112.146631
460.666607	8309.704409
461.039224	8433.701671
461.411782	8290.479969
461.784280	7860.318312
462.156719	7545.024385
462.529099	7247.611432
462.901419	6849.738365
463.273680	6520.296440
463.645882	6350.341500
464.018024	6182.760943
464.390106	6131.845289
464.762130	6320.659186
465.134094	6695.416043
465.505999	7194.528082
465.877845	7543.113788
466.249631	7431.275790
466.621358	6995.026939
466.993026	6545.093876
467.364634	6142.746785
467.736184	5792.124452
468.107674	5527.186612
468.479105	5325.142207
468.850477	5132.396210
469.221790	4902.239811
469.593043	4664.249458
469.964238	4490.354856
470.335373	4381.481057
470.706449	4374.269686
471.077467	4420.572684
471.448425	4572.127413
471.819324	4628.631186
472.190164	4445.216365
472.560945	4190.449052
472.931667	3966.692398
473.302330	3832.138960
473.672934	3729.251531
474.043479	3679.654139
474.413965	3590.856734
474.784393	3519.726054
475.154761	3493.275119
475.525070	3444.322995
475.895321	3379.839076
476.265513	3355.006352
476.635645	3338.483970
477.005719	3294.608288
477.375734	3260.759460
477.745691	3241.192221
478.115588	3233.880028
478.485427	3241.439238
478.855207	3276.369393
479.224928	3297.391004
479.594591	3295.498051
479.964194	3245.121801
480.333739	3214.983262
480.703226	3186.934282
481.072653	3172.090605
481.442022	3154.312976
481.811333	3138.755975
482.180584	3096.886672
482.549777	3068.930953
482.918912	3045.184598
483.287988	3023.842873
483.657005	2998.082577
484.025964	2974.200111
484.394864	2960.599078
484.763706	2944.457303
485.132489	2921.802358
485.501213	2908.501273
485.869879	2899.442320
486.238487	2888.508057
486.607036	2878.808877
486.975527	2862.634335
487.343959	2854.263499
487.712333	2849.297962
488.080648	2840.581807
488.448905	2841.501818
488.817104	2829.566886
489.185244	2833.456137
489.553326	2839.934019
489.921350	2860.194417
490.289315	2882.234341
490.657222	2884.538148
491.025070	2878.899618
491.392861	2865.369161
491.760593	2845.902745
492.128267	2825.475990
492.495883	2811.393527
492.863440	2790.341668
493.230939	2775.200563
493.598380	2761.042482
493.965763	2750.839187
494.333088	2740.711509
494.700354	2735.587176
495.067563	2730.906464
495.434713	2723.851370
495.801805	2722.565875
496.168839	2718.550596
496.535815	2716.332489
496.902733	2708.985007
497.269593	2707.132383
497.636395	2701.004860
498.003139	2704.546271
498.369825	2698.822041
498.736453	2700.042000
499.103023	2691.938345
499.469535	2689.634538
499.835989	2689.868952
500.202385	2687.562624
500.568723	2688.044054
500.935003	2688.434743
501.301226	2688.089424
501.667390	2689.949610
502.033497	2690.927594
502.399546	2684.895853
502.765537	2682.587005
503.131470	2683.451563
503.497345	2689.155628
503.863163	2680.134483
504.228923	2686.239321
504.594625	2688.071780
504.960269	2684.646316
505.325856	2689.758046
505.691385	2684.028775
506.056856	2689.059846
506.422270	2691.625794
506.787625	2691.114117
507.152924	2692.137471
507.518164	2694.337934
507.883347	2691.310722
508.248472	2692.313911
508.613540	2699.510158
508.978550	2704.193390
509.343503	2701.939994
509.708398	2705.360417
510.073236	2711.447611
510.438016	2714.285780
510.802738	2707.823021
511.167403	2718.386759
511.532010	2718.870710
511.896561	2722.200392
512.261053	2730.152812
512.625488	2727.501165
512.989866	2726.145095
513.354186	2729.855384
513.718449	2728.211968
514.082655	2738.372413
514.446803	2737.056672
514.810894	2744.134452
515.174927	2744.492374
515.538904	2743.290059
515.902822	2749.309197
516.266684	2753.447984
516.630488	2752.727099
516.994235	2752.880854
517.357925	2755.779517
517.721558	2760.014087
518.085133	2762.189345
518.448651	2766.484408
518.812112	2762.282606
519.175516	2762.247318
519.538863	2767.807711
519.902152	2770.184615
520.265385	2774.882970
520.628560	2773.456323
520.991678	2772.203597
521.354739	2772.236364
521.717743	2778.215173
522.080690	2777.471603
522.443580	2784.962757
522.806413	2788.859569
523.169189	2785.156842
523.531908	2785.194650
523.894569	2786.722120
524.257174	2788.698252
524.619722	2788.534415
524.982213	2790.467697
525.344647	2789.887964
525.707025	2789.343520
526.069345	2791.859056
526.431608	2793.653706
526.793815	2798.631846
527.155964	2792.060702
527.518057	2795.271917
527.880093	2792.136319
528.242072	2795.927267
528.603995	2791.480969
528.965860	2792.877369
529.327669	2796.438944
529.689421	2792.718572
530.051117	2794.140178
530.412755	2795.206382
530.774337	2795.186217
531.135862	2794.339303
531.497331	2793.515075
531.858743	2791.639765
532.220098	2791.914508
532.581396	2791.692697
532.942638	2788.403345
533.303824	2794.246042
533.664953	2793.452060
534.026025	2791.977523
534.387040	2794.538429
534.747999	2795.206382
535.108902	2794.664458
535.469748	2791.065074
535.830537	2789.222532
536.191270	2793.061371
536.551947	2791.397790
536.912567	2791.443160
537.273131	2793.174797
537.633638	2785.320679
537.994089	2787.972326
538.354483	2785.799589
538.714821	2789.036009
539.075103	2791.914508
539.435328	2790.991977
539.795497	2789.635907
540.155609	2789.522481
540.515665	2791.838891
540.875665	2784.561985
541.235609	2789.509878
541.595496	2789.300670
541.955328	2793.923408
542.315102	2787.919394
542.674821	2784.446039
543.034483	2786.568365
543.394090	2786.487706
543.753640	2785.030813
544.113134	2792.597585
544.472571	2784.667850
544.831953	2792.443829
545.191278	2787.044754
545.550548	2780.944957
545.909761	2786.127264
546.268918	2785.968467
546.628019	2790.359312
546.987064	2786.835546
547.346053	2778.074020
547.704986	2782.157355
548.063863	2777.446397
548.422684	2778.331119
548.781449	2775.858433
549.140158	2777.713578
549.498811	2778.142076
549.857408	2770.245108
550.215949	2770.781991
550.574434	2769.766199
550.932864	2767.492638
551.291237	2769.453647
551.649555	2768.485746
552.007817	2766.428955
552.366022	2762.451485
552.724173	2766.139089
553.082267	2763.754623
553.440305	2762.968203
553.798288	2756.966709
554.156215	2755.199785
554.514086	2755.870258
554.871902	2748.192581
555.229661	2748.391707
555.587365	2742.715367
555.945014	2743.463979
556.302606	2742.019688
556.660143	2737.560787
557.017625	2734.019377
557.375050	2730.281361
557.732421	2730.447719
558.089735	2725.913202
558.446994	2724.594940
558.804197	2722.913715
559.161345	2719.594115
559.518437	2714.384083
559.875474	2712.044987
560.232455	2712.418033
560.589381	2706.769420
560.946251	2703.855633
561.303065	2703.532999
561.659825	2700.210879
562.016528	2693.569158
562.373177	2690.282326
562.729770	2687.537418
563.086307	2683.575071
563.442789	2684.038857
563.799216	2680.689010
564.155587	2674.710202
564.511904	2671.178874
564.868164	2671.032680
565.224370	2670.115190
565.580520	2663.367606
565.936615	2664.048162
566.292654	2656.592295
566.648638	2658.182779
567.004567	2653.842346
567.360441	2653.610452
567.716260	2648.294556
568.072023	2644.324647
568.427732	2636.878863
568.783385	2638.083699
569.138982	2634.630508
569.494525	2633.095477
569.850013	2629.155815
570.205445	2630.310239
570.560823	2627.298150
570.916145	2623.580299
571.271412	2622.042747
571.626625	2618.534104
571.981782	2620.943776
572.336884	2617.029320
572.691931	2615.277519
573.046923	2613.200563
573.401860	2606.228647
573.756743	2606.450458
574.111570	2603.703029
574.466342	2602.155395
574.821059	2601.439551
575.175722	2598.082143
575.530330	2595.017121
575.884882	2594.989395
576.239380	2591.586616
576.593823	2592.078129
576.948211	2588.904722
577.302544	2589.981009
577.656823	2586.772314
578.011047	2586.999166
578.365216	2582.003383
578.719330	2580.632189
579.073389	2579.008937
579.427394	2580.226376
579.781344	2576.760583
580.135239	2577.282342
580.489080	2577.516756
580.842866	2573.317475
581.196597	2574.958370
581.550273	2574.537434
581.903895	2570.312947
582.257463	2576.569019
582.610975	2572.031980
582.964434	2569.375292
583.317837	2566.718604
583.671186	2567.386557
584.024481	2569.186249
584.377721	2563.542677
584.730906	2566.401012
585.084037	2566.857236
585.437113	2563.187276
585.790135	2563.527554
586.143103	2562.834395
586.496016	2562.473953
586.848874	2557.372305
587.201679	2559.834909
587.554428	2556.243087
587.907124	2558.020093
588.259765	2557.379867
588.612352	2558.123437
588.964884	2553.596481
589.317362	2553.208312
589.669786	2556.837943
590.022155	2556.583364
590.374470	2557.458005
590.726731	2552.416851
591.078937	2554.952551
591.431090	2555.126471
591.783188	2551.214536
592.135232	2551.413661
592.487222	2551.431305
592.839157	2550.617159
593.191038	2551.043136
593.542866	2547.310162
593.894639	2543.166333
594.246358	2545.760007
594.598022	2546.730429
594.949633	2543.025181
595.301190	2543.771272
595.652692	2544.706406
596.004141	2543.927548
596.355535	2542.329502
596.706876	2541.711961
597.058162	2539.080478
597.409395	2540.101312
597.760573	2541.021322
598.111698	2539.803884
598.462768	2541.684234
598.813785	2539.120807
599.164748	2541.737166
599.515657	2539.710622
599.866511	2537.469830
600.217312	2537.439583
600.568060	2537.633667
600.918753	2539.004861
601.269392	2539.473688
601.619978	2535.292051
601.970510	2537.484953
602.320988	2536.204500
602.671412	2539.672814
603.021783	2535.012267
603.372100	2534.669469
603.722363	2534.561084
604.072572	2535.019829
604.422728	2535.181146
604.772830	2532.501773
605.122878	2531.662420
605.472872	2530.059333
605.822813	2527.707635
606.172701	2532.131248
606.522534	2532.262318
606.872314	2536.111239
607.222041	2530.792821
607.571714	2533.131917
607.921333	2532.390867
608.270899	2532.635363
608.620411	2529.769467
608.969870	2532.451361
609.319276	2532.113604
609.668627	2528.922553
610.017926	2535.753317
610.367171	2534.898841
610.716362	2532.486649
611.065500	2532.199303
611.414585	2533.346166
611.763616	2534.614016
612.112594	2532.209386
612.461518	2531.518748
612.810389	2533.704088
613.159207	2532.539581
613.507971	2531.385157
613.856682	2535.140817
614.205340	2532.574869
614.553945	2533.512524
614.902496	2530.767616
615.250994	2530.011442
615.599439	2534.888759
615.947830	2534.392205
616.296169	2533.688964
616.644454	2536.189377
616.992686	2533.394057
617.340864	2534.077133
617.688990	2530.775177
618.037063	2534.684592
618.385082	2532.781557
618.733048	2535.564273
619.080961	2534.520755
619.428821	2533.346166
619.776628	2535.584438
620.124382	2533.237781
620.472083	2534.442617
620.819731	2536.222144
621.167326	2529.225022
621.514868	2533.653676
621.862357	2530.876000
622.209793	2530.150074
622.557176	2528.730989
622.904506	2526.326359
623.251783	2520.163548
623.599007	2525.285361
623.946179	2517.796727
624.293297	2522.265710
624.640363	2520.208919
624.987376	2521.696059
625.334336	2517.612725
625.681243	2519.740092
626.028097	2521.186903
626.374899	2518.187416
626.721647	2518.346212
627.068343	2517.269926
627.414987	2516.922087
627.761577	2514.121726
628.108115	2517.610204
628.454600	2513.158865
628.801032	2515.525687
629.147412	2513.229441
629.493739	2513.622651
629.840014	2515.966788
630.186236	2510.335819
630.532405	2510.920593
630.878521	2513.121057
631.224585	2513.587363
631.570597	2509.924965
631.916556	2511.638957
632.262462	2507.963956
632.608316	2509.675428
632.954117	2505.806342
633.299866	2510.197187
633.645562	2509.299862
633.991206	2508.639471
634.336797	2503.762154
634.682336	2508.180726
635.027823	2504.742659
635.373257	2504.732577
635.718639	2503.500014
636.063968	2503.056393
636.409245	2499.346104
636.754470	2501.148316
637.099642	2499.509941
637.444762	2501.695281
637.789829	2498.738645
638.134845	2498.673110
638.479808	2497.485918
638.824719	2498.421052
639.169577	2493.886534
639.514383	2494.756133
639.859137	2496.119765
640.203839	2499.265445
640.548489	2493.808396
640.893086	2490.813951
641.237632	2488.936121
641.582125	2490.950062
641.926566	2488.336224
642.270955	2492.865700
642.615292	2493.626915
642.959576	2492.601040
643.303809	2491.930566
643.647990	2493.004332
643.992118	2489.772952
644.336195	2495.913078
644.680219	2489.299084
645.024192	2492.805207
645.368112	2492.210350
645.711981	2494.771257
646.055797	2494.554487
646.399562	2495.245125
646.743274	2498.610095
647.086935	2497.042296
647.430544	2497.183449
647.774101	2496.626401
648.117606	2494.317553
648.461059	2497.884169
648.804460	2501.581855
649.147810	2493.727738
649.491108	2495.378716
649.834354	2493.901658
650.177548	2492.719507
650.520690	2489.478045
650.863781	2488.159783
651.206820	2490.277068
651.549807	2489.568786
651.892742	2486.967550
652.235626	2486.922180
652.578458	2488.981491
652.921238	2483.476551
653.263967	2484.343630
653.606644	2483.705924
653.949269	2485.682056
654.291843	2483.466469
654.634365	2483.385811
654.976836	2482.150728
655.319255	2483.068218
655.661622	2481.298773
656.003938	2484.457056
656.346203	2479.279791
656.688416	2483.363125
657.030577	2481.921355
657.372687	2481.197950
657.714746	2480.635861
658.056753	2480.204843
658.398708	2477.475058
658.740612	2478.143011
659.082465	2477.369193
659.424266	2476.902887
659.766016	2478.500932
660.107715	2483.007724
660.449362	2478.934472
660.790958	2479.408340
661.132503	2478.904225
661.473996	2480.829946
661.815438	2478.770634
662.156829	2480.608135
662.498168	2480.547641
662.839456	2481.623927
663.180693	2478.649647
663.521879	2482.705255
663.863013	2479.236941
664.204097	2480.482106
664.545129	2477.873309
664.886110	2481.283649
665.227040	2479.128556
665.567918	2482.085193
665.908746	2479.615028
666.249522	2481.389514
666.590248	2480.033443
666.930922	2481.384472
667.271545	2481.145018
667.612118	2480.245172
667.952639	2478.503453
668.293109	2479.662918
668.633528	2482.949751
668.973896	2477.414564
669.314213	2478.788278
669.654480	2476.754173
669.994695	2480.197281
670.334859	2478.347177
670.674973	2476.827269
671.015035	2480.449338
671.355047	2477.835500
671.695008	2477.971611
672.034918	2477.633854
672.374777	2476.683597
672.714585	2476.615541
673.054342	2476.953298
673.394049	2479.128556
673.733705	2479.645274
674.073310	2477.399440
674.412864	2479.708289
674.752368	2475.486323
675.091820	2474.727629
675.431223	2476.721405
675.770574	2477.263329
676.109875	2469.200004
676.449125	2473.316106
676.788324	2469.134469
677.127473	2472.650673
677.466571	2467.302009
677.805619	2471.125724
678.144616	2471.624799
678.483562	2474.339460
678.822458	2469.623461
679.161303	2468.869808
679.500098	2471.115642
679.838842	2466.608851
680.177535	2473.724439
680.516179	2468.985755
680.854771	2470.583800
681.193314	2473.437093
681.531805	2476.015644
681.870247	2474.868781
682.208638	2476.557568
682.546978	2478.145531
682.885268	2478.561426
683.223508	2479.105871
683.561697	2477.190232
683.899836	2479.554534
684.237925	2475.768627
684.575963	2476.106384
684.913951	2473.366517
685.251889	2477.056642
685.589776	2476.711323
685.927614	2475.912300
686.265401	2472.852320
686.603137	2474.367186
686.940824	2478.233751
687.278460	2476.229893
687.616046	2476.713843
687.953582	2478.006899
688.291068	2479.615028
688.628504	2478.619400
688.965889	2475.985397
689.303224	2479.849441
689.640510	2476.834831
689.977745	2476.665953
690.314930	2475.929944
690.652065	2473.545478
690.989150	2472.300313
691.326185	2470.704788
691.663170	2468.234623
692.000105	2466.858388
692.336990	2465.751854
692.673825	2464.133644
693.010610	2464.715897
693.347345	2461.786987
693.684030	2457.824640
694.020665	2455.898919
694.357251	2453.239711
694.693786	2457.890175
695.030272	2460.171297
695.366707	2457.930504
695.703093	2456.829012
696.039429	2455.500668
696.375716	2455.843467
696.711952	2457.922942
697.048139	2453.277519
697.384276	2454.426902
697.720363	2456.370267
698.056400	2454.716769
698.392388	2454.018569
698.728326	2453.900102
699.064214	2452.206274
699.400053	2453.794238
699.735842	2453.930349
700.071581	2451.308949
700.407270	2453.146449
700.742910	2449.342899
701.078501	2450.860286
701.414042	2450.877930
701.749533	2447.825511
702.084974	2448.760645
702.420366	2446.434153
702.755709	2447.548248
703.091002	2446.857610
703.426246	2447.482713
703.761440	2449.199226
704.096584	2444.445418
704.431679	2445.393155
704.766725	2445.746035
705.101721	2442.928030
705.436668	2446.781993
705.771565	2448.337188
706.106413	2447.747373
706.441212	2444.213525
706.775961	2450.456994
707.110661	2446.038422
707.445311	2447.218052
707.779913	2446.731581
708.114465	2451.079576
708.448967	2447.843155
708.783421	2451.624021
709.117825	2451.245934
709.452180	2453.643003
709.786485	2452.891871
710.120742	2455.011676
710.454949	2458.139712
710.789107	2451.543362
711.123216	2452.473455
711.457275	2455.719958
711.791286	2454.434464
712.125247	2456.065277
712.459159	2458.757253
712.793023	2457.343210
713.126837	2456.710545
713.460602	2458.157356
713.794318	2456.309773
714.127985	2454.878086
714.461602	2456.604681
714.795171	2452.566717
715.128691	2451.170317
715.462162	2450.086469
715.795584	2452.879268
716.128957	2448.874071
716.462281	2447.117229
716.795556	2444.084975
717.128782	2445.340222
717.461960	2447.933896
717.795088	2444.702517
718.128167	2443.621189
718.461198	2444.543720
718.794180	2441.884512
719.127113	2442.068514
719.459997	2442.300407
719.792833	2441.019954
720.125619	2440.225972
720.458357	2438.149017
720.791046	2441.733277
721.123686	2441.168668
721.456278	2440.677155
721.788821	2437.952412
722.121315	2438.766558
722.453761	2435.908224
722.786158	2440.034408
723.118506	2436.949222
723.450805	2439.991558
723.783056	2439.041301
724.115259	2438.287648
724.447412	2436.964345
724.779518	2438.451486
725.111574	2439.613472
725.443582	2442.741508
725.775542	2440.732608
726.107453	2438.436362
726.439315	2442.711261
726.771129	2448.075048
727.102895	2441.443411
727.434612	2443.984152
727.766281	2444.750408
728.097901	2444.170675
728.429473	2439.288317
728.760996	2442.053390
729.092471	2439.348811
729.423897	2445.572116
729.755276	2444.117743
730.086606	2444.747887
730.417887	2443.001127
730.749120	2443.966508
731.080305	2447.379369
731.411442	2450.487241
731.742530	2446.913063
732.073570	2449.305090
732.404562	2449.809205
732.735506	2447.873402
733.066401	2448.743001
733.397249	2446.595470
733.728048	2443.744697
734.058798	2445.320058
734.389501	2442.527259
734.720156	2438.121290
735.050762	2437.894438
735.381320	2440.548606
735.711831	2438.459047
736.042293	2438.567432
736.372707	2435.454520
736.703073	2435.862853
737.033391	2434.683223
737.363661	2436.687082
737.693883	2436.510642
738.024056	2440.921651
738.354182	2439.227823
738.684260	2440.472988
739.014290	2442.587752
739.344272	2441.728236
739.674207	2439.915941
740.004093	2440.566250
740.333931	2441.055242
740.663722	2444.402568
740.993464	2442.166816
741.323159	2443.280911
741.652806	2439.777309
741.982405	2440.238575
742.311956	2440.059614
742.641460	2440.047011
742.970915	2439.989038
743.300323	2440.384768
743.629683	2436.674479
743.958996	2437.952412
744.288260	2436.230858
744.617477	2438.091043
744.946647	2430.736000
745.275768	2432.707091
745.604842	2431.383788
745.933869	2429.846236
746.262847	2431.139292
746.591778	2431.580393
746.920662	2432.853284
747.249498	2433.490990
747.578286	2431.703901
747.907027	2433.803542
748.235720	2433.579211
748.564365	2434.148861
748.892963	2437.319747
749.221514	2432.823037
749.550017	2433.899324
749.878473	2434.032914
750.206881	2433.589293
750.535242	2431.840013
750.863555	2434.030394
751.191821	2432.956628
751.520039	2434.685744
751.848210	2433.032245
752.176334	2432.752461
752.504411	2432.830599
752.832440	2432.177770
753.160421	2431.532502
753.488356	2432.442430
753.816243	2434.368151
754.144082	2433.785898
754.471875	2431.592996
754.799620	2431.154416
755.127318	2433.065013
755.454969	2431.098963
755.782572	2430.683068
756.110129	2431.461926
756.437638	2430.425969
756.765100	2428.522933
757.092515	2429.599220
757.419882	2429.100145
757.747203	2427.827254
758.074477	2430.075609
758.401703	2432.076947
758.728882	2431.930753
759.056014	2434.756320
759.383099	2432.177770
759.710138	2433.944694
760.037129	2432.127358
760.364073	2434.605085
760.690970	2433.748089
761.017820	2433.417894
761.344623	2433.324632
761.671379	2435.681372
761.998088	2432.782708
762.324751	2439.419387
762.651366	2448.886674
762.977935	2460.932511
763.304456	2464.942749
763.630931	2466.129941
763.957359	2465.852678
764.283740	2460.196503
764.610074	2456.614763
764.936362	2449.970522
765.262602	2446.313165
765.588796	2440.833431
765.914943	2436.243460
766.241044	2433.332194
766.567097	2434.736155
766.893104	2429.979827
767.219064	2429.102666
767.544978	2429.369847
767.870845	2425.692325
768.196665	2425.475556
768.522438	2425.485638
768.848165	2423.713673
769.173846	2424.356420
769.499479	2422.440781
769.825066	2425.422624
770.150607	2423.196954
770.476101	2422.687798
770.801548	2423.748961
771.126949	2421.024217
771.452303	2423.204516
771.777611	2421.218301
772.102872	2421.137643
772.428087	2420.595719
772.753256	2419.892478
773.078378	2418.291912
773.403453	2421.296439
773.728482	2419.721079
774.053465	2418.163362
774.378401	2419.990780
774.703291	2419.650503
775.028135	2415.995666
775.352932	2420.124371
775.677683	2418.843918
776.002388	2419.569844
776.327046	2418.065060
776.651658	2417.434915
776.976224	2421.180493
777.300743	2416.935841
777.625216	2418.463311
777.949643	2417.903743
778.274024	2416.124215
778.598359	2412.315624
778.922647	2413.104564
779.246889	2414.130439
779.571086	2411.045253
779.895236	2416.648495
780.219339	2418.405338
780.543397	2415.786458
780.867409	2416.088927
781.191374	2417.487848
781.515294	2415.690676
781.839167	2415.846952
782.162995	2416.527508
782.486776	2415.375604
782.810511	2417.374422
783.134201	2419.214443
783.457844	2416.988773
783.781441	2415.315110
784.104993	2417.230749
784.428498	2416.588002
784.751958	2416.315779
785.075372	2418.175965
785.398739	2414.566499
785.722061	2415.728485
786.045337	2415.655388
786.368568	2413.807805
786.691752	2418.428023
787.014891	2415.529359
787.337983	2417.918866
787.661030	2419.443815
787.984031	2421.175452
788.306987	2422.672674
788.629897	2424.769794
788.952760	2424.643765
789.275579	2422.770977
789.598351	2421.288878
789.921078	2421.140163
790.243759	2418.503640
790.566395	2417.802920
790.888984	2416.484658
791.211529	2416.454411
791.534027	2416.908115
791.856480	2415.420974
792.178888	2414.281674
792.501249	2414.027095
792.823566	2418.435584
793.145836	2415.121026
793.468062	2415.431057
793.790241	2414.140521
794.112375	2417.797878
794.434464	2417.497930
794.756507	2419.393404
795.078505	2417.576068
795.400457	2413.427198
795.722364	2417.316448
796.044226	2419.113620
796.366042	2416.393917
796.687812	2420.613363
797.009538	2420.711665
797.331218	2418.753177
797.652852	2419.968095
797.974442	2416.630851
798.295986	2417.835687
798.617484	2417.810481
798.938938	2417.303845
799.260346	2418.967426
799.581709	2415.814184
799.903026	2416.305697
800.224299	2412.844945
800.545526	2414.276632
800.866708	2415.882240
801.187845	2413.341498
801.508936	2414.894174
801.829983	2416.209915
802.150984	2413.265881
802.471940	2413.384348
802.792851	2411.400654
803.113717	2413.472568
803.434538	2412.265212
803.755314	2415.282343
804.076045	2414.122877
804.396731	2412.812177
804.717372	2409.903432
805.037967	2415.788979
805.358518	2415.040367
805.679024	2413.195305
805.999485	2414.921900
806.319901	2415.123546
806.640272	2415.826787
806.960598	2414.702610
807.280879	2415.189081
807.601115	2418.186047
807.921306	2411.703123
808.241453	2415.360481
808.561554	2414.962229
808.881611	2415.398289
809.201623	2416.719072
809.521590	2415.022723
809.841513	2416.189750
810.161390	2414.349729
810.481223	2413.956519
810.801011	2413.255799
811.120755	2414.127918
811.440453	2413.696900
811.760107	2415.216808
812.079716	2413.197826
812.399281	2408.612896
812.718801	2409.958884
813.038276	2409.590880
813.357707	2413.374266
813.677093	2410.911662
813.996434	2413.480130
814.315731	2412.973494
814.634983	2414.586663
814.954191	2414.027095
815.273354	2415.862075
815.592473	2414.579102
815.911547	2416.295615
816.230577	2414.291756
816.549562	2415.836870
816.868502	2416.905594
817.187399	2417.082035
817.506250	2415.990625
817.825058	2419.784093
818.143821	2417.974319
818.462539	2416.882909
818.781213	2420.136974
819.099843	2422.387849
819.418429	2426.153591
819.736970	2430.128541
820.055466	2432.273552
820.373919	2437.617175
820.692327	2444.778134
821.010691	2462.066771
821.329011	2493.987357
821.647286	2548.741850
821.965517	2602.634305
822.283704	2635.212762
822.601847	2643.765079
822.919945	2621.647017
823.237999	2593.167018
823.556010	2568.611558
823.873976	2540.020653
824.191897	2518.653723
824.509775	2500.903820
824.827609	2485.934114
825.145398	2476.970942
825.463144	2472.655715
825.780845	2471.123204
826.098502	2480.330871
826.416116	2493.546256
826.733685	2504.767865
827.051210	2508.498318
827.368692	2501.561691
827.686129	2489.165493
828.003522	2474.505818
828.320872	2455.530915
828.638177	2451.457663
828.955439	2439.121959
829.272656	2436.901331
829.589830	2428.895979
829.906960	2428.895979
830.224046	2426.904723
830.541088	2423.711152
830.858086	2419.471542
831.175041	2421.538415
831.491952	2418.927097
831.808819	2417.893660
832.125642	2422.045051
832.442421	2426.546801
832.759157	2429.478232
833.075849	2443.288473
833.392497	2453.025462
833.709101	2458.994188
834.025662	2458.200206
834.342179	2453.776593
834.658653	2446.668567
834.975083	2440.069696
835.291469	2442.126487
835.607811	2427.517223
835.924110	2426.014959
836.240366	2423.970771
836.556578	2419.156469
836.872746	2419.766449
837.188871	2419.421130
837.504952	2413.046591
837.820990	2411.912331
838.136984	2414.553896
838.452935	2411.052815
838.768842	2412.973494
839.084706	2410.102557
839.400526	2419.111099
839.716303	2423.595205
840.032037	2427.229877
840.347727	2423.985895
840.663373	2424.815165
840.978977	2422.652510
841.294537	2417.283681
841.610054	2415.473907
841.925527	2414.523649
842.240957	2414.208577
842.556344	2410.815880
842.871687	2409.066600
843.186987	2410.626837
843.502244	2408.035684
843.817458	2407.213976
844.132629	2405.600807
844.447756	2407.806312
844.762840	2401.106618
845.077881	2403.070147
845.392879	2401.053686
845.707833	2403.589386
846.022745	2402.497977
846.337613	2404.617782
846.652438	2405.981414
846.967221	2405.368914
847.281960	2404.428738
847.596656	2409.787485
847.911309	2403.249108
848.225919	2405.963770
848.540485	2404.363203
848.855009	2406.432597
849.169490	2404.983265
849.483928	2404.731208
849.798323	2404.718605
850.112675	2402.455127
850.426984	2401.209962
850.741251	2403.231464
851.055474	2400.925137
851.369654	2404.078378
851.683792	2403.594428
851.997887	2405.119377
852.311938	2403.377658
852.625947	2403.417987
852.939914	2405.631054
853.253837	2403.294479
853.567718	2402.883625
853.881555	2402.883625
854.195350	2402.097205
854.509103	2404.262380
854.822812	2404.249777
855.136479	2402.792884
855.450103	2400.622667
855.763685	2401.658624
856.077224	2404.184242
856.390720	2401.489746
856.704173	2405.235323
857.017584	2402.107287
857.330953	2402.989489
857.644278	2402.034190
857.957561	2407.294634
858.270802	2404.544685
858.584000	2405.568039
858.897155	2405.981414
859.210268	2403.375137
859.523339	2405.986455
859.836367	2402.797925
860.149352	2403.690209
860.462295	2406.833369
860.775195	2397.734086
861.088054	2397.746689
861.400869	2401.109139
861.713642	2400.047976
862.026373	2404.922772
862.339062	2403.264232
862.651708	2405.386558
862.964312	2403.037380
863.276873	2404.322874
863.589392	2402.167781
863.901869	2402.508059
864.214303	2404.733728
864.526696	2405.815056
864.839045	2403.279355
865.151353	2405.126938
865.463619	2404.035528
865.775842	2406.609038
866.088023	2405.673903
866.400162	2405.810015
866.712258	2403.977555
867.024313	2404.884963
867.336325	2404.222051
867.648296	2405.787329
867.960224	2403.289438
868.272110	2405.071486
868.583954	2403.410425
868.895755	2406.578791
869.207515	2406.074675
869.519233	2406.319171
869.830909	2406.919068
870.142542	2404.857237
870.454134	2405.847823
870.765684	2405.280693
871.077191	2405.358831
871.388657	2406.372103
871.700081	2407.125756
872.011463	2406.556105
872.322803	2405.200035
872.634101	2407.123235
872.945357	2404.663152
873.256571	2405.936043
873.567744	2407.513925
873.878874	2408.585170
874.189963	2407.554254
874.501010	2408.456620
874.812015	2406.866136
875.122979	2408.746487
875.433900	2408.847310
875.744780	2409.336302
876.055618	2410.336971
876.366415	2410.029460
876.677169	2409.427043
876.987882	2409.805129
877.298554	2404.234654
877.609183	2406.540982
877.919771	2408.398647
878.230317	2407.912176
878.540822	2413.956519
878.851285	2414.987435
879.161707	2417.013979
879.472087	2418.894329
879.782425	2429.818510
880.092722	2437.690272
880.402977	2457.751543
880.713191	2480.277939
881.023363	2501.793584
881.333494	2516.362518
881.643583	2519.311593
881.953631	2519.984587
882.263637	2514.030985
882.573602	2502.287617
882.883526	2493.543736
883.193408	2482.266674
883.503248	2474.354583
883.813048	2468.201855
884.122806	2459.112655
884.432522	2449.932714
884.742197	2445.675459
885.051831	2439.431990
885.361424	2433.077616
885.670975	2427.320618
885.980485	2422.312232
886.289954	2423.416244
886.599382	2420.883065
886.908768	2418.173444
887.218113	2415.312590
887.527417	2417.427354
887.836680	2413.769997
888.145901	2412.355953
888.455082	2410.468041
888.764221	2412.189595
889.073319	2408.363359
889.382376	2411.844276
889.691392	2407.972670
890.000366	2410.110119
890.309300	2409.404357
890.618193	2408.023081
890.927044	2407.876888
891.235855	2408.766651
891.544625	2411.781261
891.853353	2410.362177
892.162041	2409.482495
892.470687	2412.560120
892.779293	2412.282856
893.087858	2410.883936
893.396381	2415.100861
893.704864	2418.952303
894.013306	2422.750812
894.321707	2435.933429
894.630068	2437.541557
894.938387	2443.364090
895.246665	2438.358224
895.554903	2433.186001
895.863100	2429.836154
896.171256	2429.332038
896.479371	2425.488159
896.787446	2424.888261
897.095480	2422.037489
897.403473	2419.889957
897.711425	2416.522467
898.019336	2417.276119
898.327207	2415.355439
898.635038	2413.966602
898.942827	2410.836045
899.250576	2412.547517
899.558284	2407.080385
899.865952	2413.487692
900.173579	2409.898390
900.481165	2407.690365
900.788711	2406.883780
901.096216	2405.857906
901.403681	2405.252967
901.711105	2407.130797
902.018489	2406.566188
902.325832	2409.757238
902.633135	2408.060890
902.940397	2411.060376
903.247619	2419.431212
903.554800	2427.358427
903.861941	2435.976279
904.169041	2444.710078
904.476101	2444.936930
904.783121	2443.101950
905.090100	2440.425097
905.397039	2436.641712
905.703938	2430.262131
906.010796	2429.715166
906.317614	2426.947573
906.624391	2421.800555
906.931129	2417.492889
907.237826	2414.798392
907.544483	2411.214132
907.851099	2411.675397
908.157675	2407.400499
908.464211	2409.162382
908.770707	2401.446896
909.077163	2401.688871
909.383578	2402.213151
909.689954	2401.930847
909.996289	2398.389436
910.302584	2404.322874
910.608839	2404.058214
910.915054	2402.868501
911.221229	2400.068140
911.527363	2399.052348
911.833458	2400.940260
912.139513	2403.428069
912.445527	2402.886145
912.751502	2404.239695
913.057436	2403.601989
913.363331	2407.153482
913.669186	2404.945457
913.975000	2409.162382
914.280775	2411.052815
914.586510	2415.025244
914.892205	2418.843918
915.197859	2426.151070
915.503475	2433.566608
915.809050	2442.781837
916.114585	2443.384255
916.420081	2445.125973
916.725536	2445.642692
917.030952	2443.167485
917.336328	2441.279573
917.641665	2436.049376
917.946961	2433.959818
918.252218	2437.080292
918.557435	2427.045875
918.862612	2426.778694
919.167750	2422.513878
919.472848	2421.545976
919.777906	2418.944741
920.082925	2414.715213
920.387904	2415.892322
920.692843	2413.452404
920.997743	2409.174985
921.302603	2408.988462
921.607423	2406.881260
921.912204	2406.944274
922.216946	2408.582649
922.521647	2404.209448
922.826310	2402.566032
923.130932	2407.130797
923.435516	2403.337329
923.740059	2403.556619
924.044564	2405.391599
924.349028	2402.760117
924.653454	2398.200393
924.957840	2399.513613
925.262186	2398.404560
925.566493	2402.656773
925.870761	2395.710063
926.174989	2400.723490
926.479178	2400.668038
926.783328	2399.649725
927.087438	2401.149468
927.391509	2401.003274
927.695541	2401.010836
927.999533	2403.569222
928.303486	2398.155022
928.607400	2398.659138
928.911275	2395.251318
929.215110	2397.371123
929.518906	2399.838768
929.822663	2397.270300
930.126381	2397.224930
930.430060	2398.286093
930.733699	2397.885321
931.037299	2402.661814
931.340861	2396.461195
931.644383	2400.456309
931.947866	2399.185938
932.251309	2399.347255
932.554714	2395.896586
932.858080	2399.901782
933.161407	2399.521175
933.464694	2398.996895
933.767943	2396.748541
934.071153	2399.929509
934.374323	2398.399518
934.677455	2398.817934
934.980548	2395.939435
935.283602	2400.766340
935.586617	2395.833571
935.889593	2398.644014
936.192530	2396.609909
936.495428	2396.778787
936.798287	2399.069992
937.101108	2400.899931
937.403890	2399.165774
937.706632	2400.473953
938.009336	2401.928326
938.312002	2400.945301
938.614628	2398.941443
938.917216	2401.048645
939.219765	2402.172822
939.522275	2400.920095
939.824747	2401.956053
940.127179	2400.123593
940.429573	2396.531771
940.731929	2398.359189
941.034246	2398.477656
941.336524	2401.451937
941.638763	2403.060065
941.940964	2402.344221
942.243126	2403.173491
942.545250	2400.166443
942.847335	2398.200393
943.149381	2400.020249
943.451389	2399.874056
943.753359	2399.800959
944.055290	2399.591751
944.357182	2398.936401
944.659036	2397.305588
944.960851	2400.698285
945.262628	2400.683161
945.564367	2399.506052
945.866067	2397.746689
946.167729	2399.732904
946.469352	2398.449930
946.770937	2396.264590
947.072484	2401.497308
947.373992	2397.766854
947.675462	2399.944632
947.976893	2398.853222
948.278286	2399.405229
948.579641	2400.400857
948.880958	2402.863460
949.182236	2394.754764
949.483476	2399.226268
949.784678	2397.807183
950.085841	2399.473284
950.386967	2399.914385
950.688054	2402.054355
950.989103	2400.647873
951.290114	2399.624519
951.591087	2400.524365
951.892021	2397.766854
952.192917	2399.702657
952.493776	2401.739283
952.794596	2399.349776
953.095378	2399.022101
953.396122	2401.575445
953.696828	2401.267935
953.997496	2398.754920
954.298126	2400.269787
954.598718	2400.887328
954.899272	2398.364230
955.199788	2398.391957
955.500266	2398.885990
955.800706	2396.325084
956.101108	2394.401883
956.401472	2396.181411
956.701798	2392.808879
957.002087	2395.382388
957.302337	2397.630743
957.602550	2395.238715
957.902724	2396.158726
958.202861	2398.351628
958.502960	2397.328273
958.803022	2398.028994
959.103045	2396.312481
959.403031	2397.945815
959.702979	2395.848695
960.002889	2399.848850
960.302762	2398.523027
960.602596	2396.171328
960.902393	2396.146123
961.202153	2397.635784
961.501875	2395.861298
961.801559	2396.521689
962.101205	2396.695608
962.400814	2394.172511
962.700385	2393.118910
962.999918	2395.901627
963.299414	2394.918602
963.598873	2393.360885
963.898293	2395.589075
964.197677	2393.615463
964.497022	2395.510937
964.796331	2395.616802
965.095601	2394.288458
965.394835	2393.610422
965.694030	2393.194527
965.993189	2396.360372
966.292309	2390.825185
966.591393	2394.227964
966.890439	2394.933725
967.189447	2394.195196
967.488419	2395.039589
967.787353	2394.805176
968.086249	2394.469939
968.385108	2395.508417
968.683930	2395.452964
968.982714	2394.684188
969.281462	2393.691081
969.580172	2393.249980
969.878844	2397.396329
970.177480	2395.878942
970.476078	2393.882645
970.774639	2396.380536
971.073162	2393.486914
971.371649	2395.311812
971.670098	2393.068498
971.968510	2393.489435
972.266885	2391.641852
972.565223	2392.602192
972.863524	2394.096894
973.161788	2397.441699
973.460014	2393.711245
973.758204	2393.159239
974.056356	2393.877603
974.354471	2394.974054
974.652550	2393.759136
974.950591	2395.551267
975.248595	2398.074364
975.546563	2392.907181
975.844493	2395.664693
976.142386	2393.560011
976.440243	2394.900958
976.738062	2394.598488
977.035845	2393.310474
977.333590	2394.429610
977.631299	2393.975906
977.928971	2394.873231
978.226606	2394.391801
978.524204	2394.752244
978.821765	2396.423386
979.119290	2395.326935
979.416777	2393.486914
979.714228	2393.880124
980.011642	2395.732748
980.309020	2398.303737
980.606360	2397.340876
980.903664	2398.215516
981.200931	2396.015053
981.498162	2397.154353
981.795356	2396.524209
982.092513	2397.678633
982.389633	2397.413973
982.686717	2399.425393
982.983764	2398.240722
983.280775	2401.703995
983.577749	2401.613254
983.874686	2401.366237
984.171587	2399.168294
984.468451	2401.575445
984.765279	2398.946484
985.062070	2397.971020
985.358824	2399.022101
985.655543	2398.417163
985.952224	2394.900958
986.248869	2394.081770
986.545478	2390.870555
986.842050	2392.604712
987.138586	2392.534136
987.435086	2392.604712
987.731549	2389.925339
988.027975	2394.432130
988.324366	2395.205947
988.620719	2395.581513
988.917037	2395.281565
989.213318	2396.415824
989.509563	2392.352654
989.805772	2396.337687
990.101944	2393.065978
990.398080	2393.620505
990.694180	2392.813920
990.990244	2395.165618
991.286271	2396.403222
991.582262	2394.595968
991.878217	2395.236194
992.174136	2393.302912
992.470019	2393.020607
992.765865	2395.258880
993.061676	2395.853736
993.357450	2394.086811
993.653188	2389.259907
993.948890	2395.284085
994.244556	2393.507079
994.540186	2395.205948
994.835780	2394.885834
995.131337	2396.322563
995.426859	2394.893396
995.722345	2400.058058
996.017795	2396.042779
996.313208	2396.395660
996.608586	2397.872718
996.903928	2395.004301
997.199234	2396.917419
997.494504	2396.657800
997.789738	2397.638304
998.084936	2396.637635
998.380099	2395.863818
998.675225	2397.103942
998.970316	2398.049158
999.265371	2395.810886
999.560390	2394.628735
999.855373	2392.957593
1000.150320	2395.384908
1000.445232	2393.086142
1000.740108	2395.107645
1001.034948	2395.977244
1001.329752	2392.667727
1001.624521	2394.288458
1001.919254	2389.451470
1002.213951	2391.236039
1002.508613	2389.181769
1002.803239	2390.933570
1003.097829	2389.549773
1003.392384	2391.034393
1003.686903	2392.156049
1003.981386	2390.101779
1004.275834	2394.863149
1004.570246	2392.997922
1004.864623	2391.369629
1005.158964	2393.978427
1005.453270	2393.025648
1005.747540	2391.031872
1006.041775	2393.333159
1006.335974	2395.571431
1006.630138	2391.485576
1006.924266	2394.043962
1007.218359	2391.757798
1007.512416	2393.991029
1007.806438	2393.902809
1008.100425	2394.444733
1008.394376	2390.830226
1008.688292	2390.555483
1008.982172	2393.655793
1009.276017	2394.205278
1009.569827	2393.255021
1009.863602	2393.774260
1010.157341	2392.549259
1010.451045	2392.599671
1010.744714	2390.079094
1011.038347	2391.830895
1011.331945	2393.668396
1011.625508	2393.935577
1011.919036	2390.512633
1012.212528	2392.642521
1012.505986	2391.609084
1012.799408	2394.497665
1013.092795	2390.147150
1013.386147	2390.500030
1013.679464	2394.958931
1013.972745	2393.968344
1014.265992	2389.945503
1014.559204	2395.062275
1014.852380	2395.102604
1015.145521	2393.675957
1015.438628	2392.171173
1015.731699	2392.458519
1016.024736	2390.825185
1016.317737	2392.392984
1016.610703	2391.586399
1016.903635	2388.342417
1017.196531	2391.084804
1017.489393	2390.195041
1017.782219	2387.036758
1018.075011	2393.050854
1018.367768	2390.558004
1018.660490	2391.072201
1018.953177	2391.072201
1019.245829	2391.072201
