Dividing Wavelength (nm)	Counts (n)	Blue Motor Position (mm): 0.000000	Red Motor Position (mm): 41.000000	
326.493990	1995.611326
326.888308	1995.611326
327.282561	1995.611326
327.676750	1971.557461
328.070874	1972.341360
328.464933	1979.550210
328.858929	1989.924905
329.252859	1999.954280
329.646726	2017.595798
330.040528	2030.065092
330.434265	2049.387835
330.827938	2070.941288
331.221547	2089.412076
331.615091	2109.319592
332.008571	2129.852212
332.401986	2151.788793
332.795338	2171.277894
333.188625	2192.735565
333.581847	2207.768286
333.975006	2225.924001
334.368100	2245.249265
334.761129	2263.868766
335.154095	2278.472989
335.546996	2305.397792
335.939833	2357.029289
336.332606	2370.045549
336.725315	2381.688093
337.117960	2388.962478
337.510540	2399.218706
337.903056	2408.020561
338.295508	2412.862589
338.687896	2422.569331
339.080220	2429.044693
339.472480	2432.795311
339.864676	2438.277566
340.256807	2441.715633
340.648875	2445.221755
341.040879	2444.216045
341.432818	2449.005141
341.824694	2446.960953
342.216506	2448.052363
342.608253	2447.586057
342.999937	2446.683690
343.391557	2444.412650
343.783113	2445.670418
344.174605	2440.767896
344.566033	2441.909717
344.957397	2439.999120
345.348697	2437.985179
345.739934	2436.276228
346.131106	2435.567946
346.522215	2433.367482
346.913260	2433.138110
347.304241	2429.185845
347.695159	2427.217274
348.086012	2427.779363
348.476802	2425.914136
348.867528	2426.859352
349.258191	2422.471028
349.648789	2420.878023
350.039324	2417.505492
350.429796	2420.661254
350.820203	2418.634710
351.210548	2419.222004
351.600828	2419.789134
351.991045	2419.108578
352.381198	2418.428023
352.771288	2419.705955
353.161314	2416.706469
353.551276	2418.493558
353.941175	2415.801582
354.331010	2418.657395
354.720782	2419.431212
355.110490	2420.142015
355.500135	2418.601942
355.889717	2420.504978
356.279235	2420.368867
356.668689	2424.729465
357.058080	2423.035637
357.447408	2420.101686
357.836672	2423.060843
358.225873	2423.423806
358.615010	2422.241656
359.004084	2425.999836
359.393095	2426.715680
359.782043	2425.503282
360.170927	2429.286668
360.559748	2430.360434
360.948505	2428.084353
361.337199	2435.081474
361.725830	2432.081988
362.114398	2435.527617
362.502903	2434.380754
362.891344	2434.539550
363.279722	2432.271031
363.668037	2436.848399
364.056289	2434.514345
364.444478	2438.194387
364.832603	2437.544078
365.220665	2440.127669
365.608665	2438.809408
365.996601	2443.351487
366.384474	2441.440890
366.772284	2443.548092
367.160031	2446.751746
367.547715	2446.456838
367.935336	2444.984821
368.322893	2444.929368
368.710388	2447.596139
369.097820	2452.939762
369.485189	2451.563527
369.872495	2455.180555
370.259738	2454.444546
370.646918	2459.853704
371.034035	2461.358489
371.421090	2460.892182
371.808081	2465.976186
372.195010	2472.305354
372.581875	2476.512197
372.968678	2483.963023
373.355418	2491.111379
373.742096	2500.515651
374.128710	2512.657270
374.515262	2524.630011
374.901751	2538.430169
375.288177	2561.148129
375.674540	2577.297466
376.060841	2602.425097
376.447079	2624.601133
376.833254	2653.847387
377.219367	2676.575429
377.605417	2711.924000
377.991404	2737.931312
378.377329	2783.641975
378.763191	2815.854948
379.148991	2866.266486
379.534727	2914.953950
379.920402	2965.786425
380.306013	3016.996986
380.691563	3080.540731
381.077049	3137.319246
381.462474	3197.170345
381.847835	3273.783281
382.233134	3345.085361
382.618371	3410.088519
383.003545	3497.335769
383.388657	3579.990527
383.773706	3673.660207
384.158693	3747.813059
384.543618	3845.586238
384.928480	3927.079011
385.313280	4035.221843
385.698017	4142.154798
386.082692	4269.383439
386.467305	4330.404086
386.851856	4460.672543
387.236344	4626.012306
387.620770	4688.129404
388.005133	4815.068178
388.389435	4962.564778
388.773674	5054.341505
389.157851	5186.676834
389.541965	5318.908820
389.926018	5347.028376
390.310008	5532.520153
390.693936	5662.077807
391.077802	5780.358399
391.461606	5916.804790
391.845348	6034.041864
392.229027	6157.688765
392.612645	6385.243929
392.996200	6503.811867
393.379694	6684.580082
393.763125	6917.332676
394.146494	7012.731471
394.529801	7151.542163
394.913047	7412.691576
395.296230	7405.452479
395.679351	7462.886345
396.062410	7735.453972
396.445408	7621.188658
396.828343	7789.611088
397.211217	7926.022190
397.594028	7807.396278
397.976778	8019.013835
398.359466	8185.510543
398.742092	8160.302253
399.124656	8310.616858
399.507158	8499.816403
399.889598	8524.568469
400.271977	8737.431190
400.654294	8773.084750
401.036549	8975.971028
401.418742	9006.122169
401.800874	9309.650042
402.182944	9398.187827
402.564952	9777.660683
402.946898	9591.511036
403.328783	9647.997165
403.710606	9856.958033
404.092367	10117.835224
404.474067	10489.237193
404.855705	10272.969172
405.237282	10227.656761
405.618797	10661.145580
406.000250	10914.357696
406.381642	11288.348297
406.762972	11241.636966
407.144240	11044.018694
407.525447	11294.012034
407.906593	11237.019269
408.287677	11500.401913
408.668700	11663.571460
409.049661	11632.601132
409.430560	11795.959722
409.811399	11763.928231
410.192176	11929.809918
410.572891	12007.136177
410.953545	12515.597037
411.334138	11980.241622
411.714669	12595.655601
412.095139	11881.349307
412.475547	12403.035633
412.855894	12235.755025
413.236180	12580.466604
413.616405	12250.850760
413.996568	12543.257848
414.376670	12510.855831
414.756711	12384.136347
415.136691	12683.651462
415.516609	12865.601827
415.896466	12935.532714
416.276262	13233.709402
416.655997	13673.542513
417.035670	13707.015775
417.415283	14374.252816
417.794834	14473.419873
418.174324	14216.404206
418.553753	14108.760448
418.933121	14613.717706
419.312428	14414.385441
419.691674	14332.328060
420.070859	14804.951356
420.449983	14443.984576
420.829045	14999.295399
421.208047	14751.941103
421.586988	15221.154059
421.965867	15483.215921
422.344686	15485.560058
422.723444	16051.454782
423.102141	14708.960225
423.480777	15933.723676
423.859352	15424.090748
424.237866	16566.844708
424.616319	16249.062972
424.994712	16940.706759
425.373044	16721.119139
425.751314	17421.584945
426.129524	16519.364600
426.507673	17646.463257
426.885762	17325.608938
427.263789	17540.102472
427.641756	17705.288481
428.019662	17765.356349
428.397508	17804.566444
428.775292	18130.507287
429.153016	18086.664372
429.530679	18173.861210
429.908282	18181.763219
430.285824	17900.718892
430.663305	18631.303072
431.040726	18221.248056
431.418086	18040.676446
431.795385	18697.871508
432.172624	19126.165419
432.549802	18676.948199
432.926920	18852.922277
433.303977	18745.661647
433.680974	19008.603190
434.057910	19303.989600
434.434786	19328.799639
434.811601	19234.154496
435.188355	20302.170829
435.565050	19939.558112
435.941683	19884.735564
436.318257	20792.024789
436.694770	20592.891651
437.071222	21206.095084
437.447614	20267.676734
437.823946	20285.381266
438.200218	20435.201838
438.576429	20205.794050
438.952580	20489.953810
439.328670	20451.988880
439.704700	20875.715505
440.080670	20444.444793
440.456580	21044.468130
440.832429	21221.460521
441.208218	20195.704180
441.583947	20653.957668
441.959616	20753.197822
442.335224	21001.341059
442.710773	21128.441150
443.086261	21679.134276
443.461689	21030.567148
443.837057	21149.049387
444.212365	21824.737922
444.587612	21811.625881
444.962800	21376.584387
445.337927	21816.483033
445.712995	20515.618324
446.088002	22418.419487
446.462949	22604.170883
446.837837	22794.991159
447.212664	22751.773347
447.587431	25652.491079
447.962139	28638.454722
448.336786	31067.191904
448.711374	29475.351796
449.085901	25716.183537
449.460369	25656.256821
449.834776	25584.311994
450.209124	28120.110681
450.583412	27624.993756
450.957640	28169.781170
451.331808	26799.134289
451.705917	25409.399079
452.079965	25438.468892
452.453954	25815.910163
452.827883	25698.463881
453.201752	25492.542829
453.575562	25663.841237
453.949311	26813.093244
454.323001	26866.320267
454.696632	26618.746681
455.070202	28207.655358
455.443713	28340.845164
455.817164	28962.240472
456.190556	29491.178498
456.563888	28910.361958
456.937160	29364.511946
457.310373	27672.380602
457.683526	28129.691394
458.056619	28121.542368
458.429653	28043.885914
458.802628	28627.154976
459.175542	28751.053934
459.548398	30073.414123
459.921194	31671.419563
460.293930	32343.513756
460.666607	34404.037499
461.039224	36188.800045
461.411782	36594.247446
461.784280	35382.228033
462.156719	34905.861680
462.529099	34335.976881
462.901419	33053.167065
463.273680	31967.849492
463.645882	32039.222148
464.018024	32030.531199
464.390106	32863.312170
464.762130	35600.389007
465.134094	39706.928053
465.505999	45049.994083
465.877845	49674.700730
466.249631	50872.529296
466.621358	49177.224545
466.993026	47083.562777
467.364634	45016.094844
467.736184	43005.150848
468.107674	41741.910791
468.479105	40937.282143
468.850477	40235.515719
469.221790	38773.976834
469.593043	36999.384816
469.964238	36104.365760
470.335373	36020.138161
470.706449	37788.695918
471.077467	40399.779197
471.448425	45001.556156
471.819324	47821.509562
472.190164	45974.786194
472.560945	42384.194120
472.931667	39242.554605
473.302330	38110.255998
473.672934	37278.289173
474.043479	37792.028121
474.413965	36976.525704
474.784393	36585.133040
475.154761	37499.767227
475.525070	37549.140287
475.895321	37056.228867
476.265513	37669.709564
476.635645	38659.691356
477.005719	38473.022470
477.375734	38968.693922
477.745691	39652.617182
478.115588	41016.173680
478.485427	43002.128676
478.855207	46381.209058
479.224928	49004.686014
479.594591	50661.249497
479.964194	49677.007058
480.333739	49849.026351
480.703226	49884.692514
481.072653	50510.370283
481.442022	50977.718012
481.811333	51256.030033
482.180584	49962.170008
482.549777	49442.860585
482.918912	48905.284542
483.287988	48616.484400
483.657005	47772.388559
484.025964	47135.388359
484.394864	47172.143412
484.763706	46719.770430
485.132489	45855.235231
485.501213	45680.748293
485.869879	45843.481780
486.238487	45420.160968
486.607036	45615.654394
486.975527	45077.884266
487.343959	45276.344411
487.712333	45360.942534
488.080648	45281.153672
488.448905	45724.387041
488.817104	45540.309309
489.185244	46508.929212
489.553326	48177.447791
489.921350	50921.504105
490.289315	53741.926338
490.657222	54327.105997
491.025070	54603.439366
491.392861	53732.756480
491.760593	52503.027493
492.128267	50873.492156
492.495883	49369.032887
492.863440	47967.975246
493.230939	46597.439270
493.598380	45487.057080
493.965763	45158.499878
494.333088	44333.240308
494.700354	43849.274416
495.067563	43549.673601
495.434713	43417.605453
495.801805	43474.565450
496.168839	43084.654885
496.535815	42736.618665
496.902733	42775.206177
497.269593	42343.990918
497.636395	42290.355562
498.003139	42707.868965
498.369825	42145.210660
498.736453	42461.356542
499.103023	41983.240908
499.469535	41833.884122
499.835989	41926.427104
500.202385	41598.857968
500.568723	41601.698658
500.935003	41811.072901
501.301226	41590.794643
501.667390	42233.440935
502.033497	42505.774148
502.399546	41897.120356
502.765537	41209.287681
503.131470	41592.112904
503.497345	41949.820578
503.863163	40606.227050
504.228923	41219.289331
504.594625	41641.586788
504.960269	40928.003900
505.325856	41644.309011
505.691385	40980.265542
506.056856	41108.595674
506.422270	41562.097874
506.787625	41125.365073
507.152924	41329.383089
507.518164	41416.647983
507.883347	40618.892949
508.248472	40888.718188
508.613540	41343.142919
508.978550	41677.978878
509.343503	41413.736717
509.708398	41626.874181
510.073236	42158.494101
510.438016	42140.421564
510.802738	41593.095929
511.167403	42208.434291
511.532010	42453.179790
511.896561	42750.433947
512.261053	43611.984783
512.625488	43144.490861
512.989866	43013.771221
513.354186	42850.841129
513.718449	42842.369470
514.082655	43534.005695
514.446803	43189.878890
514.810894	43718.206936
515.174927	43631.342814
515.538904	43528.304150
515.902822	44192.582034
516.266684	43633.306344
516.630488	44071.153240
516.994235	43923.386939
517.357925	44506.630795
517.721558	44682.841807
518.085133	44982.868599
518.448651	45117.240554
518.812112	44894.386266
519.175516	44980.216952
519.538863	45326.965157
519.902152	45277.269463
520.265385	45743.427479
520.628560	45791.898174
520.991678	45575.168887
521.354739	45809.912737
521.717743	46121.415715
522.080690	46004.690319
522.443580	46559.456697
522.806413	46604.194416
523.169189	46545.293575
523.531908	46739.125940
523.894569	46585.214472
524.257174	46746.647342
524.619722	47051.153199
524.982213	47035.782721
525.344647	46962.350753
525.707025	46990.908890
526.069345	47383.713077
526.431608	47298.318451
526.793815	47635.180954
527.155964	47171.709872
527.518057	47313.086511
527.880093	47106.187475
528.242072	47630.893453
528.603995	47320.436514
528.965860	47320.370979
529.327669	47409.997653
529.689421	47309.925708
530.051117	47251.990247
530.412755	47412.621573
530.774337	47462.702916
531.135862	47261.568440
531.497331	47456.154457
531.858743	47367.624234
532.220098	47717.308912
532.581396	47421.151206
532.942638	47073.271261
533.303824	47376.055564
533.664953	47336.790017
534.026025	47037.221970
534.387040	47524.237761
534.747999	47465.445304
535.108902	47626.056466
535.469748	47142.307343
535.830537	47251.894465
536.191270	47442.787838
536.551947	47070.730520
536.912567	47412.309022
537.273131	47532.729584
537.633638	46996.388624
537.994089	47352.750310
538.354483	46938.921991
538.714821	47496.143410
539.075103	47864.455152
539.435328	47608.170452
539.795497	47510.054474
540.155609	47486.298037
540.515665	47945.892471
540.875665	47394.705313
541.235609	47722.171105
541.595496	47692.211527
541.955328	48359.395636
542.315102	47726.612361
542.674821	47517.568314
543.034483	47555.339159
543.394090	47517.812810
543.753640	47476.903847
544.113134	48487.166201
544.472571	47489.985641
544.831953	48739.614583
545.191278	47946.391546
545.550548	47650.498500
545.909761	48117.135426
546.268918	48337.638016
546.628019	48627.796749
546.987064	48201.549548
547.346053	47454.256463
547.704986	48354.024287
548.063863	47881.700939
548.422684	48097.280842
548.781449	47932.724978
549.140158	48333.335391
549.498811	48180.258234
549.857408	47610.698590
550.215949	48449.823854
550.574434	48379.305673
550.932864	48128.220924
551.291237	48852.400318
551.649555	48442.289849
552.007817	48681.137198
552.366022	48323.542950
552.724173	48491.763733
553.082267	48902.358152
553.440305	49209.548424
553.798288	48498.337398
554.156215	48800.781423
554.514086	49021.490700
554.871902	48757.893807
555.229661	48782.035892
555.587365	48585.811499
555.945014	48677.595787
556.302606	48589.473898
556.660143	48814.758022
557.017625	48900.969314
557.375050	48689.742448
557.732421	49032.694664
558.089735	49000.269963
558.446994	48920.261810
558.804197	49386.135002
559.161345	49321.222584
559.518437	48567.791895
559.875474	48843.479996
560.232455	49020.784938
560.589381	49175.487868
560.946251	48871.460920
561.303065	49570.444627
561.659825	49355.169714
562.016528	49004.953195
562.373177	48723.465246
562.729770	49189.061174
563.086307	48711.800016
563.442789	49150.965175
563.799216	49190.815496
564.155587	48957.967120
564.511904	48970.224686
564.868164	49058.941432
565.224370	49289.206216
565.580520	48995.390126
565.936615	49194.266166
566.292654	48905.355118
566.648638	49131.705447
567.004567	49073.255788
567.360441	49103.154872
567.716260	48939.798802
568.072023	49197.749603
568.427732	49168.899080
568.783385	48678.886323
569.138982	49062.528213
569.494525	48993.038428
569.850013	48757.871121
570.205445	48712.049553
570.560823	48642.942896
570.916145	48506.259571
571.271412	48498.279425
571.626625	48226.112570
571.981782	48254.123741
572.336884	47923.804656
572.691931	48225.036283
573.046923	47794.201632
573.401860	47606.519474
573.756743	47583.143643
574.111570	47663.366045
574.466342	47471.938310
574.821059	47552.581648
575.175722	47055.163437
575.530330	47044.592137
575.884882	46724.254536
576.239380	46670.485589
576.593823	46605.731968
576.948211	46474.183059
577.302544	45976.391802
577.656823	45951.070086
578.011047	46132.382746
578.365216	45814.033880
578.719330	45582.902017
579.073389	45393.246248
579.427394	45435.050016
579.781344	45362.805241
580.135239	44964.980064
580.489080	45006.587228
580.842866	44440.137976
581.196597	44839.717473
581.550273	44708.029932
581.903895	44538.747986
582.257463	44910.805304
582.610975	44219.108585
582.964434	44434.733859
583.317837	44026.223957
583.671186	43805.802025
584.024481	43986.096372
584.377721	43475.956809
584.730906	43705.089854
585.084037	43680.113457
585.437113	43346.978887
585.790135	43312.061335
586.143103	42877.985222
586.496016	42931.355918
586.848874	42885.350347
587.201679	42855.836912
587.554428	42273.986935
587.907124	42380.476269
588.259765	42077.563417
588.612352	42252.662855
588.964884	41593.325302
589.317362	41812.504589
589.669786	41671.508557
590.022155	41405.852352
590.374470	41728.292114
590.726731	41207.707280
591.078937	40700.305063
591.431090	40706.241021
591.783188	40345.085198
592.135232	39964.881375
592.487222	40122.729984
592.839157	40134.702725
593.191038	39746.523796
593.542866	39455.790372
593.894639	38805.632760
594.246358	39004.118110
594.598022	38916.762476
594.949633	38465.947211
595.301190	38343.845424
595.652692	38122.911815
596.004141	38349.569654
596.355535	37367.769654
596.706876	37246.424040
597.058162	37016.365943
597.409395	37398.999602
597.760573	37391.415186
598.111698	36915.316014
598.462768	36857.791408
598.813785	36818.155336
599.164748	36240.343323
599.515657	36505.964240
599.866511	35934.100788
600.217312	36412.433192
600.568060	35404.749388
600.918753	35995.759141
601.269392	35872.795317
601.619978	35489.193756
601.970510	35594.785764
602.320988	35654.097460
602.671412	35851.418304
603.021783	35530.427874
603.372100	35141.959079
603.722363	35154.514072
604.072572	35140.660982
604.422728	35069.298408
604.772830	34814.016898
605.122878	34810.185621
605.472872	34663.092313
605.822813	34809.429448
606.172701	34572.893468
606.522534	34684.050910
606.872314	34819.554605
607.222041	34493.752394
607.571714	34742.354375
607.921333	34156.927700
608.270899	34309.634332
608.620411	34511.860218
608.969870	34241.530864
609.319276	34129.609687
609.668627	34073.799073
610.017926	34389.594594
610.367171	34415.173408
610.716362	34381.916916
611.065500	34220.549582
611.414585	34260.533493
611.763616	34394.698762
612.112594	34219.828697
612.461518	34307.529650
612.810389	34416.468985
613.159207	34196.445305
613.507971	34142.736852
613.856682	34421.724388
614.205340	34211.651945
614.553945	34667.810833
614.902496	34088.715847
615.250994	34358.475551
615.599439	34279.833551
615.947830	34331.684339
616.296169	34242.418107
616.644454	34204.629618
616.992686	34207.525761
617.340864	34490.828525
617.688990	34119.361021
618.037063	34469.144001
618.385082	34304.716686
618.733048	34413.255249
619.080961	34283.992503
619.428821	34173.445040
619.776628	34139.439937
620.124382	33873.435893
620.472083	33869.629821
620.819731	33859.638254
621.167326	33510.145141
621.514868	33384.010430
621.862357	32951.494554
622.209793	32852.239276
622.557176	32508.596421
622.904506	32233.616602
623.251783	31883.352192
623.599007	31608.654677
623.946179	31323.587510
624.293297	31198.324919
624.640363	30639.497892
624.987376	30538.495854
625.334336	30251.059344
625.681243	29865.451404
626.028097	29724.273890
626.374899	29499.693007
626.721647	29363.632265
627.068343	29154.121911
627.414987	28870.854435
627.761577	28590.687269
628.108115	28721.716940
628.454600	28206.427838
628.801032	28205.371716
629.147412	28066.019100
629.493739	27952.048694
629.840014	27583.368948
630.186236	27677.504935
630.532405	27294.886399
630.878521	27310.423235
631.224585	27119.073638
631.570597	26808.876318
631.916556	26794.740923
632.262462	26642.089743
632.608316	26528.590685
632.954117	26356.833532
633.299866	26242.011171
633.645562	26084.230618
633.991206	25676.156776
634.336797	25295.519413
634.682336	25201.774116
635.027823	24937.655463
635.373257	24730.433793
635.718639	24492.456044
636.063968	24307.039885
636.409245	23852.970555
636.754470	23786.331542
637.099642	23538.783162
637.444762	23146.528461
637.789829	23117.045273
638.134845	22825.197753
638.479808	22685.356145
638.824719	22520.898583
639.169577	22178.568949
639.514383	22120.636009
639.859137	21851.521573
640.203839	21890.799723
640.548489	21579.579049
640.893086	21519.448166
641.237632	21269.951380
641.582125	21250.363977
641.926566	21114.797267
642.270955	20997.421562
642.615292	20906.716081
642.959576	20793.355654
643.303809	20695.869821
643.647990	20682.470434
643.992118	20571.718805
644.336195	20470.779781
644.680219	20416.693242
645.024192	20474.474947
645.368112	20661.070736
645.711981	20550.495547
646.055797	20907.048797
646.399562	20762.531519
646.743274	21156.462404
647.086935	21288.984256
647.430544	21131.702777
647.774101	21097.803538
648.117606	21130.883589
648.461059	21190.437260
648.804460	20913.161196
649.147810	20499.905047
649.491108	20289.275558
649.834354	20004.397433
650.177548	19504.670373
650.520690	19190.606488
650.863781	19109.713613
651.206820	18934.775492
651.549807	18633.513618
651.892742	18302.818967
652.235626	18120.908930
652.578458	17947.127754
652.921238	17579.388184
653.263967	17632.408520
653.606644	17385.505407
653.949269	17286.124100
654.291843	17014.388264
654.634365	17113.152029
654.976836	16843.334352
655.319255	16752.202893
655.661622	16677.770257
656.003938	16497.090262
656.346203	16360.999273
656.688416	16374.345727
657.030577	16206.825665
657.372687	16063.188068
657.714746	16104.394460
658.056753	16075.599389
658.398708	15758.016779
658.740612	15696.431523
659.082465	15749.502270
659.424266	15591.041161
659.766016	15554.891046
660.107715	15437.124651
660.449362	15412.586835
660.790958	15335.399208
661.132503	15261.621921
661.473996	15210.693665
661.815438	15174.997254
662.156829	15185.916393
662.498168	15017.214180
662.839456	14947.691627
663.180693	14942.300113
663.521879	14920.119036
663.863013	14833.575028
664.204097	14764.443164
664.545129	14861.543349
664.886110	14773.454227
665.227040	14728.605602
665.567918	14702.409246
665.908746	14654.205733
666.249522	14645.371111
666.590248	14583.523715
666.930922	14556.193099
667.271545	14473.803001
667.612118	14442.242858
667.952639	14277.971818
668.293109	14234.388523
668.633528	14118.084062
668.973896	14036.644222
669.314213	13966.710815
669.654480	13798.739569
669.994695	13745.089089
670.334859	13635.368376
670.674973	13539.508315
671.015035	13523.411911
671.355047	13432.466975
671.695008	13354.939070
672.034918	13252.495262
672.374777	13208.523797
672.714585	13085.655755
673.054342	13105.553189
673.394049	12949.055609
673.733705	12987.423831
674.073310	12808.225935
674.412864	12766.896035
674.752368	12567.473030
675.091820	12595.380858
675.431223	12393.142368
675.770574	12244.342630
676.109875	12134.896660
676.449125	11978.197434
676.788324	11891.862633
677.127473	11676.388594
677.466571	11582.933163
677.805619	11426.377610
678.144616	11357.573422
678.483562	11272.728282
678.822458	11116.288675
679.161303	11039.262365
679.500098	10955.531320
679.838842	10867.643844
680.177535	10860.465241
680.516179	10879.644311
680.854771	10897.472352
681.193314	11087.448234
681.531805	11361.782785
681.870247	11537.998839
682.208638	11695.665966
682.546978	11705.178624
682.885268	11676.282730
683.223508	11487.889769
683.561697	11339.924342
683.899836	11237.954403
684.237925	11048.452389
684.575963	10961.560540
684.913951	10784.109404
685.251889	10781.369537
685.589776	10732.064532
685.927614	10679.424804
686.265401	10676.495893
686.603137	10663.696404
686.940824	10750.434497
687.278460	10818.653911
687.616046	10822.734725
687.953582	10942.557911
688.291068	10883.730166
688.628504	10913.709908
688.965889	10856.757473
689.303224	10719.300331
689.640510	10582.533827
689.977745	10343.285706
690.314930	10086.799360
690.652065	9906.532740
690.989150	9669.495166
691.326185	9391.528463
691.663170	9172.560905
692.000105	8940.143548
692.336990	8728.137823
692.673825	8571.057989
693.010610	8404.478102
693.347345	8219.107313
693.684030	8025.257304
694.020665	7919.335100
694.357251	7727.856953
694.693786	7678.879623
695.030272	7593.116993
695.366707	7436.594207
695.703093	7335.876995
696.039429	7305.365411
696.375716	7216.537760
696.711952	7185.748912
697.048139	7121.408666
697.384276	7064.617547
697.720363	7060.914820
698.056400	6996.861919
698.392388	6926.741990
698.728326	6883.206585
699.064214	6820.877759
699.400053	6779.225225
699.735842	6677.693866
700.071581	6592.430311
700.407270	6502.697772
700.742910	6429.321257
701.078501	6347.730182
701.414042	6270.018275
701.749533	6180.797414
702.084974	6087.278969
702.420366	6095.324650
702.755709	5987.212065
703.091002	5904.837091
703.426246	5884.611981
703.761440	5840.811916
704.096584	5766.079331
704.431679	5734.529270
704.766725	5692.707857
705.101721	5662.032436
705.436668	5655.110932
705.771565	5579.483542
706.106413	5616.074757
706.441212	5596.010965
706.775961	5601.394917
707.110661	5595.262353
707.445311	5637.434126
707.779913	5594.496098
708.114465	5615.784891
708.448967	5652.658411
708.783421	5748.689871
709.117825	5784.174553
709.452180	5814.572710
709.786485	5870.658068
710.120742	5993.563919
710.454949	6002.201936
710.789107	6069.022430
711.123216	6182.279513
711.457275	6210.509975
711.791286	6295.339991
712.125247	6302.863913
712.459159	6241.394604
712.793023	6331.129663
713.126837	6133.763448
713.460602	6144.221322
713.794318	6059.655966
714.127985	5963.279187
714.461602	5788.396519
714.795171	5751.104583
715.128691	5563.898815
715.462162	5453.721877
715.795584	5354.264953
716.128957	5288.694665
716.462281	5202.501016
716.795556	5139.635307
717.128782	5046.499990
717.461960	4947.267397
717.795088	4913.766409
718.128167	4839.129606
718.461198	4761.868882
718.794180	4722.515114
719.127113	4656.004651
719.459997	4618.846306
719.792833	4558.002100
720.125619	4533.688615
720.458357	4480.612827
720.791046	4442.547074
721.123686	4409.257814
721.456278	4367.607801
721.788821	4350.994679
722.121315	4303.832164
722.453761	4307.040858
722.786158	4285.326088
723.118506	4274.691774
723.450805	4248.974328
723.783056	4259.447325
724.115259	4237.238522
724.447412	4217.653639
724.779518	4241.142895
725.111574	4242.110797
725.443582	4253.486161
725.775542	4250.297631
726.107453	4300.114313
726.439315	4286.372128
726.771129	4331.082121
727.102895	4370.912278
727.434612	4395.223242
727.766281	4407.359820
728.097901	4427.642902
728.429473	4424.030916
728.760996	4415.498763
729.092471	4407.319491
729.423897	4385.849217
729.755276	4354.646995
730.086606	4355.877036
730.417887	4409.328391
730.749120	4453.251964
731.080305	4466.026248
731.411442	4492.915762
731.742530	4491.431143
732.073570	4491.612624
732.404562	4518.963404
732.735506	4489.823015
733.066401	4445.370120
733.397249	4368.306001
733.728048	4275.430303
734.058798	4169.901309
734.389501	4073.443872
734.720156	4003.374354
735.050762	3932.704938
735.381320	3885.875140
735.711831	3849.190663
736.042293	3805.130979
736.372707	3795.154535
736.703073	3765.822582
737.033391	3782.544089
737.363661	3774.258953
737.693883	3779.063172
738.024056	3796.301398
738.354182	3815.916527
738.684260	3846.995241
739.014290	3868.750340
739.344272	3892.045512
739.674207	3916.512752
740.004093	3927.573044
740.333931	3923.464503
740.663722	3924.394596
740.993464	3916.842948
741.323159	3885.731467
741.652806	3848.164788
741.982405	3818.104388
742.311956	3773.243160
742.641460	3750.217690
742.970915	3707.118345
743.300323	3666.095956
743.629683	3631.037251
743.958996	3593.669698
744.288260	3555.482958
744.617477	3518.634644
744.946647	3497.292919
745.275768	3470.829382
745.604842	3443.221503
745.933869	3423.540838
746.262847	3409.612130
746.591778	3402.761202
746.920662	3388.643451
747.249498	3384.008110
747.578286	3390.279305
747.907027	3402.151223
748.235720	3421.191661
748.564365	3420.543872
748.892963	3406.617685
749.221514	3407.313364
749.550017	3387.151269
749.878473	3380.035681
750.206881	3355.089531
750.535242	3343.492356
750.863555	3329.714883
751.191821	3314.727533
751.520039	3315.632420
751.848210	3303.533650
752.176334	3300.705563
752.504411	3290.172072
752.832440	3276.182870
753.160421	3279.668828
753.488356	3265.193155
753.816243	3254.231166
754.144082	3241.590472
754.471875	3230.981364
754.799620	3221.337637
755.127318	3221.728326
755.454969	3211.462017
755.782572	3203.045810
756.110129	3199.438865
756.437638	3192.648430
756.765100	3189.452339
757.092515	3189.270857
757.419882	3186.586443
757.747203	3186.324303
758.074477	3191.927545
758.401703	3186.047039
758.728882	3197.797969
759.056014	3201.709904
759.383099	3204.971531
759.710138	3212.150134
760.037129	3217.665156
760.364073	3214.708520
760.690970	3215.298335
761.017820	3209.493446
761.344623	3219.293449
761.671379	3232.622260
761.998088	3268.996705
762.324751	3388.416599
762.651366	3610.005557
762.977935	3886.162486
763.304456	4044.691651
763.630931	4070.298192
763.957359	3974.917040
764.283740	3823.216118
764.610074	3679.389478
764.936362	3520.119264
765.262602	3399.174421
765.588796	3291.455046
765.914943	3213.715412
766.241044	3150.219559
766.567097	3098.020932
766.893104	3054.233469
767.219064	3024.747760
767.544978	2992.224756
767.870845	2966.908082
768.196665	2951.499795
768.522438	2935.879780
768.848165	2920.277409
769.173846	2906.641088
769.499479	2894.330590
769.825066	2882.867006
770.150607	2866.190869
770.476101	2859.218953
770.801548	2849.063549
771.126949	2836.748010
771.452303	2828.120075
771.777611	2814.025009
772.102872	2813.311686
772.428087	2802.216106
772.753256	2793.537760
773.078378	2786.727161
773.403453	2774.235182
773.728482	2762.980806
774.053465	2759.739344
774.378401	2753.052253
774.703291	2746.302148
775.028135	2739.783936
775.352932	2737.371744
775.677683	2731.881928
776.002388	2722.691904
776.327046	2725.613253
776.651658	2713.209494
776.976224	2708.475850
777.300743	2707.064327
777.625216	2699.598378
777.949643	2701.178780
778.274024	2697.549149
778.598359	2692.006401
778.922647	2689.750484
779.246889	2688.149918
779.571086	2687.623117
779.895236	2692.606298
780.219339	2687.522294
780.543397	2686.125895
780.867409	2693.682584
781.191374	2688.964064
781.515294	2686.995494
781.839167	2690.184024
782.162995	2686.110771
782.486776	2681.644309
782.810511	2678.644822
783.134201	2674.415294
783.457844	2670.735252
783.781441	2668.993533
784.104993	2663.705363
784.428498	2662.810558
784.751958	2659.193530
785.075372	2658.555824
785.398739	2653.040802
785.722061	2656.259579
786.045337	2653.688590
786.368568	2657.214877
786.691752	2660.809220
787.014891	2674.017043
787.337983	2695.880527
787.661030	2719.586553
787.984031	2742.964904
788.306987	2754.083169
788.629897	2755.643406
788.952760	2751.396234
789.275579	2737.391909
789.598351	2720.274671
789.921078	2704.115252
790.243759	2686.198992
790.566395	2674.674914
790.888984	2665.467246
791.211529	2656.932573
791.534027	2647.719864
791.856480	2638.161837
792.178888	2635.527834
792.501249	2629.445682
792.823566	2625.800927
793.145836	2623.242542
793.468062	2621.556276
793.790241	2617.228445
794.112375	2623.877727
794.434464	2626.360495
794.756507	2628.495424
795.078505	2629.425517
795.400457	2644.324647
795.722364	2655.803354
796.044226	2668.890190
796.366042	2675.012671
796.687812	2669.502690
797.009538	2669.628719
797.331218	2667.950015
797.652852	2663.415497
797.974442	2655.163128
798.295986	2649.895122
798.617484	2644.569143
798.938938	2638.819707
799.260346	2635.313585
799.581709	2625.690022
799.903026	2626.093314
800.224299	2618.743312
800.545526	2615.385903
800.866708	2611.068155
801.187845	2608.600510
801.508936	2601.870570
801.829983	2600.973245
802.150984	2596.353027
802.471940	2596.045517
802.792851	2592.423448
803.113717	2592.940166
803.434538	2590.117120
803.755314	2587.767942
804.076045	2588.826584
804.396731	2584.750812
804.717372	2587.838518
805.037967	2589.789445
805.358518	2586.089238
805.679024	2590.268354
805.999485	2589.706266
806.319901	2595.329673
806.640272	2592.494024
806.960598	2589.663416
807.280879	2592.700711
807.601115	2596.652976
807.921306	2594.286154
808.241453	2593.149374
808.561554	2590.754826
808.881611	2591.165680
809.201623	2590.802717
809.521590	2587.450349
809.841513	2586.807602
810.161390	2588.309866
810.481223	2582.230235
810.801011	2582.358784
811.120755	2579.271077
811.440453	2576.853844
811.760107	2575.676735
812.079716	2571.537947
812.399281	2567.346228
812.718801	2568.513255
813.038276	2567.260528
813.357707	2564.112328
813.677093	2569.776064
813.996434	2565.475960
814.315731	2567.336146
814.634983	2566.269942
814.954191	2566.370765
815.273354	2568.452761
815.592473	2570.287741
815.911547	2575.843093
816.230577	2577.846951
816.549562	2578.724112
816.868502	2584.370204
817.187399	2588.579568
817.506250	2589.648292
817.825058	2593.298088
818.143821	2600.600199
818.462539	2607.120932
818.781213	2618.448404
819.099843	2636.266363
819.418429	2664.895075
819.736970	2695.767102
820.055466	2725.724158
820.373919	2766.214706
820.692327	2832.994871
821.010691	2958.068418
821.329011	3270.834206
821.647286	3785.223462
821.965517	4342.165098
822.283704	4645.980317
822.601847	4690.012275
822.919945	4417.653856
823.237999	4142.641270
823.556010	3882.245509
823.873976	3652.192453
824.191897	3448.613017
824.509775	3296.531488
824.827609	3160.884120
825.145398	3074.269535
825.463144	3032.823689
825.780845	3040.647560
826.098502	3092.037082
826.416116	3193.180272
826.733685	3285.640075
827.051210	3302.301088
827.368692	3247.544075
827.686129	3142.088178
828.003522	3030.169521
828.320872	2930.579007
828.638177	2856.721062
828.955439	2796.663275
829.272656	2747.902715
829.589830	2707.243288
829.906960	2673.175171
830.224046	2649.766573
830.541088	2628.833181
830.858086	2617.369597
831.175041	2608.164451
831.491952	2602.130189
831.808819	2603.607247
832.125642	2614.375152
832.442421	2638.474388
832.759157	2686.748477
833.075849	2762.539705
833.392497	2840.072651
833.709101	2887.298180
834.025662	2879.756614
834.342179	2837.428566
834.658653	2784.642644
834.975083	2736.272773
835.291469	2700.276414
835.607811	2663.380209
835.924110	2640.042187
836.240366	2617.614093
836.556578	2593.676174
836.872746	2580.546489
837.188871	2562.766340
837.504952	2553.863662
837.820990	2541.180119
838.136984	2540.794471
838.452935	2535.034952
838.768842	2534.445137
839.084706	2551.751418
839.400526	2586.290884
839.716303	2625.460649
840.032037	2651.888898
840.347727	2647.399751
840.663373	2621.190792
840.978977	2593.058633
841.294537	2572.281517
841.610054	2553.891388
841.925527	2546.390151
842.240957	2535.289531
842.556344	2525.297964
842.871687	2518.454597
843.186987	2511.223062
843.502244	2503.573111
843.817458	2499.827534
844.132629	2495.421565
844.447756	2494.733448
844.762840	2483.826912
845.077881	2486.929742
845.392879	2486.171048
845.707833	2484.835142
846.022745	2480.371201
846.337613	2482.821201
846.652438	2481.374390
846.967221	2481.311376
847.281960	2481.845738
847.596656	2480.877837
847.911309	2478.614358
848.225919	2476.789461
848.540485	2480.348515
848.855009	2478.783237
849.169490	2477.117136
849.483928	2477.671663
849.798323	2477.921200
850.112675	2475.141003
850.426984	2476.071096
850.741251	2479.592342
851.055474	2475.163689
851.369654	2474.785602
851.683792	2474.349542
851.997887	2474.160499
852.311938	2474.982207
852.625947	2478.528659
852.939914	2474.127732
853.253837	2476.489512
853.567718	2476.313072
853.881555	2477.598566
854.195350	2474.145376
854.509103	2474.946919
854.822812	2474.344501
855.136479	2478.039667
855.450103	2475.705613
855.763685	2475.330047
856.077224	2471.612196
856.390720	2475.045222
856.704173	2475.060345
857.017584	2476.154275
857.330953	2477.946406
857.644278	2474.795684
857.957561	2480.401448
858.270802	2477.606128
858.584000	2478.216107
858.897155	2477.142342
859.210268	2478.316930
859.523339	2475.514049
859.836367	2474.220993
860.149352	2476.829790
860.462295	2473.520273
860.775195	2472.007926
861.088054	2470.326702
861.400869	2474.173102
861.713642	2469.043728
862.026373	2476.544965
862.339062	2471.932309
862.651708	2475.657722
862.964312	2475.166209
863.276873	2476.633185
863.589392	2477.805253
863.901869	2480.741725
864.214303	2479.599904
864.526696	2478.788278
864.839045	2483.279946
865.151353	2484.262971
865.463619	2485.513178
865.775842	2481.782724
866.088023	2482.803557
866.400162	2483.106027
866.712258	2484.172231
867.024313	2481.780203
867.336325	2483.138794
867.648296	2484.295739
867.960224	2486.045019
868.272110	2483.426140
868.583954	2483.872282
868.895755	2484.444453
869.207515	2484.288177
869.519233	2487.723723
869.830909	2484.197436
870.142542	2487.060812
870.454134	2487.249855
870.765684	2488.923518
871.077191	2489.727582
871.388657	2488.217757
871.700081	2490.987871
872.011463	2490.839157
872.322803	2493.158087
872.634101	2493.158087
872.945357	2492.747233
873.256571	2495.857625
873.567744	2496.021463
873.878874	2497.705208
874.189963	2499.366268
874.501010	2496.835609
874.812015	2497.654797
875.122979	2499.867863
875.433900	2498.547081
875.744780	2502.219561
876.055618	2499.943480
876.366415	2499.520023
876.677169	2505.382885
876.987882	2504.152844
877.298554	2502.590086
877.609183	2505.587052
877.919771	2511.220542
878.230317	2511.487723
878.540822	2523.669671
878.851285	2533.449509
879.161707	2545.681869
879.472087	2568.051989
879.782425	2601.207658
880.092722	2667.539161
880.402977	2762.481732
880.713191	2882.378014
881.023363	3004.391581
881.333494	3076.885894
881.643583	3103.399843
881.953631	3084.780341
882.263637	3045.600493
882.573602	2999.015191
882.883526	2954.035495
883.193408	2903.704615
883.503248	2856.189220
883.813048	2811.678352
884.122806	2774.288114
884.432522	2732.267576
884.742197	2697.188707
885.051831	2664.879952
885.361424	2635.243008
885.670975	2614.244082
885.980485	2593.174580
886.289954	2573.962742
886.599382	2561.803479
886.908768	2553.815771
887.218113	2542.014430
887.527417	2536.885056
887.836680	2528.085722
888.145901	2522.570699
888.455082	2517.252282
888.764221	2513.975532
889.073319	2507.968997
889.382376	2506.660818
889.691392	2503.953718
890.000366	2504.745179
890.309300	2505.070334
890.618193	2505.125787
890.927044	2505.887001
891.235855	2505.629902
891.544625	2506.381034
891.853353	2507.268277
892.162041	2510.799605
892.470687	2518.820081
892.779293	2524.685463
893.087858	2531.506145
893.396381	2543.088196
893.704864	2568.102401
894.013306	2597.699015
894.321707	2631.739407
894.630068	2653.244969
894.938387	2658.442398
895.246665	2651.493168
895.554903	2634.522123
895.863100	2618.241717
896.171256	2601.396702
896.479371	2592.216760
896.787446	2577.720923
897.095480	2564.215671
897.403473	2557.652089
897.711425	2546.662374
898.019336	2541.724563
898.327207	2531.788449
898.635038	2526.918695
898.942827	2521.920391
899.250576	2515.245903
899.558284	2508.059738
899.865952	2505.062772
900.173579	2500.245950
900.481165	2497.485918
900.788711	2496.644045
901.096216	2498.685713
901.403681	2492.530464
901.711105	2492.641369
902.018489	2494.607419
902.325832	2497.352327
902.633135	2497.405259
902.940397	2511.303721
903.247619	2534.157792
903.554800	2580.606983
903.861941	2633.738224
904.169041	2672.716426
904.476101	2688.033972
904.783121	2675.357990
905.090100	2653.686070
905.397039	2635.285858
905.703938	2610.352311
906.010796	2592.057964
906.317614	2577.365521
906.624391	2562.156360
906.931129	2547.010213
907.237826	2539.035108
907.544483	2522.961389
907.851099	2514.267919
908.157675	2506.370952
908.464211	2495.235043
908.770707	2486.019813
909.077163	2479.872126
909.383578	2476.618062
909.689954	2474.006744
909.996289	2471.269397
910.302584	2473.893318
910.608839	2469.797380
910.915054	2471.549181
911.221229	2468.653038
911.527363	2471.702937
911.833458	2471.647484
912.139513	2472.058338
912.445527	2474.420118
912.751502	2477.293576
913.057436	2480.023361
913.363331	2481.142497
913.669186	2488.222798
913.975000	2496.336535
914.280775	2508.427742
914.586510	2525.174455
914.892205	2549.404761
915.197859	2578.252764
915.503475	2615.186778
915.809050	2645.897487
916.114585	2662.616474
916.420081	2669.406908
916.725536	2666.132679
917.030952	2652.375370
917.336328	2639.835500
917.641665	2629.977523
917.946961	2617.339351
918.252218	2604.744028
918.557435	2590.041502
918.862612	2577.917527
919.167750	2564.707184
919.472848	2552.673950
919.777906	2540.156765
920.082925	2534.432534
920.387904	2519.714886
920.692843	2511.523011
920.997743	2505.642505
921.302603	2499.000785
921.607423	2495.648417
921.912204	2492.401914
922.216946	2487.857314
922.521647	2482.435553
922.826310	2480.550162
923.130932	2478.843731
923.435516	2475.342650
923.740059	2473.202680
924.044564	2472.474233
924.349028	2473.542958
924.653454	2462.996864
924.957840	2462.386884
925.262186	2461.686164
925.566493	2462.099538
925.870761	2456.413117
926.174989	2458.301029
926.479178	2459.314301
926.783328	2457.746502
927.087438	2457.149125
927.391509	2455.329269
927.695541	2453.675770
927.999533	2452.123095
928.303486	2452.970009
928.607400	2453.527056
928.911275	2450.971191
929.215110	2450.797272
929.518906	2449.501695
929.822663	2451.371963
930.126381	2451.240893
930.430060	2450.653599
930.733699	2450.577981
931.037299	2452.667540
931.340861	2452.528908
931.644383	2449.254678
931.947866	2451.714762
932.251309	2450.761983
932.554714	2453.136367
932.858080	2449.912549
933.161407	2452.438167
933.464694	2451.566048
933.767943	2450.920780
934.071153	2449.998249
934.374323	2449.262240
934.677455	2452.123095
934.980548	2451.548403
935.283602	2448.465738
935.586617	2448.672425
935.889593	2448.175872
936.192530	2450.774586
936.495428	2447.765017
936.798287	2450.605708
937.101108	2451.485389
937.403890	2453.693414
937.706632	2454.023610
938.009336	2456.140895
938.312002	2461.915536
938.614628	2460.072995
938.917216	2461.018211
939.219765	2461.665999
939.522275	2464.254632
939.824747	2467.874180
940.127179	2461.860084
940.429573	2459.120217
940.731929	2460.511575
941.034246	2458.485031
941.336524	2463.327059
941.638763	2461.224898
941.940964	2464.156329
942.243126	2460.589713
942.545250	2459.573920
942.847335	2457.940587
943.149381	2457.779270
943.451389	2453.640482
943.753359	2455.752726
944.055290	2456.080401
944.357182	2453.968157
944.659036	2453.083435
944.960851	2452.692745
945.262628	2453.716100
945.564367	2453.330451
945.866067	2454.273147
946.167729	2450.764504
946.469352	2451.865996
946.770937	2454.111830
947.072484	2452.483537
947.373992	2455.341872
947.675462	2449.781479
947.976893	2452.569237
948.278286	2452.009669
948.579641	2452.722992
948.880958	2447.596139
949.182236	2450.386418
949.483476	2449.910028
949.784678	2451.379525
950.085841	2451.845832
950.386967	2452.264247
950.688054	2446.653443
950.989103	2449.083279
951.290114	2451.510595
951.591087	2453.922787
951.892021	2450.777107
952.192917	2453.453960
952.493776	2455.664506
952.794596	2452.634772
953.095378	2454.056378
953.396122	2452.864145
953.696828	2455.929166
953.997496	2452.851542
954.298126	2454.875565
954.598718	2452.087807
954.899272	2453.363219
955.199788	2451.248455
955.500266	2451.324072
955.800706	2447.157558
956.101108	2444.838628
956.401472	2445.597321
956.701798	2442.068514
957.002087	2442.625561
957.302337	2444.216045
957.602550	2445.826694
957.902724	2441.065324
958.202861	2440.281425
958.502960	2441.934923
958.803022	2442.784357
959.103045	2441.498863
959.403031	2439.472319
959.702979	2439.633636
960.002889	2438.872422
960.302762	2438.942998
960.602596	2437.750765
960.902393	2434.398398
961.202153	2436.540888
961.501875	2434.148861
961.801559	2434.078285
962.101205	2435.116763
962.400814	2437.256732
962.700385	2434.925199
962.999918	2440.528441
963.299414	2429.768098
963.598873	2434.620209
963.898293	2435.593152
964.197677	2434.441248
964.497022	2433.987544
964.796331	2432.318922
965.095601	2433.087698
965.394835	2433.370003
965.694030	2431.880342
965.993189	2429.979827
966.292309	2429.518561
966.591393	2433.722883
966.890439	2432.800352
967.189447	2431.668613
967.488419	2433.760692
967.787353	2433.438058
968.086249	2430.816658
968.385108	2431.719025
968.683930	2431.149374
968.982714	2432.197934
969.281462	2433.047369
969.580172	2434.113573
969.878844	2430.236926
970.177480	2433.589293
970.476078	2433.375044
970.774639	2435.572987
971.073162	2432.767585
971.371649	2433.029725
971.670098	2431.461926
971.968510	2432.056782
972.266885	2429.311874
972.565223	2432.565939
972.863524	2435.961156
973.161788	2434.663059
973.460014	2433.070054
973.758204	2435.782195
974.056356	2433.977462
974.354471	2432.439910
974.652550	2434.216917
974.950591	2432.523089
975.248595	2432.664241
975.546563	2434.731114
975.844493	2432.414704
976.142386	2432.840682
976.440243	2434.499221
976.738062	2434.229519
977.035845	2434.496701
977.333590	2431.860177
977.631299	2433.193562
977.928971	2432.792791
978.226606	2429.213571
978.524204	2429.195927
978.821765	2431.542584
979.119290	2430.773808
979.416777	2431.633325
979.714228	2429.949580
980.011642	2429.326997
980.309020	2434.179108
980.606360	2433.249015
980.903664	2433.092739
981.200931	2433.296906
981.498162	2436.583738
981.795356	2438.141455
982.092513	2439.076589
982.389633	2445.909873
982.686717	2450.308280
982.983764	2449.582353
983.280775	2454.300873
983.577749	2453.411110
983.874686	2451.893722
984.171587	2450.930862
984.468451	2448.962292
984.765279	2447.787703
985.062070	2444.959615
985.358824	2442.696137
985.655543	2442.144131
985.952224	2439.341249
986.248869	2435.608275
986.545478	2433.400250
986.842050	2431.040990
987.138586	2427.494538
987.435086	2430.481422
987.731549	2424.689136
988.027975	2430.675506
988.324366	2427.217274
988.620719	2428.124682
988.917037	2426.841708
989.213318	2426.178797
989.509563	2425.299115
989.805772	2427.338262
990.101944	2426.032603
990.398080	2425.876327
990.694180	2425.241142
990.990244	2427.761719
991.286271	2425.210895
991.582262	2425.306677
991.878217	2426.327511
992.174136	2426.496389
992.470019	2427.262645
992.765865	2424.401790
993.061676	2424.999167
993.357450	2429.773139
993.653188	2425.089908
993.948890	2427.895310
994.244556	2428.641400
994.540186	2430.491504
994.835780	2429.420259
995.131337	2430.806576
995.426859	2430.383119
995.722345	2434.746238
996.017795	2436.669438
996.313208	2436.558533
996.608586	2437.221444
996.903928	2437.980138
997.199234	2437.352514
997.494504	2437.503749
997.789738	2437.458378
998.084936	2436.848399
998.380099	2433.256577
998.675225	2432.376895
998.970316	2432.558377
999.265371	2429.619384
999.560390	2429.276586
999.855373	2428.485125
1000.150320	2428.885896
1000.445232	2427.650814
1000.740108	2426.335072
1001.034948	2426.723241
1001.329752	2425.034455
1001.624521	2425.740216
1001.919254	2418.506161
1002.213951	2423.708631
1002.508613	2417.797878
1002.803239	2421.422468
1003.097829	2416.083886
1003.392384	2423.333065
1003.686903	2420.623445
1003.981386	2421.422468
1004.275834	2419.050605
1004.570246	2422.748292
1004.864623	2420.825091
1005.158964	2421.770308
1005.453270	2423.968251
1005.747540	2419.721079
1006.041775	2420.666295
1006.335974	2420.389032
1006.630138	2420.119330
1006.924266	2424.116965
1007.218359	2419.090934
1007.512416	2422.052612
1007.806438	2422.314752
1008.100425	2419.678229
1008.394376	2421.165369
1008.688292	2421.820719
1008.982172	2415.950296
1009.276017	2422.040009
1009.569827	2419.887437
1009.863602	2418.675039
1010.157341	2419.005235
1010.451045	2418.750657
1010.744714	2419.630338
1011.038347	2421.354412
1011.331945	2420.573034
1011.625508	2420.487334
1011.919036	2420.988929
1012.212528	2420.172262
1012.505986	2419.088414
1012.799408	2421.467838
1013.092795	2417.167734
1013.386147	2419.247210
1013.679464	2418.193609
1013.972745	2419.237128
1014.265992	2418.828794
1014.559204	2421.409865
1014.852380	2417.681932
1015.145521	2419.506830
1015.438628	2418.627148
1015.731699	2418.244021
1016.024736	2416.887950
1016.317737	2418.985070
1016.610703	2416.577919
1016.903635	2417.346695
1017.196531	2414.039698
1017.489393	2417.167734
1017.782219	2412.602969
1018.075011	2418.619587
1018.367768	2420.043713
1018.660490	2422.443302
1018.953177	2422.443302
1019.245829	2422.443302
