Dividing Wavelength (nm)	Counts (n)	Blue Motor Position (mm): 0.000000	Red Motor Position (mm): 38.800000	
326.493990	1992.899185
326.888308	1992.899185
327.282561	1992.899185
327.676750	1972.185084
328.070874	1971.002934
328.464933	1979.093986
328.858929	1986.670840
329.252859	1998.668786
329.646726	2012.214366
330.040528	2027.791532
330.434265	2047.399100
330.827938	2067.160423
331.221547	2084.771694
331.615091	2105.082503
332.008571	2126.971193
332.401986	2148.660757
332.795338	2169.437873
333.188625	2187.555779
333.581847	2207.246526
333.975006	2224.658672
334.368100	2242.549727
334.761129	2259.034300
335.154095	2277.807557
335.546996	2299.262708
335.939833	2346.828515
336.332606	2359.562469
336.725315	2371.409181
337.117960	2379.228010
337.510540	2387.392159
337.903056	2396.272152
338.295508	2401.963614
338.687896	2411.829152
339.080220	2416.177148
339.472480	2424.616039
339.864676	2426.206523
340.256807	2431.315733
340.648875	2430.236926
341.040879	2434.955446
341.432818	2434.010229
341.824694	2436.828234
342.216506	2434.441248
342.608253	2436.792946
342.999937	2433.617019
343.391557	2435.764551
343.783113	2430.526792
344.174605	2433.364962
344.566033	2428.018818
344.957397	2431.154416
345.348697	2425.730134
345.739934	2424.396749
346.131106	2421.828281
346.522215	2422.370205
346.913260	2419.990780
347.304241	2423.265010
347.695159	2416.151942
348.086012	2418.581778
348.476802	2412.418967
348.867528	2411.249420
349.258191	2411.824111
349.648789	2412.739081
350.039324	2409.527866
350.429796	2410.006775
350.820203	2409.323699
351.210548	2406.828328
351.600828	2409.696744
351.991045	2408.025602
352.381198	2409.464851
352.771288	2407.075344
353.161314	2410.299162
353.551276	2404.940416
353.941175	2411.065418
354.331010	2406.659449
354.720782	2410.069790
355.110490	2409.684141
355.500135	2409.691703
355.889717	2412.020716
356.279235	2408.166754
356.668689	2410.072310
357.058080	2410.616755
357.447408	2409.941240
357.836672	2409.966446
358.225873	2410.773031
358.615010	2411.594739
359.004084	2414.674884
359.393095	2416.908115
359.782043	2415.819226
360.170927	2417.119843
360.559748	2417.684452
360.948505	2420.187385
361.337199	2420.162180
361.725830	2420.298291
362.114398	2421.137643
362.502903	2422.413055
362.891344	2423.489341
363.279722	2421.087231
363.668037	2425.929260
364.056289	2426.995464
364.444478	2427.471853
364.832603	2425.616708
365.220665	2428.185176
365.608665	2429.037131
365.996601	2430.481422
366.384474	2433.133068
366.772284	2432.568459
367.160031	2434.151382
367.547715	2432.482760
367.935336	2435.265477
368.322893	2434.710950
368.710388	2435.275559
369.097820	2440.956939
369.485189	2440.253698
369.872495	2442.870057
370.259738	2443.348967
370.646918	2448.349791
371.034035	2448.168310
371.421090	2452.798610
371.808081	2454.215174
372.195010	2460.751030
372.581875	2464.209261
372.968678	2469.371403
373.355418	2479.471355
373.742096	2485.460245
374.128710	2504.301558
374.515262	2514.497292
374.901751	2527.374919
375.288177	2547.484082
375.674540	2566.345559
376.060841	2587.115113
376.447079	2611.569750
376.833254	2638.968421
377.219367	2663.876762
377.605417	2700.344469
377.991404	2725.235166
378.377329	2764.067174
378.763191	2801.815334
379.148991	2850.908611
379.534727	2902.711508
379.920402	2951.986266
380.306013	3001.550891
380.691563	3068.434400
381.077049	3126.248872
381.462474	3182.487985
381.847835	3259.879779
382.233134	3331.600274
382.618371	3390.614542
383.003545	3482.716423
383.388657	3570.036769
383.773706	3659.086231
384.158693	3737.259404
384.543618	3831.702901
384.928480	3919.545006
385.313280	4023.909494
385.698017	4128.019403
386.082692	4250.806787
386.467305	4318.184329
386.851856	4447.676448
387.236344	4610.273824
387.620770	4670.984440
388.005133	4794.346516
388.389435	4951.582625
388.773674	5036.422723
389.157851	5170.348537
389.541965	5312.927491
389.926018	5332.441798
390.310008	5518.311661
390.693936	5638.989322
391.077802	5763.427684
391.461606	5896.670421
391.845348	6017.322877
392.229027	6138.900384
392.612645	6366.427822
392.996200	6484.174052
393.379694	6665.073338
393.763125	6896.928606
394.146494	6990.086608
394.529801	7131.622044
394.913047	7379.954323
395.296230	7376.869137
395.679351	7437.010103
396.062410	7708.851803
396.445408	7595.294772
396.828343	7756.473063
397.211217	7897.159064
397.594028	7779.269161
397.976778	7988.913105
398.359466	8159.427613
398.742092	8130.103221
399.124656	8285.726161
399.507158	8468.606620
399.889598	8495.871700
400.271977	8713.518477
400.654294	8742.311027
401.036549	8942.999361
401.418742	8969.866191
401.800874	9281.936299
402.182944	9365.390080
402.564952	9735.695598
402.946898	9556.409482
403.328783	9616.668914
403.710606	9817.082506
404.092367	10078.738555
404.474067	10457.402306
404.855705	10232.627338
405.237282	10183.423156
405.618797	10629.504778
406.000250	10884.035156
406.381642	11249.997719
406.762972	11198.451921
407.144240	10995.003555
407.525447	11260.818556
407.906593	11193.251971
408.287677	11458.640995
408.668700	11620.872887
409.049661	11590.449524
409.430560	11752.081519
409.811399	11724.680327
410.192176	11882.473484
410.572891	11970.222328
410.953545	12468.621044
411.334138	11933.542893
411.714669	12550.096173
412.095139	11835.850373
412.475547	12349.203672
412.855894	12192.786750
413.236180	12531.776620
413.616405	12209.709903
413.996568	12490.817245
414.376670	12466.667597
414.756711	12332.136845
415.136691	12632.156075
415.516609	12817.317656
415.896466	12884.485990
416.276262	13187.706352
416.655997	13628.277993
417.035670	13657.045337
417.415283	14323.652234
417.794834	14417.992387
418.174324	14163.812369
418.553753	14057.902768
418.933121	14563.616198
419.312428	14368.016908
419.691674	14285.810812
420.070859	14742.254526
420.449983	14399.874480
420.829045	14943.852789
421.208047	14695.011352
421.586988	15165.434185
421.965867	15420.884574
422.344686	15415.049439
422.723444	16001.103738
423.102141	14657.429551
423.480777	15866.925867
423.859352	15372.023191
424.237866	16506.340779
424.616319	16193.209508
424.994712	16871.647993
425.373044	16658.681928
425.751314	17341.773398
426.129524	16449.932788
426.507673	17573.744612
426.885762	17253.817866
427.263789	17468.470197
427.641756	17637.235424
428.019662	17701.116926
428.397508	17748.864215
428.775292	18066.908090
429.153016	18009.033123
429.530679	18103.395962
429.908282	18122.010422
430.285824	17836.638265
430.663305	18557.798008
431.040726	18152.537129
431.418086	17968.353533
431.795385	18626.597155
432.172624	19057.078926
432.549802	18610.470504
432.926920	18787.261248
433.303977	18673.691614
433.680974	18944.648592
434.057910	19228.006809
434.434786	19258.273896
434.811601	19172.453293
435.188355	20232.915458
435.565050	19867.381392
435.941683	19820.735596
436.318257	20712.969415
436.694770	20519.154693
437.071222	21131.377622
437.447614	20180.568116
437.823946	20214.434588
438.200218	20375.801922
438.576429	20140.032198
438.952580	20409.880122
439.328670	20366.248936
439.704700	20798.202723
440.080670	20356.327945
440.456580	20955.111158
440.832429	21144.877832
441.208218	20108.524986
441.583947	20574.987993
441.959616	20671.770585
442.335224	20923.190571
442.710773	21046.343439
443.086261	21593.389290
443.461689	20953.782813
443.837057	21080.411557
444.212365	21744.124831
444.587612	21734.828943
444.962800	21301.710649
445.337927	21722.047098
445.712995	20429.709501
446.088002	22327.217452
446.462949	22528.157845
446.837837	22696.348381
447.212664	22659.830263
447.587431	25543.839090
447.962139	28539.320432
448.336786	30946.705807
448.711374	29373.018893
449.085901	25618.574196
449.460369	25557.858539
449.834776	25477.537835
450.209124	28001.517537
450.583412	27526.555145
450.957640	28065.729234
451.331808	26693.559924
451.705917	25305.969725
452.079965	25335.573901
452.453954	25709.430912
452.827883	25579.202784
453.201752	25387.712035
453.575562	25551.902416
453.949311	26693.232249
454.323001	26757.753977
454.696632	26508.030339
455.070202	28098.211908
455.443713	28227.630931
455.817164	28846.215796
456.190556	29377.165242
456.563888	28812.881166
456.937160	29251.577497
457.310373	27552.585142
457.683526	28025.014355
458.056619	27998.986877
458.429653	27939.687785
458.802628	28515.841258
459.175542	28641.897830
459.548398	29941.938310
459.921194	31541.977856
460.293930	32222.962123
460.666607	34270.212509
461.039224	36049.611267
461.411782	36467.941337
461.784280	35249.892703
462.156719	34773.536432
462.529099	34217.822318
462.901419	32905.962852
463.273680	31840.265450
463.645882	31917.337130
464.018024	31892.670764
464.390106	32741.485126
464.762130	35455.390299
465.134094	39548.726563
465.505999	44885.022323
465.877845	49520.060815
466.249631	50702.811290
466.621358	49026.362975
466.993026	46897.274498
467.364634	44839.180591
467.736184	42831.689785
468.107674	41586.118973
468.479105	40780.373709
468.850477	40066.163197
469.221790	38611.689489
469.593043	36842.597370
469.964238	35959.278831
470.335373	35868.981684
470.706449	37609.190512
471.077467	40218.199356
471.448425	44813.548844
471.819324	47654.173501
472.190164	45816.178891
472.560945	42232.263826
472.931667	39102.203841
473.302330	37959.333935
473.672934	37131.357183
474.043479	37633.955180
474.413965	36839.549992
474.784393	36446.899561
475.154761	37356.759774
475.525070	37385.885041
475.895321	36917.254338
476.265513	37515.649382
476.635645	38519.559882
477.005719	38336.089608
477.375734	38810.429418
477.745691	39489.954271
478.115588	40862.945289
478.485427	42839.516177
478.855207	46236.762357
479.224928	48844.382362
479.594591	50479.248719
479.964194	49512.241986
480.333739	49674.662922
480.703226	49703.712571
481.072653	50339.107163
481.442022	50813.817497
481.811333	51088.515012
482.180584	49798.909720
482.549777	49278.718096
482.918912	48723.810565
483.287988	48438.342626
483.657005	47608.268754
484.025964	46960.394785
484.394864	46964.278994
484.763706	46543.768626
485.132489	45660.777762
485.501213	45483.659342
485.869879	45646.208828
486.238487	45235.460653
486.607036	45426.734633
486.975527	44889.438374
487.343959	45080.876191
487.712333	45167.175704
488.080648	45069.110138
488.448905	45531.744388
488.817104	45356.208891
489.185244	46280.948070
489.553326	47972.955906
489.921350	50687.750842
490.289315	53536.784144
490.657222	54127.965297
491.025070	54393.399691
491.392861	53512.679867
491.760593	52291.336840
492.128267	50635.315281
492.495883	49110.159555
492.863440	47719.501814
493.230939	46342.694643
493.598380	45242.361993
493.965763	44908.975366
494.333088	44079.788737
494.700354	43596.120272
495.067563	43275.762507
495.434713	43154.800021
495.801805	43220.781163
496.168839	42828.498735
496.535815	42476.285919
496.902733	42511.652133
497.269593	42095.393978
497.636395	42015.801721
498.003139	42432.085082
498.369825	41866.724719
498.736453	42174.149404
499.103023	41710.070863
499.469535	41573.939545
499.835989	41668.685511
500.202385	41327.631288
500.568723	41337.012876
500.935003	41532.687783
501.301226	41318.922695
501.667390	41939.705503
502.033497	42194.792929
502.399546	41621.457461
502.765537	40926.877202
503.131470	41308.046406
503.497345	41672.569720
503.863163	40322.919245
504.228923	40939.122164
504.594625	41357.353932
504.960269	40643.904633
505.325856	41329.965343
505.691385	40677.347648
506.056856	40827.284166
506.422270	41261.352718
506.787625	40844.582886
507.152924	41027.133149
507.518164	41127.391617
507.883347	40321.142238
508.248472	40608.518254
508.613540	41057.105329
508.978550	41378.559545
509.343503	41106.281785
509.708398	41301.863431
510.073236	41843.835360
510.438016	41834.347908
510.802738	41296.991155
511.167403	41925.484408
511.532010	42152.333811
511.896561	42458.591469
512.261053	43318.486286
512.625488	42832.418232
512.989866	42718.878845
513.354186	42546.927608
513.718449	42550.766446
514.082655	43229.313316
514.446803	42908.645519
514.810894	43428.753965
515.174927	43345.033002
515.538904	43227.483377
515.902822	43927.916416
516.266684	43357.192265
516.630488	43805.164319
516.994235	43640.840348
517.357925	44205.802460
517.721558	44380.609510
518.085133	44692.992170
518.448651	44824.868755
518.812112	44593.464670
519.175516	44697.075505
519.538863	45042.099636
519.902152	44987.405637
520.265385	45461.831146
520.628560	45490.502709
520.991678	45281.612417
521.354739	45521.094951
521.717743	45833.422158
522.080690	45728.631693
522.443580	46278.881197
522.806413	46324.181005
523.169189	46264.897036
523.531908	46456.697817
523.894569	46316.117680
524.257174	46488.265522
524.619722	46783.777960
524.982213	46759.058663
525.344647	46678.097732
525.707025	46715.916468
526.069345	47095.807739
526.431608	47020.830658
526.793815	47355.729632
527.155964	46870.304325
527.518057	47033.519243
527.880093	46802.621793
528.242072	47333.387238
528.603995	47031.003707
528.965860	47044.400573
529.327669	47135.272412
529.689421	47044.340079
530.051117	46977.040675
530.412755	47118.213148
530.774337	47174.847991
531.135862	46970.111609
531.497331	47167.440015
531.858743	47091.991586
532.220098	47417.163653
532.581396	47133.891136
532.942638	46789.847510
533.303824	47066.750529
533.664953	47032.294242
534.026025	46751.680934
534.387040	47233.211949
534.747999	47163.356680
535.108902	47333.830859
535.469748	46857.283025
535.830537	46944.900799
536.191270	47129.926269
536.551947	46787.831048
536.912567	47087.320957
537.273131	47208.497692
537.633638	46668.932914
537.994089	47013.326901
538.354483	46610.342103
538.714821	47172.236673
539.075103	47493.494284
539.435328	47254.934281
539.795497	47154.065834
540.155609	47115.009494
540.515665	47567.450532
540.875665	47015.537447
541.235609	47323.067996
541.595496	47303.261302
541.955328	47967.244278
542.315102	47313.560380
542.674821	47109.711242
543.034483	47131.569685
543.394090	47095.134745
543.753640	47048.350317
544.113134	48035.103250
544.472571	47053.404074
544.831953	48252.651724
545.191278	47451.483828
545.550548	47165.728543
545.909761	47606.252293
546.268918	47787.862381
546.628019	48093.530223
546.987064	47620.294427
547.346053	46873.565952
547.704986	47741.398066
548.063863	47273.198382
548.422684	47459.736197
548.781449	47293.133624
549.140158	47658.322371
549.498811	47490.293151
549.857408	46907.692042
550.215949	47703.702838
550.574434	47614.454250
550.932864	47335.872527
551.291237	48053.586641
551.649555	47611.212788
552.007817	47824.471240
552.366022	47441.527550
552.724173	47590.523893
553.082267	47958.820510
553.440305	48214.767453
553.798288	47501.812188
554.156215	47780.315773
554.514086	47947.344324
554.871902	47668.452569
555.229661	47648.272831
555.587365	47430.600849
555.945014	47473.107858
556.302606	47350.897686
556.660143	47526.470992
557.017625	47574.891275
557.375050	47331.365735
557.732421	47622.399108
558.089735	47553.597441
558.446994	47417.231709
558.804197	47847.829426
559.161345	47752.105476
559.518437	46927.526462
559.875474	47183.365020
560.232455	47288.379816
560.589381	47401.102537
560.946251	47066.921928
561.303065	47670.433743
561.659825	47406.564627
562.016528	47021.717901
562.373177	46691.262705
562.729770	47086.826924
563.086307	46547.887248
563.442789	46923.443128
563.799216	46918.845595
564.155587	46634.048129
564.511904	46570.171669
564.868164	46577.778770
565.224370	46767.638706
565.580520	46419.247085
565.936615	46542.231074
566.292654	46181.355035
566.648638	46337.136771
567.004567	46206.336473
567.360441	46158.606828
567.716260	45935.896213
568.072023	46110.284848
568.427732	45991.772362
568.783385	45466.390870
569.138982	45751.480723
569.494525	45609.201717
569.850013	45291.838397
570.205445	45165.318039
570.560823	45016.437642
570.916145	44808.414429
571.271412	44735.536988
571.626625	44378.048604
571.981782	44316.433101
572.336884	43925.768884
572.691931	44106.912665
573.046923	43626.543636
573.401860	43366.755334
573.756743	43243.176489
574.111570	43251.328034
574.466342	42974.843431
574.821059	42949.776294
575.175722	42401.742377
575.530330	42288.157619
575.884882	41909.866914
576.239380	41765.367280
576.593823	41612.090997
576.948211	41411.057343
577.302544	40861.937058
577.656823	40744.760478
578.011047	40808.924284
578.365216	40431.818250
578.719330	40122.278801
579.073389	39847.616575
579.427394	39785.423860
579.781344	39622.466041
580.135239	39180.414822
580.489080	39112.984348
580.842866	38504.073457
581.196597	38769.517934
581.550273	38562.245852
581.903895	38293.877507
582.257463	38497.998867
582.610975	37798.460633
582.964434	37884.659323
583.317837	37431.484798
583.671186	37155.496748
584.024481	37180.112702
584.377721	36640.449621
584.730906	36738.973932
585.084037	36602.033508
585.437113	36228.932671
585.790135	36101.716633
586.143103	35627.132328
586.496016	35564.054890
586.848874	35433.569664
587.201679	35280.391684
587.554428	34713.156012
587.907124	34685.583421
588.259765	34306.322294
588.612352	34365.719689
588.964884	33715.244485
589.317362	33773.696664
589.669786	33565.645724
590.022155	33228.344641
590.374470	33389.739702
590.726731	32873.089488
591.078937	32328.705366
591.431090	32240.659094
591.783188	31832.295385
592.135232	31439.012289
592.487222	31463.330815
592.839157	31359.853570
593.191038	30951.396601
593.542866	30615.275147
593.894639	30011.624701
594.246358	30048.750278
594.598022	29876.446160
594.949633	29441.356775
595.301190	29243.483924
595.652692	28967.619383
596.004141	29018.083854
596.355535	28177.231995
596.706876	27982.494743
597.058162	27712.656901
597.409395	27881.596048
597.760573	27762.980219
598.111698	27311.048338
598.462768	27166.170618
598.813785	27021.239965
599.164748	26492.468297
599.515657	26592.411693
599.866511	26085.783293
600.217312	26319.160990
600.568060	25496.316133
600.918753	25807.773741
601.269392	25602.888646
601.619978	25230.473405
601.970510	25215.329779
602.320988	25147.622042
602.671412	25164.822459
603.021783	24856.480284
603.372100	24481.947759
603.722363	24389.876125
604.072572	24273.475883
604.422728	24120.557522
604.772830	23840.715510
605.122878	23730.331885
605.472872	23529.825032
605.822813	23540.005642
606.172701	23265.605556
606.522534	23234.637748
606.872314	23234.070618
607.222041	22915.537750
607.571714	22973.868942
607.921333	22490.787771
608.270899	22497.815140
608.620411	22511.201924
608.969870	22249.056883
609.319276	22074.005336
609.668627	21946.267539
610.017926	22034.807844
610.367171	21960.879323
610.716362	21841.151919
611.065500	21638.774798
611.414585	21567.260990
611.763616	21549.077548
612.112594	21347.703616
612.461518	21301.690484
612.810389	21278.412957
613.159207	21050.351157
613.507971	20929.665933
613.856682	20985.393369
614.205340	20780.258736
614.553945	20937.275555
614.902496	20516.029178
615.250994	20580.873540
615.599439	20447.494692
615.947830	20386.453880
616.296169	20234.884028
616.644454	20136.049686
616.992686	20044.792199
617.340864	20112.361304
617.688990	19820.954886
618.037063	19927.088818
618.385082	19750.925697
618.733048	19736.691999
619.080961	19585.533001
619.428821	19429.413508
619.776628	19323.856787
620.124382	19100.581563
620.472083	19002.200925
620.819731	18908.889167
621.167326	18634.723495
621.514868	18468.793916
621.862357	18149.542684
622.209793	18011.006735
622.557176	17740.080004
622.904506	17497.741656
623.251783	17234.361533
623.599007	17002.246645
623.946179	16778.038807
624.293297	16625.238913
624.640363	16288.630989
624.987376	16139.463246
625.334336	15923.636327
625.681243	15671.402194
626.028097	15527.535225
626.374899	15352.234141
626.721647	15207.127048
627.068343	15046.369693
627.414987	14859.078225
627.761577	14664.658565
628.108115	14643.352128
628.454600	14347.295245
628.801032	14295.492348
629.147412	14168.034335
629.493739	14052.969999
629.840014	13830.546729
630.186236	13826.518847
630.532405	13602.212707
630.878521	13552.315366
631.224585	13412.771187
631.570597	13223.115417
631.916556	13163.491170
632.262462	13044.151935
632.608316	12939.182509
632.954117	12802.221921
633.299866	12698.182588
633.645562	12565.325499
633.991206	12334.859068
634.336797	12116.519133
634.682336	12013.172959
635.027823	11849.963083
635.373257	11706.925383
635.718639	11548.524768
636.063968	11422.649677
636.409245	11189.201404
636.754470	11106.355082
637.099642	10952.700712
637.444762	10750.497511
637.789829	10694.886022
638.134845	10527.257575
638.479808	10431.004304
638.824719	10319.907355
639.169577	10152.931737
639.514383	10084.661911
639.859137	9934.571638
640.203839	9912.738400
640.548489	9751.441642
640.893086	9683.093678
641.237632	9556.601046
641.582125	9502.345627
641.926566	9418.352443
642.270955	9333.933280
642.615292	9264.882076
642.959576	9189.922638
643.303809	9111.356256
643.647990	9073.199762
643.992118	8994.671188
644.336195	8922.887678
644.680219	8870.865491
645.024192	8862.229994
645.368112	8894.687463
645.711981	8832.071292
646.055797	8923.744674
646.399562	8860.803348
646.743274	8971.494483
647.086935	8997.975665
647.430544	8915.789733
647.774101	8873.537302
648.117606	8848.076955
648.461059	8833.215633
648.804460	8707.015388
649.147810	8533.178759
649.491108	8416.075276
649.834354	8298.429869
650.177548	8092.665092
650.520690	7945.780993
650.863781	7889.269658
651.206820	7806.667832
651.549807	7670.097933
651.892742	7542.034981
652.235626	7450.117103
652.578458	7377.824436
652.921238	7232.346818
653.263967	7218.904581
653.606644	7128.536857
653.949269	7074.873775
654.291843	6966.743545
654.634365	6967.686241
654.976836	6866.346446
655.319255	6821.223078
655.661622	6774.176510
656.003938	6698.791095
656.346203	6628.540096
656.688416	6617.746985
657.030577	6542.464914
657.372687	6476.939997
657.714746	6467.439942
658.056753	6438.032371
658.398708	6325.276883
658.740612	6286.558301
659.082465	6277.156549
659.424266	6221.555143
659.766016	6194.368200
660.107715	6144.206199
660.449362	6118.145954
660.790958	6078.880407
661.132503	6046.574172
661.473996	6010.766856
661.815438	5986.917158
662.156829	5969.968798
662.498168	5909.512761
662.839456	5870.007759
663.180693	5845.837947
663.521879	5822.998999
663.863013	5787.451303
664.204097	5756.460809
664.545129	5769.338437
664.886110	5729.641871
665.227040	5699.336975
665.567918	5680.649417
665.908746	5659.229555
666.249522	5648.451568
666.590248	5611.981340
666.930922	5600.520277
667.271545	5564.730605
667.612118	5537.455442
667.952639	5486.645653
668.293109	5459.095747
668.633528	5418.287607
668.973896	5376.277151
669.314213	5344.603581
669.654480	5295.031395
669.994695	5264.666005
670.334859	5229.733329
670.674973	5189.441907
671.015035	5173.249721
671.355047	5142.110514
671.695008	5111.324187
672.034918	5081.445268
672.374777	5061.265529
672.714585	5018.103170
673.054342	5017.576370
673.394049	4978.489783
673.733705	4976.501048
674.073310	4928.718471
674.412864	4905.677878
674.752368	4847.324001
675.091820	4841.325028
675.431223	4791.233603
675.770574	4743.516561
676.109875	4704.984502
676.449125	4660.226617
676.788324	4632.132267
677.127473	4570.723452
677.466571	4540.436199
677.805619	4496.348788
678.144616	4475.911951
678.483562	4449.771047
678.822458	4406.429727
679.161303	4378.791601
679.500098	4353.364021
679.838842	4331.087162
680.177535	4317.607117
680.516179	4315.804904
680.854771	4314.723577
681.193314	4355.705637
681.531805	4407.886621
681.870247	4444.797949
682.208638	4475.750634
682.546978	4473.706446
682.885268	4457.262202
683.223508	4410.112290
683.561697	4373.420252
683.899836	4345.451930
684.237925	4302.110610
684.575963	4277.393833
684.913951	4233.533274
685.251889	4232.119230
685.589776	4216.705902
685.927614	4204.836505
686.265401	4199.160166
686.603137	4189.524001
686.940824	4214.601220
687.278460	4223.082962
687.616046	4224.940627
687.953582	4248.717229
688.291068	4232.341041
688.628504	4236.583172
688.965889	4217.348649
689.303224	4185.163403
689.640510	4149.973628
689.977745	4088.559771
690.314930	4032.320659
690.652065	3988.306345
690.989150	3928.170421
691.326185	3866.854866
691.663170	3816.032474
692.000105	3762.780245
692.336990	3711.927606
692.673825	3676.216072
693.010610	3642.871360
693.347345	3595.066098
693.684030	3550.756876
694.020665	3529.281561
694.357251	3491.019203
694.693786	3478.378510
695.030272	3455.592494
695.366707	3423.253493
695.703093	3400.170049
696.039429	3390.158318
696.375716	3375.281873
696.711952	3362.583206
697.048139	3349.335054
697.384276	3335.416428
697.720363	3332.878207
698.056400	3320.943275
698.392388	3304.320070
698.728326	3292.523770
699.064214	3276.218158
699.400053	3269.178187
699.735842	3245.068869
700.071581	3226.519943
700.407270	3206.441027
700.742910	3192.187165
701.078501	3169.590193
701.414042	3153.334992
701.749533	3134.491159
702.084974	3116.050618
702.420366	3112.723457
702.755709	3091.112030
703.091002	3072.951273
703.426246	3069.251067
703.761440	3056.446536
704.096584	3044.589742
704.431679	3032.944677
704.766725	3027.469983
705.101721	3020.475382
705.436668	3013.500946
705.771565	2997.034017
706.106413	3004.744462
706.441212	3002.027280
706.775961	2997.197855
707.110661	2996.030828
707.445311	3001.046776
707.779913	2991.894561
708.114465	2996.451764
708.448967	2998.937053
708.783421	3014.057994
709.117825	3018.078314
709.452180	3018.710979
709.786485	3030.711445
710.120742	3051.228942
710.454949	3052.098541
710.789107	3063.184038
711.123216	3082.133735
711.457275	3087.283274
711.791286	3103.908999
712.125247	3107.291613
712.459159	3095.689398
712.793023	3111.344701
713.126837	3071.597724
713.460602	3073.140317
713.794318	3056.365877
714.127985	3039.031870
714.461602	3011.098836
714.795171	2996.383708
715.128691	2963.296095
715.462162	2941.157868
715.795584	2924.552307
716.128957	2915.402613
716.462281	2897.796383
716.795556	2886.980588
717.128782	2874.498691
717.461960	2855.163345
717.795088	2848.292252
718.128167	2834.602999
718.461198	2824.636638
718.794180	2816.162458
719.127113	2804.880356
719.459997	2797.797535
719.792833	2786.470062
720.125619	2784.385545
720.458357	2775.288783
720.791046	2767.845519
721.123686	2762.910230
721.456278	2754.632655
721.788821	2754.123498
722.121315	2746.160996
722.453761	2745.551016
722.786158	2741.076992
723.118506	2741.692013
723.450805	2737.495252
723.783056	2737.021384
724.115259	2734.044583
724.447412	2729.870507
724.779518	2736.378637
725.111574	2733.169942
725.443582	2737.694378
725.775542	2733.457288
726.107453	2740.212434
726.439315	2737.880901
726.771129	2746.561768
727.102895	2751.981008
727.434612	2756.147522
727.766281	2759.194899
728.097901	2762.030548
728.429473	2757.112903
728.760996	2758.824374
729.092471	2754.678025
729.423897	2754.746081
729.755276	2750.062849
730.086606	2750.367839
730.417887	2756.555855
730.749120	2763.318563
731.080305	2764.793101
731.411442	2766.580190
731.742530	2768.715118
732.073570	2770.000612
732.404562	2773.126128
732.735506	2769.307454
733.066401	2760.815630
733.397249	2753.024527
733.728048	2741.127404
734.058798	2724.962944
734.389501	2711.104812
734.720156	2702.217258
735.050762	2691.426668
735.381320	2684.936182
735.711831	2675.811694
736.042293	2671.219203
736.372707	2670.372289
736.703073	2665.568069
737.033391	2667.854233
737.363661	2668.403718
737.693883	2668.570077
738.024056	2669.868174
738.354182	2671.556960
738.684260	2675.413443
739.014290	2681.785461
739.344272	2682.004752
739.674207	2686.277129
740.004093	2687.517253
740.333931	2689.395083
740.663722	2687.996163
740.993464	2687.292922
741.323159	2684.641275
741.652806	2677.152641
741.982405	2676.552744
742.311956	2670.266425
742.641460	2667.244253
742.970915	2658.124806
743.300323	2649.864875
743.629683	2649.746408
743.958996	2644.533855
744.288260	2639.313740
744.617477	2630.602626
744.946647	2627.562811
745.275768	2626.176493
745.604842	2620.046450
745.933869	2618.987808
746.262847	2615.027982
746.591778	2620.101903
746.920662	2616.121912
747.249498	2613.611417
747.578286	2614.952364
747.907027	2619.141563
748.235720	2619.254989
748.564365	2620.971502
748.892963	2621.813375
749.221514	2621.508385
749.550017	2620.177520
749.878473	2620.111985
750.206881	2617.102416
750.535242	2612.885491
750.863555	2610.793412
751.191821	2609.109667
751.520039	2609.961622
751.848210	2607.786364
752.176334	2608.794595
752.504411	2604.033225
752.832440	2600.121290
753.160421	2601.926023
753.488356	2603.133379
753.816243	2601.406784
754.144082	2597.063830
754.471875	2595.347317
754.799620	2596.474015
755.127318	2591.758015
755.454969	2591.115268
755.782572	2592.115937
756.110129	2593.572831
756.437638	2593.734148
756.765100	2591.901688
757.092515	2589.703745
757.419882	2592.236925
757.747203	2589.481934
758.074477	2592.572162
758.401703	2590.590988
758.728882	2591.682398
759.056014	2594.669282
759.383099	2593.252717
759.710138	2597.807400
760.037129	2600.401074
760.364073	2600.229674
760.690970	2599.226485
761.017820	2599.909561
761.344623	2603.355190
761.671379	2607.252002
761.998088	2612.348608
762.324751	2636.848616
762.651366	2682.087931
762.977935	2730.866135
763.304456	2761.241608
763.630931	2775.122425
763.957359	2761.470980
764.283740	2735.141034
764.610074	2708.838813
764.936362	2679.504339
765.262602	2653.098775
765.588796	2630.814355
765.914943	2615.206942
766.241044	2600.822010
766.567097	2588.047726
766.893104	2577.007599
767.219064	2573.413257
767.544978	2565.135682
767.870845	2558.136040
768.196665	2555.827191
768.522438	2554.297201
768.848165	2554.574465
769.173846	2546.203629
769.499479	2545.117260
769.825066	2541.674152
770.150607	2538.916641
770.476101	2538.203317
770.801548	2539.768596
771.126949	2533.809952
771.452303	2532.259797
771.777611	2530.409694
772.102872	2532.335414
772.428087	2526.638911
772.753256	2524.451050
773.078378	2523.120185
773.403453	2522.225380
773.728482	2522.545494
774.053465	2518.593229
774.378401	2516.332272
774.703291	2514.779596
775.028135	2514.071314
775.352932	2515.210615
775.677683	2510.484533
776.002388	2511.147445
776.327046	2511.477640
776.651658	2508.604183
776.976224	2506.249964
777.300743	2507.623678
777.625216	2507.769872
777.949643	2508.689882
778.274024	2505.962618
778.598359	2501.914572
778.922647	2500.893738
779.246889	2505.582011
779.571086	2498.521875
779.895236	2508.175685
780.219339	2501.465909
780.543397	2503.414315
780.867409	2503.280724
781.191374	2505.947495
781.515294	2502.983296
781.839167	2504.286434
782.162995	2504.576301
782.486776	2503.943636
782.810511	2503.421877
783.134201	2500.916423
783.457844	2503.076558
783.781441	2501.259222
784.104993	2499.739314
784.428498	2500.893738
784.751958	2498.625219
785.075372	2498.370640
785.398739	2496.013901
785.722061	2498.600013
786.045337	2499.215034
786.368568	2503.883142
786.691752	2500.205620
787.014891	2505.269459
787.337983	2509.771210
787.661030	2516.959895
787.984031	2524.539270
788.306987	2531.183511
788.629897	2530.011443
788.952760	2528.423479
789.275579	2527.291740
789.598351	2522.006090
789.921078	2517.383352
790.243759	2512.067455
790.566395	2507.999244
790.888984	2504.757782
791.211529	2504.730056
791.534027	2501.385250
791.856480	2498.297544
792.178888	2496.946514
792.501249	2497.266628
792.823566	2497.911895
793.145836	2496.497852
793.468062	2495.527430
793.790241	2493.402583
794.112375	2494.927532
794.434464	2494.821668
794.756507	2497.435506
795.078505	2499.759478
795.400457	2498.917606
795.722364	2502.544716
796.044226	2508.147958
796.366042	2508.548730
796.687812	2509.834224
797.009538	2509.884636
797.331218	2510.444204
797.652852	2509.514111
797.974442	2509.710716
798.295986	2505.350118
798.617484	2505.917248
798.938938	2502.083450
799.260346	2501.178563
799.581709	2500.039262
799.903026	2499.209993
800.224299	2498.567245
800.545526	2493.374857
800.866708	2494.481390
801.187845	2491.093735
801.508936	2492.618684
801.829983	2490.123313
802.150984	2489.248672
802.471940	2490.105669
802.792851	2488.956286
803.113717	2489.689773
803.434538	2487.000318
803.755314	2487.562407
804.076045	2487.600215
804.396731	2486.609628
804.717372	2486.012252
805.037967	2486.012252
805.358518	2486.718013
805.679024	2485.019144
805.999485	2488.061481
806.319901	2489.525936
806.640272	2487.728765
806.960598	2489.367140
807.280879	2489.503251
807.601115	2492.522902
807.921306	2487.940493
808.241453	2489.944352
808.561554	2488.681543
808.881611	2486.748260
809.201623	2490.592140
809.521590	2491.234887
809.841513	2486.511326
810.161390	2488.996615
810.481223	2488.202633
810.801011	2485.306490
811.120755	2487.433857
811.440453	2486.637355
811.760107	2486.158445
812.079716	2481.548310
812.399281	2481.510501
812.718801	2481.881026
813.038276	2481.177785
813.357707	2482.491006
813.677093	2481.036633
813.996434	2480.756849
814.315731	2484.308342
814.634983	2483.156438
814.954191	2482.959833
815.273354	2485.523260
815.592473	2484.109216
815.911547	2485.639206
816.230577	2489.354537
816.549562	2487.640544
816.868502	2491.071050
817.187399	2496.321411
817.506250	2494.128509
817.825058	2494.347800
818.143821	2499.348624
818.462539	2505.823986
818.781213	2507.827845
819.099843	2517.534587
819.418429	2532.050589
819.736970	2544.540048
820.055466	2557.289126
820.373919	2577.841910
820.692327	2607.735952
821.010691	2662.427431
821.329011	2785.214815
821.647286	2967.266004
821.965517	3171.994823
822.283704	3285.138480
822.601847	3323.824295
822.919945	3240.864546
823.237999	3144.560864
823.556010	3043.226110
823.873976	2953.634724
824.191897	2865.764892
824.509775	2807.418577
824.827609	2752.182654
825.145398	2716.786192
825.463144	2698.842205
825.780845	2703.948894
826.098502	2726.031669
826.416116	2770.524892
826.733685	2814.040132
827.051210	2824.452636
827.368692	2798.326856
827.686129	2755.368663
828.003522	2707.296220
828.320872	2659.012049
828.638177	2624.036523
828.955439	2596.232039
829.272656	2567.860426
829.589830	2555.817109
829.906960	2537.900848
830.224046	2529.489683
830.541088	2519.888806
830.858086	2515.283712
831.175041	2505.760972
831.491952	2505.763492
831.808819	2508.747856
832.125642	2515.185409
832.442421	2523.485669
832.759157	2550.218908
833.075849	2589.761718
833.392497	2626.771349
833.709101	2650.787406
834.025662	2647.576191
834.342179	2629.354941
834.658653	2598.117431
834.975083	2577.597414
835.291469	2559.169476
835.607811	2538.306661
835.924110	2526.003725
836.240366	2517.358146
836.556578	2506.197032
836.872746	2496.873418
837.188871	2489.036944
837.504952	2483.771459
837.820990	2480.910604
838.136984	2480.136787
838.452935	2476.043370
838.768842	2476.156796
839.084706	2485.291367
839.400526	2502.471619
839.716303	2523.528519
840.032037	2536.968235
840.347727	2533.928419
840.663373	2523.241173
840.978977	2504.205776
841.294537	2496.422234
841.610054	2489.326810
841.925527	2484.399083
842.240957	2476.736529
842.556344	2473.989100
842.871687	2468.257308
843.186987	2466.666824
843.502244	2462.091977
843.817458	2460.004939
844.132629	2457.960751
844.447756	2453.713579
844.762840	2448.642178
845.077881	2454.550411
845.392879	2449.925152
845.707833	2451.064453
846.022745	2448.964812
846.337613	2452.720472
846.652438	2451.981943
846.967221	2448.730398
847.281960	2448.548917
847.596656	2452.551593
847.911309	2449.395831
848.225919	2448.589246
848.540485	2448.460697
848.855009	2450.671243
849.169490	2449.930193
849.483928	2448.193516
849.798323	2448.932045
850.112675	2449.841973
850.426984	2448.397682
850.741251	2451.598815
851.055474	2449.269802
851.369654	2447.722168
851.683792	2449.884823
851.997887	2450.401541
852.311938	2447.215532
852.625947	2448.138063
852.939914	2446.885336
853.253837	2449.302569
853.567718	2447.268464
853.881555	2450.421706
854.195350	2445.879626
854.509103	2448.221242
854.822812	2450.328444
855.136479	2446.718978
855.450103	2449.126129
855.763685	2448.261571
856.077224	2447.954061
856.390720	2452.087807
856.704173	2449.708382
857.017584	2448.289297
857.330953	2449.574792
857.644278	2449.688218
857.957561	2447.628906
858.270802	2451.044288
858.584000	2449.224432
858.897155	2448.395162
859.210268	2445.728391
859.523339	2448.183433
859.836367	2448.692590
860.149352	2449.829370
860.462295	2448.516149
860.775195	2447.487754
861.088054	2445.630089
861.400869	2444.405088
861.713642	2442.859975
862.026373	2450.204936
862.339062	2450.557817
862.651708	2449.335337
862.964312	2448.649740
863.276873	2447.719647
863.589392	2449.350460
863.901869	2451.172837
864.214303	2451.233331
864.526696	2450.918259
864.839045	2450.086469
865.151353	2452.796089
865.463619	2452.728033
865.775842	2453.554783
866.088023	2455.815740
866.400162	2452.554114
866.712258	2452.289453
867.024313	2454.303394
867.336325	2455.848508
867.648296	2455.178034
867.960224	2453.131326
868.272110	2455.024279
868.583954	2451.654268
868.895755	2456.168621
869.207515	2453.073352
869.519233	2456.823971
869.830909	2457.766667
870.142542	2458.384208
870.454134	2454.946141
870.765684	2457.534774
871.077191	2457.355813
871.388657	2460.360340
871.700081	2456.420679
872.011463	2460.567028
872.322803	2458.686677
872.634101	2456.287088
872.945357	2461.262707
873.256571	2464.577266
873.567744	2463.793366
873.878874	2460.466205
874.189963	2463.805969
874.501010	2463.531226
874.812015	2465.812348
875.122979	2464.027780
875.433900	2465.467029
875.744780	2465.706484
876.055618	2462.432255
876.366415	2469.144551
876.677169	2465.189766
876.987882	2469.431897
877.298554	2463.876545
877.609183	2469.762092
877.919771	2469.580611
878.230317	2472.121352
878.540822	2479.753659
878.851285	2485.687097
879.161707	2495.250166
879.472087	2506.882629
879.782425	2530.160157
880.092722	2570.350756
880.402977	2631.003398
880.713191	2702.854964
881.023363	2765.733276
881.333494	2808.754483
881.643583	2825.418017
881.953631	2820.213025
882.263637	2797.800055
882.573602	2773.930192
882.883526	2745.450193
883.193408	2719.165617
883.503248	2687.280319
883.813048	2664.025476
884.122806	2638.358442
884.432522	2616.429422
884.742197	2590.333889
885.051831	2568.646846
885.361424	2554.907181
885.670975	2536.159130
885.980485	2524.917357
886.289954	2514.600635
886.599382	2508.256343
886.908768	2501.165960
887.218113	2493.377378
887.527417	2487.154073
887.836680	2485.326655
888.145901	2479.829277
888.455082	2477.780048
888.764221	2475.957670
889.073319	2470.629171
889.382376	2473.227886
889.691392	2471.942391
890.000366	2472.411219
890.309300	2469.416773
890.618193	2471.153451
890.927044	2471.488687
891.235855	2469.936012
891.544625	2471.339973
891.853353	2471.317288
892.162041	2475.151086
892.470687	2479.907414
892.779293	2482.846407
893.087858	2489.379743
893.396381	2498.128665
893.704864	2514.167096
894.013306	2530.296268
894.321707	2555.118909
894.630068	2569.077864
894.938387	2573.052814
895.246665	2569.534089
895.554903	2559.653427
895.863100	2546.579195
896.171256	2536.779192
896.479371	2526.759898
896.787446	2518.638599
897.095480	2508.725170
897.403473	2503.994048
897.711425	2497.034735
898.019336	2496.071874
898.327207	2492.038951
898.635038	2484.058805
898.942827	2480.078814
899.250576	2481.419761
899.558284	2474.616723
899.865952	2472.088585
900.173579	2467.163378
900.481165	2467.412915
900.788711	2464.909982
901.096216	2463.677420
901.403681	2466.094653
901.711105	2463.513582
902.018489	2466.013994
902.325832	2465.898048
902.633135	2466.709674
902.940397	2477.926241
903.247619	2494.801503
903.554800	2523.654548
903.861941	2559.030845
904.169041	2588.703076
904.476101	2597.638521
904.783121	2587.558734
905.090100	2573.824111
905.397039	2560.170145
905.703938	2545.714637
906.010796	2533.051258
906.317614	2521.786800
906.624391	2510.015706
906.931129	2505.004799
907.237826	2494.509117
907.544483	2487.572489
907.851099	2480.255254
908.157675	2472.466671
908.464211	2463.788325
908.770707	2460.524178
909.077163	2455.944290
909.383578	2453.499330
909.689954	2449.693259
909.996289	2448.127981
910.302584	2447.223093
910.608839	2450.265430
910.915054	2449.053032
911.221229	2448.674946
911.527363	2449.385748
911.833458	2450.209977
912.139513	2448.853907
912.445527	2451.182920
912.751502	2455.878755
913.057436	2453.801799
913.363331	2456.813889
913.669186	2461.245063
913.975000	2467.377627
914.280775	2478.206025
914.586510	2488.437047
914.892205	2502.940446
915.197859	2527.780732
915.503475	2552.870555
915.809050	2572.009295
916.114585	2583.465317
916.420081	2589.391194
916.725536	2588.745926
917.030952	2579.210583
917.336328	2568.813204
917.641665	2560.066802
917.946961	2548.751932
918.252218	2542.851261
918.557435	2532.607637
918.862612	2522.212778
919.167750	2516.929648
919.472848	2507.709378
919.777906	2500.198059
920.082925	2491.313025
920.387904	2484.479741
920.692843	2481.437405
920.997743	2475.098154
921.302603	2471.208903
921.607423	2464.098356
921.912204	2465.809828
922.216946	2459.586523
922.521647	2458.903447
922.826310	2458.595937
923.130932	2454.187447
923.435516	2450.696448
923.740059	2453.796758
924.044564	2450.640996
924.349028	2448.720316
924.653454	2444.072372
924.957840	2445.725871
925.262186	2441.264450
925.566493	2442.481888
925.870761	2438.915272
926.174989	2440.815787
926.479178	2443.296035
926.783328	2439.210179
927.087438	2440.866198
927.391509	2440.379727
927.695541	2438.156578
927.999533	2435.852771
928.303486	2435.066351
928.607400	2439.058945
928.911275	2436.407298
929.215110	2438.327977
929.518906	2438.446445
929.822663	2438.990889
930.126381	2438.592638
930.430060	2437.281938
930.733699	2434.779005
931.037299	2438.098605
931.340861	2434.589962
931.644383	2436.535847
931.947866	2436.112390
932.251309	2436.573656
932.554714	2438.824531
932.858080	2437.443255
933.161407	2436.866043
933.464694	2436.714808
933.767943	2433.450661
934.071153	2434.562236
934.374323	2432.341607
934.677455	2435.026022
934.980548	2436.243460
935.283602	2434.242122
935.586617	2435.451999
935.889593	2437.115580
936.192530	2434.879828
936.495428	2435.278079
936.798287	2434.022832
937.101108	2433.163315
937.403890	2436.210693
937.706632	2439.000972
938.009336	2438.380910
938.312002	2442.900304
938.614628	2443.648915
938.917216	2446.166972
939.219765	2445.085644
939.522275	2447.273505
939.824747	2448.337188
940.127179	2444.049687
940.429573	2441.607248
940.731929	2443.749738
941.034246	2439.285797
941.336524	2446.595470
941.638763	2443.606066
941.940964	2444.334512
942.243126	2442.713781
942.545250	2443.089347
942.847335	2442.179419
943.149381	2442.219748
943.451389	2441.014913
943.753359	2440.178081
944.055290	2437.644901
944.357182	2438.645570
944.659036	2438.174222
944.960851	2438.879984
945.262628	2435.774633
945.564367	2438.776640
945.866067	2436.301434
946.167729	2436.671958
946.469352	2438.292689
946.770937	2439.235385
947.072484	2436.364448
947.373992	2438.945519
947.675462	2435.164653
947.976893	2436.613985
948.278286	2437.460899
948.579641	2439.169850
948.880958	2433.294385
949.182236	2439.799994
949.483476	2435.973759
949.784678	2435.366300
950.085841	2435.802359
950.386967	2435.038625
950.688054	2434.224478
950.989103	2434.327822
951.290114	2437.365117
951.591087	2438.703543
951.892021	2439.583225
952.192917	2438.701023
952.493776	2440.369645
952.794596	2439.903338
953.095378	2438.295210
953.396122	2439.837803
953.696828	2437.120621
953.997496	2438.842175
954.298126	2437.148348
954.598718	2439.936106
954.899272	2437.264294
955.199788	2438.983328
955.500266	2434.169026
955.800706	2430.713315
956.101108	2430.814138
956.401472	2431.247677
956.701798	2431.151895
957.002087	2428.094435
957.302337	2431.023346
957.602550	2428.906061
957.902724	2428.512851
958.202861	2431.890424
958.502960	2429.198448
958.803022	2429.332038
959.103045	2427.267686
959.403031	2428.764909
959.702979	2424.076636
960.002889	2429.269024
960.302762	2423.948086
960.602596	2425.871286
960.902393	2425.135278
961.202153	2424.721903
961.501875	2422.768456
961.801559	2425.672161
962.101205	2424.593354
962.400814	2423.859866
962.700385	2423.759043
962.999918	2427.756678
963.299414	2423.953127
963.598873	2424.958838
963.898293	2424.590833
964.197677	2421.455236
964.497022	2422.128230
964.796331	2421.321645
965.095601	2423.529670
965.394835	2424.973961
965.694030	2422.067736
965.993189	2423.756522
966.292309	2423.512026
966.591393	2423.847263
966.890439	2421.520771
967.189447	2423.938004
967.488419	2420.625966
967.787353	2422.710483
968.086249	2424.691656
968.385108	2423.960689
968.683930	2421.838363
968.982714	2423.073446
969.281462	2423.638055
969.580172	2423.915319
969.878844	2420.094124
970.177480	2421.583785
970.476078	2425.031934
970.774639	2420.043713
971.073162	2421.561100
971.371649	2420.941038
971.670098	2418.415420
971.968510	2419.978177
972.266885	2418.669998
972.565223	2425.329362
972.863524	2421.119999
973.161788	2423.000349
973.460014	2421.248548
973.758204	2422.473549
974.056356	2421.795513
974.354471	2425.243663
974.652550	2421.576223
974.950591	2428.028900
975.248595	2427.008067
975.546563	2422.546645
975.844493	2422.561769
976.142386	2425.581420
976.440243	2423.151584
976.738062	2423.900195
977.035845	2423.602767
977.333590	2422.672674
977.631299	2422.236614
977.928971	2422.523960
978.226606	2421.528332
978.524204	2424.124527
978.821765	2421.848446
979.119290	2423.622932
979.416777	2422.730648
979.714228	2422.894485
980.011642	2419.559762
980.309020	2421.278795
980.606360	2423.338107
980.903664	2425.982192
981.200931	2425.989753
981.498162	2427.308015
981.795356	2429.211051
982.092513	2430.423448
982.389633	2434.098449
982.686717	2437.155909
982.983764	2437.720518
983.280775	2438.327977
983.577749	2439.285797
983.874686	2437.957453
984.171587	2438.985848
984.468451	2436.460230
984.765279	2435.073913
985.062070	2434.007709
985.358824	2432.603747
985.655543	2429.606781
985.952224	2428.028900
986.248869	2426.652665
986.545478	2418.367529
986.842050	2422.657551
987.138586	2416.739236
987.435086	2422.642427
987.731549	2415.768814
988.027975	2420.769639
988.324366	2418.178486
988.620719	2418.158321
988.917037	2419.910122
989.213318	2417.974319
989.509563	2415.536921
989.805772	2415.569688
990.101944	2417.618917
990.398080	2414.909297
990.694180	2419.196799
990.990244	2416.953485
991.286271	2418.932138
991.582262	2415.607497
991.878217	2418.186047
992.174136	2416.913156
992.470019	2417.444998
992.765865	2418.738054
993.061676	2416.666139
993.357450	2421.193096
993.653188	2418.763259
993.948890	2420.202509
994.244556	2418.138156
994.540186	2421.147725
994.835780	2419.363157
995.131337	2420.202509
995.426859	2424.016142
995.722345	2425.891451
996.017795	2426.307346
996.313208	2426.438416
996.608586	2429.117789
996.903928	2426.713159
997.199234	2427.751637
997.494504	2426.695515
997.789738	2425.077305
998.084936	2429.740372
998.380099	2424.177459
998.675225	2424.565627
998.970316	2424.666451
999.265371	2423.612849
999.560390	2418.715368
999.855373	2421.354413
1000.150320	2417.994483
1000.445232	2416.444329
1000.740108	2419.496747
1001.034948	2419.824422
1001.329752	2417.054308
1001.624521	2415.431057
1001.919254	2412.262692
1002.213951	2412.035840
1002.508613	2410.488205
1002.803239	2415.597415
1003.097829	2409.016188
1003.392384	2416.383835
1003.686903	2415.486509
1003.981386	2412.481982
1004.275834	2413.172620
1004.570246	2417.286201
1004.864623	2415.052970
1005.158964	2412.058525
1005.453270	2414.846283
1005.747540	2411.990469
1006.041775	2411.060376
1006.335974	2413.260840
1006.630138	2412.960891
1006.924266	2414.614390
1007.218359	2414.049781
1007.512416	2411.138514
1007.806438	2412.842424
1008.100425	2415.259657
1008.394376	2412.544996
1008.688292	2413.323854
1008.982172	2414.866447
1009.276017	2413.298649
1009.569827	2414.213618
1009.863602	2414.367373
1010.157341	2414.173289
1010.451045	2412.325706
1010.744714	2413.467527
1011.038347	2411.536765
1011.331945	2412.560120
1011.625508	2415.665470
1011.919036	2411.874523
1012.212528	2412.618093
1012.505986	2410.810839
1012.799408	2413.157496
1013.092795	2411.604821
1013.386147	2411.869482
1013.679464	2413.409554
1013.972745	2411.458627
1014.265992	2411.947619
1014.559204	2411.738412
1014.852380	2412.731519
1015.145521	2412.723957
1015.438628	2411.385531
1015.731699	2411.655233
1016.024736	2411.735891
1016.317737	2412.913000
1016.610703	2413.157496
1016.903635	2411.393093
1017.196531	2406.966959
1017.489393	2408.754048
1017.782219	2408.045766
1018.075011	2411.703123
1018.367768	2411.204049
1018.660490	2411.141035
1018.953177	2411.141035
1019.245829	2411.141035
