Dividing Wavelength (nm)	Counts (n)	Blue Motor Position (mm): 0.000000	Red Motor Position (mm): 45.200000	
326.493990	1997.786584
326.888308	1997.786584
327.282561	1997.786584
327.676750	1974.388068
328.070874	1974.176340
328.464933	1981.223873
328.858929	1992.478249
329.252859	2001.854795
329.646726	2018.009173
330.040528	2031.506862
330.434265	2053.103165
330.827938	2071.210990
331.221547	2090.800914
331.615091	2111.860334
332.008571	2131.462861
332.401986	2153.255769
332.795338	2172.954077
333.188625	2193.529547
333.581847	2211.990252
333.975006	2230.143447
334.368100	2251.081880
334.761129	2264.531678
335.154095	2280.640685
335.546996	2319.205512
335.939833	2396.388098
336.332606	2411.509039
336.725315	2424.311049
337.117960	2431.250197
337.510540	2436.573656
337.903056	2449.584874
338.295508	2454.865483
338.687896	2463.732872
339.080220	2468.975672
339.472480	2476.383648
339.864676	2479.471355
340.256807	2480.537559
340.648875	2482.062508
341.040879	2485.273723
341.432818	2488.152222
341.824694	2487.179279
342.216506	2490.022490
342.608253	2489.082314
342.999937	2487.937972
343.391557	2484.252889
343.783113	2484.835142
344.174605	2484.741881
344.566033	2484.401603
344.957397	2479.688124
345.348697	2478.727784
345.739934	2475.854327
346.131106	2475.776189
346.522215	2472.557412
346.913260	2472.713688
347.304241	2467.662452
347.695159	2468.781588
348.086012	2467.985086
348.476802	2467.397791
348.867528	2465.091463
349.258191	2465.807307
349.648789	2463.828654
350.039324	2461.058540
350.429796	2464.443675
350.820203	2461.413942
351.210548	2461.633232
351.600828	2458.900926
351.991045	2460.362861
352.381198	2458.255659
352.771288	2459.679785
353.161314	2458.386729
353.551276	2459.851184
353.941175	2459.785649
354.331010	2460.327573
354.720782	2462.034003
355.110490	2462.412090
355.500135	2460.506534
355.889717	2458.386729
356.279235	2462.124744
356.668689	2460.879579
357.058080	2463.523664
357.447408	2459.649538
357.836672	2460.027624
358.225873	2461.590382
358.615010	2457.728858
359.004084	2466.694550
359.393095	2467.065075
359.782043	2467.473408
360.170927	2468.610189
360.559748	2469.154633
360.948505	2471.506332
361.337199	2472.970787
361.725830	2472.469192
362.114398	2475.093112
362.502903	2471.082875
362.891344	2477.853144
363.279722	2475.080510
363.668037	2479.345326
364.056289	2476.822228
364.444478	2477.764924
364.832603	2481.664257
365.220665	2478.931951
365.608665	2479.229379
365.996601	2480.852631
366.384474	2482.259113
366.772284	2486.425626
367.160031	2483.801706
367.547715	2487.655668
367.935336	2483.589977
368.322893	2489.372181
368.710388	2488.263127
369.097820	2491.008035
369.485189	2490.556852
369.872495	2493.319404
370.259738	2495.303098
370.646918	2499.613285
371.034035	2499.053717
371.421090	2504.682165
371.808081	2507.704337
372.195010	2513.756242
372.581875	2517.791686
372.968678	2525.010618
373.355418	2531.228881
373.742096	2544.101467
374.128710	2555.217212
374.515262	2564.263562
374.901751	2582.825091
375.288177	2598.792946
375.674540	2619.277674
376.060841	2639.757362
376.447079	2666.349448
376.833254	2689.480783
377.219367	2717.834752
377.605417	2749.720051
377.991404	2776.107970
378.377329	2817.556337
378.763191	2854.492872
379.148991	2904.216293
379.534727	2953.886781
379.920402	3004.464678
380.306013	3054.929148
380.691563	3118.722430
381.077049	3176.070596
381.462474	3235.493197
381.847835	3311.241575
382.233134	3385.281001
382.618371	3448.184519
383.003545	3534.504196
383.388657	3620.775982
383.773706	3715.794171
384.158693	3789.989873
384.543618	3888.637692
384.928480	3971.143737
385.313280	4074.189962
385.698017	4187.595759
386.082692	4308.316270
386.467305	4372.631311
386.851856	4506.239532
387.236344	4664.345240
387.620770	4728.740939
388.005133	4853.761555
388.389435	5003.594729
388.773674	5093.538996
389.157851	5228.689810
389.541965	5365.446232
389.926018	5388.706116
390.310008	5574.757460
390.693936	5703.382501
391.077802	5822.925902
391.461606	5962.061748
391.845348	6076.926959
392.229027	6201.390527
392.612645	6435.426095
392.996200	6550.520678
393.379694	6732.047587
393.763125	6965.079965
394.146494	7059.760396
394.529801	7203.466048
394.913047	7451.526105
395.296230	7448.529139
395.679351	7510.036257
396.062410	7784.476673
396.445408	7673.911566
396.828343	7840.804005
397.211217	7978.866085
397.594028	7856.479473
397.976778	8068.071823
398.359466	8234.676917
398.742092	8207.782361
399.124656	8363.473356
399.507158	8551.137870
399.889598	8572.545130
400.271977	8784.371894
400.654294	8829.379315
401.036549	9028.610757
401.418742	9058.981188
401.800874	9361.231128
402.182944	9444.183315
402.564952	9829.743364
402.946898	9639.603644
403.328783	9701.196462
403.710606	9903.538295
404.092367	10171.800776
404.474067	10543.434637
404.855705	10322.606893
405.237282	10273.253997
405.618797	10714.748169
406.000250	10968.091355
406.381642	11339.538694
406.762972	11290.024481
407.144240	11083.995044
407.525447	11345.973727
407.906593	11284.242278
408.287677	11555.791591
408.668700	11721.426262
409.049661	11681.800273
409.430560	11855.949453
409.811399	11817.787918
410.192176	11992.042963
410.572891	12065.331257
410.953545	12574.633989
411.334138	12030.975794
411.714669	12656.492245
412.095139	11927.044846
412.475547	12464.084006
412.855894	12289.216461
413.236180	12635.170685
413.616405	12304.397896
413.996568	12598.080396
414.376670	12567.349522
414.756711	12441.638268
415.136691	12730.940005
415.516609	12929.054831
415.896466	12996.671828
416.276262	13290.271148
416.655997	13722.625708
417.035670	13760.754475
417.415283	14430.824644
417.794834	14532.262742
418.174324	14261.983799
418.553753	14168.888811
418.933121	14678.557026
419.312428	14483.323220
419.691674	14385.078693
420.070859	14853.573285
420.449983	14500.569008
420.829045	15072.876080
421.208047	14800.336180
421.586988	15276.586587
421.965867	15539.742379
422.344686	15538.109045
422.723444	16117.262005
423.102141	14767.127579
423.480777	15991.064280
423.859352	15486.260778
424.237866	16623.721526
424.616319	16318.966132
424.994712	16998.475862
425.373044	16783.740352
425.751314	17472.858521
426.129524	16579.802994
426.507673	17704.464252
426.885762	17386.669914
427.263789	17600.029188
427.641756	17762.099764
428.019662	17831.191298
428.397508	17869.637658
428.775292	18183.265483
429.153016	18150.747520
429.530679	18232.091578
429.908282	18257.277183
430.285824	17970.720354
430.663305	18696.833031
431.040726	18275.848794
431.418086	18100.991331
431.795385	18767.421788
432.172624	19192.897693
432.549802	18732.673114
432.926920	18924.239481
433.303977	18818.586978
433.680974	19066.316840
434.057910	19363.432366
434.434786	19386.659482
434.811601	19309.184509
435.188355	20367.279852
435.565050	20005.826600
435.941683	19956.229208
436.318257	20862.691684
436.694770	20657.153759
437.071222	21275.229468
437.447614	20319.714044
437.823946	20352.635300
438.200218	20497.742393
438.576429	20274.510018
438.952580	20552.726258
439.328670	20522.754077
439.704700	20943.309816
440.080670	20514.781492
440.456580	21113.080754
440.832429	21294.655554
441.208218	20251.542521
441.583947	20713.350022
441.959616	20811.702933
442.335224	21070.195659
442.710773	21201.933612
443.086261	21747.215058
443.461689	21108.256370
443.837057	21225.175851
444.212365	21884.916696
444.587612	21880.480481
444.962800	21442.154675
445.337927	21879.124411
445.712995	20581.443190
446.088002	22478.709167
446.462949	22683.443027
446.837837	22858.119008
447.212664	22819.339932
447.587431	25737.749593
447.962139	28732.283198
448.336786	31129.251029
448.711374	29538.315807
449.085901	25772.931806
449.460369	25726.636370
449.834776	25655.125082
450.209124	28202.105048
450.583412	27709.836375
450.957640	28241.773888
451.331808	26864.581068
451.705917	25465.116432
452.079965	25510.358267
452.453954	25879.925255
452.827883	25760.870845
453.201752	25554.352416
453.575562	25718.928445
453.949311	26872.891411
454.323001	26936.203262
454.696632	26692.796189
455.070202	28291.681311
455.443713	28419.706454
455.817164	29032.476348
456.190556	29561.250537
456.563888	29000.117181
456.937160	29438.921897
457.310373	27732.302277
457.683526	28213.649290
458.056619	28189.744139
458.429653	28115.888714
458.802628	28716.811897
459.175542	28837.514764
459.548398	30142.127571
459.921194	31740.369945
460.293930	32431.237394
460.666607	34482.629088
461.039224	36261.841323
461.411782	36665.068096
461.784280	35465.865816
462.156719	34994.835524
462.529099	34436.298363
462.901419	33124.431336
463.273680	32043.038301
463.645882	32115.182254
464.018024	32110.884670
464.390106	32955.010758
464.762130	35702.179985
465.134094	39805.492693
465.505999	45155.371842
465.877845	49755.525550
466.249631	50936.665375
466.621358	49263.491290
466.993026	47162.661001
467.364634	45090.335916
467.736184	43101.686424
468.107674	41835.134328
468.479105	41028.519466
468.850477	40323.390592
469.221790	38871.525682
469.593043	37095.998530
469.964238	36207.593467
470.335373	36113.306246
470.706449	37884.926504
471.077467	40524.973732
471.448425	45101.227329
471.819324	47923.116538
472.190164	46047.772019
472.560945	42462.069865
472.931667	39313.060183
473.302330	38217.393121
473.672934	37377.647795
474.043479	37888.707369
474.413965	37074.371980
474.784393	36690.871242
475.154761	37611.587581
475.525070	37635.533061
475.895321	37179.459873
476.265513	37787.954868
476.635645	38753.282898
477.005719	38576.688758
477.375734	39052.593846
477.745691	39753.513356
478.115588	41118.602365
478.485427	43117.450112
478.855207	46500.749939
479.224928	49124.259662
479.594591	50755.710637
479.964194	49785.202823
480.333739	49957.635490
480.703226	49995.166880
481.072653	50642.108236
481.442022	51099.030858
481.811333	51342.584124
482.180584	50074.466751
482.549777	49553.387883
482.918912	49020.986585
483.287988	48721.922653
483.657005	47897.147034
484.025964	47251.571832
484.394864	47284.437634
484.763706	46835.414499
485.132489	45978.239384
485.501213	45790.615200
485.869879	45944.425845
486.238487	45527.671136
486.607036	45720.727164
486.975527	45184.018199
487.343959	45392.240538
487.712333	45463.575385
488.080648	45381.102108
488.448905	45847.885228
488.817104	45661.607032
489.185244	46613.916282
489.553326	48316.896189
489.921350	51032.817823
490.289315	53860.259863
490.657222	54423.560915
491.025070	54699.770775
491.392861	53822.738555
491.760593	52624.801605
492.128267	50985.635144
492.495883	49472.331171
492.863440	48071.142459
493.230939	46701.932307
493.598380	45592.823008
493.965763	45268.901147
494.333088	44454.946365
494.700354	43956.575375
495.067563	43651.855269
495.434713	43521.642265
495.801805	43590.179272
496.168839	43193.195969
496.535815	42855.312632
496.902733	42892.123138
497.269593	42474.453459
497.636395	42400.746749
498.003139	42817.566993
498.369825	42264.249947
498.736453	42579.337186
499.103023	42089.886517
499.469535	41964.691982
499.835989	42065.207549
500.202385	41723.014026
500.568723	41745.414393
500.935003	41930.296190
501.301226	41735.634554
501.667390	42357.102959
502.033497	42627.870894
502.399546	42051.961917
502.765537	41350.618950
503.131470	41738.641603
503.497345	42101.065276
503.863163	40752.793557
504.228923	41374.811447
504.594625	41791.961887
504.960269	41079.790521
505.325856	41780.765484
505.691385	41123.691410
506.056856	41267.442432
506.422270	41706.284957
506.787625	41283.720318
507.152924	41480.161480
507.518164	41588.195928
507.883347	40784.409153
508.248472	41059.499877
508.613540	41536.846735
508.978550	41861.923020
509.343503	41582.645617
509.708398	41801.751808
510.073236	42337.964219
510.438016	42354.912578
510.802738	41789.625312
511.167403	42417.019593
511.532010	42651.526509
511.896561	42964.085609
512.261053	43812.874764
512.625488	43344.536448
512.989866	43236.224737
513.354186	43065.674941
513.718449	43061.218561
514.082655	43747.642233
514.446803	43432.844861
514.810894	43947.042553
515.174927	43859.875962
515.538904	43764.948515
515.902822	44443.119818
516.266684	43873.048497
516.630488	44324.849308
516.994235	44171.510011
517.357925	44767.271052
517.721558	44920.922900
518.085133	45229.222225
518.448651	45375.100615
518.812112	45128.018541
519.175516	45242.046921
519.538863	45582.473519
519.902152	45552.483695
520.265385	46020.910231
520.628560	46059.235603
520.991678	45846.256936
521.354739	46087.735767
521.717743	46409.028666
522.080690	46301.871379
522.443580	46856.468878
522.806413	46894.237203
523.169189	46842.938421
523.531908	47018.612551
523.894569	46883.242446
524.257174	47047.697488
524.619722	47350.489352
524.982213	47338.579626
525.344647	47265.442566
525.707025	47300.080334
526.069345	47674.108744
526.431608	47617.184035
526.793815	47946.021021
527.155964	47474.073239
527.518057	47626.064027
527.880093	47395.582473
528.242072	47938.918035
528.603995	47628.438411
528.965860	47630.298597
529.327669	47720.802432
529.689421	47634.525604
530.051117	47590.619675
530.412755	47717.598778
530.774337	47790.655180
531.135862	47579.166173
531.497331	47786.876835
531.858743	47682.877831
532.220098	48026.490439
532.581396	47729.551354
532.942638	47417.400587
533.303824	47702.898774
533.664953	47668.266047
534.026025	47378.876090
534.387040	47868.099906
534.747999	47793.387485
535.108902	47961.419225
535.469748	47475.426789
535.830537	47578.238601
536.191270	47779.229405
536.551947	47432.685366
536.912567	47738.950585
537.273131	47871.442191
537.633638	47340.071808
537.994089	47702.003969
538.354483	47276.538146
538.714821	47862.463896
539.075103	48188.399698
539.435328	47948.680229
539.795497	47838.531018
540.155609	47813.990681
540.515665	48288.206982
540.875665	47742.681039
541.235609	48080.382894
541.595496	48048.028769
541.955328	48710.456549
542.315102	48080.259386
542.674821	47858.012557
543.034483	47912.353675
543.394090	47880.014673
543.753640	47847.569807
544.113134	48842.900263
544.472571	47850.831433
544.831953	49106.968505
545.191278	48311.151794
545.550548	48038.579126
545.909761	48489.492693
546.268918	48688.041058
546.628019	49014.375111
546.987064	48571.189633
547.346053	47824.216662
547.704986	48717.990553
548.063863	48245.447915
548.422684	48461.630236
548.781449	48316.508020
549.140158	48705.548986
549.498811	48549.842867
549.857408	47970.808374
550.215949	48819.378239
550.574434	48758.750803
550.932864	48512.755098
551.291237	49229.599613
551.649555	48842.708699
552.007817	49077.810471
552.366022	48728.201410
552.724173	48896.926309
553.082267	49309.630451
553.440305	49596.761971
553.798288	48905.629861
554.156215	49204.340912
554.514086	49429.405746
554.871902	49186.119661
555.229661	49202.566426
555.587365	49019.595226
555.945014	49111.654257
556.302606	49017.750164
556.660143	49275.937899
557.017625	49359.313543
557.375050	49142.727929
557.732421	49484.069498
558.089735	49480.170165
558.446994	49370.966170
558.804197	49873.780937
559.161345	49810.544703
559.518437	49047.697138
559.875474	49356.271206
560.232455	49508.496408
560.589381	49695.009018
560.946251	49388.060722
561.303065	50091.001735
561.659825	49888.284336
562.016528	49551.739426
562.373177	49264.071023
562.729770	49767.707498
563.086307	49260.093553
563.442789	49724.847608
563.799216	49779.602101
564.155587	49557.519109
564.511904	49597.709708
564.868164	49675.280463
565.224370	49922.085273
565.580520	49654.127781
565.936615	49885.287370
566.292654	49603.078537
566.648638	49840.718529
567.004567	49785.676691
567.360441	49836.751141
567.716260	49692.185972
568.072023	49969.114197
568.427732	49962.283434
568.783385	49511.415237
569.138982	49902.180277
569.494525	49856.101610
569.850013	49645.608231
570.205445	49594.004460
570.560823	49567.682075
570.916145	49456.748964
571.271412	49483.759467
571.626625	49227.953676
571.981782	49288.770156
572.336884	48986.631121
572.691931	49310.948713
573.046923	48907.232948
573.401860	48746.730171
573.756743	48751.443650
574.111570	48866.744921
574.466342	48711.492506
574.821059	48819.010235
575.175722	48343.747895
575.530330	48350.074543
575.884882	48066.423939
576.239380	48041.220691
576.593823	48006.706431
576.948211	47939.107078
577.302544	47462.786095
577.656823	47474.766397
578.011047	47688.423100
578.365216	47436.067980
578.719330	47227.810353
579.073389	47067.741115
579.427394	47161.879622
579.781344	47122.198180
580.135239	46777.632794
580.489080	46864.111267
580.842866	46348.381064
581.196597	46779.445089
581.550273	46725.776965
581.903895	46586.530213
582.257463	47034.761887
582.610975	46388.904380
582.964434	46664.133736
583.317837	46325.010275
583.671186	46145.288099
584.024481	46390.303300
584.377721	45912.343942
584.730906	46200.952520
585.084037	46237.359733
585.437113	45952.811804
585.790135	45977.301730
586.143103	45589.079952
586.496016	45707.708384
586.848874	45748.909734
587.201679	45750.684220
587.554428	45232.544346
587.907124	45416.279280
588.259765	45159.535835
588.612352	45425.575168
588.964884	44792.161749
589.317362	45108.673113
589.669786	45043.864040
590.022155	44818.547148
590.374470	45250.014464
590.726731	44761.352737
591.078937	44294.277230
591.431090	44356.419534
591.783188	44031.413825
592.135232	43697.313874
592.487222	43954.087566
592.839157	44048.024427
593.191038	43711.202253
593.542866	43457.523830
593.894639	42857.019063
594.246358	43135.547854
594.598022	43125.248777
594.949633	42724.429155
595.301190	42666.092923
595.652692	42487.005932
596.004141	42813.861745
596.355535	41817.137409
596.706876	41773.493620
597.058162	41599.079779
597.409395	42097.995213
597.760573	42174.479600
598.111698	41735.004410
598.462768	41762.183791
598.813785	41807.554176
599.164748	41234.228790
599.515657	41629.026753
599.866511	41087.742942
600.217312	41708.251007
600.568060	40658.166058
600.918753	41418.598910
601.269392	41376.026365
601.619978	41020.355318
601.970510	41232.590415
602.320988	41424.015629
602.671412	41719.084446
603.021783	41470.928607
603.372100	41117.180759
603.722363	41243.365881
604.072572	41314.247025
604.422728	41340.730727
604.772830	41140.836374
605.122878	41239.315314
605.472872	41169.407113
605.822813	41456.145423
606.172701	41268.206167
606.522534	41516.533405
606.872314	41793.658235
607.222041	41517.168591
607.571714	41909.088055
607.921333	41325.839158
608.270899	41633.921714
608.620411	41997.086437
608.969870	41793.507001
609.319276	41780.641976
609.668627	41824.245436
610.017926	42327.501304
610.367171	42490.847292
610.716362	42583.536467
611.065500	42512.141125
611.414585	42692.281717
611.763616	42999.391330
612.112594	42913.396807
612.461518	43155.132737
612.810389	43429.127010
613.159207	43274.187147
613.507971	43373.815470
613.856682	43856.924367
614.205340	43715.083941
614.553945	44424.021407
614.902496	43880.390938
615.250994	44348.522566
615.599439	44407.105815
615.947830	44617.160613
616.296169	44661.215257
616.644454	44786.049350
616.992686	44952.883816
617.340864	45469.962527
617.688990	45176.153999
618.037063	45784.659077
618.385082	45739.162663
618.733048	46039.554939
619.080961	46063.598722
619.428821	46058.013123
619.776628	46183.734459
620.124382	46014.026536
620.472083	46144.713408
620.819731	46270.785104
621.167326	45952.766434
621.514868	45911.935608
621.862357	45489.539848
622.209793	45512.043559
622.557176	45192.769642
622.904506	44943.950891
623.251783	44585.701293
623.599007	44361.811048
623.946179	44133.688754
624.293297	44095.834730
624.640363	43475.402282
624.987376	43467.933812
625.334336	43188.265720
625.681243	42838.616331
626.028097	42783.740851
626.374899	42623.154895
626.721647	42580.799120
627.068343	42456.554842
627.414987	42211.096021
627.761577	41985.711073
628.108115	42308.838952
628.454600	41737.850142
628.801032	41904.041860
629.147412	41855.901362
629.493739	41866.029040
629.840014	41481.719197
630.186236	41827.134017
630.532405	41411.495924
630.878521	41598.840324
631.224585	41472.115799
631.570597	41177.538494
631.916556	41343.896571
632.262462	41280.861984
632.608316	41278.873248
632.954117	41174.158401
633.299866	41157.847748
633.645562	41075.934039
633.991206	40588.353639
634.336797	40144.671606
634.682336	40140.701698
635.027823	39890.791537
635.373257	39706.512158
635.718639	39434.950242
636.063968	39316.672169
636.409245	38720.470027
636.754470	38775.663100
637.099642	38507.647636
637.444762	38001.538475
637.789829	38154.923142
638.134845	37796.497104
638.479808	37727.960097
638.824719	37612.084134
639.169577	37200.819242
639.514383	37251.906295
639.859137	36946.755170
640.203839	37177.115736
640.548489	36780.074459
640.893086	36853.697991
641.237632	36582.385611
641.582125	36692.091201
641.926566	36624.607795
642.270955	36562.004226
642.615292	36569.586122
642.959576	36534.121604
643.303809	36525.327312
643.647990	36651.918246
643.992118	36608.009796
644.336195	36571.937820
644.680219	36662.285379
645.024192	36932.024919
645.368112	37436.639378
645.711981	37419.748992
646.055797	38296.471180
646.399562	38172.788991
646.743274	39127.147470
647.086935	39573.584493
647.430544	39425.798027
647.774101	39540.804390
648.117606	39778.025967
648.461059	40099.533115
648.804460	39728.521836
649.147810	39094.213612
649.491108	38855.464566
649.834354	38470.562387
650.177548	37622.605022
650.520690	37160.464805
650.863781	37173.632299
651.206820	37014.505757
651.549807	36556.128762
651.892742	36065.296817
652.235626	35843.952355
652.578458	35695.472730
652.921238	35069.147173
653.263967	35369.834356
653.606644	35045.630191
653.949269	34966.269826
654.291843	34549.452103
654.634365	34952.378927
654.976836	34526.671128
655.319255	34493.812888
655.661622	34488.784337
656.003938	34252.165178
656.346203	34094.331692
656.688416	34302.526305
657.030577	34111.816934
657.372687	33924.767442
657.714746	34199.263310
658.056753	34301.939011
658.398708	33725.019282
658.740612	33754.356277
659.082465	34041.825554
659.424266	33830.918801
659.766016	33934.988381
660.107715	33798.930159
660.449362	33915.262346
660.790958	33870.784246
661.132503	33899.735592
661.473996	33905.563166
661.815438	33992.097092
662.156829	34186.252092
662.498168	33931.925880
662.839456	33947.850885
663.180693	34076.975000
663.521879	34215.747883
663.863013	34159.276877
664.204097	34149.333201
664.545129	34585.564408
664.886110	34521.796333
665.227040	34561.641613
665.567918	34653.123432
665.908746	34697.553641
666.249522	34845.302298
666.590248	34835.093962
666.930922	34954.660049
667.271545	34875.753388
667.612118	34961.432839
667.952639	34720.901745
668.293109	34771.121720
668.633528	34652.984800
668.973896	34577.828758
669.314213	34603.828509
669.654480	34321.412988
669.994695	34338.356306
670.334859	34216.604879
670.674973	34097.643730
671.015035	34242.592027
671.355047	34176.568035
671.695008	34099.299749
672.034918	33981.982017
672.374777	34024.148748
672.714585	33835.682691
673.054342	34033.275757
673.394049	33774.810759
673.733705	34050.211514
674.073310	33714.269022
674.412864	33782.130514
674.752368	33367.611557
675.091820	33649.074299
675.431223	33227.490165
675.770574	32942.118007
676.109875	32802.455361
676.449125	32507.860412
676.788324	32412.292738
677.127473	31868.989944
677.466571	31806.366211
677.805619	31425.048292
678.144616	31421.897571
678.483562	31322.995174
678.822458	30980.395838
679.161303	30882.070653
679.500098	30787.574224
679.838842	30654.127320
680.177535	30782.757402
680.516179	31011.353564
680.854771	31215.139687
681.193314	32022.969468
681.531805	33041.332956
681.870247	33740.326746
682.208638	34436.734423
682.546978	34636.394363
682.885268	34736.894806
683.223508	34214.674117
683.561697	33887.173037
683.899836	33695.031978
684.237925	33179.453010
684.575963	33016.608617
684.913951	32531.687426
685.251889	32659.200892
685.589776	32593.391149
685.927614	32563.963413
686.265401	32658.643844
686.603137	32699.237736
686.940824	33144.038904
687.278460	33457.059270
687.616046	33523.080741
687.953582	34089.172071
688.291068	33927.950930
688.628504	34205.093404
688.965889	34130.252434
689.303224	33760.287194
689.640510	33456.025833
689.977745	32767.187448
690.314930	32022.873686
690.652065	31546.192261
690.989150	30839.994662
691.326185	29973.720265
691.663170	29297.361256
692.000105	28557.352639
692.336990	27892.419406
692.673825	27438.713039
693.010610	26923.625583
693.347345	26367.334256
693.684030	25717.247221
694.020665	25419.758650
694.357251	24781.576299
694.693786	24699.014802
695.030272	24451.161432
695.366707	23918.755092
695.703093	23619.759216
696.039429	23589.403908
696.375716	23320.554133
696.711952	23255.351849
697.048139	23079.826434
697.384276	22883.211351
697.720363	22986.885201
698.056400	22780.659159
698.392388	22560.706055
698.728326	22505.838136
699.064214	22307.582158
699.400053	22246.332139
699.735842	21905.759347
700.071581	21622.154114
700.407270	21352.870799
700.742910	21166.428765
701.078501	20898.877086
701.414042	20625.921291
701.749533	20332.125365
702.084974	19979.085800
702.420366	20174.687610
702.755709	19746.257589
703.091002	19453.258165
703.426246	19450.578792
703.761440	19346.746146
704.096584	19086.083204
704.431679	19025.594399
704.766725	18903.734588
705.101721	18829.254060
705.436668	18913.703469
705.771565	18588.299509
706.106413	18887.398728
706.441212	18854.782463
706.775961	18958.481518
707.110661	18997.931068
707.445311	19305.549837
707.779913	19119.742989
708.114465	19313.729109
708.448967	19547.247958
708.783421	20175.075779
709.117825	20394.544932
709.452180	20567.194369
709.786485	20898.093187
710.120742	21596.076225
710.454949	21564.483314
710.789107	21963.286474
711.123216	22583.280342
711.457275	22669.471469
711.791286	23165.271471
712.125247	23232.308735
712.459159	22952.809521
712.793023	23573.773811
713.126837	22551.868912
713.460602	22797.332775
713.794318	22478.782263
714.127985	22121.414867
714.461602	21316.614820
714.795171	21280.023605
715.128691	20344.710606
715.462162	19862.035248
715.795584	19470.448500
716.128957	19217.455674
716.462281	18847.636628
716.795556	18613.401935
717.128782	18135.193040
717.461960	17620.287065
717.795088	17539.346299
718.128167	17149.841547
718.461198	16723.962350
718.794180	16576.853919
719.127113	16241.168525
719.459997	16057.703293
719.792833	15726.958230
720.125619	15692.811974
720.458357	15390.476334
720.791046	15223.304111
721.123686	15069.750565
721.456278	14835.904041
721.788821	14785.971412
722.121315	14544.301017
722.453761	14595.567031
722.786158	14520.534497
723.118506	14508.977652
723.450805	14373.083268
723.783056	14490.441329
724.115259	14385.774373
724.447412	14302.935612
724.779518	14504.483463
725.111574	14513.948230
725.443582	14677.407643
725.775542	14635.853412
726.107453	15032.614905
726.439315	14918.911680
726.771129	15240.996040
727.102895	15538.119128
727.434612	15700.567790
727.766281	15795.896009
728.097901	16004.294788
728.429473	16037.296702
728.760996	16018.236099
729.092471	16086.626913
729.423897	15986.950698
729.755276	15858.981008
730.086606	15942.391940
730.417887	16357.520877
730.749120	16771.205523
731.080305	16900.017086
731.411442	17191.360490
731.742530	17251.377947
732.073570	17325.616499
732.404562	17586.879339
732.735506	17430.132222
733.066401	17180.209458
733.397249	16727.513842
733.728048	16172.013977
734.058798	15466.358303
734.389501	14877.546492
734.720156	14472.910717
735.050762	14000.494108
735.381320	13680.678267
735.711831	13452.505561
736.042293	13135.961429
736.372707	13121.155560
736.703073	12905.978949
737.033391	13053.009242
737.363661	12990.395591
737.693883	13067.845358
738.024056	13187.726517
738.354182	13324.926560
738.684260	13539.886401
739.014290	13718.988515
739.344272	13855.132437
739.674207	14079.710799
740.004093	14169.120704
740.333931	14167.668852
740.663722	14200.774109
740.993464	14187.654506
741.323159	14039.215210
741.652806	13806.757524
741.982405	13637.659580
742.311956	13346.285929
742.641460	13239.599990
742.970915	12979.877223
743.300323	12671.061180
743.629683	12475.661016
743.958996	12235.737381
744.288260	12001.968995
744.617477	11747.983061
744.946647	11665.592963
745.275768	11438.617532
745.604842	11276.133582
745.933869	11128.248813
746.262847	11075.167983
746.591778	11001.554534
746.920662	10909.765205
747.249498	10894.651826
747.578286	10976.653755
747.907027	11068.317055
748.235720	11230.170861
748.564365	11247.076371
748.892963	11154.636733
749.221514	11196.488392
749.550017	11062.920500
749.878473	11028.751559
750.206881	10847.002840
750.535242	10758.752401
750.863555	10681.915134
751.191821	10597.347257
751.520039	10603.860428
751.848210	10513.006233
752.176334	10527.683552
752.504411	10446.639442
752.832440	10309.066354
753.160421	10347.757210
753.488356	10241.620757
753.816243	10152.099947
754.144082	10033.554693
754.471875	9974.248039
754.799620	9919.153269
755.127318	9897.249455
755.454969	9853.136838
755.782572	9800.381163
756.110129	9804.061206
756.437638	9733.739630
756.765100	9719.523576
757.092515	9713.247340
757.419882	9714.225324
757.747203	9708.743069
758.074477	9765.445967
758.401703	9714.250529
758.728882	9831.553138
759.056014	9860.728816
759.383099	9947.658473
759.710138	10023.424495
760.037129	10082.302651
760.364073	10087.235420
760.690970	10068.494931
761.017820	10058.407582
761.344623	10192.928252
761.671379	10442.387229
761.998088	10913.568756
762.324751	12122.692026
762.651366	14361.468449
762.977935	17159.913772
763.304456	18913.302698
763.630931	19298.829979
763.957359	18418.508406
764.283740	16904.987664
764.610074	15452.033864
764.936362	13815.773628
765.262602	12599.796909
765.588796	11437.390011
765.914943	10633.908226
766.241044	9954.469072
766.567097	9444.377399
766.893104	8996.070108
767.219064	8699.851908
767.544978	8379.877271
767.870845	8134.700754
768.196665	7980.741395
768.522438	7809.478275
768.848165	7674.854262
769.173846	7530.571397
769.499479	7428.553567
769.825066	7295.242774
770.150607	7151.902606
770.476101	7096.845644
770.801548	7002.913824
771.126949	6894.866774
771.452303	6815.579506
771.777611	6690.354724
772.102872	6665.489233
772.428087	6572.605973
772.753256	6476.385470
773.078378	6395.419498
773.403453	6283.216016
773.728482	6199.835331
774.053465	6141.065560
774.378401	6073.410755
774.703291	5999.910732
775.028135	5921.306540
775.352932	5881.856991
775.677683	5819.323998
776.002388	5742.053192
776.327046	5740.109827
776.651658	5671.046019
776.976224	5604.081852
777.300743	5596.988949
777.625216	5536.679105
777.949643	5499.523280
778.274024	5499.155276
778.598359	5441.502120
778.922647	5437.512047
779.246889	5403.658178
779.571086	5405.523405
779.895236	5409.972223
780.219339	5404.621038
780.543397	5400.162138
780.867409	5432.269247
781.191374	5427.429739
781.515294	5400.812447
781.839167	5433.448877
782.162995	5409.465587
782.486776	5370.331110
782.810511	5336.205019
783.134201	5280.275938
783.457844	5271.584988
783.781441	5232.563937
784.104993	5194.808215
784.428498	5171.969268
784.751958	5152.638963
785.075372	5133.900995
785.398739	5101.642651
785.722061	5111.714877
786.045337	5109.360658
786.368568	5183.826062
786.691752	5197.580850
787.014891	5380.630187
787.337983	5578.913892
787.661030	5895.067334
787.984031	6200.437749
788.306987	6380.283433
788.629897	6435.794099
788.952760	6369.896136
789.275579	6235.229272
789.598351	6020.224061
789.921078	5829.086192
790.243759	5619.475015
790.566395	5469.979598
790.888984	5330.329554
791.211529	5221.677565
791.534027	5101.433443
791.856480	4999.208926
792.178888	4949.954332
792.501249	4899.409203
792.823566	4822.418181
793.145836	4813.802849
793.468062	4795.924397
793.790241	4761.989870
794.112375	4785.859733
794.434464	4854.588304
794.756507	4872.963310
795.078505	4954.415753
795.400457	5103.444864
795.722364	5270.095328
796.044226	5409.047172
796.366042	5519.927350
796.687812	5475.890351
797.009538	5497.519422
797.331218	5424.768010
797.652852	5378.495259
797.974442	5291.235406
798.295986	5237.466459
798.617484	5142.649917
798.938938	5064.300304
799.260346	5012.676368
799.581709	4911.762550
799.903026	4872.035737
800.224299	4822.498839
800.545526	4736.002722
800.866708	4692.593346
801.187845	4652.979959
801.508936	4598.802678
801.829983	4579.084205
802.150984	4500.958923
802.471940	4479.014781
802.792851	4462.918377
803.113717	4445.602013
803.434538	4430.803706
803.755314	4404.350251
804.076045	4394.046133
804.396731	4367.607801
804.717372	4371.325652
805.037967	4373.059809
805.358518	4387.520359
805.679024	4429.697173
805.999485	4430.319755
806.319901	4439.824851
806.640272	4453.246923
806.960598	4479.836489
807.280879	4472.693174
807.601115	4500.026310
807.921306	4469.751661
808.241453	4466.578254
808.561554	4474.094615
808.881611	4450.010502
809.201623	4443.666210
809.521590	4411.417949
809.841513	4398.641144
810.161390	4403.014345
810.481223	4343.027135
810.801011	4332.564220
811.120755	4315.585614
811.440453	4273.123975
811.760107	4254.078496
812.079716	4234.463367
812.399281	4197.103375
812.718801	4188.654402
813.038276	4164.257738
813.357707	4139.954335
813.677093	4153.746932
813.996434	4109.097432
814.315731	4119.686376
814.634983	4115.802167
814.954191	4119.754431
815.273354	4155.634844
815.592473	4184.853372
815.911547	4233.782811
816.230577	4265.658027
816.549562	4322.355884
816.868502	4356.277808
817.187399	4390.023292
817.506250	4439.948359
817.825058	4457.289928
818.143821	4552.958425
818.462539	4666.366743
818.781213	4813.218075
819.099843	5045.590062
819.418429	5458.011899
819.736970	5865.725298
820.055466	6318.499052
820.373919	6913.561893
820.692327	7877.848924
821.010691	9716.818997
821.329011	14107.192649
821.647286	21156.043988
821.965517	28919.209183
822.283704	32977.716115
822.601847	33831.054912
822.919945	30115.280906
823.237999	26202.793515
823.556010	22420.703130
823.873976	19090.048072
824.191897	16142.298895
824.509775	14007.599614
824.827609	12098.736463
825.145398	10988.737401
825.463144	10451.990627
825.780845	10629.502257
826.098502	11458.199894
826.416116	13045.102192
826.733685	14480.885822
827.051210	14746.577315
827.368692	13768.139765
827.686129	12089.395205
828.003522	10500.771352
828.320872	9079.486081
828.638177	8012.220880
828.955439	7193.928185
829.272656	6500.353636
829.589830	5947.651610
829.906960	5471.015555
830.224046	5116.146051
830.541088	4852.874312
830.858086	4679.796377
831.175041	4537.466960
831.491952	4496.106813
831.808819	4510.307743
832.125642	4657.673273
832.442421	5004.653372
832.759157	5709.101690
833.075849	6835.784451
833.392497	8009.579315
833.709101	8702.460706
834.025662	8523.555197
834.342179	7844.504212
834.658653	7018.992584
834.975083	6328.614127
835.291469	5763.044556
835.607811	5289.682731
835.924110	4963.164676
836.240366	4650.547602
836.556578	4361.888612
836.872746	4136.864107
837.188871	3968.182059
837.504952	3828.413548
837.820990	3721.722568
838.136984	3646.604334
838.452935	3615.117287
838.768842	3628.597333
839.084706	3813.768996
839.400526	4283.019760
839.716303	4848.211244
840.032037	5185.764385
840.347727	5089.921968
840.663373	4712.916757
840.978977	4356.255123
841.294537	4079.319336
841.610054	3872.009446
841.925527	3722.723237
842.240957	3592.979060
842.556344	3475.656287
842.871687	3377.802449
843.186987	3282.002882
843.502244	3207.918085
843.817458	3154.381032
844.132629	3108.350256
844.447756	3078.698189
844.762840	3045.585370
845.077881	3022.033099
845.392879	3001.170284
845.707833	2984.166472
846.022745	2969.365644
846.337613	2959.928604
846.652438	2948.175154
846.967221	2938.786005
847.281960	2926.712442
847.596656	2920.718510
847.911309	2911.238620
848.225919	2904.619585
848.540485	2895.565673
848.855009	2889.362533
849.169490	2883.837428
849.483928	2879.872561
849.798323	2878.932385
850.112675	2867.133565
850.426984	2870.521220
850.741251	2865.580889
851.055474	2861.953779
851.369654	2861.106865
851.683792	2859.148377
851.997887	2859.733151
852.311938	2863.037627
852.625947	2862.006711
852.939914	2856.108561
853.253837	2860.985878
853.567718	2855.957327
853.881555	2853.973633
854.195350	2854.946575
854.509103	2855.906915
854.822812	2852.534383
855.136479	2849.373580
855.450103	2853.966071
855.763685	2846.474916
856.077224	2848.259485
856.390720	2852.355422
856.704173	2857.270547
857.017584	2859.657534
857.330953	2864.615508
857.644278	2865.706918
857.957561	2870.768237
858.270802	2864.567618
858.584000	2867.055427
858.897155	2862.278934
859.210268	2854.331555
859.523339	2849.562623
859.836367	2847.934330
860.149352	2843.614062
860.462295	2842.570543
860.775195	2832.757937
861.088054	2832.110148
861.400869	2834.469408
861.713642	2827.242914
862.026373	2837.446210
862.339062	2835.275993
862.651708	2842.363855
862.964312	2850.565813
863.276873	2854.550845
863.589392	2873.198073
863.901869	2887.598129
864.214303	2901.410890
864.526696	2910.300965
864.839045	2921.580547
865.151353	2928.938111
865.463619	2926.014242
865.775842	2926.692277
866.088023	2932.996240
866.400162	2927.080446
866.712258	2925.822678
867.024313	2925.346289
867.336325	2923.481062
867.648296	2924.567431
867.960224	2924.312852
868.272110	2926.893923
868.583954	2925.512647
868.895755	2927.939963
869.207515	2924.302770
869.519233	2937.901283
869.830909	2939.600151
870.142542	2946.567026
870.454134	2948.311265
870.765684	2952.361832
871.077191	2964.992443
871.388657	2974.195070
871.700081	2982.533138
872.011463	2994.881444
872.322803	3009.755369
872.634101	3019.136956
872.945357	3031.412166
873.256571	3046.795247
873.567744	3054.472924
873.878874	3057.951320
874.189963	3067.642938
874.501010	3066.891807
874.812015	3067.526992
875.122979	3073.440265
875.433900	3069.707291
875.744780	3072.953794
876.055618	3074.917323
876.366415	3073.372210
876.677169	3075.093764
876.987882	3082.158941
877.298554	3093.665375
877.609183	3115.208746
877.919771	3137.775471
878.230317	3177.144362
878.540822	3236.778691
878.851285	3323.163903
879.161707	3445.467337
879.472087	3660.643948
879.782425	4031.892161
880.092722	4762.990539
880.402977	6041.956475
880.713191	7718.099800
881.023363	9400.887365
881.333494	10331.610394
881.643583	10571.347506
881.953631	10179.838896
882.263637	9533.142036
882.573602	8819.874220
882.883526	8172.138883
883.193408	7539.892491
883.503248	6944.907788
883.813048	6418.656696
884.122806	5935.643582
884.432522	5454.329336
884.742197	5035.222929
885.051831	4672.889996
885.361424	4352.872509
885.670975	4113.536168
885.980485	3912.724325
886.289954	3750.799943
886.599382	3619.944192
886.908768	3512.557533
887.218113	3414.018099
887.527417	3337.747962
887.836680	3265.150305
888.145901	3205.100080
888.455082	3163.339162
888.764221	3123.249386
889.073319	3089.551793
889.382376	3066.881724
889.691392	3054.273798
890.000366	3050.500495
890.309300	3046.152500
890.618193	3046.825494
890.927044	3043.931871
891.235855	3047.412788
891.544625	3057.636248
891.853353	3073.369689
892.162041	3107.619288
892.470687	3158.270282
892.779293	3228.743092
893.087858	3325.092145
893.396381	3488.924604
893.704864	3731.310842
894.013306	4060.404927
894.321707	4381.859143
894.630068	4580.858691
894.938387	4588.117953
895.246665	4474.528154
895.554903	4294.889157
895.863100	4106.342442
896.171256	3956.055563
896.479371	3813.206907
896.787446	3685.751414
897.095480	3574.641863
897.403473	3489.821929
897.711425	3407.194897
898.019336	3339.235102
898.327207	3270.188938
898.635038	3214.000237
898.942827	3155.076711
899.250576	3110.177674
899.558284	3061.583472
899.865952	3029.730941
900.173579	2995.403204
900.481165	2966.769450
900.788711	2948.636420
901.096216	2926.218408
901.403681	2913.618044
901.711105	2907.072106
902.018489	2902.431724
902.325832	2923.269333
902.633135	2955.131946
902.940397	3052.519477
903.247619	3287.492699
903.554800	3740.195876
903.861941	4319.724402
904.169041	4729.928131
904.476101	4842.645811
904.783121	4666.122247
905.090100	4427.005197
905.397039	4184.583670
905.703938	3976.613388
906.010796	3786.879481
906.317614	3644.091319
906.624391	3503.599403
906.931129	3395.007908
907.237826	3288.752987
907.544483	3187.468645
907.851099	3088.694797
908.157675	2999.030314
908.464211	2918.021492
908.770707	2855.433047
909.077163	2814.609783
909.383578	2777.027981
909.689954	2754.826739
909.996289	2734.896538
910.302584	2727.062585
910.608839	2717.655792
910.915054	2711.898794
911.221229	2709.403423
911.527363	2711.465255
911.833458	2714.005996
912.139513	2722.061760
912.445527	2726.155177
912.751502	2748.053949
913.057436	2768.682351
913.363331	2802.969759
913.669186	2849.393744
913.975000	2917.943354
914.280775	3022.116278
914.586510	3177.708971
914.892205	3392.547824
915.197859	3681.542051
915.503475	4017.560161
915.809050	4299.282523
916.114585	4451.911017
916.420081	4476.771467
916.725536	4437.427782
917.030952	4294.077531
917.336328	4172.837781
917.641665	4055.109195
917.946961	3927.724278
918.252218	3815.664470
918.557435	3688.854245
918.862612	3579.652770
919.167750	3480.614262
919.472848	3375.007130
919.777906	3278.282511
920.082925	3190.538707
920.387904	3104.224071
920.692843	3043.644526
920.997743	2989.215188
921.302603	2935.105963
921.607423	2898.527350
921.912204	2861.174921
922.216946	2833.748523
922.521647	2806.614513
922.826310	2786.386883
923.130932	2767.404418
923.435516	2743.378279
923.740059	2728.368243
924.044564	2711.699668
924.349028	2699.278265
924.653454	2678.987621
924.957840	2666.541012
925.262186	2656.446102
925.566493	2645.779020
925.870761	2628.225722
926.174989	2624.263375
926.479178	2617.513270
926.783328	2607.499018
927.087438	2604.756631
927.391509	2596.206834
927.695541	2588.934969
927.999533	2583.447673
928.303486	2577.368042
928.607400	2574.708833
928.911275	2573.433421
929.215110	2568.903944
929.518906	2564.835733
929.822663	2566.136351
930.126381	2564.016546
930.430060	2565.085270
930.733699	2565.569221
931.037299	2568.679613
931.340861	2568.707339
931.644383	2571.548030
931.947866	2567.608368
932.251309	2566.665672
932.554714	2565.223902
932.858080	2567.086608
933.161407	2563.981258
933.464694	2560.908674
933.767943	2559.003118
934.071153	2555.237376
934.374323	2553.714948
934.677455	2554.488765
934.980548	2551.837118
935.283602	2550.022303
935.586617	2547.121119
935.889593	2551.136398
936.192530	2549.319062
936.495428	2554.849207
936.798287	2558.413303
937.101108	2563.898079
937.403890	2574.812177
937.706632	2590.472521
938.009336	2603.768564
938.312002	2622.307408
938.614628	2634.559932
938.917216	2647.069555
939.219765	2651.341933
939.522275	2654.679177
939.824747	2656.373005
940.127179	2653.532315
940.429573	2647.258599
940.731929	2649.718682
941.034246	2642.174595
941.336524	2646.885553
941.638763	2639.883391
941.940964	2639.122176
942.243126	2630.930301
942.545250	2624.177676
942.847335	2617.641820
943.149381	2612.028495
943.451389	2601.792432
943.753359	2596.658017
944.055290	2588.395566
944.357182	2584.299628
944.659036	2584.816347
944.960851	2579.651684
945.262628	2579.636561
945.564367	2579.167734
945.866067	2578.724112
946.167729	2578.434246
946.469352	2576.591704
946.770937	2573.773699
947.072484	2571.053997
947.373992	2571.734552
947.675462	2567.978893
947.976893	2567.489901
948.278286	2564.878583
948.579641	2560.691905
948.880958	2559.877758
949.182236	2558.937583
949.483476	2558.264589
949.784678	2558.130999
950.085841	2556.422047
950.386967	2559.396328
950.688054	2563.814900
950.989103	2567.081567
951.290114	2567.953687
951.591087	2577.751169
951.892021	2583.551017
952.192917	2587.707448
952.493776	2596.935280
952.794596	2598.046855
953.095378	2602.092381
953.396122	2599.360075
953.696828	2597.807400
953.997496	2593.867738
954.298126	2591.301791
954.598718	2587.992273
954.899272	2581.302662
955.199788	2574.212279
955.500266	2568.941753
955.800706	2558.524209
956.101108	2548.184802
956.401472	2541.964018
956.701798	2536.270035
957.002087	2528.287368
957.302337	2526.044054
957.602550	2516.788496
957.902724	2513.824297
958.202861	2510.406395
958.502960	2503.870539
958.803022	2501.780981
959.103045	2497.390136
959.403031	2492.797645
959.702979	2490.700525
960.002889	2488.096769
960.302762	2485.210708
960.602596	2482.150728
960.902393	2480.023361
961.202153	2480.575367
961.501875	2477.588484
961.801559	2479.446149
962.101205	2476.033288
962.400814	2473.732001
962.700385	2472.202011
962.999918	2472.743935
963.299414	2470.737556
963.598873	2470.543471
963.898293	2468.431228
964.197677	2469.507514
964.497022	2468.108594
964.796331	2471.329891
965.095601	2466.155147
965.394835	2465.638428
965.694030	2464.806638
965.993189	2465.731690
966.292309	2468.622792
966.591393	2468.378296
966.890439	2464.216823
967.189447	2466.621453
967.488419	2467.707822
967.787353	2467.198666
968.086249	2465.588017
968.385108	2467.233954
968.683930	2466.208079
968.982714	2467.201186
969.281462	2467.090281
969.580172	2468.494242
969.878844	2469.293265
970.177480	2470.311578
970.476078	2470.455251
970.774639	2475.231744
971.073162	2474.904069
971.371649	2474.278966
971.670098	2472.181846
971.968510	2473.663945
972.266885	2474.616723
972.565223	2476.663432
972.863524	2475.307362
973.161788	2480.593011
973.460014	2477.326344
973.758204	2480.091417
974.056356	2476.587815
974.354471	2478.722743
974.652550	2479.804071
974.950591	2480.217445
975.248595	2478.052270
975.546563	2479.294914
975.844493	2477.553196
976.142386	2478.556385
976.440243	2474.228555
976.738062	2475.246868
977.035845	2474.929275
977.333590	2471.622278
977.631299	2471.879377
977.928971	2469.119345
978.226606	2468.869808
978.524204	2469.126907
978.821765	2469.278142
979.119290	2466.807976
979.416777	2465.295630
979.714228	2469.492391
980.011642	2467.087760
980.309020	2471.546661
980.606360	2472.451548
980.903664	2479.431025
981.200931	2484.426809
981.498162	2494.539363
981.795356	2509.950171
982.092513	2529.913140
982.389633	2555.660833
982.686717	2582.194947
982.983764	2599.390322
983.280775	2611.350460
983.577749	2609.666714
983.874686	2606.987341
984.171587	2595.387646
984.468451	2586.210226
984.765279	2577.874678
985.062070	2564.833213
985.358824	2555.403734
985.655543	2540.570139
985.952224	2531.712832
986.248869	2513.315141
986.545478	2499.502379
986.842050	2491.232367
987.138586	2477.943885
987.435086	2465.696402
987.731549	2462.391925
988.027975	2465.711525
988.324366	2459.810855
988.620719	2459.679785
988.917037	2453.562344
989.213318	2452.007148
989.509563	2451.881120
989.805772	2451.513115
990.101944	2452.528908
990.398080	2449.889864
990.694180	2452.725513
990.990244	2450.988835
991.286271	2450.157045
991.582262	2448.639658
991.878217	2449.789041
992.174136	2451.266099
992.470019	2450.207457
992.765865	2452.087807
993.061676	2455.064608
993.357450	2453.837087
993.653188	2460.751030
993.948890	2459.180710
994.244556	2458.374126
994.540186	2469.290744
994.835780	2471.423153
995.131337	2481.185347
995.426859	2489.417551
995.722345	2500.276197
996.017795	2508.246261
996.313208	2518.068949
996.608586	2519.591377
996.903928	2521.938035
997.199234	2522.989115
997.494504	2518.562982
997.789738	2513.852024
998.084936	2513.436129
998.380099	2501.082781
998.675225	2499.696464
998.970316	2490.763539
999.265371	2485.692138
999.560390	2476.509677
999.855373	2474.132773
1000.150320	2467.022225
1000.445232	2461.371092
1000.740108	2457.123920
1001.034948	2452.118054
1001.329752	2450.467076
1001.624521	2449.521860
1001.919254	2444.815943
1002.213951	2446.524894
1002.508613	2442.005499
1002.803239	2440.208328
1003.097829	2439.941147
1003.392384	2443.008689
1003.686903	2439.868050
1003.981386	2440.296548
1004.275834	2441.602207
1004.570246	2440.588935
1004.864623	2438.867381
1005.158964	2435.961156
1005.453270	2440.409974
1005.747540	2440.195725
1006.041775	2436.220775
1006.335974	2436.999633
1006.630138	2436.230857
1006.924266	2438.254881
1007.218359	2437.045004
1007.512416	2437.405446
1007.806438	2436.918975
1008.100425	2434.615168
1008.394376	2437.329829
1008.688292	2439.505087
1008.982172	2434.146340
1009.276017	2437.468461
1009.569827	2437.004675
1009.863602	2436.097267
1010.157341	2433.725404
1010.451045	2436.150199
1010.744714	2432.397060
1011.038347	2435.023501
1011.331945	2434.542071
1011.625508	2434.816814
1011.919036	2433.690116
1012.212528	2432.954108
1012.505986	2434.032914
1012.799408	2435.000816
1013.092795	2433.710281
1013.386147	2436.190528
1013.679464	2434.771443
1013.972745	2433.223809
1014.265992	2434.388316
1014.559204	2434.690785
1014.852380	2430.688109
1015.145521	2434.448810
1015.438628	2431.983685
1015.731699	2433.972421
1016.024736	2432.084508
1016.317737	2433.682554
1016.610703	2435.262956
1016.903635	2429.102666
1017.196531	2428.979158
1017.489393	2429.430341
1017.782219	2430.375557
1018.075011	2432.104673
1018.367768	2434.042997
1018.660490	2434.438727
1018.953177	2434.438727
1019.245829	2434.438727
