Dividing Wavelength (nm)	Counts (n)	Blue Motor Position (mm): 0.000000	Red Motor Position (mm): 13.800000	
326.493990	1982.670684
326.888308	1982.670684
327.282561	1982.670684
327.676750	1956.333176
328.070874	1956.804524
328.464933	1963.620164
328.858929	1973.833542
329.252859	1984.966930
329.646726	1999.767757
330.040528	2016.222084
330.434265	2033.147758
330.827938	2054.938145
331.221547	2071.077399
331.615091	2093.911306
332.008571	2112.871085
332.401986	2135.006792
332.795338	2153.013793
333.188625	2175.782165
333.581847	2196.236646
333.975006	2212.880016
334.368100	2228.356358
334.761129	2246.849831
335.154095	2262.605957
335.546996	2277.658843
335.939833	2292.252983
336.332606	2304.686989
336.725315	2317.194092
337.117960	2325.920329
337.510540	2332.181442
337.903056	2340.645539
338.295508	2346.881447
338.687896	2352.890502
339.080220	2360.981554
339.472480	2367.421628
339.864676	2367.721577
340.256807	2375.076620
340.648875	2374.711137
341.040879	2376.725078
341.432818	2376.934285
341.824694	2378.378576
342.216506	2380.755480
342.608253	2378.912938
342.999937	2376.616693
343.391557	2376.485623
343.783113	2375.613503
344.174605	2373.833976
344.566033	2372.919006
344.957397	2371.033615
345.348697	2366.007584
345.739934	2367.298120
346.131106	2365.687471
346.522215	2365.359796
346.913260	2361.926770
347.304241	2360.827799
347.695159	2359.033148
348.086012	2358.536594
348.476802	2355.181707
348.867528	2354.264217
349.258191	2354.188599
349.648789	2352.177179
350.039324	2351.650378
350.429796	2352.865296
350.820203	2350.349761
351.210548	2348.504698
351.600828	2351.655419
351.991045	2347.564523
352.381198	2351.257168
352.771288	2351.103413
353.161314	2348.938238
353.551276	2348.640809
353.941175	2349.427229
354.331010	2352.772035
354.720782	2350.203567
355.110490	2350.405213
355.500135	2352.235152
355.889717	2353.417303
356.279235	2352.640965
356.668689	2353.450070
357.058080	2350.362363
357.447408	2349.555779
357.836672	2349.694411
358.225873	2352.343537
358.615010	2349.578464
359.004084	2355.587519
359.393095	2355.224556
359.782043	2356.079032
360.170927	2358.534074
360.559748	2356.202540
360.948505	2359.219671
361.337199	2356.651203
361.725830	2358.768487
362.114398	2363.388705
362.502903	2360.457274
362.891344	2363.189579
363.279722	2362.662779
363.668037	2364.220495
364.056289	2363.855012
364.444478	2367.449354
364.832603	2364.354086
365.220665	2367.693850
365.608665	2363.514734
365.996601	2366.574714
366.384474	2367.285517
366.772284	2368.389530
367.160031	2366.163860
367.547715	2368.520600
367.935336	2369.047400
368.322893	2373.176105
368.710388	2371.280631
369.097820	2374.620396
369.485189	2373.607124
369.872495	2374.748945
370.259738	2378.411343
370.646918	2378.865047
371.034035	2378.552496
371.421090	2380.347147
371.808081	2387.419885
372.195010	2388.405431
372.581875	2394.235525
372.968678	2401.220044
373.355418	2407.269429
373.742096	2420.240317
374.128710	2427.081163
374.515262	2440.324274
374.901751	2452.712910
375.288177	2473.038842
375.674540	2487.161635
376.060841	2508.936899
376.447079	2531.070085
376.833254	2558.879610
377.219367	2583.195616
377.605417	2615.211984
377.991404	2645.363125
378.377329	2679.791685
378.763191	2714.590770
379.148991	2759.109200
379.534727	2806.836324
379.920402	2850.762418
380.306013	2901.632701
380.691563	2959.875672
381.077049	3016.923890
381.462474	3070.029925
381.847835	3146.088333
382.233134	3214.645505
382.618371	3272.923764
383.003545	3357.121116
383.388657	3433.159360
383.773706	3524.631096
384.158693	3593.430243
384.543618	3688.072866
384.928480	3765.699073
385.313280	3869.894682
385.698017	3971.327739
386.082692	4086.097168
386.467305	4149.225017
386.851856	4271.654479
387.236344	4425.066873
387.620770	4487.274711
388.005133	4606.850881
388.389435	4749.079475
388.773674	4828.023944
389.157851	4964.009069
389.541965	5089.392647
389.926018	5114.762254
390.310008	5291.237927
390.693936	5407.300412
391.077802	5523.241909
391.461606	5656.598072
391.845348	5766.288539
392.229027	5882.197269
392.612645	6101.343788
392.996200	6216.889555
393.379694	6391.421863
393.763125	6606.253154
394.146494	6695.098450
394.529801	6827.963101
394.913047	7065.156951
395.296230	7053.189252
395.679351	7108.261337
396.062410	7363.900769
396.445408	7249.844663
396.828343	7396.943012
397.211217	7519.836260
397.594028	7398.914103
397.976778	7593.737055
398.359466	7755.273268
398.742092	7716.647948
399.124656	7850.394800
399.507158	8015.157352
399.889598	8024.959876
400.271977	8209.072896
400.654294	8221.305256
401.036549	8388.696770
401.418742	8388.346409
401.800874	8644.326119
402.182944	8695.393008
402.564952	9001.348197
402.946898	8797.985530
403.328783	8805.264956
403.710606	8941.144217
404.092367	9120.445456
404.474067	9389.174244
404.855705	9147.516452
405.237282	9036.943784
405.618797	9349.931382
406.000250	9487.378442
406.381642	9722.084482
406.762972	9597.565462
407.144240	9340.068365
407.525447	9460.917425
407.906593	9319.966764
408.287677	9434.902551
408.668700	9455.843504
409.049661	9329.744082
409.430560	9349.669242
409.811399	9209.699085
410.192176	9219.320127
410.572891	9154.132967
410.953545	9375.600937
411.334138	8881.525011
411.714669	9166.950100
412.095139	8574.909431
412.475547	8776.565667
412.855894	8541.380717
413.236180	8608.281869
413.616405	8277.609903
413.996568	8303.937329
414.376670	8148.745408
414.756711	7941.952236
415.136691	7955.825492
415.516609	7900.886997
415.896466	7797.243395
416.276262	7793.207951
416.655997	7861.306378
417.035670	7720.801858
417.415283	7872.177626
417.794834	7748.008966
418.174324	7474.473437
418.553753	7266.881242
418.933121	7308.740463
419.312428	7072.680873
419.691674	6883.965279
420.070859	6894.652525
420.449983	6610.439833
420.829045	6649.355020
421.208047	6412.516571
421.586988	6404.543986
421.965867	6330.970866
422.344686	6175.418503
422.723444	6177.303894
423.102141	5675.620866
423.480777	5841.648748
423.859352	5576.574796
424.237866	5695.104926
424.616319	5485.314788
424.994712	5482.211958
425.373044	5300.876613
425.751314	5291.961332
426.129524	4996.189274
426.507673	5052.065424
426.885762	4877.906161
427.263789	4774.000419
427.641756	4676.943084
428.019662	4572.150098
428.397508	4458.187254
428.775292	4385.322416
429.153016	4266.036113
429.530679	4170.264272
429.908282	4068.932039
430.285824	3948.907207
430.663305	3915.925458
431.040726	3791.532466
431.418086	3687.795602
431.795385	3657.084893
432.172624	3604.072119
432.549802	3501.131758
432.926920	3437.829989
433.303977	3363.692260
433.680974	3311.775937
434.057910	3265.246087
434.434786	3209.495967
434.811601	3151.754590
435.188355	3137.296561
435.565050	3073.349525
435.941683	3022.811957
436.318257	3009.846110
436.694770	2956.480455
437.071222	2937.001437
437.447614	2871.320243
437.823946	2841.166581
438.200218	2810.803712
438.576429	2779.722478
438.952580	2760.296391
439.328670	2735.824110
439.704700	2721.497151
440.080670	2695.462112
440.456580	2679.630368
440.832429	2666.750220
441.208218	2640.480767
441.583947	2629.992647
441.959616	2615.834566
442.335224	2610.541355
442.710773	2598.329159
443.086261	2593.451843
443.461689	2575.359142
443.837057	2570.580128
444.212365	2568.351938
444.587612	2561.153170
444.962800	2553.404917
445.337927	2547.960471
445.712995	2531.702750
446.088002	2545.896118
446.462949	2535.944881
446.837837	2536.597710
447.212664	2531.218799
447.587431	2543.607434
447.962139	2560.301215
448.336786	2570.620457
448.711374	2558.073025
449.085901	2533.562935
449.460369	2530.162677
449.834776	2524.814013
450.209124	2535.942360
450.583412	2530.951618
450.957640	2532.312729
451.331808	2520.607170
451.705917	2515.031654
452.079965	2511.838083
452.453954	2513.262209
452.827883	2505.871877
453.201752	2506.426404
453.575562	2505.831548
453.949311	2505.140910
454.323001	2505.087978
454.696632	2501.503718
455.070202	2508.589059
455.443713	2506.524707
455.817164	2506.809532
456.190556	2506.169305
456.563888	2502.922802
456.937160	2501.821310
457.310373	2499.257883
457.683526	2498.287461
458.056619	2500.445075
458.429653	2497.503562
458.802628	2498.539519
459.175542	2500.550939
459.548398	2503.810045
459.921194	2507.817763
460.293930	2511.263391
460.666607	2515.399658
461.039224	2524.745957
461.411782	2520.574402
461.784280	2522.507685
462.156719	2514.789678
462.529099	2512.679956
462.901419	2506.781806
463.273680	2503.023625
463.645882	2503.618482
464.018024	2503.726866
464.390106	2504.863647
464.762130	2518.099196
465.134094	2527.148067
465.505999	2547.632796
465.877845	2565.501166
466.249631	2568.155333
466.621358	2560.452450
466.993026	2552.926007
467.364634	2546.932075
467.736184	2538.876312
468.107674	2532.431196
468.479105	2531.032276
468.850477	2527.528674
469.221790	2520.249248
469.593043	2512.233813
469.964238	2510.847496
470.335373	2513.045439
470.706449	2516.453259
471.077467	2522.590864
471.448425	2541.694317
471.819324	2545.845707
472.190164	2546.206149
472.560945	2531.213758
472.931667	2522.202695
473.302330	2515.293794
473.672934	2513.725995
474.043479	2514.411592
474.413965	2511.500326
474.784393	2504.515807
475.154761	2512.765655
475.525070	2507.616117
475.895321	2510.161899
476.265513	2508.369769
476.635645	2514.789678
477.005719	2514.638444
477.375734	2516.501150
477.745691	2517.698424
478.115588	2523.047088
478.485427	2529.081350
478.855207	2541.422094
479.224928	2549.288815
479.594591	2557.357182
479.964194	2552.595812
480.333739	2551.602704
480.703226	2553.984650
481.072653	2553.964485
481.442022	2556.863148
481.811333	2556.661502
482.180584	2551.607746
482.549777	2549.787889
482.918912	2548.615821
483.287988	2546.349822
483.657005	2543.985521
484.025964	2541.991745
484.394864	2541.109543
484.763706	2543.357897
485.132489	2538.639377
485.501213	2539.123328
485.869879	2537.737011
486.238487	2539.219110
486.607036	2537.099305
486.975527	2537.162319
487.343959	2534.578728
487.712333	2535.720549
488.080648	2536.418749
488.448905	2536.648122
488.817104	2537.747093
489.185244	2543.022661
489.553326	2546.269164
489.921350	2554.478683
490.289315	2564.825651
490.657222	2569.886969
491.025070	2567.908317
491.392861	2566.930333
491.760593	2563.996381
492.128267	2558.688046
492.495883	2549.208156
492.863440	2547.116077
493.230939	2541.119625
493.598380	2537.429500
493.965763	2533.905734
494.333088	2532.796680
494.700354	2529.522451
495.067563	2532.257277
495.434713	2526.119672
495.801805	2532.436237
496.168839	2530.036648
496.535815	2537.048893
496.902733	2531.596885
497.269593	2530.583613
497.636395	2532.204344
498.003139	2532.196783
498.369825	2531.244005
498.736453	2534.283820
499.103023	2532.302647
499.469535	2530.944056
499.835989	2532.305167
500.202385	2534.651825
500.568723	2531.715353
500.935003	2535.919675
501.301226	2536.023018
501.667390	2540.638195
502.033497	2544.151879
502.399546	2543.756148
502.765537	2538.430169
503.131470	2540.217258
503.497345	2544.040974
503.863163	2543.015099
504.228923	2545.780172
504.594625	2548.600697
504.960269	2544.560212
505.325856	2552.167314
505.691385	2550.944834
506.056856	2552.774773
506.422270	2559.555125
506.787625	2557.757953
507.152924	2560.079405
507.518164	2564.104766
507.883347	2559.497151
508.248472	2564.939077
508.613540	2572.021898
508.978550	2572.848647
509.343503	2574.270253
509.708398	2578.827456
510.073236	2583.792992
510.438016	2585.945565
510.802738	2585.401120
511.167403	2589.451687
511.532010	2592.158787
511.896561	2597.446958
512.261053	2601.898296
512.625488	2600.244798
512.989866	2601.011053
513.354186	2602.777978
513.718449	2599.657503
514.082655	2612.076386
514.446803	2613.462703
514.810894	2615.872375
515.174927	2616.792385
515.538904	2618.196347
515.902822	2621.057202
516.266684	2622.821605
516.630488	2623.721451
516.994235	2626.141205
517.357925	2628.064405
517.721558	2631.391567
518.085133	2632.566156
518.448651	2636.341980
518.812112	2634.244860
519.175516	2636.772999
519.538863	2637.206538
519.902152	2642.020840
520.265385	2643.742394
520.628560	2645.799185
520.991678	2640.591673
521.354739	2645.196767
521.717743	2645.589977
522.080690	2647.951757
522.443580	2651.054587
522.806413	2652.259423
523.169189	2648.735657
523.531908	2648.249185
523.894569	2650.903353
524.257174	2649.559885
524.619722	2649.368322
524.982213	2652.082983
525.344647	2650.184988
525.707025	2650.651295
526.069345	2650.459731
526.431608	2648.355050
526.793815	2645.824390
527.155964	2646.356232
527.518057	2645.257261
527.880093	2646.401602
528.242072	2647.339257
528.603995	2642.993782
528.965860	2640.579070
529.327669	2641.859523
529.689421	2636.455406
530.051117	2635.938688
530.412755	2633.125724
530.774337	2630.806793
531.135862	2629.327214
531.497331	2629.543984
531.858743	2622.866976
532.220098	2621.644496
532.581396	2620.734568
532.942638	2616.686521
533.303824	2616.671398
533.664953	2614.158382
534.026025	2610.001951
534.387040	2610.254009
534.747999	2606.848709
535.108902	2603.972731
535.469748	2597.331011
535.830537	2596.232039
536.191270	2593.628283
536.551947	2589.474373
536.912567	2589.494537
537.273131	2583.944227
537.633638	2582.184864
537.994089	2578.905594
538.354483	2575.291086
538.714821	2572.951991
539.075103	2572.508369
539.435328	2566.040569
539.795497	2564.283727
540.155609	2557.528581
540.515665	2559.043447
540.875665	2551.423743
541.235609	2551.022972
541.595496	2547.927703
541.955328	2550.823846
542.315102	2540.600386
542.674821	2542.611807
543.034483	2535.634850
543.394090	2536.307844
543.753640	2530.689478
544.113134	2531.521268
544.472571	2526.316277
544.831953	2530.505476
545.191278	2523.737727
545.550548	2519.422499
545.909761	2519.823271
546.268918	2517.690863
546.628019	2518.351254
546.987064	2513.443690
547.346053	2510.408916
547.704986	2509.176354
548.063863	2509.115860
548.422684	2507.021260
548.781449	2503.462206
549.140158	2504.861126
549.498811	2503.079078
549.857408	2499.404077
550.215949	2499.492297
550.574434	2492.691781
550.932864	2496.969200
551.291237	2492.550628
551.649555	2492.548108
552.007817	2493.546256
552.366022	2492.800165
552.724173	2492.802686
553.082267	2491.867552
553.440305	2489.904022
553.798288	2491.958293
554.156215	2489.979640
554.514086	2486.360091
554.871902	2490.634990
555.229661	2487.655668
555.587365	2484.744402
555.945014	2484.222642
556.302606	2486.927221
556.660143	2487.811944
557.017625	2485.520739
557.375050	2486.438229
557.732421	2484.295739
558.089735	2486.312200
558.446994	2483.375728
558.804197	2483.897488
559.161345	2484.381438
559.518437	2482.271716
559.875474	2482.843887
560.232455	2481.979329
560.589381	2481.051756
560.946251	2485.001500
561.303065	2483.658033
561.659825	2482.937148
562.016528	2480.678711
562.373177	2481.835656
562.729770	2482.367498
563.086307	2481.008907
563.442789	2479.983032
563.799216	2479.889770
564.155587	2480.345995
564.511904	2481.167703
564.868164	2479.589822
565.224370	2483.171562
565.580520	2478.274081
565.936615	2478.881540
566.292654	2476.741570
566.648638	2482.072590
567.004567	2476.638226
567.360441	2477.071765
567.716260	2477.792650
568.072023	2475.113277
568.427732	2475.478761
568.783385	2475.690489
569.138982	2472.297793
569.494525	2476.038329
569.850013	2471.045066
570.205445	2475.284676
570.560823	2475.418267
570.916145	2476.837352
571.271412	2476.292907
571.626625	2475.299800
571.981782	2475.077989
572.336884	2473.926085
572.691931	2477.538072
573.046923	2476.197125
573.401860	2473.462299
573.756743	2473.963894
574.111570	2471.977679
574.466342	2475.975314
574.821059	2471.924747
575.175722	2473.379120
575.530330	2472.378451
575.884882	2472.290231
576.239380	2471.516414
576.593823	2472.998513
576.948211	2470.016671
577.302544	2469.691516
577.656823	2473.923565
578.011047	2472.567494
578.365216	2469.152113
578.719330	2472.000365
579.073389	2469.484829
579.427394	2473.031281
579.781344	2471.153451
580.135239	2468.761423
580.489080	2469.283183
580.842866	2465.814869
581.196597	2471.128245
581.550273	2466.712194
581.903895	2468.330405
582.257463	2469.084057
582.610975	2465.983747
582.964434	2467.740590
583.317837	2466.286217
583.671186	2464.652883
584.024481	2467.118007
584.377721	2465.905610
584.730906	2468.063223
585.084037	2467.276803
585.437113	2465.782101
585.790135	2466.601289
586.143103	2465.391412
586.496016	2467.753193
586.848874	2463.014508
587.201679	2464.068109
587.554428	2459.316822
587.907124	2462.575927
588.259765	2459.097531
588.612352	2465.426700
588.964884	2462.580969
589.317362	2463.521144
589.669786	2460.546863
590.022155	2466.392081
590.374470	2463.589199
590.726731	2464.867132
591.078937	2459.432768
591.431090	2464.317646
591.783188	2459.102573
592.135232	2460.635083
592.487222	2461.300516
592.839157	2460.504013
593.191038	2458.613581
593.542866	2459.382357
593.894639	2458.318673
594.246358	2460.753550
594.598022	2459.647017
594.949633	2459.969651
595.301190	2458.432099
595.652692	2460.647686
596.004141	2456.423199
596.355535	2459.538632
596.706876	2456.922273
597.058162	2458.462346
597.409395	2455.455298
597.760573	2457.204578
598.111698	2456.823971
598.462768	2457.481842
598.813785	2456.148456
599.164748	2459.626853
599.515657	2455.916563
599.866511	2457.776749
600.217312	2456.148456
600.568060	2456.045113
600.918753	2459.195834
601.269392	2455.009156
601.619978	2455.619135
601.970510	2455.311625
602.320988	2454.550411
602.671412	2455.306584
603.021783	2454.953703
603.372100	2456.027469
603.722363	2452.322221
604.072572	2456.360185
604.422728	2455.283898
604.772830	2451.288784
605.122878	2450.121757
605.472872	2451.734926
605.822813	2452.415482
606.172701	2455.959413
606.522534	2452.977571
606.872314	2456.735751
607.222041	2453.753908
607.571714	2457.622994
607.921333	2451.261058
608.270899	2454.605863
608.620411	2454.283229
608.969870	2456.922273
609.319276	2452.342385
609.668627	2455.830864
610.017926	2453.998404
610.367171	2456.428240
610.716362	2453.312807
611.065500	2452.617128
611.414585	2455.430092
611.763616	2454.205092
612.112594	2453.975719
612.461518	2455.566203
612.810389	2454.752057
613.159207	2453.166614
613.507971	2454.182406
613.856682	2456.060236
614.205340	2452.130657
614.553945	2458.606019
614.902496	2453.426233
615.250994	2455.916563
615.599439	2454.653754
615.947830	2451.800461
616.296169	2455.321707
616.644454	2455.475462
616.992686	2453.726182
617.340864	2454.588219
617.688990	2455.152828
618.037063	2458.149794
618.385082	2456.334979
618.733048	2456.322376
619.080961	2455.717438
619.428821	2456.221553
619.776628	2453.254834
620.124382	2457.456636
620.472083	2454.706686
620.819731	2458.275823
621.167326	2454.499999
621.514868	2456.622325
621.862357	2454.681481
622.209793	2453.138887
622.557176	2453.441357
622.904506	2452.148301
623.251783	2447.686880
623.599007	2448.954730
623.946179	2447.938937
624.293297	2448.785851
624.640363	2452.712910
624.987376	2446.484564
625.334336	2447.641509
625.681243	2448.319544
626.028097	2447.986828
626.374899	2449.733588
626.721647	2446.610593
627.068343	2448.697631
627.414987	2448.692590
627.761577	2450.373815
628.108115	2448.259051
628.454600	2449.965481
628.801032	2449.519339
629.147412	2446.784513
629.493739	2448.952209
629.840014	2447.444904
630.186236	2447.782662
630.532405	2446.756787
630.878521	2447.270984
631.224585	2447.369287
631.570597	2445.579677
631.916556	2447.787703
632.262462	2447.376849
632.608316	2445.461210
632.954117	2446.885336
633.299866	2443.999276
633.645562	2444.586570
633.991206	2444.465582
634.336797	2445.529266
634.682336	2445.927517
635.027823	2442.965839
635.373257	2444.634461
635.718639	2440.992227
636.063968	2443.328802
636.409245	2444.468103
636.754470	2441.332505
637.099642	2439.989038
637.444762	2441.776127
637.789829	2441.375355
638.134845	2441.408122
638.479808	2443.379214
638.824719	2442.418874
639.169577	2441.070365
639.514383	2441.629933
639.859137	2440.062134
640.203839	2438.761517
640.548489	2438.154058
640.893086	2439.106836
641.237632	2435.484767
641.582125	2437.055086
641.926566	2434.310178
642.270955	2439.646239
642.615292	2436.855961
642.959576	2436.492997
643.303809	2436.087185
643.647990	2438.844696
643.992118	2438.002823
644.336195	2439.401743
644.680219	2437.909562
645.024192	2436.918975
645.368112	2437.899479
645.711981	2440.606579
646.055797	2437.644901
646.399562	2439.384099
646.743274	2437.755807
647.086935	2441.037598
647.430544	2438.408636
647.774101	2440.427618
648.117606	2440.349480
648.461059	2444.306786
648.804460	2443.114553
649.147810	2441.481219
649.491108	2439.749583
649.834354	2440.127669
650.177548	2438.025508
650.520690	2439.888215
650.863781	2437.947370
651.206820	2439.003492
651.549807	2438.075920
651.892742	2436.472833
652.235626	2436.775302
652.578458	2438.174222
652.921238	2434.761361
653.263967	2438.143975
653.606644	2434.998295
653.949269	2433.634663
654.291843	2435.751948
654.634365	2437.070210
654.976836	2432.923861
655.319255	2435.835127
655.661622	2434.385795
656.003938	2434.983172
656.346203	2436.137596
656.688416	2436.765220
657.030577	2431.897986
657.372687	2434.496701
657.714746	2431.860177
658.056753	2433.196083
658.398708	2431.910589
658.740612	2432.235743
659.082465	2431.310691
659.424266	2429.818510
659.766016	2428.228026
660.107715	2432.752461
660.449362	2431.093922
660.790958	2432.480239
661.132503	2436.495518
661.473996	2433.705239
661.815438	2432.898655
662.156829	2431.519899
662.498168	2434.937802
662.839456	2433.367482
663.180693	2430.867070
663.521879	2435.520055
663.863013	2433.979982
664.204097	2433.284303
664.545129	2434.221958
664.886110	2434.577359
665.227040	2432.306319
665.567918	2433.483429
665.908746	2435.255394
666.249522	2433.367482
666.590248	2432.694488
666.930922	2435.588110
667.271545	2434.453851
667.612118	2435.759510
667.952639	2432.482760
668.293109	2436.598862
668.633528	2431.668613
668.973896	2434.731114
669.314213	2434.226999
669.654480	2432.356731
669.994695	2431.875301
670.334859	2431.368665
670.674973	2435.590631
671.015035	2435.031063
671.355047	2435.646084
671.695008	2432.389498
672.034918	2431.224992
672.374777	2433.795980
672.714585	2433.480908
673.054342	2435.898141
673.394049	2431.587955
673.733705	2432.550815
674.073310	2433.821186
674.412864	2432.991916
674.752368	2431.618202
675.091820	2431.529982
675.431223	2431.545105
675.770574	2432.132399
676.109875	2426.894641
676.449125	2429.553849
676.788324	2426.405649
677.127473	2430.241967
677.466571	2425.689805
677.805619	2430.723397
678.144616	2433.518717
678.483562	2430.068047
678.822458	2431.814807
679.161303	2430.607450
679.500098	2429.311874
679.838842	2430.526792
680.177535	2430.811617
680.516179	2432.855805
680.854771	2428.565783
681.193314	2429.586617
681.531805	2430.627615
681.870247	2432.061823
682.208638	2435.497370
682.546978	2433.438058
682.885268	2431.973603
683.223508	2432.971752
683.561697	2433.478387
683.899836	2434.418563
684.237925	2430.365475
684.575963	2432.845723
684.913951	2430.594847
685.251889	2431.184663
685.589776	2434.736155
685.927614	2431.784560
686.265401	2432.253387
686.603137	2429.571493
686.940824	2433.017122
687.278460	2433.518717
687.616046	2432.586103
687.953582	2436.102308
688.291068	2433.148192
688.628504	2433.400250
688.965889	2432.054262
689.303224	2434.637853
689.640510	2432.298757
689.977745	2432.666762
690.314930	2431.033428
690.652065	2432.533171
690.989150	2429.054775
691.326185	2430.541915
691.663170	2430.234405
692.000105	2428.119641
692.336990	2425.246183
692.673825	2425.977151
693.010610	2428.923705
693.347345	2425.566297
693.684030	2421.402303
694.020665	2425.079825
694.357251	2418.854000
694.693786	2427.789445
695.030272	2423.257448
695.366707	2423.070925
695.703093	2421.772828
696.039429	2420.290729
696.375716	2426.261976
696.711952	2425.528488
697.048139	2421.505647
697.384276	2424.384146
697.720363	2423.176790
698.056400	2423.209557
698.392388	2423.849784
698.728326	2420.815009
699.064214	2421.256110
699.400053	2421.712334
699.735842	2421.475400
700.071581	2418.465831
700.407270	2423.214598
700.742910	2418.808630
701.078501	2420.139494
701.414042	2423.053281
701.749533	2421.561100
702.084974	2419.627817
702.420366	2420.875503
702.755709	2419.927766
703.091002	2418.919535
703.426246	2420.502457
703.761440	2419.557241
704.096584	2419.259813
704.431679	2415.458783
704.766725	2420.270564
705.101721	2417.729823
705.436668	2416.940882
705.771565	2417.258475
706.106413	2419.771490
706.441212	2416.978691
706.775961	2417.031623
707.110661	2416.598084
707.445311	2420.018507
707.779913	2416.456932
708.114465	2419.552200
708.448967	2419.184196
708.783421	2419.259813
709.117825	2422.103024
709.452180	2420.235276
709.786485	2422.087900
710.120742	2422.682757
710.454949	2422.564289
710.789107	2420.893147
711.123216	2417.205543
711.457275	2423.275092
711.791286	2421.919022
712.125247	2421.147725
712.459159	2422.644948
712.793023	2425.031934
713.126837	2423.088569
713.460602	2424.789959
713.794318	2424.646286
714.127985	2422.975143
714.461602	2421.752664
714.795171	2420.726789
715.128691	2421.931625
715.462162	2423.247366
715.795584	2421.666964
716.128957	2420.656213
716.462281	2419.249731
716.795556	2419.680749
717.128782	2418.841397
717.461960	2419.511871
717.795088	2416.320820
718.128167	2419.310225
718.461198	2416.459452
718.794180	2419.985739
719.127113	2417.472724
719.459997	2419.123702
719.792833	2414.914338
720.125619	2415.063052
720.458357	2415.978022
720.791046	2417.891140
721.123686	2415.365522
721.456278	2418.264185
721.788821	2415.829308
722.121315	2417.452559
722.453761	2415.862075
722.786158	2416.101530
723.118506	2413.575912
723.450805	2417.203022
723.783056	2413.916190
724.115259	2416.829977
724.447412	2414.632034
724.779518	2418.226377
725.111574	2415.899884
725.443582	2416.295615
725.775542	2416.242682
726.107453	2416.880388
726.439315	2414.695048
726.771129	2422.070256
727.102895	2418.992632
727.434612	2418.513722
727.766281	2417.318969
728.097901	2412.633216
728.429473	2411.894687
728.760996	2417.649164
729.092471	2412.207239
729.423897	2418.881727
729.755276	2415.476427
730.086606	2415.680594
730.417887	2421.130081
730.749120	2420.147056
731.080305	2419.862231
731.411442	2418.879206
731.742530	2421.750143
732.073570	2418.014648
732.404562	2422.397931
732.735506	2422.264341
733.066401	2422.644948
733.397249	2419.070770
733.728048	2420.910791
734.058798	2416.658578
734.389501	2416.855183
734.720156	2417.901222
735.050762	2416.958526
735.381320	2417.734864
735.711831	2414.934503
736.042293	2416.086407
736.372707	2412.829821
736.703073	2414.102713
737.033391	2415.418454
737.363661	2413.543145
737.693883	2414.974832
738.024056	2414.518608
738.354182	2415.431057
738.684260	2415.350398
739.014290	2417.213105
739.344272	2417.165214
739.674207	2418.332241
740.004093	2415.373083
740.333931	2419.035482
740.663722	2416.386355
740.993464	2417.311407
741.323159	2416.524987
741.652806	2415.809143
741.982405	2416.774524
742.311956	2418.299473
742.641460	2416.388876
742.970915	2415.541962
743.300323	2416.093968
743.629683	2413.901067
743.958996	2413.281005
744.288260	2412.532393
744.617477	2415.355439
744.946647	2410.291600
745.275768	2411.690521
745.604842	2410.682290
745.933869	2409.326219
746.262847	2410.531055
746.591778	2413.225552
746.920662	2410.480644
747.249498	2413.341498
747.578286	2412.000552
747.907027	2412.615572
748.235720	2412.350912
748.564365	2413.543145
748.892963	2415.380645
749.221514	2412.713875
749.550017	2412.408885
749.878473	2413.417116
750.206881	2414.296797
750.535242	2411.438463
750.863555	2410.878895
751.191821	2412.073648
751.520039	2411.725809
751.848210	2413.833011
752.176334	2411.602300
752.504411	2412.091292
752.832440	2408.078534
753.160421	2411.947619
753.488356	2412.877712
753.816243	2412.355953
754.144082	2409.802608
754.471875	2412.683628
754.799620	2412.202198
755.127318	2414.231262
755.454969	2410.989800
755.782572	2412.928124
756.110129	2411.690521
756.437638	2415.040367
756.765100	2412.368556
757.092515	2411.514080
757.419882	2411.940058
757.747203	2414.644637
758.074477	2412.870151
758.401703	2414.823598
758.728882	2414.833680
759.056014	2417.001376
759.383099	2413.021385
759.710138	2414.684966
760.037129	2413.863258
760.364073	2413.268402
760.690970	2413.649009
761.017820	2411.751014
761.344623	2412.250089
761.671379	2415.173958
761.998088	2412.497105
762.324751	2416.323341
762.651366	2416.971129
762.977935	2424.835329
763.304456	2425.435227
763.630931	2431.557708
763.957359	2430.461257
764.283740	2426.514033
764.610074	2425.157963
764.936362	2421.903898
765.262602	2420.323497
765.588796	2415.983063
765.914943	2412.587846
766.241044	2412.577764
766.567097	2412.587846
766.893104	2412.124060
767.219064	2412.366035
767.544978	2410.624317
767.870845	2408.746487
768.196665	2407.488719
768.522438	2407.675242
768.848165	2409.164902
769.173846	2409.822773
769.499479	2408.381003
769.825066	2408.358318
770.150607	2408.166754
770.476101	2408.590211
770.801548	2410.369738
771.126949	2408.002917
771.452303	2407.897052
771.777611	2407.914696
772.102872	2406.966959
772.428087	2407.211455
772.753256	2407.080385
773.078378	2404.453944
773.403453	2407.466034
773.728482	2402.737431
774.053465	2407.503842
774.378401	2407.473595
774.703291	2406.588873
775.028135	2402.830693
775.352932	2407.012330
775.677683	2407.367731
776.002388	2406.949315
776.327046	2404.398492
776.651658	2405.124418
776.976224	2406.379665
777.300743	2403.796074
777.625216	2405.550395
777.949643	2404.716084
778.274024	2405.918399
778.598359	2400.720970
778.922647	2403.934705
779.246889	2403.170971
779.571086	2400.229457
779.895236	2403.231464
780.219339	2407.052659
780.543397	2402.934036
780.867409	2406.745149
781.191374	2405.366393
781.515294	2406.397309
781.839167	2406.934192
782.162995	2406.157854
782.486776	2404.597617
782.810511	2404.022926
783.134201	2407.181208
783.457844	2406.684655
783.781441	2404.569891
784.104993	2404.116187
784.428498	2406.946795
784.751958	2404.930333
785.075372	2404.963101
785.398739	2403.657442
785.722061	2404.847154
786.045337	2401.807338
786.368568	2405.991496
786.691752	2402.364386
787.014891	2403.972514
787.337983	2406.823287
787.661030	2405.641136
787.984031	2406.268760
788.306987	2408.323030
788.629897	2406.198183
788.952760	2408.020561
789.275579	2408.270098
789.598351	2406.898904
789.921078	2406.724984
790.243759	2407.977711
790.566395	2407.730694
790.888984	2405.182391
791.211529	2405.784809
791.534027	2404.519479
791.856480	2403.176012
792.178888	2406.379665
792.501249	2403.412946
792.823566	2405.010992
793.145836	2404.998389
793.468062	2406.102402
793.790241	2402.298851
794.112375	2407.677762
794.434464	2405.038718
794.756507	2406.480488
795.078505	2404.814387
795.400457	2404.401012
795.722364	2401.527554
796.044226	2403.438152
796.366042	2401.885476
796.687812	2400.531927
797.009538	2409.076682
797.331218	2404.847154
797.652852	2407.287073
797.974442	2404.902607
798.295986	2406.919068
798.617484	2406.929151
798.938938	2406.314130
799.260346	2406.914027
799.581709	2404.572411
799.903026	2404.600138
800.224299	2406.646846
800.545526	2405.384037
800.866708	2405.013512
801.187845	2402.429921
801.508936	2402.573594
801.829983	2404.249778
802.150984	2402.835734
802.471940	2402.334139
802.792851	2404.224572
803.113717	2401.777092
803.434538	2403.904458
803.755314	2405.303379
804.076045	2401.905641
804.396731	2403.584345
804.717372	2404.711043
805.037967	2404.257339
805.358518	2401.610733
805.679024	2403.536454
805.999485	2402.634088
806.319901	2404.544685
806.640272	2404.269942
806.960598	2401.857750
807.280879	2402.775240
807.601115	2403.425549
807.921306	2401.893038
808.241453	2404.678276
808.561554	2404.658111
808.881611	2404.748852
809.201623	2406.568708
809.521590	2404.118708
809.841513	2402.931516
810.161390	2405.099212
810.481223	2402.535785
810.801011	2404.206928
811.120755	2404.733728
811.440453	2402.571073
811.760107	2403.029818
812.079716	2397.550084
812.399281	2399.778274
812.718801	2400.441186
813.038276	2400.027811
813.357707	2403.465878
813.677093	2401.492266
813.996434	2404.337998
814.315731	2402.891187
814.634983	2402.878584
814.954191	2402.190466
815.273354	2404.950498
815.592473	2406.256157
815.911547	2404.335477
816.230577	2405.779768
816.549562	2406.903945
816.868502	2405.076527
817.187399	2406.351939
817.506250	2406.399830
817.825058	2405.447052
818.143821	2406.014181
818.462539	2405.109294
818.781213	2409.663977
819.099843	2405.522669
819.418429	2409.646333
819.736970	2414.024575
820.055466	2412.860068
820.373919	2417.013979
820.692327	2420.018507
821.010691	2425.117634
821.329011	2444.858792
821.647286	2472.202011
821.965517	2499.520023
822.283704	2517.176665
822.601847	2524.715710
822.919945	2511.016375
823.237999	2496.341576
823.556010	2480.517394
823.873976	2469.000878
824.191897	2457.610391
824.509775	2448.251489
824.827609	2440.006682
825.145398	2437.675148
825.463144	2432.553336
825.780845	2434.174067
826.098502	2436.790426
826.416116	2442.358380
826.733685	2452.360029
827.051210	2451.268619
827.368692	2445.466251
827.686129	2442.933072
828.003522	2432.087029
828.320872	2423.506985
828.638177	2420.820050
828.955439	2414.415264
829.272656	2412.875192
829.589830	2408.360838
829.906960	2412.355953
830.224046	2409.232958
830.541088	2406.810684
830.858086	2406.109963
831.175041	2405.583163
831.491952	2405.540313
831.808819	2407.743297
832.125642	2407.602145
832.442421	2410.029460
832.759157	2408.955695
833.075849	2418.506161
833.392497	2422.264341
833.709101	2426.057809
834.025662	2424.336255
834.342179	2424.555545
834.658653	2421.170410
834.975083	2415.131108
835.291469	2419.446336
835.607811	2409.376631
835.924110	2407.077865
836.240366	2407.307237
836.556578	2407.098029
836.872746	2406.755231
837.188871	2403.347411
837.504952	2403.140724
837.820990	2405.638615
838.136984	2403.586866
838.452935	2401.963614
838.768842	2400.410939
839.084706	2403.750703
839.400526	2410.057187
839.716303	2404.456465
840.032037	2413.044070
840.347727	2408.985942
840.663373	2409.336302
840.978977	2404.174160
841.294537	2404.416136
841.610054	2404.728687
841.925527	2403.329767
842.240957	2405.389078
842.556344	2403.070148
842.871687	2401.467061
843.186987	2401.036042
843.502244	2399.004457
843.817458	2399.453120
844.132629	2401.749365
844.447756	2397.129148
844.762840	2394.343910
845.077881	2394.762326
845.392879	2394.167470
845.707833	2397.280382
846.022745	2395.039589
846.337613	2397.852553
846.652438	2398.558315
846.967221	2400.166443
847.281960	2397.529919
847.596656	2396.267110
847.911309	2399.395146
848.225919	2397.807183
848.540485	2399.876577
848.855009	2397.867677
849.169490	2399.382543
849.483928	2395.813407
849.798323	2394.626215
850.112675	2398.336504
850.426984	2397.373644
850.741251	2398.361710
851.055474	2398.946484
851.369654	2398.394477
851.683792	2396.441030
851.997887	2396.428427
852.311938	2398.044117
852.625947	2399.904303
852.939914	2400.446227
853.253837	2398.419683
853.567718	2395.810886
853.881555	2397.179559
854.195350	2395.783160
854.509103	2397.429096
854.822812	2398.086967
855.136479	2401.842627
855.450103	2398.661658
855.763685	2397.179559
856.077224	2396.940104
856.390720	2397.416493
856.704173	2397.577810
857.017584	2397.872718
857.330953	2398.512944
857.644278	2395.914230
857.957561	2402.981927
858.270802	2397.504714
858.584000	2398.152502
858.897155	2399.138048
859.210268	2396.889693
859.523339	2396.872049
859.836367	2397.844992
860.149352	2398.034035
860.462295	2396.630073
860.775195	2399.740465
861.088054	2394.104455
861.400869	2394.064126
861.713642	2393.872562
862.026373	2396.826678
862.339062	2397.086298
862.651708	2397.976062
862.964312	2397.630743
863.276873	2393.867521
863.589392	2400.017729
863.901869	2400.673079
864.214303	2396.546894
864.526696	2399.236350
864.839045	2396.123437
865.151353	2399.120403
865.463619	2399.765671
865.775842	2400.761299
866.088023	2399.846330
866.400162	2398.137378
866.712258	2398.281051
867.024313	2397.537481
867.336325	2398.081926
867.648296	2396.211658
867.960224	2395.856256
868.272110	2398.197872
868.583954	2396.670403
868.895755	2398.686864
869.207515	2399.223747
869.519233	2398.233160
869.830909	2397.287944
870.142542	2399.788356
870.454134	2399.538819
870.765684	2399.475805
871.077191	2398.119734
871.388657	2400.405898
871.700081	2398.487739
872.011463	2397.277862
872.322803	2397.250135
872.634101	2401.182235
872.945357	2397.320712
873.256571	2397.587893
873.567744	2400.461350
873.878874	2400.315157
874.189963	2401.938408
874.501010	2400.136196
874.812015	2399.208624
875.122979	2399.125445
875.433900	2401.197359
875.744780	2399.753068
876.055618	2396.652759
876.366415	2401.031001
876.677169	2397.933212
876.987882	2397.310629
877.298554	2397.038407
877.609183	2398.535630
877.919771	2396.640156
878.230317	2397.476987
878.540822	2401.983779
878.851285	2402.296330
879.161707	2403.390261
879.472087	2409.225396
879.782425	2409.573236
880.092722	2418.115471
880.402977	2426.826585
880.713191	2437.085333
881.023363	2449.133691
881.333494	2457.247428
881.643583	2458.366564
881.953631	2455.430092
882.263637	2451.495471
882.573602	2451.316510
882.883526	2442.113884
883.193408	2438.088523
883.503248	2435.658687
883.813048	2430.045362
884.122806	2426.690474
884.432522	2421.495565
884.742197	2418.624628
885.051831	2414.974832
885.361424	2412.333268
885.670975	2407.251785
885.980485	2409.530386
886.289954	2406.669531
886.599382	2405.590724
886.908768	2404.075858
887.218113	2403.901938
887.527417	2405.147103
887.836680	2401.192318
888.145901	2404.285066
888.455082	2402.500497
888.764221	2398.187790
889.073319	2400.612585
889.382376	2399.732904
889.691392	2401.431773
890.000366	2400.242060
890.309300	2400.582338
890.618193	2402.084602
890.927044	2400.360527
891.235855	2400.811711
891.544625	2399.354817
891.853353	2400.244581
892.162041	2400.746176
892.470687	2403.223903
892.779293	2403.405384
893.087858	2400.947822
893.396381	2400.559653
893.704864	2404.716084
894.013306	2405.003430
894.321707	2412.570202
894.630068	2414.445511
894.938387	2419.970616
895.246665	2415.327713
895.554903	2415.564647
895.863100	2412.265212
896.171256	2412.398803
896.479371	2410.001734
896.787446	2407.425704
897.095480	2406.225910
897.403473	2405.187432
897.711425	2406.261198
898.019336	2405.172309
898.327207	2401.512431
898.635038	2400.904972
898.942827	2402.548388
899.250576	2400.136196
899.558284	2399.216185
899.865952	2399.624519
900.173579	2399.006977
900.481165	2400.214334
900.788711	2401.754406
901.096216	2398.623850
901.403681	2399.327091
901.711105	2398.465053
902.018489	2398.671741
902.325832	2399.896741
902.633135	2398.689385
902.940397	2399.584190
903.247619	2402.692061
903.554800	2406.873698
903.861941	2415.380645
904.169041	2418.528846
904.476101	2417.903743
904.783121	2417.147570
905.090100	2416.809812
905.397039	2411.367887
905.703938	2413.031467
906.010796	2408.698596
906.317614	2410.553740
906.624391	2403.924623
906.931129	2403.975035
907.237826	2402.366907
907.544483	2399.889179
907.851099	2401.454458
908.157675	2399.145609
908.464211	2398.649056
908.770707	2390.205123
909.077163	2396.372975
909.383578	2392.781153
909.689954	2395.571431
909.996289	2391.102448
910.302584	2397.056051
910.608839	2400.650394
910.915054	2398.341545
911.221229	2396.080588
911.527363	2396.935063
911.833458	2393.696122
912.139513	2396.602347
912.445527	2397.842471
912.751502	2398.071843
913.057436	2394.837943
913.363331	2397.640825
913.669186	2398.838099
913.975000	2398.560835
914.280775	2401.250291
914.586510	2404.927813
914.892205	2403.254150
915.197859	2409.217835
915.503475	2411.998031
915.809050	2415.448701
916.114585	2417.979360
916.420081	2419.826943
916.725536	2420.794844
917.030952	2418.518763
917.336328	2417.200502
917.641665	2416.144380
917.946961	2411.418298
918.252218	2414.637075
918.557435	2410.218504
918.862612	2409.704306
919.167750	2407.019892
919.472848	2403.813718
919.777906	2405.779768
920.082925	2404.272463
920.387904	2400.839437
920.692843	2400.206772
920.997743	2399.483367
921.302603	2399.155692
921.607423	2400.864643
921.912204	2398.049158
922.216946	2397.045969
922.521647	2399.604354
922.826310	2400.884807
923.130932	2394.427089
923.435516	2396.960269
923.740059	2395.420197
924.044564	2396.927502
924.349028	2396.637635
924.653454	2391.384753
924.957840	2395.331976
925.262186	2392.171173
925.566493	2393.766698
925.870761	2392.450957
926.174989	2393.214692
926.479178	2390.416851
926.783328	2394.381719
927.087438	2394.427089
927.391509	2395.110166
927.695541	2395.631925
927.999533	2392.672768
928.303486	2395.246277
928.607400	2393.562531
928.911275	2397.459343
929.215110	2396.922460
929.518906	2394.353992
929.822663	2395.619322
930.126381	2392.932387
930.430060	2391.321738
930.733699	2393.171842
931.037299	2393.353323
931.340861	2391.737634
931.644383	2394.187634
931.947866	2394.462377
932.251309	2393.128992
932.554714	2396.178890
932.858080	2393.635628
933.161407	2395.815927
933.464694	2393.176883
933.767943	2394.212840
934.071153	2393.484393
934.374323	2394.447254
934.677455	2392.975237
934.980548	2394.754764
935.283602	2392.856770
935.586617	2392.745864
935.889593	2392.231667
936.192530	2392.637480
936.495428	2393.408776
936.798287	2392.413148
937.101108	2397.897924
937.403890	2392.302243
937.706632	2395.337018
938.009336	2396.178890
938.312002	2395.079919
938.614628	2392.516492
938.917216	2395.964641
939.219765	2393.887686
939.522275	2396.549415
939.824747	2395.173180
940.127179	2394.409445
940.429573	2393.239898
940.731929	2395.382388
941.034246	2396.625032
941.336524	2394.853067
941.638763	2395.168139
941.940964	2396.572100
942.243126	2393.345762
942.545250	2393.623025
942.847335	2394.112017
943.149381	2392.705535
943.451389	2393.111348
943.753359	2391.379712
944.055290	2394.656462
944.357182	2393.686040
944.659036	2393.645710
944.960851	2393.060937
945.262628	2393.098745
945.564367	2395.387429
945.866067	2395.946997
946.167729	2396.509086
946.469352	2394.658982
946.770937	2393.910371
947.072484	2393.638149
947.373992	2391.989691
947.675462	2394.091853
947.976893	2395.238715
948.278286	2393.144116
948.579641	2395.221071
948.880958	2392.894578
949.182236	2392.569424
949.483476	2391.230998
949.784678	2395.465567
950.085841	2396.420866
950.386967	2397.557646
950.688054	2395.415155
950.989103	2392.108158
951.290114	2394.873231
951.591087	2393.774260
951.892021	2396.173849
952.192917	2393.496996
952.493776	2395.437841
952.794596	2395.357182
953.095378	2391.450288
953.396122	2393.207130
953.696828	2392.241749
953.997496	2392.024979
954.298126	2392.163611
954.598718	2394.953890
954.899272	2393.786863
955.199788	2393.575134
955.500266	2392.289640
955.800706	2394.694270
956.101108	2387.911398
956.401472	2389.688405
956.701798	2387.021634
957.002087	2388.347458
957.302337	2393.312994
957.602550	2392.942469
957.902724	2394.056564
958.202861	2393.093704
958.502960	2392.171173
958.803022	2393.106307
959.103045	2393.786863
959.403031	2392.214023
959.702979	2392.889537
960.002889	2393.738972
960.302762	2390.757129
960.602596	2391.210833
960.902393	2394.462377
961.202153	2391.840977
961.501875	2393.582696
961.801559	2393.212171
962.101205	2391.596481
962.400814	2390.898282
962.700385	2393.345762
962.999918	2394.689229
963.299414	2392.657644
963.598873	2390.699156
963.898293	2393.897768
964.197677	2392.186296
964.497022	2392.690412
964.796331	2393.643190
965.095601	2391.246121
965.394835	2389.862324
965.694030	2393.073539
965.993189	2391.858621
966.292309	2393.156718
966.591393	2393.376009
966.890439	2392.592109
967.189447	2394.119579
967.488419	2391.490617
967.787353	2392.052706
968.086249	2390.114382
968.385108	2393.181924
968.683930	2391.722510
968.982714	2392.534136
969.281462	2392.856770
969.580172	2392.569424
969.878844	2390.167314
970.177480	2390.681512
970.476078	2392.082953
970.774639	2393.421379
971.073162	2391.220915
971.371649	2390.195041
971.670098	2390.583209
971.968510	2390.066491
972.266885	2385.640358
972.565223	2391.682181
972.863524	2389.615308
973.161788	2391.311656
973.460014	2393.683519
973.758204	2395.389950
974.056356	2393.554970
974.354471	2394.175032
974.652550	2390.678991
974.950591	2393.174362
975.248595	2391.651934
975.546563	2391.982130
975.844493	2392.524054
976.142386	2392.511451
976.440243	2388.723024
976.738062	2393.149157
977.035845	2391.939280
977.333590	2393.315515
977.631299	2389.738816
977.928971	2391.818292
978.226606	2391.432644
978.524204	2391.810730
978.821765	2389.942983
979.119290	2391.190668
979.416777	2392.992881
979.714228	2392.047665
980.011642	2388.307128
980.309020	2394.066647
980.606360	2388.765873
980.903664	2393.940618
981.200931	2391.878786
981.498162	2391.107489
981.795356	2394.480021
982.092513	2393.128992
982.389633	2390.575648
982.686717	2392.519013
982.983764	2394.333828
983.280775	2395.107645
983.577749	2392.705535
983.874686	2391.331821
984.171587	2394.434651
984.468451	2392.632438
984.765279	2395.407594
985.062070	2395.833571
985.358824	2393.691081
985.655543	2392.924825
985.952224	2392.070350
986.248869	2390.416851
986.545478	2389.259907
986.842050	2389.028013
987.138586	2386.845194
987.435086	2386.383928
987.731549	2387.571120
988.027975	2389.232180
988.324366	2392.269475
988.620719	2389.169166
988.917037	2390.845349
989.213318	2387.319062
989.509563	2390.500030
989.805772	2392.229146
990.101944	2390.449619
990.398080	2390.366440
990.694180	2388.773435
990.990244	2389.569938
991.286271	2389.736296
991.582262	2391.173024
991.878217	2389.083466
992.174136	2392.922305
992.470019	2389.131357
992.765865	2392.614794
993.061676	2390.651265
993.357450	2389.388456
993.653188	2390.260576
993.948890	2394.893396
994.244556	2389.249824
994.540186	2389.338044
994.835780	2391.435164
995.131337	2390.631100
995.426859	2391.256203
995.722345	2394.442213
996.017795	2389.219577
996.313208	2391.767881
996.608586	2392.355175
996.903928	2390.119423
997.199234	2392.014897
997.494504	2392.004815
997.789738	2392.869373
998.084936	2392.965155
998.380099	2392.151008
998.675225	2394.311143
998.970316	2393.111348
999.265371	2391.843498
999.560390	2391.278889
999.855373	2391.412479
1000.150320	2390.968858
1000.445232	2393.255021
1000.740108	2391.621687
1001.034948	2392.466080
1001.329752	2389.784187
1001.624521	2391.104969
1001.919254	2384.357384
1002.213951	2389.993394
1002.508613	2386.381408
1002.803239	2387.467776
1003.097829	2384.153218
1003.392384	2392.564383
1003.686903	2391.906512
1003.981386	2389.227139
1004.275834	2388.964999
1004.570246	2389.554814
1004.864623	2389.753940
1005.158964	2391.493138
1005.453270	2388.634803
1005.747540	2390.126985
1006.041775	2390.265617
1006.335974	2390.767212
1006.630138	2388.793600
1006.924266	2392.203940
1007.218359	2390.114382
1007.512416	2387.414844
1007.806438	2387.941645
1008.100425	2392.201420
1008.394376	2387.765204
1008.688292	2390.865514
1008.982172	2387.722355
1009.276017	2388.423075
1009.569827	2389.912736
1009.863602	2391.283930
1010.157341	2389.574979
1010.451045	2392.710576
1010.744714	2387.666902
1011.038347	2389.716131
1011.331945	2389.363250
1011.625508	2392.287119
1011.919036	2390.764691
1012.212528	2388.609598
1012.505986	2391.026831
1012.799408	2389.169166
1013.092795	2388.123126
1013.386147	2387.886192
1013.679464	2388.808723
1013.972745	2391.026831
1014.265992	2387.729916
1014.559204	2389.577499
1014.852380	2388.259238
1015.145521	2394.734600
1015.438628	2390.134547
1015.731699	2389.136398
1016.024736	2388.987684
1016.317737	2389.333003
1016.610703	2391.495658
1016.903635	2389.053219
1017.196531	2385.748743
1017.489393	2386.719165
1017.782219	2388.957437
1018.075011	2388.143291
1018.367768	2387.349309
1018.660490	2389.963148
1018.953177	2389.963148
1019.245829	2389.963148
