Dividing Wavelength (nm)	Counts (n)	Blue Motor Position (mm): 0.000000	Red Motor Position (mm): 49.800000	
326.493990	1999.303971
326.888308	1999.303971
327.282561	1999.303971
327.676750	1972.903449
328.070874	1976.787658
328.464933	1983.378966
328.858929	1993.042858
329.252859	2005.665907
329.646726	2020.844822
330.040528	2036.883253
330.434265	2055.850594
330.827938	2073.638305
331.221547	2095.988261
331.615091	2113.614655
332.008571	2134.590897
332.401986	2153.618732
332.795338	2178.703513
333.188625	2199.183201
333.581847	2214.415047
333.975006	2234.476319
334.368100	2249.919894
334.761129	2268.057965
335.154095	2281.656478
335.546996	2325.295226
335.939833	2413.754873
336.332606	2429.301792
336.725315	2439.129521
337.117960	2449.358022
337.510540	2454.986470
337.903056	2467.390229
338.295508	2475.070427
338.687896	2480.416571
339.080220	2489.039465
339.472480	2495.600526
339.864676	2495.978613
340.256807	2501.140754
340.648875	2500.205620
341.040879	2502.816938
341.432818	2502.280055
341.824694	2503.976403
342.216506	2503.437000
342.608253	2501.382730
342.999937	2500.550939
343.391557	2504.041938
343.783113	2501.954901
344.174605	2498.476505
344.566033	2497.178408
344.957397	2496.691936
345.348697	2495.986175
345.739934	2492.943838
346.131106	2493.314363
346.522215	2491.549959
346.913260	2488.850421
347.304241	2487.000318
347.695159	2486.808754
348.086012	2486.274392
348.476802	2484.749443
348.867528	2482.690131
349.258191	2480.527476
349.648789	2480.789616
350.039324	2479.698207
350.429796	2480.212404
350.820203	2479.481437
351.210548	2479.168885
351.600828	2475.032619
351.991045	2475.836683
352.381198	2477.664101
352.771288	2476.106384
353.161314	2476.081179
353.551276	2475.181333
353.941175	2475.882053
354.331010	2475.125880
354.720782	2477.480099
355.110490	2481.558392
355.500135	2477.107053
355.889717	2477.543113
356.279235	2478.269039
356.668689	2478.558906
357.058080	2479.650316
357.447408	2478.342136
357.836672	2475.493884
358.225873	2476.227372
358.615010	2478.153093
359.004084	2484.227683
359.393095	2486.476038
359.782043	2483.403455
360.170927	2486.375215
360.559748	2484.315903
360.948505	2486.173569
361.337199	2490.203971
361.725830	2491.567603
362.114398	2495.408963
362.502903	2489.687253
362.891344	2491.537356
363.279722	2491.297902
363.668037	2493.258910
364.056289	2491.983498
364.444478	2494.350320
364.832603	2495.872749
365.220665	2499.847698
365.608665	2497.160763
365.996601	2497.808552
366.384474	2498.461381
366.772284	2499.454488
367.160031	2498.690754
367.547715	2500.324088
367.935336	2504.480519
368.322893	2503.278204
368.710388	2504.707371
369.097820	2513.179030
369.485189	2511.681807
369.872495	2513.053001
370.259738	2508.561333
370.646918	2514.588032
371.034035	2516.203722
371.421090	2520.949968
371.808081	2523.740247
372.195010	2528.131092
372.581875	2533.857843
372.968678	2541.676673
373.355418	2548.245296
373.742096	2559.424055
374.128710	2571.449727
374.515262	2584.488672
374.901751	2598.926536
375.288177	2619.721296
375.674540	2638.338277
376.060841	2660.526916
376.447079	2681.914011
376.833254	2706.882846
377.219367	2732.675909
377.605417	2768.810900
377.991404	2795.213943
378.377329	2840.208762
378.763191	2872.686396
379.148991	2920.539549
379.534727	2977.370997
379.920402	3020.374559
380.306013	3073.851119
380.691563	3138.375368
381.077049	3198.186138
381.462474	3255.315014
381.847835	3330.498782
382.233134	3407.741862
382.618371	3465.808393
383.003545	3557.433884
383.388657	3641.623674
383.773706	3735.724373
384.158693	3810.930826
384.543618	3909.371958
384.928480	3986.146210
385.313280	4097.439764
385.698017	4206.343810
386.082692	4331.891226
386.467305	4392.422881
386.851856	4527.954302
387.236344	4684.812325
387.620770	4753.009054
388.005133	4878.735431
388.389435	5031.406775
388.773674	5117.512203
389.157851	5248.148664
389.541965	5387.723091
389.926018	5416.187966
390.310008	5600.237972
390.693936	5729.921655
391.077802	5845.848029
391.461606	5985.268700
391.845348	6107.955261
392.229027	6224.869701
392.612645	6456.188087
392.996200	6576.636376
393.379694	6756.555156
393.763125	6985.597461
394.146494	7088.147133
394.529801	7227.247691
394.913047	7480.971485
395.296230	7476.797409
395.679351	7533.701954
396.062410	7810.252092
396.445408	7704.085392
396.828343	7863.010288
397.211217	8003.852564
397.594028	7888.415182
397.976778	8090.958662
398.359466	8267.903162
398.742092	8231.256494
399.124656	8389.644507
399.507158	8581.639371
399.889598	8602.691230
400.271977	8811.853744
400.654294	8858.323100
401.036549	9059.346672
401.418742	9081.023633
401.800874	9402.003981
402.182944	9474.820928
402.564952	9858.450215
402.946898	9670.405094
403.328783	9733.182583
403.710606	9930.768087
404.092367	10204.427124
404.474067	10571.881869
404.855705	10358.535197
405.237282	10307.128030
405.618797	10750.870557
406.000250	11004.944710
406.381642	11378.809283
406.762972	11331.717344
407.144240	11125.632454
407.525447	11386.769264
407.906593	11316.034314
408.287677	11588.354924
408.668700	11759.431521
409.049661	11726.903476
409.430560	11890.904814
409.811399	11857.219824
410.192176	12022.877180
410.572891	12095.863006
410.953545	12610.587498
411.334138	12060.345556
411.714669	12695.901466
412.095139	11962.731174
412.475547	12498.691527
412.855894	12331.330261
413.236180	12678.421265
413.616405	12342.456087
413.996568	12638.301242
414.376670	12611.331069
414.756711	12481.173518
415.136691	12780.282819
415.516609	12959.684882
415.896466	13041.182695
416.276262	13329.249350
416.655997	13774.015230
417.035670	13798.530361
417.415283	14469.407115
417.794834	14584.809209
418.174324	14307.097085
418.553753	14207.672928
418.933121	14715.697727
419.312428	14512.879505
419.691674	14427.915898
420.070859	14887.071752
420.449983	14548.495257
420.829045	15113.558192
421.208047	14843.228837
421.586988	15321.591487
421.965867	15590.433702
422.344686	15581.142855
422.723444	16157.303890
423.102141	14817.972657
423.480777	16032.006011
423.859352	15536.432862
424.237866	16676.073909
424.616319	16364.669233
424.994712	17043.281637
425.373044	16823.021023
425.751314	17540.155404
426.129524	16624.550796
426.507673	17766.669570
426.885762	17431.531142
427.263789	17657.442890
427.641756	17829.026122
428.019662	17886.154998
428.397508	17928.329292
428.775292	18244.520543
429.153016	18204.549234
429.530679	18287.642573
429.908282	18312.253486
430.285824	18023.473509
430.663305	18749.124920
431.040726	18338.280963
431.418086	18159.632553
431.795385	18826.514193
432.172624	19250.722248
432.549802	18791.256363
432.926920	18979.513212
433.303977	18864.872332
433.680974	19130.767992
434.057910	19426.267828
434.434786	19449.883113
434.811601	19353.372743
435.188355	20435.378278
435.565050	20070.305478
435.941683	20011.281129
436.318257	20919.263512
436.694770	20721.471321
437.071222	21340.008295
437.447614	20383.618231
437.823946	20410.971532
438.200218	20562.533822
438.576429	20344.849237
438.952580	20622.745364
439.328670	20578.841955
439.704700	21015.887308
440.080670	20561.996939
440.456580	21173.710712
440.832429	21354.143690
441.208218	20312.427057
441.583947	20779.031215
441.959616	20882.541227
442.335224	21120.108123
442.710773	21260.612642
443.086261	21807.721508
443.461689	21159.232518
443.837057	21280.603338
444.212365	21948.893980
444.587612	21948.533537
444.962800	21511.576404
445.337927	21957.300104
445.712995	20642.564660
446.088002	22557.111712
446.462949	22750.709664
446.837837	22946.039252
447.212664	22898.075193
447.587431	25818.521481
447.962139	28812.004005
448.336786	31219.510368
448.711374	29607.757701
449.085901	25847.624062
449.460369	25798.671937
449.834776	25741.404430
450.209124	28285.946998
450.583412	27784.321944
450.957640	28308.357448
451.331808	26930.607581
451.705917	25549.313783
452.079965	25605.051301
452.453954	25955.156915
452.827883	25835.371538
453.201752	25625.896472
453.575562	25803.813914
453.949311	26961.262838
454.323001	27019.959512
454.696632	26774.004137
455.070202	28369.743578
455.443713	28502.789710
455.817164	29105.895712
456.190556	29649.115328
456.563888	29075.139633
456.937160	29526.292655
457.310373	27812.378485
457.683526	28297.231621
458.056619	28284.366597
458.429653	28202.309215
458.802628	28808.031576
459.175542	28922.291848
459.548398	30241.821429
459.921194	31855.638448
460.293930	32517.002545
460.666607	34572.880865
461.039224	36373.404579
461.411782	36756.549915
461.784280	35552.508127
462.156719	35071.786217
462.529099	34522.978483
462.901419	33218.511870
463.273680	32137.126397
463.645882	32220.560013
464.018024	32207.332026
464.390106	33056.516912
464.762130	35816.568807
465.134094	39935.778794
465.505999	45276.409946
465.877845	49881.630013
466.249631	51052.755587
466.621358	49368.475840
466.993026	47279.640976
467.364634	45209.523917
467.736184	43210.076272
468.107674	41942.165586
468.479105	41144.516416
468.850477	40427.969329
469.221790	38966.501020
469.593043	37194.301030
469.964238	36300.219628
470.335373	36208.387449
470.706449	37991.589757
471.077467	40642.551084
471.448425	45236.952835
471.819324	48041.694559
472.190164	46156.174471
472.560945	42559.386819
472.931667	39437.150705
473.302330	38299.586613
473.672934	37482.546645
474.043479	37991.788883
474.413965	37174.338061
474.784393	36787.008567
475.154761	37715.853766
475.525070	37740.043742
475.895321	37266.684437
476.265513	37861.280972
476.635645	38851.499698
477.005719	38681.524593
477.375734	39179.275521
477.745691	39872.812262
478.115588	41229.406926
478.485427	43233.094181
478.855207	46629.120402
479.224928	49248.360267
479.594591	50883.758466
479.964194	49895.072250
480.333739	50062.183979
480.703226	50095.188414
481.072653	50723.293498
481.442022	51211.483877
481.811333	51453.197122
482.180584	50177.273522
482.549777	49661.966776
482.918912	49116.970154
483.287988	48830.478860
483.657005	48008.765742
484.025964	47360.657360
484.394864	47389.764982
484.763706	46971.986919
485.132489	46080.718480
485.501213	45899.902374
485.869879	46052.674542
486.238487	45649.167985
486.607036	45827.919738
486.975527	45297.376105
487.343959	45492.405744
487.712333	45567.224029
488.080648	45491.624365
488.448905	45953.111753
488.817104	45761.500016
489.185244	46752.971469
489.553326	48434.985218
489.921350	51145.779999
490.289315	53947.930570
490.657222	54534.347832
491.025070	54806.890253
491.392861	53933.540596
491.760593	52733.554417
492.128267	51078.644432
492.495883	49566.215099
492.863440	48163.854320
493.230939	46804.577761
493.598380	45716.903448
493.965763	45382.012037
494.333088	44536.948294
494.700354	44056.417948
495.067563	43768.368937
495.434713	43630.508503
495.801805	43688.693501
496.168839	43302.767968
496.535815	42955.515647
496.902733	43002.912576
497.269593	42591.821603
497.636395	42513.116589
498.003139	42927.229733
498.369825	42351.441744
498.736453	42674.027699
499.103023	42202.904146
499.469535	42051.931670
499.835989	42169.904753
500.202385	41827.068482
500.568723	41840.702283
500.935003	42041.735937
501.301226	41827.638133
501.667390	42444.486320
502.033497	42720.756674
502.399546	42139.340237
502.765537	41443.275358
503.131470	41839.731861
503.497345	42208.613252
503.863163	40855.565039
504.228923	41470.185037
504.594625	41902.390882
504.960269	41170.213698
505.325856	41887.998388
505.691385	41216.622560
506.056856	41376.127188
506.422270	41816.771926
506.787625	41386.660679
507.152924	41582.791811
507.518164	41698.680376
507.883347	40879.268545
508.248472	41162.858654
508.613540	41628.320992
508.978550	41943.703138
509.343503	41685.003726
509.708398	41893.783112
510.073236	42431.001234
510.438016	42437.166565
510.802738	41885.129972
511.167403	42508.080476
511.532010	42753.604833
511.896561	43059.728900
512.261053	43926.457002
512.625488	43454.330259
512.989866	43317.072242
513.354186	43183.620297
513.718449	43165.031042
514.082655	43861.811765
514.446803	43532.999985
514.810894	44043.865475
515.174927	43974.214373
515.538904	43871.394999
515.902822	44568.947018
516.266684	44002.124721
516.630488	44427.472077
516.994235	44288.331189
517.357925	44874.836672
517.721558	45052.786882
518.085133	45348.758065
518.448651	45507.314957
518.812112	45262.788748
519.175516	45373.237908
519.538863	45721.480816
519.902152	45662.867320
520.265385	46122.612989
520.628560	46194.139401
520.991678	45961.754811
521.354739	46215.334932
521.717743	46533.099024
522.080690	46438.592513
522.443580	46984.695668
522.806413	47030.018161
523.169189	46964.170610
523.531908	47157.093047
523.894569	47006.133174
524.257174	47188.655711
524.619722	47498.701796
524.982213	47489.973038
525.344647	47392.716577
525.707025	47438.457487
526.069345	47816.992688
526.431608	47758.011188
526.793815	48090.200541
527.155964	47614.111452
527.518057	47762.056714
527.880093	47560.607165
528.242072	48071.906194
528.603995	47774.359650
528.965860	47789.188204
529.327669	47882.820075
529.689421	47774.447870
530.051117	47720.293275
530.412755	47865.508753
530.774337	47923.192156
531.135862	47732.450017
531.497331	47954.036455
531.858743	47835.135801
532.220098	48184.505406
532.581396	47891.621930
532.942638	47552.755568
533.303824	47852.331177
533.664953	47810.850042
534.026025	47532.439718
534.387040	48006.567799
534.747999	47950.278275
535.108902	48126.983320
535.469748	47623.379613
535.830537	47737.614680
536.191270	47948.352554
536.551947	47589.634129
536.912567	47898.881191
537.273131	48029.147127
537.633638	47488.533789
537.994089	47831.412909
538.354483	47422.542564
538.714821	48007.921349
539.075103	48362.634577
539.435328	48097.043908
539.795497	47991.519955
540.155609	47975.960433
540.515665	48456.740317
540.875665	47891.223678
541.235609	48215.357268
541.595496	48190.695943
541.955328	48878.694976
542.315102	48246.531763
542.674821	48012.271865
543.034483	48061.433197
543.394090	48033.222900
543.753640	48015.808234
544.113134	49010.140542
544.472571	48002.108898
544.831953	49274.138207
545.191278	48470.306062
545.550548	48167.262140
545.909761	48661.605247
546.268918	48869.401609
546.628019	49171.220531
546.987064	48727.435155
547.346053	47978.657451
547.704986	48899.638450
548.063863	48430.392726
548.422684	48634.551895
548.781449	48471.689859
549.140158	48873.389162
549.498811	48718.706397
549.857408	48168.109053
550.215949	49001.799953
550.574434	48927.173232
550.932864	48682.115182
551.291237	49416.356719
551.649555	49012.635913
552.007817	49258.190517
552.366022	48891.978417
552.724173	49074.228731
553.082267	49487.880610
553.440305	49787.791455
553.798288	49088.611143
554.156215	49386.316483
554.514086	49628.377568
554.871902	49366.076251
555.229661	49385.131812
555.587365	49206.616993
555.945014	49298.797011
556.302606	49199.292196
556.660143	49454.908943
557.017625	49543.048477
557.375050	49324.017904
557.732421	49683.946206
558.089735	49674.206697
558.446994	49571.147868
558.804197	50053.692156
559.161345	49996.961531
559.518437	49240.801057
559.875474	49532.827537
560.232455	49698.908351
560.589381	49884.763090
560.946251	49585.268140
561.303065	50284.627413
561.659825	50070.176729
562.016528	49739.986193
562.373177	49445.973498
562.729770	49938.970618
563.086307	49456.280137
563.442789	49905.777140
563.799216	49944.026895
564.155587	49739.000648
564.511904	49763.402353
564.868164	49864.822806
565.224370	50105.089240
565.580520	49836.466316
565.936615	50058.408155
566.292654	49768.067941
566.648638	50016.233862
567.004567	49980.091310
567.360441	50014.623213
567.716260	49870.075689
568.072023	50149.887453
568.427732	50127.595471
568.783385	49680.936638
569.138982	50082.046126
569.494525	50048.620755
569.850013	49820.558955
570.205445	49759.553432
570.560823	49739.325802
570.916145	49607.565164
571.271412	49650.984622
571.626625	49394.652031
571.981782	49464.580397
572.336884	49148.041306
572.691931	49481.115381
573.046923	49067.163554
573.401860	48924.284651
573.756743	48919.966903
574.111570	49021.596564
574.466342	48857.728817
574.821059	48978.890429
575.175722	48502.622379
575.530330	48521.539308
575.884882	48219.407835
576.239380	48189.690233
576.593823	48151.468205
576.948211	48089.363710
577.302544	47605.254144
577.656823	47618.298130
578.011047	47833.079010
578.365216	47564.602280
578.719330	47375.816109
579.073389	47210.483907
579.427394	47296.770817
579.781344	47243.689987
580.135239	46905.725993
580.489080	47004.996394
580.842866	46467.674929
581.196597	46926.019157
581.550273	46862.135135
581.903895	46721.943167
582.257463	47160.526073
582.610975	46506.345620
582.964434	46804.484500
583.317837	46436.513037
583.671186	46267.767973
584.024481	46512.763009
584.377721	46039.002932
584.730906	46340.849581
585.084037	46364.369084
585.437113	46084.295179
585.790135	46097.124916
586.143103	45715.063427
586.496016	45833.154977
586.848874	45873.660648
587.201679	45873.355658
587.554428	45351.573550
587.907124	45539.585903
588.259765	45286.013344
588.612352	45546.209979
588.964884	44921.583291
589.317362	45225.648047
589.669786	45174.145099
590.022155	44938.088029
590.374470	45362.606115
590.726731	44878.930089
591.078937	44402.268828
591.431090	44495.094114
591.783188	44164.838043
592.135232	43809.754290
592.487222	44058.883072
592.839157	44162.491386
593.191038	43824.633256
593.542866	43596.911733
593.894639	42965.305568
594.246358	43246.647323
594.598022	43231.453285
594.949633	42839.876619
595.301190	42770.328861
595.652692	42600.278139
596.004141	42948.168166
596.355535	41938.021758
596.706876	41905.087900
597.058162	41742.808116
597.409395	42208.464538
597.760573	42291.086529
598.111698	41848.841226
598.462768	41876.058415
598.813785	41922.905858
599.164748	41341.388597
599.515657	41749.946390
599.866511	41212.624925
600.217312	41832.326406
600.568060	40767.672522
600.918753	41529.481609
601.269392	41489.532985
601.619978	41142.255459
601.970510	41357.280835
602.320988	41540.771273
602.671412	41856.574356
603.021783	41598.764707
603.372100	41247.857549
603.722363	41368.240303
604.072572	41427.730960
604.422728	41460.208593
604.772830	41265.514191
605.122878	41347.886645
605.472872	41288.675772
605.822813	41582.993457
606.172701	41398.925807
606.522534	41650.512151
606.872314	41925.123966
607.222041	41660.909531
607.571714	42053.197000
607.921333	41471.314255
608.270899	41777.221553
608.620411	42125.771971
608.969870	41940.494444
609.319276	41922.487442
609.668627	41981.116062
610.017926	42480.316321
610.367171	42643.667350
610.716362	42713.971281
611.065500	42652.459122
611.414585	42834.878315
611.763616	43155.551153
612.112594	43056.840319
612.461518	43287.347079
612.810389	43574.748301
613.159207	43435.385602
613.507971	43524.306515
613.856682	44011.004713
614.205340	43880.156524
614.553945	44589.341006
614.902496	44040.402202
615.250994	44499.951266
615.599439	44573.605044
615.947830	44792.217201
616.296169	44836.987689
616.644454	44958.300535
616.992686	45117.958919
617.340864	45628.254758
617.688990	45350.532552
618.037063	45971.045658
618.385082	45929.960254
618.733048	46215.798718
619.080961	46240.981802
619.428821	46234.776142
619.776628	46381.498925
620.124382	46203.813375
620.472083	46342.198089
620.819731	46477.487535
621.167326	46130.782179
621.514868	46129.274874
621.862357	45690.654160
622.209793	45716.636267
622.557176	45389.785496
622.904506	45158.993911
623.251783	44811.696220
623.599007	44584.073000
623.946179	44345.482750
624.293297	44303.394157
624.640363	43684.146380
624.987376	43673.917879
625.334336	43414.043878
625.681243	43052.615832
626.028097	43002.542051
626.374899	42861.601472
626.721647	42819.553207
627.068343	42691.094525
627.414987	42443.704941
627.761577	42203.062942
628.108115	42537.175495
628.454600	41978.807213
628.801032	42162.688341
629.147412	42137.679177
629.493739	42109.841925
629.840014	41738.172775
630.186236	42084.381577
630.532405	41692.464633
630.878521	41902.476582
631.224585	41770.743670
631.570597	41477.343475
631.916556	41653.811586
632.262462	41586.822213
632.608316	41586.799528
632.954117	41489.099446
633.299866	41492.945847
633.645562	41414.026583
633.991206	40913.311457
634.336797	40474.542029
634.682336	40472.772584
635.027823	40229.466335
635.373257	40052.746166
635.718639	39799.307197
636.063968	39653.597687
636.409245	39071.135210
636.754470	39130.691401
637.099642	38856.916418
637.444762	38365.131696
637.789829	38521.455356
638.134845	38162.154677
638.479808	38115.355126
638.824719	37994.861466
639.169577	37594.843388
639.514383	37644.322313
639.859137	37341.696807
640.203839	37583.105061
640.548489	37194.653911
640.893086	37264.219313
641.237632	36994.671337
641.582125	37121.471480
641.926566	37050.585295
642.270955	37001.600403
642.615292	37013.989039
642.959576	36996.576894
643.303809	36972.737277
643.647990	37118.230018
643.992118	37076.161589
644.336195	37071.150683
644.680219	37161.654517
645.024192	37444.617003
645.368112	37975.447983
645.711981	37968.095460
646.055797	38855.265440
646.399562	38774.387688
646.743274	39747.668138
647.086935	40201.379546
647.430544	40085.286814
647.774101	40225.456097
648.117606	40451.985386
648.461059	40790.244288
648.804460	40430.991501
649.147810	39786.676587
649.491108	39540.819513
649.834354	39185.970174
650.177548	38311.952564
650.520690	37842.598456
650.863781	37878.501553
651.206820	37707.982004
651.549807	37270.288862
651.892742	36772.248068
652.235626	36564.159320
652.578458	36416.955107
652.921238	35777.139422
653.263967	36107.352643
653.606644	35784.870032
653.949269	35744.389566
654.291843	35314.951314
654.634365	35730.438173
654.976836	35295.550434
655.319255	35296.745187
655.661622	35298.068490
656.003938	35074.062298
656.346203	34925.262560
656.688416	35136.421371
657.030577	34948.056137
657.372687	34783.444820
657.714746	35047.271086
658.056753	35173.720869
658.398708	34598.336172
658.740612	34660.191129
659.082465	34944.923060
659.424266	34729.302828
659.766016	34870.750043
660.107715	34751.650263
660.449362	34872.741299
660.790958	34862.172520
661.132503	34872.438830
661.473996	34900.208026
661.815438	35034.080907
662.156829	35226.184157
662.498168	34981.988144
662.839456	35009.540570
663.180693	35149.238505
663.521879	35305.186599
663.863013	35264.443994
664.204097	35250.618629
664.545129	35747.419300
664.886110	35680.974372
665.227040	35738.395634
665.567918	35855.219334
665.908746	35921.197955
666.249522	36091.505776
666.590248	36088.783553
666.930922	36214.915743
667.271545	36175.667840
667.612118	36271.691738
667.952639	36033.847579
668.293109	36097.587928
668.633528	35993.397361
668.973896	35921.984375
669.314213	35949.970341
669.654480	35682.680802
669.994695	35716.874949
670.334859	35593.868274
670.674973	35485.193600
671.015035	35659.549468
671.355047	35598.740549
671.695008	35549.175925
672.034918	35436.269202
672.374777	35506.832753
672.714585	35320.673024
673.054342	35572.211477
673.394049	35298.393644
673.733705	35594.258964
674.073310	35261.709168
674.412864	35346.786201
674.752368	34927.815905
675.091820	35243.669399
675.431223	34811.723173
675.770574	34537.658323
676.109875	34394.973505
676.449125	34096.953092
676.788324	34023.546331
677.127473	33472.344048
677.466571	33401.233532
677.805619	33021.564072
678.144616	33027.759650
678.483562	32932.000412
678.822458	32589.504419
679.161303	32512.483150
679.500098	32412.272574
679.838842	32278.056894
680.177535	32438.768878
680.516179	32708.117728
680.854771	32951.983546
681.193314	33818.724250
681.531805	34936.912667
681.870247	35708.708279
682.208638	36456.376930
682.546978	36689.147168
682.885268	36817.835222
683.223508	36276.538808
683.561697	35942.320390
683.899836	35750.723776
684.237925	35237.090693
684.575963	35079.456333
684.913951	34592.876602
685.251889	34755.375676
685.589776	34716.994851
685.927614	34691.085841
686.265401	34827.408723
686.603137	34897.584105
686.940824	35403.509264
687.278460	35767.344460
687.616046	35907.980050
687.953582	36522.484101
688.291068	36370.291666
688.628504	36696.781995
688.965889	36627.128372
689.303224	36249.243480
689.640510	35941.107992
689.977745	35204.877720
690.314930	34417.446969
690.652065	33908.615585
690.989150	33174.195087
691.326185	32234.987796
691.663170	31521.687212
692.000105	30749.087535
692.336990	30029.926610
692.673825	29564.746577
693.010610	29031.347129
693.347345	28416.734694
693.684030	27720.851296
694.020665	27415.382579
694.357251	26722.170993
694.693786	26657.124985
695.030272	26395.075726
695.366707	25823.769322
695.703093	25535.879108
696.039429	25521.211871
696.375716	25250.141467
696.711952	25179.101527
697.048139	25017.159501
697.384276	24826.498021
697.720363	24934.749238
698.056400	24736.079886
698.392388	24514.737944
698.728326	24485.295085
699.064214	24270.607466
699.400053	24217.677871
699.735842	23860.103788
700.071581	23556.505338
700.407270	23257.300255
700.742910	23070.449887
701.078501	22783.250312
701.414042	22485.943222
701.749533	22189.863654
702.084974	21816.674597
702.420366	22040.073329
702.755709	21571.528326
703.091002	21252.347671
703.426246	21279.653080
703.761440	21167.401708
704.096584	20888.540200
704.431679	20835.892910
704.766725	20728.549101
705.101721	20661.106024
705.436668	20741.111656
705.771565	20420.645506
706.106413	20770.995616
706.441212	20735.347097
706.775961	20878.861185
707.110661	20938.702202
707.445311	21288.543155
707.779913	21106.229826
708.114465	21339.559632
708.448967	21622.635544
708.783421	22342.146830
709.117825	22617.885342
709.452180	22826.324451
709.786485	23228.653898
710.120742	24047.949783
710.454949	24043.082549
710.789107	24511.025134
711.123216	25240.137297
711.457275	25352.786921
711.791286	25922.160042
712.125247	26012.978949
712.459159	25726.749796
712.793023	26437.955780
713.126837	25317.168648
713.460602	25604.884943
713.794318	25248.581230
714.127985	24868.183322
714.461602	23967.649243
714.795171	23934.349902
715.128691	22884.401064
715.462162	22329.221311
715.795584	21898.636197
716.128957	21624.510853
716.462281	21203.143488
716.795556	20958.271961
717.128782	20430.143040
717.461960	19861.016935
717.795088	19780.398803
718.128167	19350.169090
718.461198	18874.952120
718.794180	18724.057782
719.127113	18350.848560
719.459997	18129.846896
719.792833	17764.920290
720.125619	17728.281183
720.458357	17380.416362
720.791046	17199.121347
721.123686	17035.823250
721.456278	16786.124818
721.788821	16734.321921
722.121315	16459.475693
722.453761	16525.802154
722.786158	16447.089577
723.118506	16449.905062
723.450805	16302.668082
723.783056	16468.683360
724.115259	16358.607245
724.447412	16280.025739
724.779518	16533.744492
725.111574	16538.500820
725.443582	16749.457985
725.775542	16722.555868
726.107453	17200.807612
726.439315	17074.098211
726.771129	17484.962331
727.102895	17863.033746
727.434612	18079.442919
727.766281	18210.868321
728.097901	18496.598400
728.429473	18523.220733
728.760996	18518.048510
729.092471	18622.642370
729.423897	18508.664402
729.755276	18369.699955
730.086606	18501.581581
730.417887	19014.035034
730.749120	19522.213588
731.080305	19710.041939
731.411442	20056.132274
731.742530	20143.313989
732.073570	20266.759244
732.404562	20576.018909
732.735506	20392.057123
733.066401	20116.064032
733.397249	19588.865204
733.728048	18946.949879
734.058798	18090.944312
734.389501	17357.665635
734.720156	16888.593831
735.050762	16327.944427
735.381320	15947.697754
735.711831	15689.562951
736.042293	15308.529858
736.372707	15314.949767
736.703073	15074.186780
737.033391	15272.470484
737.363661	15200.104721
737.693883	15300.547191
738.024056	15470.378623
738.354182	15658.267468
738.684260	15941.817248
739.014290	16151.584701
739.344272	16334.384501
739.674207	16627.588091
740.004093	16742.909526
740.333931	16748.996720
740.663722	16812.071637
740.993464	16815.802090
741.323159	16641.547046
741.652806	16371.857918
741.982405	16165.929304
742.311956	15823.085472
742.641460	15715.406426
742.970915	15404.694909
743.300323	15059.632969
743.629683	14837.590307
743.958996	14552.558427
744.288260	14275.468885
744.617477	13969.548985
744.946647	13885.170152
745.275768	13608.113378
745.604842	13418.369388
745.933869	13244.557965
746.262847	13183.287781
746.591778	13101.674021
746.920662	12987.426351
747.249498	12985.051968
747.578286	13106.851286
747.907027	13238.374990
748.235720	13460.659627
748.564365	13487.266838
748.892963	13385.301939
749.221514	13441.145321
749.550017	13288.647897
749.878473	13259.699071
750.206881	13036.691027
750.535242	12933.105398
750.863555	12838.740039
751.191821	12729.997310
751.520039	12751.359199
751.848210	12647.130823
752.176334	12686.290506
752.504411	12587.284765
752.832440	12416.719845
753.160421	12476.117240
753.488356	12345.611849
753.816243	12243.001683
754.144082	12092.561050
754.471875	12043.747557
754.799620	11982.363947
755.127318	11954.143568
755.454969	11901.735733
755.782572	11848.092815
756.110129	11868.799354
756.437638	11787.750203
756.765100	11772.357040
757.092515	11771.217739
757.419882	11787.137703
757.747203	11780.712752
758.074477	11853.323012
758.401703	11799.002058
758.728882	11970.988584
759.056014	12017.813341
759.383099	12129.172430
759.710138	12236.549007
760.037129	12312.620018
760.364073	12331.310096
760.690970	12321.709218
761.017820	12320.171667
761.344623	12529.177905
761.671379	12873.292108
761.998088	13533.819373
762.324751	15151.407175
762.651366	18113.362323
762.977935	21824.198519
763.304456	24104.708134
763.630931	24638.770493
763.957359	23483.436334
764.283740	21559.890823
764.610074	19633.860022
764.936362	17430.618693
765.262602	15863.976792
765.588796	14324.789014
765.914943	13267.850616
766.241044	12355.598375
766.567097	11688.988958
766.893104	11108.679054
767.219064	10733.972609
767.544978	10325.964302
767.870845	9993.507767
768.196665	9796.852356
768.522438	9584.823946
768.848165	9412.156865
769.173846	9241.680165
769.499479	9112.059497
769.825066	8954.180641
770.150607	8765.371785
770.476101	8697.502731
770.801548	8581.336902
771.126949	8431.201258
771.452303	8341.524173
771.777611	8169.898090
772.102872	8151.621387
772.428087	8027.387191
772.753256	7892.304433
773.078378	7805.233623
773.403453	7649.635889
773.728482	7541.377111
774.053465	7477.553582
774.378401	7379.561113
774.703291	7278.007069
775.028135	7180.622059
775.352932	7137.754607
775.677683	7051.807975
776.002388	6957.896320
776.327046	6961.319264
776.651658	6863.833431
776.976224	6786.444158
777.300743	6769.578977
777.625216	6697.639191
777.949643	6651.797459
778.274024	6658.973541
778.598359	6584.263641
778.922647	6587.391677
779.246889	6540.138422
779.571086	6547.821140
779.895236	6556.875052
780.219339	6546.996912
780.543397	6540.143463
780.867409	6594.688748
781.191374	6588.677172
781.515294	6554.750206
781.839167	6608.186437
782.162995	6584.117448
782.486776	6535.677001
782.810511	6495.383058
783.134201	6418.631491
783.457844	6409.711169
783.781441	6358.412387
784.104993	6315.393701
784.428498	6284.892200
784.751958	6263.323623
785.075372	6247.645634
785.398739	6200.122677
785.722061	6223.314505
786.045337	6223.632098
786.368568	6338.585529
786.691752	6356.249732
787.014891	6620.781760
787.337983	6892.404170
787.661030	7337.848086
787.984031	7775.248840
788.306987	8042.581229
788.629897	8137.685117
788.952760	8062.450937
789.275579	7889.378043
789.598351	7585.104079
789.921078	7312.644837
790.243759	7025.004160
790.566395	6815.859290
790.888984	6616.516944
791.211529	6473.436395
791.534027	6300.439118
791.856480	6153.214741
792.178888	6087.278969
792.501249	6017.153998
792.823566	5904.373304
793.145836	5899.175875
793.468062	5874.045723
793.790241	5836.486606
794.112375	5879.459922
794.434464	5974.223532
794.756507	6003.157235
795.078505	6123.476974
795.400457	6332.392472
795.722364	6582.378250
796.044226	6779.401666
796.366042	6946.077335
796.687812	6896.484984
797.009538	6927.659480
797.331218	6843.217632
797.652852	6772.855727
797.974442	6656.596637
798.295986	6580.772642
798.617484	6453.985102
798.938938	6337.078224
799.260346	6269.370487
799.581709	6122.045286
799.903026	6067.396658
800.224299	5993.082489
800.545526	5872.379622
800.866708	5803.454446
801.187845	5751.951497
801.508936	5668.505278
801.829983	5639.468232
802.150984	5526.430439
802.471940	5500.937324
802.792851	5484.964428
803.113717	5452.254901
803.434538	5427.593577
803.755314	5392.600407
804.076045	5381.645980
804.396731	5339.806923
804.717372	5351.683882
805.037967	5349.516186
805.358518	5379.054827
805.679024	5438.938693
805.999485	5444.461277
806.319901	5461.016427
806.640272	5474.773735
806.960598	5523.652763
807.280879	5510.548284
807.601115	5550.514551
807.921306	5514.934087
808.241453	5510.830588
808.561554	5524.413977
808.881611	5492.047249
809.201623	5497.227035
809.521590	5449.008398
809.841513	5437.219660
810.161390	5454.992248
810.481223	5362.114029
810.801011	5347.776988
811.120755	5331.037836
811.440453	5271.398466
811.760107	5243.578858
812.079716	5216.522986
812.399281	5166.494575
812.718801	5163.207742
813.038276	5125.346157
813.357707	5093.649902
813.677093	5113.088591
813.996434	5048.443355
814.315731	5068.595367
814.634983	5071.620059
814.954191	5073.651644
815.273354	5138.009535
815.592473	5179.848591
815.911547	5256.542185
816.230577	5311.518489
816.549562	5405.720010
816.868502	5464.187312
817.187399	5528.961098
817.506250	5614.448985
817.825058	5645.525178
818.143821	5810.360826
818.462539	5991.391182
818.781213	6228.363221
819.099843	6597.216886
819.418429	7254.611074
819.736970	7900.894559
820.055466	8643.937951
820.373919	9623.204770
820.692327	11184.929026
821.010691	14066.155137
821.329011	20592.997515
821.647286	30450.958738
821.965517	40996.500577
822.283704	46499.797161
822.601847	48050.272082
822.919945	43488.463911
823.237999	38382.017041
823.556010	33128.217243
823.873976	28276.729248
824.191897	23889.506318
824.509775	20668.251860
824.827609	17757.935771
825.145398	16095.292656
825.463144	15289.194512
825.780845	15614.293483
826.098502	16908.087973
826.416116	19398.498632
826.733685	21646.938947
827.051210	22109.182507
827.368692	20608.108374
827.686129	18013.781890
828.003522	15457.894205
828.320872	13198.466695
828.638177	11463.059566
828.955439	10160.871554
829.272656	9046.761431
829.589830	8174.755242
829.906960	7400.181953
830.224046	6842.590008
830.541088	6410.001035
830.858086	6138.504654
831.175041	5916.615747
831.491952	5860.606007
831.808819	5891.956943
832.125642	6153.519730
832.442421	6735.067238
832.759157	7893.476501
833.075849	9704.639570
833.392497	11589.776530
833.709101	12722.256618
834.025662	12453.701750
834.342179	11383.777340
834.658653	10060.976050
834.975083	8917.468438
835.291469	7983.093093
835.607811	7203.944957
835.924110	6663.316495
836.240366	6145.360623
836.556578	5677.533984
836.872746	5299.132374
837.188871	5015.265001
837.504952	4778.366058
837.820990	4600.957772
838.136984	4480.466633
838.452935	4432.006021
838.768842	4468.292247
839.084706	4765.957258
839.400526	5530.380183
839.716303	6466.872812
840.032037	7048.576596
840.347727	6891.718573
840.663373	6278.999091
840.978977	5683.785015
841.294537	5222.653029
841.610054	4877.129823
841.925527	4622.420484
842.240957	4401.086104
842.556344	4203.639231
842.871687	4040.172256
843.186987	3876.395250
843.502244	3750.815067
843.817458	3655.126405
844.132629	3579.183943
844.447756	3531.698794
844.762840	3485.267247
845.077881	3441.648663
845.392879	3400.210378
845.707833	3376.355638
846.022745	3349.140969
846.337613	3332.089266
846.652438	3309.981286
846.967221	3300.448464
847.281960	3276.563477
847.596656	3262.952362
847.911309	3255.486413
848.225919	3239.218610
848.540485	3230.003380
848.855009	3220.929303
849.169490	3208.044114
849.483928	3200.469781
849.798323	3195.002649
850.112675	3182.321627
850.426984	3183.138294
850.741251	3172.410718
851.055474	3172.851819
851.369654	3172.834175
851.683792	3167.979544
851.997887	3168.675223
852.311938	3172.236798
852.625947	3171.841068
852.939914	3164.642300
853.253837	3171.278979
853.567718	3169.552384
853.881555	3163.450067
854.195350	3169.123886
854.509103	3161.841939
854.822812	3161.524347
855.136479	3157.083090
855.450103	3162.013338
855.763685	3153.836587
856.077224	3158.570230
856.390720	3164.627177
856.704173	3174.480112
857.017584	3181.061338
857.330953	3183.095444
857.644278	3193.301260
857.957561	3193.623894
858.270802	3191.473842
858.584000	3194.992567
858.897155	3187.927390
859.210268	3178.747449
859.523339	3164.332269
859.836367	3163.606343
860.149352	3157.924963
860.462295	3154.663336
860.775195	3143.701347
861.088054	3140.837972
861.400869	3142.662869
861.713642	3137.210862
862.026373	3145.259064
862.339062	3148.361894
862.651708	3157.456135
862.964312	3173.774350
863.276873	3182.568643
863.589392	3217.123232
863.901869	3240.224320
864.214303	3259.370622
864.526696	3281.899539
864.839045	3301.925522
865.151353	3314.563695
865.463619	3317.051504
865.775842	3320.698779
866.088023	3324.406548
866.400162	3317.855568
866.712258	3318.987308
867.024313	3318.972184
867.336325	3317.195177
867.648296	3321.896053
867.960224	3317.570743
868.272110	3322.737926
868.583954	3323.761280
868.895755	3329.919050
869.207515	3325.848318
869.519233	3347.558047
869.830909	3352.939479
870.142542	3364.539174
870.454134	3369.683671
870.765684	3386.679921
871.077191	3404.760020
871.388657	3414.975918
871.700081	3434.333949
872.011463	3456.610807
872.322803	3475.507573
872.634101	3497.234946
872.945357	3520.648585
873.256571	3546.328222
873.567744	3562.601067
873.878874	3566.142478
874.189963	3586.231476
874.501010	3587.582505
874.812015	3584.406578
875.122979	3600.898713
875.433900	3599.459463
875.744780	3605.244187
876.055618	3616.165847
876.366415	3614.025877
876.677169	3618.951085
876.987882	3641.870691
877.298554	3663.290553
877.609183	3703.503838
877.919771	3753.549893
878.230317	3831.022345
878.540822	3945.736321
878.851285	4108.900827
879.161707	4352.176829
879.472087	4752.862861
879.782425	5427.240696
880.092722	6687.798859
880.402977	8716.127274
880.713191	11169.535863
881.023363	13612.272329
881.333494	14975.274301
881.643583	15455.129132
881.953631	15069.453137
882.263637	14227.270413
882.573602	13200.571377
882.883526	12198.994931
883.193408	11208.851822
883.503248	10255.274722
883.813048	9376.016833
884.122806	8572.403977
884.432522	7762.058661
884.742197	7057.703605
885.051831	6457.932326
885.361424	5931.804743
885.670975	5506.951420
885.980485	5157.196167
886.289954	4872.197054
886.599382	4637.249038
886.908768	4447.361376
887.218113	4265.894961
887.527417	4125.501347
887.836680	3997.130885
888.145901	3890.500398
888.455082	3804.384888
888.764221	3729.430492
889.073319	3666.489166
889.382376	3634.866007
889.691392	3606.985906
890.000366	3596.457456
890.309300	3589.193154
890.618193	3592.994184
890.927044	3585.818101
891.235855	3593.538628
891.544625	3611.480095
891.853353	3641.951349
892.162041	3705.739589
892.470687	3804.742810
892.779293	3930.252417
893.087858	4113.750417
893.396381	4420.141666
893.704864	4853.401112
894.013306	5441.766781
894.321707	6031.054980
894.630068	6387.429269
894.938387	6426.689775
895.246665	6241.346713
895.554903	5919.584986
895.863100	5576.879786
896.171256	5297.501560
896.479371	5046.411770
896.787446	4810.339576
897.095480	4601.681177
897.403473	4438.325107
897.711425	4284.761479
898.019336	4162.344620
898.327207	4029.605998
898.635038	3923.832508
898.942827	3808.359838
899.250576	3717.190570
899.558284	3633.338538
899.865952	3574.631781
900.173579	3507.488653
900.481165	3460.805047
900.788711	3413.521545
901.096216	3379.208931
901.403681	3352.498378
901.711105	3339.348528
902.018489	3333.145388
902.325832	3372.108466
902.633135	3432.887137
902.940397	3619.563585
903.247619	4051.913103
903.554800	4841.899720
903.861941	5847.133523
904.169041	6580.074443
904.476101	6803.216076
904.783121	6532.725405
905.090100	6111.675633
905.397039	5683.500190
905.703938	5307.563703
906.010796	4966.958144
906.317614	4693.841031
906.624391	4440.283596
906.931129	4231.121082
907.237826	4035.917522
907.544483	3851.885160
907.851099	3671.091739
908.157675	3499.047241
908.464211	3353.937627
908.770707	3243.596852
909.077163	3157.133502
909.383578	3091.850559
909.689954	3041.373486
909.996289	3011.474402
910.302584	2986.414827
910.608839	2972.652477
910.915054	2960.616722
911.221229	2954.368212
911.527363	2960.432720
911.833458	2969.602578
912.139513	2984.544558
912.445527	2996.981085
912.751502	3033.884852
913.057436	3084.379569
913.363331	3143.396357
913.669186	3241.038466
913.975000	3365.300388
914.280775	3571.682706
914.586510	3856.717106
914.892205	4256.253754
915.197859	4780.372437
915.503475	5384.274942
915.809050	5884.803545
916.114585	6178.823802
916.420081	6243.763946
916.725536	6181.014183
917.030952	5935.010917
917.336328	5726.589452
917.641665	5507.906719
917.946961	5274.972644
918.252218	5064.151590
918.557435	4830.199202
918.862612	4619.390751
919.167750	4435.882668
919.472848	4237.722473
919.777906	4059.247982
920.082925	3892.274885
920.387904	3729.090214
920.692843	3612.044704
920.997743	3506.757685
921.302603	3406.335380
921.607423	3336.033969
921.912204	3263.983278
922.216946	3211.630895
922.521647	3161.237001
922.826310	3117.449538
923.130932	3072.116963
923.435516	3033.980634
923.740059	3006.652539
924.044564	2970.265490
924.349028	2942.342539
924.653454	2911.604103
924.957840	2882.551934
925.262186	2863.294726
925.566493	2837.998216
925.870761	2811.819504
926.174989	2797.643780
926.479178	2782.858075
926.783328	2765.546753
927.087438	2752.802716
927.391509	2737.762434
927.695541	2726.699622
927.999533	2715.215873
928.303486	2707.177753
928.607400	2702.398739
928.911275	2692.475228
929.215110	2686.446008
929.518906	2682.566840
929.822663	2683.194464
930.126381	2681.992149
930.430060	2687.093796
930.733699	2685.352078
931.037299	2689.551359
931.340861	2689.563962
931.644383	2691.398942
931.947866	2691.257789
932.251309	2686.385514
932.554714	2685.941893
932.858080	2687.983560
933.161407	2680.991480
933.464694	2677.024092
933.767943	2673.707012
934.071153	2667.871877
934.374323	2667.803821
934.677455	2662.344252
934.980548	2659.622028
935.283602	2658.666730
935.586617	2653.537356
935.889593	2660.405928
936.192530	2660.710918
936.495428	2667.158553
936.798287	2675.504184
937.101108	2688.109589
937.403890	2709.630275
937.706632	2735.352762
938.009336	2770.300561
938.312002	2801.225519
938.614628	2823.522543
938.917216	2844.907117
939.219765	2857.525126
939.522275	2870.541385
939.824747	2867.741024
940.127179	2865.437217
940.429573	2858.278778
940.731929	2858.266175
941.034246	2848.035153
941.336524	2846.512725
941.638763	2838.953515
941.940964	2835.051662
942.243126	2816.659012
942.545250	2808.746921
942.847335	2790.255969
943.149381	2779.409926
943.451389	2764.624222
943.753359	2751.335740
944.055290	2743.234606
944.357182	2733.555591
944.659036	2725.832543
944.960851	2720.894733
945.262628	2717.086141
945.564367	2718.263251
945.866067	2717.297870
946.167729	2716.582026
946.469352	2712.027343
946.770937	2709.547096
947.072484	2704.269007
947.373992	2703.376723
947.675462	2699.285827
947.976893	2690.262162
948.278286	2690.781400
948.579641	2687.502130
948.880958	2683.985925
949.182236	2682.962571
949.483476	2679.816891
949.784678	2682.196315
950.085841	2680.933506
950.386967	2684.300997
950.688054	2688.684280
950.989103	2697.586958
951.290114	2706.217413
951.591087	2719.084959
951.892021	2726.124930
952.192917	2742.072620
952.493776	2751.348343
952.794596	2756.603746
953.095378	2758.655496
953.396122	2755.764394
953.696828	2755.376225
953.997496	2752.132243
954.298126	2742.128073
954.598718	2733.316136
954.899272	2719.674774
955.199788	2707.787733
955.500266	2696.089735
955.800706	2683.789320
956.101108	2664.786691
956.401472	2654.812768
956.701798	2637.226702
957.002087	2623.489558
957.302337	2615.184257
957.602550	2602.034407
957.902724	2591.160639
958.202861	2581.164031
958.502960	2571.053997
958.803022	2563.792214
959.103045	2554.206460
959.403031	2546.785882
959.702979	2542.533669
960.002889	2539.622402
960.302762	2533.076464
960.602596	2526.112110
960.902393	2525.295443
961.202153	2520.728158
961.501875	2518.114319
961.801559	2515.606345
962.101205	2514.192302
962.400814	2508.899090
962.700385	2505.574449
962.999918	2505.685355
963.299414	2503.711743
963.598873	2505.277021
963.898293	2501.566732
964.197677	2500.603872
964.497022	2497.402739
964.796331	2499.895589
965.095601	2494.612460
965.394835	2494.262100
965.694030	2491.391163
965.993189	2496.233191
966.292309	2490.037613
966.591393	2492.850577
966.890439	2493.992398
967.189447	2491.602891
967.488419	2490.360247
967.787353	2495.640856
968.086249	2491.980978
968.385108	2494.448623
968.683930	2494.113386
968.982714	2497.695126
969.281462	2498.622698
969.580172	2500.772750
969.878844	2501.228975
970.177480	2506.764162
970.476078	2504.898935
970.774639	2509.932527
971.073162	2512.516118
971.371649	2510.996210
971.670098	2512.957219
971.968510	2514.129287
972.266885	2512.707682
972.565223	2519.853517
972.863524	2522.306039
973.161788	2525.665968
973.460014	2524.234280
973.758204	2527.894158
974.056356	2524.962727
974.354471	2528.536905
974.652550	2526.394415
974.950591	2526.404497
975.248595	2524.992974
975.546563	2525.751668
975.844493	2522.215298
976.142386	2520.551717
976.440243	2518.263033
976.738062	2517.995852
977.035845	2517.816891
977.333590	2510.436642
977.631299	2509.380520
977.928971	2507.734584
978.226606	2505.478667
978.524204	2505.256857
978.821765	2504.714932
979.119290	2502.741321
979.416777	2502.912720
979.714228	2501.508759
980.011642	2505.266939
980.309020	2507.089316
980.606360	2510.058556
980.903664	2521.320493
981.200931	2540.169368
981.498162	2558.491441
981.795356	2589.761718
982.092513	2629.851494
982.389633	2674.664832
982.686717	2723.332131
982.983764	2751.928076
983.280775	2773.078237
983.577749	2773.020264
983.874686	2764.873759
984.171587	2747.257447
984.468451	2728.640466
984.765279	2711.608927
985.062070	2690.489013
985.358824	2670.944460
985.655543	2646.706592
985.952224	2624.938890
986.248869	2597.464602
986.545478	2567.908317
986.842050	2544.419060
987.138586	2524.922398
987.435086	2509.841786
987.731549	2499.338542
988.027975	2492.711945
988.324366	2485.447643
988.620719	2480.913125
988.917037	2477.187712
989.213318	2476.532362
989.509563	2472.726291
989.805772	2473.563122
990.101944	2468.801752
990.398080	2468.118676
990.694180	2467.196145
990.990244	2468.035497
991.286271	2468.653038
991.582262	2469.862915
991.878217	2471.521455
992.174136	2470.586321
992.470019	2471.103039
992.765865	2473.452217
993.061676	2473.331229
993.357450	2477.522949
993.653188	2481.407158
993.948890	2485.402272
994.244556	2496.129848
994.540186	2504.588904
994.835780	2519.946779
995.131337	2531.375075
995.426859	2551.612787
995.722345	2571.081723
996.017795	2591.334558
996.313208	2603.292175
996.608586	2616.063939
996.903928	2615.955554
997.199234	2618.087962
997.494504	2615.890019
997.789738	2607.491457
998.084936	2593.769436
998.380099	2582.787282
998.675225	2568.757751
998.970316	2557.392470
999.265371	2542.581560
999.560390	2525.650844
999.855373	2517.837056
1000.150320	2504.767865
1000.445232	2499.104128
1000.740108	2488.978971
1001.034948	2483.179123
1001.329752	2478.344657
1001.624521	2475.360294
1001.919254	2466.061885
1002.213951	2466.805456
1002.508613	2460.123406
1002.803239	2462.449899
1003.097829	2452.128136
1003.392384	2457.386060
1003.686903	2453.554783
1003.981386	2457.358333
1004.275834	2454.043775
1004.570246	2452.990173
1004.864623	2453.602674
1005.158964	2451.460183
1005.453270	2451.140070
1005.747540	2448.712754
1006.041775	2449.047991
1006.335974	2449.075717
1006.630138	2448.261571
1006.924266	2448.150666
1007.218359	2447.719647
1007.512416	2448.178392
1007.806438	2445.821653
1008.100425	2445.420881
1008.394376	2446.938268
1008.688292	2448.246448
1008.982172	2447.003803
1009.276017	2444.059769
1009.569827	2445.007506
1009.863602	2445.912393
1010.157341	2444.387444
1010.451045	2444.447938
1010.744714	2442.580191
1011.038347	2445.821653
1011.331945	2442.313010
1011.625508	2442.401230
1011.919036	2441.012392
1012.212528	2442.116405
1012.505986	2443.147321
1012.799408	2441.826538
1013.092795	2442.008020
1013.386147	2438.083482
1013.679464	2441.672783
1013.972745	2441.690427
1014.265992	2441.506425
1014.559204	2440.785540
1014.852380	2440.054573
1015.145521	2441.173709
1015.438628	2439.999120
1015.731699	2441.743359
1016.024736	2441.544234
1016.317737	2441.448452
1016.610703	2442.726384
1016.903635	2437.009716
1017.196531	2439.162288
1017.489393	2442.355859
1017.782219	2440.818307
1018.075011	2441.846703
1018.367768	2440.941816
1018.660490	2442.741508
1018.953177	2442.741508
1019.245829	2442.741508
