Dividing Wavelength (nm)	Counts (n)	Blue Motor Position (mm): 0.000000	Red Motor Position (mm): 39.200000	
326.493990	1991.170070
326.888308	1991.170070
327.282561	1991.170070
327.676750	1968.563015
328.070874	1969.745166
328.464933	1975.688686
328.858929	1984.949286
329.252859	1998.421769
329.646726	2014.440036
330.040528	2026.679957
330.434265	2048.417413
330.827938	2066.764692
331.221547	2085.812692
331.615091	2105.972266
332.008571	2128.496142
332.401986	2147.897022
332.795338	2169.090033
333.188625	2187.641479
333.581847	2206.765096
333.975006	2226.491131
334.368100	2241.110477
334.761129	2258.767119
335.154095	2275.715478
335.546996	2299.834878
335.939833	2347.887157
336.332606	2360.442151
336.725315	2371.648636
337.117960	2378.910418
337.510540	2387.301418
337.903056	2399.773233
338.295508	2404.887483
338.687896	2409.979049
339.080220	2418.244021
339.472480	2425.906574
339.864676	2430.461257
340.256807	2429.856318
340.648875	2435.898141
341.040879	2434.531989
341.432818	2436.513162
341.824694	2438.005344
342.216506	2437.264294
342.608253	2438.731270
342.999937	2437.985179
343.391557	2432.515527
343.783113	2432.046700
344.174605	2434.085847
344.566033	2429.228695
344.957397	2431.540064
345.348697	2431.104004
345.739934	2425.692325
346.131106	2424.850453
346.522215	2424.376584
346.913260	2420.888106
347.304241	2419.595050
347.695159	2416.845100
348.086012	2416.882909
348.476802	2415.473907
348.867528	2414.916859
349.258191	2413.512898
349.648789	2414.397620
350.039324	2409.991652
350.429796	2412.681107
350.820203	2410.911662
351.210548	2412.857548
351.600828	2408.562485
351.991045	2410.760428
352.381198	2408.133987
352.771288	2410.289080
353.161314	2408.396127
353.551276	2412.335788
353.941175	2411.383010
354.331010	2408.091137
354.720782	2408.123904
355.110490	2409.467372
355.500135	2410.785633
355.889717	2413.142373
356.279235	2411.647671
356.668689	2411.831673
357.058080	2412.522311
357.447408	2412.945768
357.836672	2412.229924
358.225873	2414.095151
358.615010	2411.839235
359.004084	2416.532549
359.393095	2417.064391
359.782043	2416.938362
360.170927	2420.373908
360.559748	2419.864752
360.948505	2422.511357
361.337199	2421.132602
361.725830	2422.471028
362.114398	2424.404311
362.502903	2424.517737
362.891344	2422.912129
363.279722	2423.673343
363.668037	2428.313725
364.056289	2427.005546
364.444478	2428.850608
364.832603	2427.489497
365.220665	2430.438572
365.608665	2432.976793
365.996601	2433.483429
366.384474	2431.343459
366.772284	2433.707760
367.160031	2435.313367
367.547715	2435.948553
367.935336	2433.959818
368.322893	2436.578697
368.710388	2439.111877
369.097820	2440.258739
369.485189	2441.821497
369.872495	2442.577670
370.259738	2444.334512
370.646918	2451.656788
371.034035	2446.015737
371.421090	2451.616459
371.808081	2457.708693
372.195010	2460.360340
372.581875	2466.071968
372.968678	2471.899542
373.355418	2481.666777
373.742096	2492.573313
374.128710	2501.831393
374.515262	2516.544000
374.901751	2530.112266
375.288177	2546.932075
375.674540	2567.953687
376.060841	2589.733992
376.447079	2614.327261
376.833254	2641.962867
377.219367	2666.848522
377.605417	2703.134748
377.991404	2728.146433
378.377329	2770.419028
378.763191	2803.625109
379.148991	2854.129908
379.534727	2906.295768
379.920402	2955.268058
380.306013	3002.801097
380.691563	3070.231571
381.077049	3126.798358
381.462474	3182.944209
381.847835	3260.918256
382.233134	3332.384174
382.618371	3396.545459
383.003545	3483.454952
383.388657	3568.277406
383.773706	3662.113444
384.158693	3734.270000
384.543618	3832.330524
384.928480	3910.659973
385.313280	4022.533259
385.698017	4127.459835
386.082692	4252.659411
386.467305	4315.822548
386.851856	4446.332980
387.236344	4607.165953
387.620770	4671.833874
388.005133	4793.091268
388.389435	4949.465340
388.773674	5037.214184
389.157851	5171.802910
389.541965	5306.691584
389.926018	5330.185881
390.310008	5517.295868
390.693936	5636.541842
391.077802	5763.997334
391.461606	5899.586729
391.845348	6016.851529
392.229027	6139.822915
392.612645	6371.063163
392.996200	6486.238405
393.379694	6669.570047
393.763125	6895.396095
394.146494	6988.763305
394.529801	7136.028012
394.913047	7386.333903
395.296230	7382.235445
395.679351	7438.083868
396.062410	7717.774645
396.445408	7607.466638
396.828343	7775.102647
397.211217	7910.112309
397.594028	7785.336189
397.976778	8003.950867
398.359466	8162.601020
398.742092	8142.645612
399.124656	8296.446175
399.507158	8488.385587
399.889598	8510.612034
400.271977	8722.718582
400.654294	8756.653109
401.036549	8960.154408
401.418742	8985.443356
401.800874	9293.203278
402.182944	9377.733346
402.564952	9752.326364
402.946898	9577.138707
403.328783	9630.106110
403.710606	9836.319549
404.092367	10096.286812
404.474067	10467.537546
404.855705	10250.972097
405.237282	10199.945538
405.618797	10646.798456
406.000250	10894.697196
406.381642	11266.353743
406.762972	11228.366128
407.144240	11015.291679
407.525447	11281.444437
407.906593	11216.910106
408.287677	11477.384005
408.668700	11640.031793
409.049661	11617.754934
409.430560	11776.425251
409.811399	11747.995664
410.192176	11915.558577
410.572891	11986.895945
410.953545	12488.210968
411.334138	11948.762136
411.714669	12577.101634
412.095139	11858.585976
412.475547	12375.130326
412.855894	12223.477295
413.236180	12553.352758
413.616405	12226.136503
413.996568	12524.507276
414.376670	12491.459992
414.756711	12358.255063
415.136691	12658.261690
415.516609	12846.226153
415.896466	12908.940627
416.276262	13204.211090
416.655997	13654.847394
417.035670	13681.303370
417.415283	14354.163817
417.794834	14450.543117
418.174324	14187.236090
418.553753	14091.343262
418.933121	14591.592081
419.312428	14394.079674
419.691674	14302.915448
420.070859	14771.354586
420.449983	14417.659671
420.829045	14981.071627
421.208047	14714.727305
421.586988	15189.747670
421.965867	15449.228462
422.344686	15450.871878
422.723444	16025.321441
423.102141	14685.541545
423.480777	15902.080353
423.859352	15399.676440
424.237866	16525.295518
424.616319	16227.068418
424.994712	16907.304074
425.373044	16692.069490
425.751314	17383.859470
426.129524	16492.860734
426.507673	17608.420189
426.885762	17290.441848
427.263789	17502.888674
427.641756	17672.954520
428.019662	17747.472856
428.397508	17782.987785
428.775292	18098.863964
429.153016	18050.320173
429.530679	18132.581722
429.908282	18162.258995
430.285824	17866.938120
430.663305	18605.058825
431.040726	18186.690947
431.418086	18011.394904
431.795385	18667.896808
432.172624	19095.429504
432.549802	18641.713055
432.926920	18835.192539
433.303977	18721.257421
433.680974	18971.916193
434.057910	19272.721843
434.434786	19292.652045
434.811601	19202.727943
435.188355	20274.719226
435.565050	19906.959491
435.941683	19854.879331
436.318257	20765.137795
436.694770	20573.112684
437.071222	21170.822131
437.447614	20222.563448
437.823946	20255.890516
438.200218	20412.340205
438.576429	20180.580719
438.952580	20457.829057
439.328670	20427.937535
439.704700	20847.316165
440.080670	20408.335008
440.456580	21010.228613
440.832429	21193.653516
441.208218	20162.417442
441.583947	20613.804877
441.959616	20709.924558
442.335224	20965.758074
442.710773	21107.568253
443.086261	21656.471769
443.461689	20997.920636
443.837057	21128.642796
444.212365	21783.564298
444.587612	21781.676386
444.962800	21338.402687
445.337927	21777.633381
445.712995	20490.284005
446.088002	22375.486501
446.462949	22574.947314
446.837837	22766.516202
447.212664	22712.469991
447.587431	25607.292093
447.962139	28590.246168
448.336786	31026.350997
448.711374	29442.604460
449.085901	25684.381418
449.460369	25631.383768
449.834776	25550.586674
450.209124	28088.507687
450.583412	27596.523839
450.957640	28135.206416
451.331808	26768.365606
451.705917	25357.986871
452.079965	25418.014411
452.453954	25777.279801
452.827883	25655.553580
453.201752	25452.697549
453.575562	25623.935463
453.949311	26773.689065
454.323001	26831.382550
454.696632	26579.947440
455.070202	28167.094235
455.443713	28307.094639
455.817164	28904.241997
456.190556	29455.388826
456.563888	28878.310302
456.937160	29333.428191
457.310373	27633.369633
457.683526	28098.917670
458.056619	28077.986799
458.429653	28013.253343
458.802628	28595.741026
459.175542	28712.597492
459.548398	30026.266732
459.921194	31620.488786
460.293930	32297.170428
460.666607	34340.914692
461.039224	36133.249051
461.411782	36548.244397
461.784280	35341.959296
462.156719	34867.899271
462.529099	34303.771470
462.901419	32990.180368
463.273680	31926.207040
463.645882	32004.753258
464.018024	31969.540799
464.390106	32817.939265
464.762130	35551.666255
465.134094	39649.332871
465.505999	44991.057953
465.877845	49610.494074
466.249631	50815.155924
466.621358	49134.082351
466.993026	47034.366156
467.364634	44952.422550
467.736184	42946.098772
468.107674	41672.254648
468.479105	40883.198124
468.850477	40190.578874
469.221790	38721.415244
469.593043	36946.883720
469.964238	36054.470939
470.335373	35970.074462
470.706449	37725.797442
471.077467	40321.038894
471.448425	44933.666937
471.819324	47777.893499
472.190164	45932.138032
472.560945	42337.407171
472.931667	39191.187768
473.302330	38057.780108
473.672934	37234.756289
474.043479	37738.594411
474.413965	36926.053672
474.784393	36534.842489
475.154761	37467.758420
475.525070	37493.180959
475.895321	37005.429160
476.265513	37627.401680
476.635645	38608.841237
477.005719	38426.048999
477.375734	38905.487935
477.745691	39607.095563
478.115588	40953.938116
478.485427	42955.893734
478.855207	46331.591502
479.224928	48945.301221
479.594591	50602.615836
479.964194	49615.257965
480.333739	49805.478343
480.703226	49827.787970
481.072653	50460.162911
481.442022	50947.937395
481.811333	51206.568752
482.180584	49912.222255
482.549777	49403.027908
482.918912	48868.511845
483.287988	48580.374615
483.657005	47739.764732
484.025964	47099.419726
484.394864	47120.617778
484.763706	46682.246601
485.132489	45806.336038
485.501213	45644.489794
485.869879	45794.960675
486.238487	45379.325102
486.607036	45571.834164
486.975527	45028.554055
487.343959	45238.024080
487.712333	45329.498337
488.080648	45209.612137
488.448905	45689.303131
488.817104	45492.867010
489.185244	46451.633978
489.553326	48148.299839
489.921350	50862.671319
490.289315	53709.035330
490.657222	54304.395599
491.025070	54564.193983
491.392861	53692.417167
491.760593	52478.729131
492.128267	50843.071313
492.495883	49317.875258
492.863440	47922.705684
493.230939	46560.054073
493.598380	45430.276044
493.965763	45114.488084
494.333088	44286.828925
494.700354	43786.527174
495.067563	43495.544212
495.434713	43359.763254
495.801805	43432.507104
496.168839	43023.621636
496.535815	42689.478835
496.902733	42728.099115
497.269593	42283.285344
497.636395	42234.406316
498.003139	42640.118377
498.369825	42087.015580
498.736453	42387.110428
499.103023	41925.451641
499.469535	41782.880248
499.835989	41888.013512
500.202385	41537.363453
500.568723	41556.066134
500.935003	41759.340580
501.301226	41534.779862
501.667390	42170.565144
502.033497	42440.413068
502.399546	41859.969573
502.765537	41164.217245
503.131470	41539.891592
503.497345	41897.132959
503.863163	40549.337628
504.228923	41166.087513
504.594625	41573.541294
504.960269	40867.855373
505.325856	41560.242730
505.691385	40915.524523
506.056856	41055.598024
506.422270	41481.197437
506.787625	41064.828377
507.152924	41244.248083
507.518164	41354.956863
507.883347	40542.479139
508.248472	40821.852323
508.613540	41296.479478
508.978550	41592.985024
509.343503	41345.343382
509.708398	41534.391693
510.073236	42061.630850
510.438016	42064.365676
510.802738	41507.446726
511.167403	42141.938952
511.532010	42374.875547
511.896561	42671.265147
512.261053	43541.012899
512.625488	43076.952002
512.989866	42942.249851
513.354186	42773.386321
513.718449	42771.503450
514.082655	43448.495123
514.446803	43114.619504
514.810894	43641.737673
515.174927	43556.365733
515.538904	43444.411788
515.902822	44140.479188
516.266684	43557.195003
516.630488	44004.378117
516.994235	43847.275598
517.357925	44432.893838
517.721558	44591.712869
518.085133	44905.927988
518.448651	45034.933636
518.812112	44795.188962
519.175516	44901.595116
519.538863	45250.304331
519.902152	45219.797788
520.265385	45653.140414
520.628560	45716.172481
520.991678	45474.638197
521.354739	45718.904787
521.717743	46042.400670
522.080690	45931.034020
522.443580	46480.474419
522.806413	46528.574588
523.169189	46461.108826
523.531908	46638.028120
523.894569	46503.434354
524.257174	46672.129006
524.619722	46981.799525
524.982213	46955.983776
525.344647	46861.880557
525.707025	46897.123263
526.069345	47281.591903
526.431608	47207.426447
526.793815	47547.643838
527.155964	47068.651044
527.518057	47217.153354
527.880093	46986.838158
528.242072	47521.938995
528.603995	47209.770584
528.965860	47212.996922
529.327669	47315.586924
529.689421	47205.954430
530.051117	47160.019437
530.412755	47293.763769
530.774337	47351.351390
531.135862	47165.884819
531.497331	47358.648460
531.858743	47257.439735
532.220098	47601.924462
532.581396	47304.645099
532.942638	46965.985425
533.303824	47262.029705
533.664953	47208.464925
534.026025	46922.359280
534.387040	47393.838234
534.747999	47324.058583
535.108902	47488.286772
535.469748	47005.949172
535.830537	47124.602810
536.191270	47296.556568
536.551947	46925.109229
536.912567	47252.567459
537.273131	47375.959782
537.633638	46838.676126
537.994089	47185.956173
538.354483	46769.713141
538.714821	47336.913525
539.075103	47675.888271
539.435328	47439.586705
539.795497	47304.120819
540.155609	47295.636557
540.515665	47752.539016
540.875665	47201.724902
541.235609	47506.664298
541.595496	47488.788367
541.955328	48153.207403
542.315102	47503.420316
542.674821	47298.908266
543.034483	47323.496494
543.394090	47275.555121
543.753640	47237.307887
544.113134	48234.349815
544.472571	47236.357629
544.831953	48472.554417
545.191278	47669.181016
545.550548	47374.195378
545.909761	47843.632666
546.268918	48034.914207
546.628019	48323.532868
546.987064	47866.716109
547.346053	47123.803787
547.704986	48002.371038
548.063863	47515.534209
548.422684	47726.330057
548.781449	47558.502483
549.140158	47930.438814
549.498811	47765.837579
549.857408	47190.427677
550.215949	47995.220162
550.574434	47925.558977
550.932864	47643.624887
551.291237	48357.858084
551.649555	47946.946073
552.007817	48168.474537
552.366022	47770.505688
552.724173	47944.183520
553.082267	48321.738217
553.440305	48597.970763
553.798288	47877.025269
554.156215	48166.412705
554.514086	48346.175210
554.871902	48073.829394
555.229661	48059.293227
555.587365	47846.458232
555.945014	47914.962472
556.302606	47792.419584
556.660143	48015.140281
557.017625	48065.619875
557.375050	47812.339703
557.732421	48116.371692
558.089735	48067.490143
558.446994	47942.761915
558.804197	48397.786543
559.161345	48287.309657
559.518437	47489.763830
559.875474	47769.323537
560.232455	47869.362715
560.589381	48005.703241
560.946251	47671.391562
561.303065	48302.375145
561.659825	48056.775171
562.016528	47678.887758
562.373177	47365.345633
562.729770	47776.786966
563.086307	47237.920387
563.442789	47645.585896
563.799216	47640.043147
564.155587	47365.511991
564.511904	47341.208588
564.868164	47358.834982
565.224370	47541.964978
565.580520	47196.623255
565.936615	47337.745315
566.292654	46997.742174
566.648638	47187.007254
567.004567	47066.148111
567.360441	47018.196655
567.716260	46807.937690
568.072023	47009.636776
568.427732	46905.872186
568.783385	46400.320072
569.138982	46716.486118
569.494525	46574.817092
569.850013	46284.209697
570.205445	46160.363670
570.560823	46029.951541
570.916145	45816.746021
571.271412	45770.720286
571.626625	45446.503518
571.981782	45400.006435
572.336884	45015.091654
572.691931	45229.738944
573.046923	44735.302574
573.401860	44503.391853
573.756743	44386.419440
574.111570	44404.423921
574.466342	44146.899098
574.821059	44178.751628
575.175722	43607.293990
575.530330	43527.096794
575.884882	43161.003160
576.239380	43018.764484
576.593823	42886.789597
576.948211	42684.828371
577.302544	42130.326654
577.656823	42044.082594
578.011047	42144.623366
578.365216	41781.302367
578.719330	41470.661426
579.073389	41212.720707
579.427394	41161.671463
579.781344	41026.994517
580.135239	40584.197207
580.489080	40553.960367
580.842866	39949.311771
581.196597	40224.105067
581.550273	40036.682529
581.903895	39796.963061
582.257463	40034.814782
582.610975	39327.712296
582.964434	39436.928894
583.317837	38999.160136
583.671186	38728.135102
584.024481	38789.017117
584.377721	38255.794110
584.730906	38372.937923
585.084037	38265.301726
585.437113	37881.344764
585.790135	37768.324615
586.143103	37295.580331
586.496016	37260.226719
586.848874	37153.394587
587.201679	37016.499534
587.554428	36445.697245
587.907124	36447.494417
588.259765	36079.880875
588.612352	36148.178428
588.964884	35522.185587
589.317362	35596.550168
589.669786	35405.273668
590.022155	35080.154533
590.374470	35283.118948
590.726731	34754.667393
591.078937	34208.080288
591.431090	34147.563756
591.783188	33755.367028
592.135232	33343.444265
592.487222	33380.174112
592.839157	33322.742767
593.191038	32902.449168
593.542866	32570.171594
593.894639	31957.890692
594.246358	32028.645807
594.598022	31870.996323
594.949633	31419.407241
595.301190	31244.985839
595.652692	30962.855143
596.004141	31068.895814
596.355535	30193.123883
596.706876	30017.570742
597.058162	29757.411915
597.409395	29967.809512
597.760573	29866.157165
598.111698	29400.581402
598.462768	29261.811039
598.813785	29141.065322
599.164748	28592.159286
599.515657	28720.620489
599.866511	28194.278657
600.217312	28473.263672
600.568060	27585.090503
600.918753	27957.735115
601.269392	27775.507486
601.619978	27389.405513
601.970510	27372.860446
602.320988	27344.748452
602.671412	27389.413075
603.021783	27077.234582
603.372100	26702.238271
603.722363	26615.981608
604.072572	26511.695258
604.422728	26368.518927
604.772830	26085.972336
605.122878	25989.527502
605.472872	25809.923793
605.822813	25817.026779
606.172701	25557.233436
606.522534	25557.921553
606.872314	25567.595527
607.222041	25251.590799
607.571714	25319.253166
607.921333	24829.895759
608.270899	24852.117165
608.620411	24901.724639
608.969870	24632.428722
609.319276	24451.428613
609.668627	24335.650953
610.017926	24459.454130
610.367171	24395.744028
610.716362	24295.662001
611.065500	24082.373302
611.414585	24027.487739
611.763616	24038.154821
612.112594	23832.695034
612.461518	23791.173571
612.810389	23786.906234
613.159207	23543.473956
613.507971	23436.213325
613.856682	23531.833932
614.205340	23309.266989
614.553945	23508.916846
614.902496	23059.676942
615.250994	23131.803250
615.599439	23004.824147
615.947830	22959.050470
616.296169	22807.571358
616.644454	22701.364329
616.992686	22631.486375
617.340864	22727.580850
617.688990	22423.448038
618.037063	22554.339077
618.385082	22363.382690
618.733048	22353.849868
619.080961	22205.012322
619.428821	22053.757542
619.776628	21952.788271
620.124382	21710.102084
620.472083	21624.682252
620.819731	21526.120133
621.167326	21231.593240
621.514868	21075.390568
621.862357	20728.367619
622.209793	20594.701425
622.557176	20306.632250
622.904506	20063.010929
623.251783	19773.258009
623.599007	19516.519605
623.946179	19279.761815
624.293297	19125.308423
624.640363	18744.250124
624.987376	18590.840251
625.334336	18352.060958
625.681243	18062.698727
626.028097	17912.610974
626.374899	17713.722331
626.721647	17558.646357
627.068343	17384.638329
627.414987	17152.916651
627.761577	16937.203157
628.108115	16941.893951
628.454600	16600.796879
628.801032	16552.026236
629.147412	16407.844195
629.493739	16279.917354
629.840014	16033.629262
630.186236	16031.491813
630.532405	15777.450427
630.878521	15732.274127
631.224585	15575.443831
631.570597	15361.580440
631.916556	15304.812007
632.262462	15176.222255
632.608316	15066.161263
632.954117	14922.213636
633.299866	14807.973528
633.645562	14676.797664
633.991206	14415.328137
634.336797	14164.434951
634.682336	14057.789342
635.027823	13877.552968
635.373257	13720.321900
635.718639	13533.768961
636.063968	13391.550449
636.409245	13126.647897
636.754470	13033.288248
637.099642	12856.373995
637.444762	12605.692538
637.789829	12547.326059
638.134845	12350.458919
638.479808	12249.802200
638.824719	12119.987447
639.169577	11925.766913
639.514383	11855.198321
639.859137	11678.510920
640.203839	11661.935606
640.548489	11469.053498
640.893086	11402.240566
641.237632	11252.787998
641.582125	11196.153155
641.926566	11096.522311
642.270955	11003.245842
642.615292	10933.133474
642.959576	10845.858498
643.303809	10764.897567
643.647990	10718.047604
643.992118	10626.951433
644.336195	10554.956195
644.680219	10499.264047
645.024192	10483.651594
645.368112	10537.700325
645.711981	10471.278082
646.055797	10598.678122
646.399562	10515.821717
646.743274	10662.645323
647.086935	10693.509787
647.430544	10603.731879
647.774101	10558.563140
648.117606	10544.024453
648.461059	10526.014930
648.804460	10375.150840
649.147810	10162.086473
649.491108	10026.096306
649.834354	9872.373882
650.177548	9627.462025
650.520690	9465.514958
650.863781	9392.302280
651.206820	9294.430799
651.549807	9134.474987
651.892742	8976.704516
652.235626	8863.253349
652.578458	8779.698744
652.921238	8601.443544
653.263967	8594.902647
653.606644	8481.063311
653.949269	8409.299965
654.291843	8282.429247
654.634365	8288.864279
654.976836	8169.509921
655.319255	8108.552289
655.661622	8051.317548
656.003938	7957.569731
656.346203	7877.811115
656.688416	7865.440124
657.030577	7773.965867
657.372687	7694.991151
657.714746	7676.069180
658.056753	7646.719582
658.398708	7508.110536
658.740612	7466.067313
659.082465	7455.198586
659.424266	7377.562296
659.766016	7345.235897
660.107715	7284.820188
660.449362	7255.342041
660.790958	7212.686318
661.132503	7163.673700
661.473996	7124.874459
661.815438	7097.044769
662.156829	7077.900988
662.498168	7001.671180
662.839456	6958.251722
663.180693	6934.860768
663.521879	6911.643734
663.863013	6858.996444
664.204097	6819.188972
664.545129	6838.889802
664.886110	6790.719056
665.227040	6754.979796
665.567918	6734.782413
665.908746	6706.781324
666.249522	6687.032604
666.590248	6650.968189
666.930922	6628.267873
667.271545	6587.860505
667.612118	6561.830507
667.952639	6491.234188
668.293109	6455.079033
668.633528	6402.761938
668.973896	6352.078177
669.314213	6317.193393
669.654480	6250.453557
669.994695	6212.639862
670.334859	6162.780330
670.674973	6113.596313
671.015035	6098.911431
671.355047	6054.970214
671.695008	6019.851016
672.034918	5975.597247
672.374777	5944.316887
672.714585	5904.970681
673.054342	5896.504063
673.394049	5841.605898
673.733705	5839.075239
674.073310	5775.105517
674.412864	5751.858236
674.752368	5675.883006
675.091820	5670.718344
675.431223	5599.602787
675.770574	5541.223705
676.109875	5494.565305
676.449125	5436.229073
676.788324	5397.376900
677.127473	5312.987985
677.466571	5280.008757
677.805619	5221.307041
678.144616	5194.092372
678.483562	5156.923944
678.822458	5103.114668
679.161303	5066.984718
679.500098	5032.077249
679.838842	5003.229246
680.177535	4988.864478
680.516179	4990.472606
680.854771	4988.098223
681.193314	5038.852559
681.531805	5120.292400
681.870247	5172.354916
682.208638	5211.781780
682.546978	5210.284558
682.885268	5192.688410
683.223508	5130.246158
683.561697	5076.436882
683.899836	5043.387077
684.237925	4983.843489
684.575963	4954.158654
684.913951	4898.216970
685.251889	4891.454262
685.589776	4877.422210
685.927614	4858.795147
686.265401	4850.968756
686.603137	4848.869115
686.940824	4871.506416
687.278460	4890.927462
687.616046	4892.507863
687.953582	4928.146300
688.291068	4908.906737
688.628504	4910.028393
688.965889	4892.233120
689.303224	4845.514227
689.640510	4799.014624
689.977745	4722.076534
690.314930	4641.912106
690.652065	4586.356070
690.989150	4506.534440
691.326185	4422.752983
691.663170	4349.494936
692.000105	4277.202269
692.336990	4213.497208
692.673825	4163.181451
693.010610	4112.719501
693.347345	4054.232034
693.684030	3997.408148
694.020665	3963.324907
694.357251	3906.659817
694.693786	3893.315883
695.030272	3863.578116
695.366707	3818.918534
695.703093	3790.355357
696.039429	3778.160806
696.375716	3752.261878
696.711952	3740.294178
697.048139	3721.830953
697.384276	3703.723128
697.720363	3703.776060
698.056400	3681.199252
698.392388	3661.150584
698.728326	3646.185918
699.064214	3626.129688
699.400053	3608.921709
699.735842	3580.744180
700.071581	3553.436249
700.407270	3526.569420
700.742910	3505.840195
701.078501	3482.282883
701.414042	3454.788430
701.749533	3428.385387
702.084974	3404.127355
702.420366	3404.051738
702.755709	3375.843961
703.091002	3348.808253
703.426246	3339.300637
703.761440	3328.363854
704.096584	3305.028352
704.431679	3294.026034
704.766725	3282.146555
705.101721	3272.258332
705.436668	3266.541663
705.771565	3245.081472
706.106413	3254.599170
706.441212	3246.926534
706.775961	3242.649115
707.110661	3243.793457
707.445311	3250.147831
707.779913	3237.872622
708.114465	3243.153230
708.448967	3248.315372
708.783421	3273.589197
709.117825	3280.936678
709.452180	3290.409006
709.786485	3299.225984
710.120742	3330.007270
710.454949	3332.467353
710.789107	3353.846886
711.123216	3378.770351
711.457275	3384.718913
711.791286	3406.947880
712.125247	3409.670103
712.459159	3393.112434
712.793023	3416.379879
713.126837	3364.342569
713.460602	3361.133874
713.794318	3335.499607
714.127985	3312.181750
714.461602	3262.475973
714.795171	3249.195053
715.128691	3201.649411
715.462162	3168.440810
715.795584	3144.830566
716.128957	3127.516723
716.462281	3103.934205
716.795556	3087.046340
717.128782	3063.184038
717.461960	3039.225954
717.795088	3030.731610
718.128167	3011.716378
718.461198	2993.280878
718.794180	2982.417192
719.127113	2967.427321
719.459997	2952.707151
719.792833	2935.514296
720.125619	2933.215530
720.458357	2917.903025
720.791046	2910.159813
721.123686	2897.332597
721.456278	2891.283212
721.788821	2886.385731
722.121315	2875.403578
722.453761	2873.714791
722.786158	2869.442413
723.118506	2866.730272
723.450805	2859.264324
723.783056	2862.226002
724.115259	2856.753829
724.447412	2851.742922
724.779518	2857.910774
725.111574	2853.000690
725.443582	2858.881196
725.775542	2855.475897
726.107453	2867.025180
726.439315	2863.725745
726.771129	2876.918444
727.102895	2881.301728
727.434612	2886.799106
727.766281	2890.622821
728.097901	2893.639952
728.429473	2888.187944
728.760996	2888.306411
729.092471	2884.684342
729.423897	2879.214690
729.755276	2871.405943
730.086606	2871.642877
730.417887	2880.084289
730.749120	2890.181720
731.080305	2890.055691
731.411442	2898.108935
731.742530	2894.272617
732.073570	2897.327556
732.404562	2898.242525
732.735506	2894.081053
733.066401	2883.353477
733.397249	2865.744727
733.728048	2847.067252
734.058798	2823.477172
734.389501	2803.178967
734.720156	2787.274126
735.050762	2773.625202
735.381320	2763.794952
735.711831	2752.815319
736.042293	2747.340626
736.372707	2746.604617
736.703073	2737.286045
737.033391	2739.950294
737.363661	2739.902403
737.693883	2736.487022
738.024056	2743.489184
738.354182	2745.278794
738.684260	2755.104003
739.014290	2757.407810
739.344272	2764.354520
739.674207	2763.820158
740.004093	2768.642022
740.333931	2765.793770
740.663722	2768.478184
740.993464	2762.980806
741.323159	2761.133223
741.652806	2752.424630
741.982405	2746.037488
742.311956	2736.171950
742.641460	2731.370251
742.970915	2721.373642
743.300323	2713.960626
743.629683	2707.397043
743.958996	2700.699871
744.288260	2691.366174
744.617477	2683.025585
744.946647	2676.658608
745.275768	2675.310099
745.604842	2666.722494
745.933869	2663.780980
746.262847	2661.739313
746.591778	2662.006494
746.920662	2660.297543
747.249498	2658.767553
747.578286	2660.763850
747.907027	2664.476660
748.235720	2667.294665
748.564365	2667.614778
748.892963	2663.168480
749.221514	2666.236022
749.550017	2662.266114
749.878473	2660.536998
750.206881	2654.986687
750.535242	2652.140956
750.863555	2648.317241
751.191821	2646.666263
751.520039	2644.861530
751.848210	2647.137611
752.176334	2643.369348
752.504411	2642.063690
752.832440	2638.862557
753.160421	2638.960859
753.488356	2632.672020
753.816243	2636.374747
754.144082	2630.499283
754.471875	2630.315281
754.799620	2631.504993
755.127318	2627.968623
755.454969	2626.529374
755.782572	2626.063067
756.110129	2621.402521
756.437638	2622.957717
756.765100	2622.937552
757.092515	2622.841770
757.419882	2623.514764
757.747203	2623.408900
758.074477	2624.979219
758.401703	2622.899743
758.728882	2621.515947
759.056014	2625.190948
759.383099	2626.758747
759.710138	2629.158336
760.037129	2631.681433
760.364073	2630.416104
760.690970	2629.848974
761.017820	2627.703963
761.344623	2633.314767
761.671379	2635.936167
761.998088	2642.683752
762.324751	2674.049811
762.651366	2720.947665
762.977935	2786.001235
763.304456	2818.672953
763.630931	2832.460509
763.957359	2819.638334
764.283740	2786.248251
764.610074	2754.186513
764.936362	2717.507077
765.262602	2687.812161
765.588796	2662.359375
765.914943	2643.734832
766.241044	2627.227574
766.567097	2615.660646
766.893104	2602.692278
767.219064	2595.122986
767.544978	2587.924218
767.870845	2580.062538
768.196665	2575.777558
768.522438	2574.860068
768.848165	2571.142217
769.173846	2564.674416
769.499479	2563.701474
769.825066	2560.676781
770.150607	2556.265772
770.476101	2555.020607
770.801548	2553.145297
771.126949	2551.204453
771.452303	2551.080945
771.777611	2544.880326
772.102872	2545.951571
772.428087	2545.891077
772.753256	2540.426466
773.078378	2538.926723
773.403453	2537.248019
773.728482	2532.189221
774.053465	2531.231402
774.378401	2530.288706
774.703291	2530.850795
775.028135	2526.207892
775.352932	2526.104548
775.677683	2524.375432
776.002388	2525.303005
776.327046	2523.079856
776.651658	2520.433250
776.976224	2517.658095
777.300743	2520.657582
777.625216	2517.582478
777.949643	2516.191119
778.274024	2517.814371
778.598359	2511.802795
778.922647	2510.597959
779.246889	2511.492764
779.571086	2510.270284
779.895236	2515.442508
780.219339	2517.161541
780.543397	2514.313289
780.867409	2513.509225
781.191374	2512.911849
781.515294	2512.992507
781.839167	2514.832528
782.162995	2514.227590
782.486776	2516.564165
782.810511	2512.458145
783.134201	2511.691889
783.457844	2515.555934
783.781441	2511.114677
784.104993	2511.122239
784.428498	2510.895387
784.751958	2511.485202
785.075372	2509.279697
785.398739	2508.992352
785.722061	2511.036539
786.045337	2508.268946
786.368568	2510.484533
786.691752	2512.667353
787.014891	2515.989473
787.337983	2519.067098
787.661030	2531.894313
787.984031	2539.201466
788.306987	2543.912424
788.629897	2544.083823
788.952760	2539.917310
789.275579	2537.963863
789.598351	2536.716177
789.921078	2529.030938
790.243759	2527.090094
790.566395	2521.993487
790.888984	2519.359484
791.211529	2511.432270
791.534027	2512.175840
791.856480	2508.233658
792.178888	2507.487567
792.501249	2507.023781
792.823566	2507.016219
793.145836	2504.059583
793.468062	2502.983296
793.790241	2498.998264
794.112375	2503.706702
794.434464	2502.446413
794.756507	2507.293483
795.078505	2504.795591
795.400457	2508.979749
795.722364	2511.820439
796.044226	2517.446367
796.366042	2520.561800
796.687812	2518.749505
797.009538	2521.864938
797.331218	2522.159845
797.652852	2518.094155
797.974442	2516.617097
798.295986	2514.905625
798.617484	2511.490243
798.938938	2510.847496
799.260346	2511.540655
799.581709	2507.999244
799.903026	2510.134173
800.224299	2503.658811
800.545526	2502.133862
800.866708	2498.705877
801.187845	2503.371465
801.508936	2497.944663
801.829983	2501.150837
802.150984	2495.724035
802.471940	2498.869715
802.792851	2497.463233
803.113717	2493.452995
803.434538	2495.534991
803.755314	2492.883344
804.076045	2492.888386
804.396731	2495.779487
804.717372	2494.488952
805.037967	2490.934938
805.358518	2491.867552
805.679024	2495.305619
805.999485	2495.671102
806.319901	2498.146309
806.640272	2498.625219
806.960598	2496.563387
807.280879	2494.955259
807.601115	2496.926350
807.921306	2498.410970
808.241453	2498.002636
808.561554	2496.475167
808.881611	2497.745537
809.201623	2496.439878
809.521590	2496.170177
809.841513	2494.032728
810.161390	2494.436020
810.481223	2494.355361
810.801011	2490.272027
811.120755	2493.485762
811.440453	2492.651451
811.760107	2491.043323
812.079716	2490.776142
812.399281	2488.505102
812.718801	2487.874958
813.038276	2484.424288
813.357707	2488.784886
813.677093	2489.425113
813.996434	2488.192551
814.315731	2490.239259
814.634983	2489.493168
814.954191	2490.594661
815.273354	2492.096924
815.592473	2491.396204
815.911547	2493.057264
816.230577	2495.219919
816.549562	2498.206803
816.868502	2497.027173
817.187399	2501.261742
817.506250	2501.299551
817.825058	2504.455313
818.143821	2506.882629
818.462539	2508.805829
818.781213	2517.098527
819.099843	2523.619259
819.418429	2541.258257
819.736970	2552.469783
820.055466	2570.549881
820.373919	2593.378746
820.692327	2626.983078
821.010691	2685.606656
821.329011	2814.882005
821.647286	3018.559744
821.965517	3239.831110
822.283704	3370.593599
822.601847	3410.711102
822.919945	3320.726506
823.237999	3208.812890
823.556010	3100.425562
823.873976	2999.796569
824.191897	2908.329874
824.509775	2841.111129
824.827609	2781.544855
825.145398	2742.004565
825.463144	2722.707028
825.780845	2725.882955
826.098502	2750.947572
826.416116	2800.867597
826.733685	2845.592714
827.051210	2854.878520
827.368692	2828.712411
827.686129	2783.019392
828.003522	2727.856566
828.320872	2679.519463
828.638177	2643.006385
828.955439	2612.366252
829.272656	2586.404310
829.589830	2563.905640
829.906960	2551.121274
830.224046	2536.259953
830.541088	2530.394570
830.858086	2519.125071
831.175041	2517.955523
831.491952	2514.630882
831.808819	2518.056346
832.125642	2520.125740
832.442421	2533.968748
832.759157	2558.186451
833.075849	2603.040118
833.392497	2641.365490
833.709101	2666.793070
834.025662	2664.630415
834.342179	2645.005203
834.658653	2613.971860
834.975083	2590.291040
835.291469	2571.593400
835.607811	2549.825698
835.924110	2534.845909
836.240366	2523.475587
836.556578	2509.642660
836.872746	2503.825169
837.188871	2495.471977
837.504952	2491.250011
837.820990	2486.428147
838.136984	2486.554176
838.452935	2479.627630
838.768842	2485.152735
839.084706	2490.004846
839.400526	2505.781137
839.716303	2530.051772
840.032037	2543.400747
840.347727	2541.094419
840.663373	2526.661596
840.978977	2514.227590
841.294537	2502.700992
841.610054	2495.376195
841.925527	2486.133239
842.240957	2481.691983
842.556344	2476.101343
842.871687	2470.661938
843.186987	2469.182360
843.502244	2465.477112
843.817458	2459.954528
844.132629	2461.045937
844.447756	2460.786318
844.762840	2456.856738
845.077881	2455.036882
845.392879	2452.523867
845.707833	2452.909515
846.022745	2447.618824
846.337613	2454.583178
846.652438	2452.528908
846.967221	2451.639144
847.281960	2451.775255
847.596656	2453.748867
847.911309	2451.074535
848.225919	2451.699638
848.540485	2453.277519
848.855009	2452.017231
849.169490	2450.401541
849.483928	2450.774586
849.798323	2450.782148
850.112675	2452.851542
850.426984	2451.969340
850.741251	2451.533280
851.055474	2449.063115
851.369654	2447.981787
851.683792	2452.060081
851.997887	2449.491613
852.311938	2450.640996
852.625947	2452.667540
852.939914	2450.658640
853.253837	2451.187961
853.567718	2448.531273
853.881555	2451.747529
854.195350	2447.439863
854.509103	2449.320213
854.822812	2449.506736
855.136479	2449.189143
855.450103	2450.875409
855.763685	2451.160235
856.077224	2447.719647
856.390720	2449.111006
856.704173	2449.557148
857.017584	2450.212498
857.330953	2451.175358
857.644278	2451.467745
857.957561	2454.837756
858.270802	2450.797272
858.584000	2451.596294
858.897155	2452.728033
859.210268	2450.431788
859.523339	2447.921293
859.836367	2449.998249
860.149352	2447.386931
860.462295	2450.562858
860.775195	2448.775769
861.088054	2445.834256
861.400869	2449.720985
861.713642	2444.936930
862.026373	2451.462704
862.339062	2447.886005
862.651708	2451.729885
862.964312	2452.957406
863.276873	2454.608384
863.589392	2452.722992
863.901869	2455.835905
864.214303	2451.697118
864.526696	2454.310956
864.839045	2456.012345
865.151353	2457.063426
865.463619	2454.278188
865.775842	2456.208950
866.088023	2454.404217
866.400162	2455.672067
866.712258	2453.154011
867.024313	2456.186265
867.336325	2456.997891
867.648296	2455.513271
867.960224	2459.478138
868.272110	2456.035030
868.583954	2458.966461
868.895755	2456.213991
869.207515	2457.517130
869.519233	2458.427058
869.830909	2458.331276
870.142542	2460.035186
870.454134	2460.410752
870.765684	2461.529888
871.077191	2457.756584
871.388657	2460.415793
871.700081	2459.689867
872.011463	2461.416462
872.322803	2461.416462
872.634101	2462.059209
872.945357	2463.443006
873.256571	2464.920064
873.567744	2464.988120
873.878874	2464.683130
874.189963	2466.132462
874.501010	2465.461988
874.812015	2467.070116
875.122979	2468.279993
875.433900	2467.564149
875.744780	2469.865436
876.055618	2467.543985
876.366415	2469.953656
876.677169	2469.046248
876.987882	2473.091774
877.298554	2468.262349
877.609183	2473.298462
877.919771	2470.916517
878.230317	2475.877012
878.540822	2482.148207
878.851285	2490.753457
879.161707	2497.213696
879.472087	2515.586181
879.782425	2536.194418
880.092722	2579.684452
880.402977	2642.900521
880.713191	2712.806202
881.023363	2785.890329
881.333494	2825.778459
881.643583	2842.134483
881.953631	2839.359328
882.263637	2818.105823
882.573602	2789.535084
882.883526	2761.775970
883.193408	2732.456619
883.503248	2702.423945
883.813048	2673.402022
884.122806	2651.387304
884.432522	2623.015690
884.742197	2595.586772
885.051831	2582.484813
885.361424	2558.811554
885.670975	2541.749769
885.980485	2529.134282
886.289954	2521.030627
886.599382	2511.129801
886.908768	2504.578821
887.218113	2498.547081
887.527417	2492.462408
887.836680	2488.018631
888.145901	2485.329175
888.455082	2480.905563
888.764221	2478.531179
889.073319	2473.603452
889.382376	2477.943885
889.691392	2474.435242
890.000366	2473.442135
890.309300	2471.889459
890.618193	2470.636733
890.927044	2470.349387
891.235855	2476.562609
891.544625	2476.280304
891.853353	2475.020016
892.162041	2477.570840
892.470687	2482.342292
892.779293	2483.534525
893.087858	2489.672129
893.396381	2498.925167
893.704864	2517.884947
894.013306	2535.609644
894.321707	2561.692574
894.630068	2576.810994
894.938387	2576.594225
895.246665	2574.328226
895.554903	2566.506876
895.863100	2551.832077
896.171256	2540.799512
896.479371	2534.261135
896.787446	2524.579599
897.095480	2515.273629
897.403473	2508.374810
897.711425	2501.569253
898.019336	2497.982472
898.327207	2492.359064
898.635038	2489.909064
898.942827	2483.327837
899.250576	2479.771303
899.558284	2478.750470
899.865952	2471.912144
900.173579	2470.969449
900.481165	2470.019191
900.788711	2466.926443
901.096216	2468.229582
901.403681	2466.702112
901.711105	2467.271762
902.018489	2464.622636
902.325832	2468.572380
902.633135	2471.138327
902.940397	2479.985552
903.247619	2496.472646
903.554800	2523.999867
903.861941	2564.266083
904.169041	2595.579210
904.476101	2602.825869
904.783121	2598.770260
905.090100	2583.924062
905.397039	2563.225085
905.703938	2549.775286
906.010796	2538.745242
906.317614	2526.754857
906.624391	2515.266067
906.931129	2506.149141
907.237826	2497.402739
907.544483	2488.968888
907.851099	2482.070069
908.157675	2479.249544
908.464211	2466.291258
908.770707	2458.961420
909.077163	2458.056533
909.383578	2453.947993
909.689954	2452.841459
909.996289	2449.937755
910.302584	2452.113013
910.608839	2454.661316
910.915054	2449.751232
911.221229	2450.230142
911.527363	2450.623352
911.833458	2450.157045
912.139513	2450.351129
912.445527	2453.751388
912.751502	2453.882458
913.057436	2459.092490
913.363331	2460.181379
913.669186	2463.788325
913.975000	2471.327371
914.280775	2475.481281
914.586510	2492.061636
914.892205	2508.891528
915.197859	2531.075126
915.503475	2556.974054
915.809050	2579.029102
916.114585	2590.530494
916.420081	2595.755650
916.725536	2594.225660
917.030952	2585.048240
917.336328	2575.848134
917.641665	2566.159036
917.946961	2558.236863
918.252218	2553.183106
918.557435	2538.193235
918.862612	2529.494724
919.167750	2522.056502
919.472848	2512.516118
919.777906	2503.376506
920.082925	2493.573983
920.387904	2487.627942
920.692843	2483.398413
920.997743	2477.127218
921.302603	2478.077476
921.607423	2471.065231
921.912204	2468.285034
922.216946	2461.880248
922.521647	2463.808490
922.826310	2458.716924
923.130932	2459.468056
923.435516	2456.425720
923.740059	2454.358847
924.044564	2450.313321
924.349028	2451.777776
924.653454	2444.886519
924.957840	2446.441715
925.262186	2445.194029
925.566493	2443.101950
925.870761	2438.050714
926.174989	2442.396189
926.479178	2442.701178
926.783328	2440.563729
927.087438	2442.892742
927.391509	2438.799325
927.695541	2439.885694
927.999533	2440.510797
928.303486	2441.892073
928.607400	2439.636157
928.911275	2438.925354
929.215110	2438.000302
929.518906	2437.211362
929.822663	2437.102977
930.126381	2438.680858
930.430060	2437.975097
930.733699	2436.298913
931.037299	2437.781012
931.340861	2437.140786
931.644383	2437.982658
931.947866	2435.406629
932.251309	2437.060127
932.554714	2438.252360
932.858080	2438.123811
933.161407	2436.669438
933.464694	2437.864191
933.767943	2437.012236
934.071153	2436.475353
934.374323	2436.402257
934.677455	2436.452668
934.980548	2435.580549
935.283602	2433.342276
935.586617	2438.151537
935.889593	2435.457040
936.192530	2435.210024
936.495428	2439.043821
936.798287	2438.310333
937.101108	2438.030549
937.403890	2439.805036
937.706632	2441.297217
938.009336	2444.831066
938.312002	2444.944492
938.614628	2442.348298
938.917216	2446.930707
939.219765	2448.869030
939.522275	2449.037909
939.824747	2448.818619
940.127179	2445.816612
940.429573	2444.568926
940.731929	2446.267795
941.034246	2440.931733
941.336524	2449.804164
941.638763	2445.914914
941.940964	2447.167641
942.243126	2442.307968
942.545250	2443.540531
942.847335	2443.893411
943.149381	2444.435335
943.451389	2441.093050
943.753359	2441.786209
944.055290	2440.977104
944.357182	2440.495674
944.659036	2437.473502
944.960851	2441.922320
945.262628	2441.130859
945.564367	2437.556681
945.866067	2437.511311
946.167729	2440.362083
946.469352	2440.203287
946.770937	2437.027360
947.072484	2437.375199
947.373992	2439.091712
947.675462	2437.216403
947.976893	2438.494336
948.278286	2433.455702
948.579641	2438.234716
948.880958	2437.201280
949.182236	2437.599531
949.483476	2437.833944
949.784678	2437.896959
950.085841	2437.798656
950.386967	2436.646753
950.688054	2437.786053
950.989103	2438.615323
951.290114	2438.781681
951.591087	2437.828903
951.892021	2437.962494
952.192917	2441.493822
952.493776	2438.491815
952.794596	2441.009871
953.095378	2439.928544
953.396122	2440.881322
953.696828	2439.633636
953.997496	2440.525921
954.298126	2437.455858
954.598718	2438.320416
954.899272	2435.436876
955.199788	2441.123297
955.500266	2437.506269
955.800706	2435.477205
956.101108	2430.403284
956.401472	2434.196752
956.701798	2431.809766
957.002087	2429.460588
957.302337	2432.699529
957.602550	2429.427820
957.902724	2429.269024
958.202861	2432.762544
958.502960	2427.923036
958.803022	2429.347162
959.103045	2428.296081
959.403031	2429.758016
959.702979	2429.838674
960.002889	2429.029569
960.302762	2427.295412
960.602596	2424.696698
960.902393	2427.131575
961.202153	2425.876328
961.501875	2429.117789
961.801559	2425.720052
962.101205	2426.163673
962.400814	2428.127203
962.700385	2424.888261
962.999918	2426.667789
963.299414	2424.127047
963.598873	2422.405493
963.898293	2424.371543
964.197677	2425.231060
964.497022	2428.681730
964.796331	2425.392377
965.095601	2422.634866
965.394835	2425.009249
965.694030	2421.200657
965.993189	2423.690987
966.292309	2422.760894
966.591393	2423.633014
966.890439	2424.006059
967.189447	2426.841708
967.488419	2421.984557
967.787353	2425.326842
968.086249	2424.885741
968.385108	2423.912798
968.683930	2424.064033
968.982714	2423.481779
969.281462	2423.938004
969.580172	2423.680905
969.878844	2423.078487
970.177480	2424.958838
970.476078	2422.040009
970.774639	2423.176790
971.073162	2423.943045
971.371649	2421.767787
971.670098	2423.257448
971.968510	2421.581264
972.266885	2416.998856
972.565223	2424.237953
972.863524	2422.138312
973.161788	2422.876841
973.460014	2424.454722
973.758204	2421.944228
974.056356	2425.359609
974.354471	2424.331214
974.652550	2424.699218
974.950591	2425.190731
975.248595	2424.454722
975.546563	2423.713673
975.844493	2424.830288
976.142386	2425.838519
976.440243	2421.921542
976.738062	2423.733837
977.035845	2423.607808
977.333590	2423.380956
977.631299	2423.189392
977.928971	2423.847263
978.226606	2423.680905
978.524204	2423.128899
978.821765	2421.402303
979.119290	2424.056471
979.416777	2421.334248
979.714228	2421.291398
980.011642	2422.259300
980.309020	2425.094949
980.606360	2427.711307
980.903664	2423.108734
981.200931	2427.686102
981.498162	2428.381781
981.795356	2426.546801
982.092513	2433.674993
982.389633	2433.795980
982.686717	2438.212031
982.983764	2438.176743
983.280775	2440.596497
983.577749	2442.814604
983.874686	2440.077258
984.171587	2438.280087
984.468451	2440.505756
984.765279	2433.715322
985.062070	2435.215065
985.358824	2430.431010
985.655543	2433.221289
985.952224	2429.740372
986.248869	2425.591502
986.545478	2421.813158
986.842050	2424.820206
987.138586	2420.225194
987.435086	2420.905750
987.731549	2416.940882
988.027975	2419.950451
988.324366	2421.956830
988.620719	2419.385842
988.917037	2419.622776
989.213318	2421.024217
989.509563	2420.646130
989.805772	2418.675039
990.101944	2420.031110
990.398080	2419.713517
990.694180	2417.578588
990.990244	2418.644792
991.286271	2417.041705
991.582262	2418.629669
991.878217	2418.143198
992.174136	2416.663619
992.470019	2420.444484
992.765865	2417.182858
993.061676	2420.278126
993.357450	2417.737385
993.653188	2415.995666
993.948890	2419.395924
994.244556	2420.898188
994.540186	2421.823240
994.835780	2420.411717
995.131337	2421.336768
995.426859	2422.828950
995.722345	2427.008067
996.017795	2425.011770
996.313208	2429.442944
996.608586	2428.777512
996.903928	2429.090063
997.199234	2430.206679
997.494504	2427.456729
997.789738	2426.645103
998.084936	2428.245670
998.380099	2424.600916
998.675225	2423.731317
998.970316	2422.990267
999.265371	2423.940524
999.560390	2422.153435
999.855373	2422.924732
1000.150320	2421.818199
1000.445232	2418.720410
1000.740108	2421.356933
1001.034948	2419.970616
1001.329752	2418.375091
1001.624521	2417.692014
1001.919254	2413.666653
1002.213951	2414.059863
1002.508613	2413.618762
1002.803239	2412.968453
1003.097829	2411.924934
1003.392384	2415.615059
1003.686903	2414.478279
1003.981386	2417.737385
1004.275834	2416.618248
1004.570246	2417.984401
1004.864623	2413.132291
1005.158964	2413.573392
1005.453270	2410.611714
1005.747540	2415.544483
1006.041775	2414.279153
1006.335974	2413.860737
1006.630138	2415.136149
1006.924266	2413.885943
1007.218359	2413.412075
1007.512416	2411.251940
1007.806438	2414.407702
1008.100425	2411.884605
1008.394376	2412.290418
1008.688292	2414.470717
1008.982172	2415.020203
1009.276017	2414.170768
1009.569827	2413.923752
1009.863602	2414.405182
1010.157341	2411.569533
1010.451045	2412.141704
1010.744714	2410.810839
1011.038347	2411.745973
1011.331945	2415.688156
1011.625508	2415.337795
1011.919036	2413.389389
1012.212528	2413.238155
1012.505986	2411.924934
1012.799408	2411.882084
1013.092795	2413.528021
1013.386147	2413.941396
1013.679464	2412.408885
1013.972745	2412.280336
1014.265992	2411.191446
1014.559204	2414.500964
1014.852380	2413.134811
1015.145521	2411.156158
1015.438628	2411.193967
1015.731699	2410.911662
1016.024736	2413.228072
1016.317737	2413.588515
1016.610703	2415.383166
1016.903635	2410.500808
1017.196531	2411.163720
1017.489393	2409.636250
1017.782219	2407.188770
1018.075011	2410.836045
1018.367768	2410.402506
1018.660490	2411.340160
1018.953177	2411.340160
1019.245829	2411.340160
