Dividing Wavelength (nm)	Counts (n)	Blue Motor Position (mm): 0.000000	Red Motor Position (mm): 20.200000	
326.493990	1983.353761
326.888308	1983.353761
327.282561	1983.353761
327.676750	1957.908537
328.070874	1962.332149
328.464933	1965.830710
328.858929	1976.354118
329.252859	1986.738895
329.646726	2002.742038
330.040528	2018.868689
330.434265	2038.617410
330.827938	2057.418393
331.221547	2075.327092
331.615091	2096.257963
332.008571	2115.749584
332.401986	2138.659108
332.795338	2158.669968
333.188625	2175.951043
333.581847	2198.235464
333.975006	2213.205170
334.368100	2232.817779
334.761129	2250.096334
335.154095	2265.887748
335.546996	2282.064811
335.939833	2299.938222
336.332606	2311.754687
336.725315	2322.076449
337.117960	2333.159426
337.510540	2339.307113
337.903056	2351.322703
338.295508	2354.193640
338.687896	2362.771164
339.080220	2369.332225
339.472480	2373.788605
339.864676	2376.412526
340.256807	2381.284801
340.648875	2383.674308
341.040879	2385.141284
341.432818	2386.484751
341.824694	2387.142622
342.216506	2388.145812
342.608253	2385.479041
342.999937	2385.642879
343.391557	2381.660367
343.783113	2381.080634
344.174605	2382.303114
344.566033	2378.023175
344.957397	2379.648947
345.348697	2377.861858
345.739934	2373.803729
346.131106	2372.495549
346.522215	2371.507483
346.913260	2371.300796
347.304241	2369.990096
347.695159	2365.760568
348.086012	2363.590351
348.476802	2365.571525
348.867528	2362.229240
349.258191	2360.454753
349.648789	2361.369723
350.039324	2362.892151
350.429796	2361.548684
350.820203	2360.298478
351.210548	2357.780421
351.600828	2357.724969
351.991045	2358.743282
352.381198	2358.032479
352.771288	2357.331759
353.161314	2354.130626
353.551276	2358.045082
353.941175	2358.045082
354.331010	2360.248066
354.720782	2358.327387
355.110490	2360.174969
355.500135	2359.917871
355.889717	2359.355782
356.279235	2361.160515
356.668689	2359.912829
357.058080	2357.835874
357.447408	2359.398632
357.836672	2358.856708
358.225873	2360.018694
358.615010	2358.067767
359.004084	2364.376771
359.393095	2361.556246
359.782043	2363.842409
360.170927	2365.453058
360.559748	2363.124044
360.948505	2367.593027
361.337199	2368.444982
361.725830	2368.223172
362.114398	2367.862729
362.502903	2369.778368
362.891344	2371.643594
363.279722	2371.152082
363.668037	2375.989069
364.056289	2373.317258
364.444478	2374.030581
364.832603	2376.977135
365.220665	2374.519573
365.608665	2376.140304
365.996601	2378.761704
366.384474	2377.007382
366.772284	2378.844883
367.160031	2379.384286
367.547715	2378.320603
367.935336	2381.753628
368.322893	2380.999976
368.710388	2379.830428
369.097820	2385.826881
369.485189	2385.690770
369.872495	2387.820657
370.259738	2386.192364
370.646918	2388.808723
371.034035	2389.690925
371.421090	2396.798952
371.808081	2394.384239
372.195010	2403.576783
372.581875	2406.863616
372.968678	2413.089441
373.355418	2421.341810
373.742096	2430.015115
374.128710	2440.772937
374.515262	2453.131326
374.901751	2464.612554
375.288177	2481.969246
375.674540	2501.604541
376.060841	2520.529032
376.447079	2544.371169
376.833254	2569.362689
377.219367	2593.282964
377.605417	2629.178500
377.991404	2658.505413
378.377329	2697.617205
378.763191	2730.629201
379.148991	2776.533948
379.534727	2824.477842
379.920402	2867.937629
380.306013	2916.030237
380.691563	2982.621358
381.077049	3038.321067
381.462474	3089.317379
381.847835	3162.593071
382.233134	3233.670820
382.618371	3293.831950
383.003545	3377.598283
383.388657	3458.982670
383.773706	3550.358625
384.158693	3618.063842
384.543618	3713.576063
384.928480	3788.439718
385.313280	3892.925193
385.698017	3996.858662
386.082692	4118.158906
386.467305	4175.502031
386.851856	4303.010456
387.236344	4457.753714
387.620770	4516.410060
388.005133	4635.663595
388.389435	4786.341163
388.773674	4866.833267
389.157851	4998.402341
389.541965	5129.048884
389.926018	5151.552595
390.310008	5327.241847
390.693936	5449.245332
391.077802	5572.138581
391.461606	5700.304876
391.845348	5811.343851
392.229027	5930.688128
392.612645	6158.734804
392.996200	6272.248986
393.379694	6440.162259
393.763125	6657.728376
394.146494	6752.166832
394.529801	6891.627832
394.913047	7125.746579
395.296230	7125.512165
395.679351	7177.315062
396.062410	7432.087416
396.445408	7328.005233
396.828343	7483.401321
397.211217	7615.250179
397.594028	7494.262487
397.976778	7698.340997
398.359466	7862.601954
398.742092	7834.285793
399.124656	7979.246692
399.507158	8165.078747
399.889598	8182.763114
400.271977	8392.202892
400.654294	8423.846215
401.036549	8618.656564
401.418742	8640.328484
401.800874	8939.785626
402.182944	9022.858800
402.564952	9373.425680
402.946898	9201.970996
403.328783	9262.245552
403.710606	9449.877298
404.092367	9702.587820
404.474067	10058.493282
404.855705	9848.680458
405.237282	9803.695722
405.618797	10222.963446
406.000250	10468.661723
406.381642	10823.589201
406.762972	10780.595720
407.144240	10571.987733
407.525447	10835.156128
407.906593	10770.805799
408.287677	11021.330981
408.668700	11176.762357
409.049661	11142.129630
409.430560	11307.746657
409.811399	11278.875969
410.192176	11437.079980
410.572891	11508.069508
410.953545	11984.352683
411.334138	11466.598456
411.714669	12042.255376
412.095139	11379.948583
412.475547	11873.843028
412.855894	11711.888399
413.236180	12033.922348
413.616405	11718.502393
413.996568	11987.997437
414.376670	11962.990793
414.756711	11842.010663
415.136691	12109.562341
415.516609	12278.095676
415.896466	12340.132115
416.276262	12631.110036
416.655997	13070.925503
417.035670	13110.556534
417.415283	13732.423190
417.794834	13815.173731
418.174324	13565.750041
418.553753	13467.560967
418.933121	13938.530765
419.312428	13742.747473
419.691674	13647.222649
420.070859	14086.314711
420.449983	13732.627357
420.829045	14265.104273
421.208047	14003.165919
421.586988	14425.186113
421.965867	14657.631197
422.344686	14633.446261
422.723444	15151.976825
423.102141	13865.870094
423.480777	14992.162166
423.859352	14493.763450
424.237866	15517.185736
424.616319	15196.074318
424.994712	15779.187104
425.373044	15542.910744
425.751314	16132.254396
426.129524	15260.986736
426.507673	16220.373766
426.885762	15881.797270
427.263789	15993.468910
427.641756	16074.664255
428.019662	16064.609673
428.397508	16015.697878
428.775292	16192.934765
429.153016	16075.732979
429.530679	16052.097530
429.908282	15973.087525
430.285824	15635.373067
430.663305	16121.226872
431.040726	15690.785431
431.418086	15422.293577
431.795385	15846.592373
432.172624	16069.071095
432.549802	15580.729480
432.926920	15601.002481
433.303977	15368.068405
433.680974	15439.209168
434.057910	15526.201840
434.434786	15405.241874
434.811601	15185.853379
435.188355	15832.774570
435.565050	15397.642334
435.941683	15202.975658
436.318257	15685.887950
436.694770	15364.779053
437.071222	15618.835562
437.447614	14770.074133
437.823946	14603.101036
438.200218	14520.108520
438.576429	14191.639538
438.952580	14188.191389
439.328670	13982.726561
439.704700	14049.272312
440.080670	13601.474178
440.456580	13761.344290
440.832429	13671.268953
441.208218	12861.405067
441.583947	12920.517637
441.959616	12786.705249
442.335224	12714.566338
442.710773	12574.991911
443.086261	12666.541786
443.461689	12120.612550
443.837057	11981.943011
444.212365	12099.956423
444.587612	11889.669731
444.962800	11478.480456
445.337927	11465.257509
445.712995	10689.693634
446.088002	11312.913840
446.462949	11198.830008
446.837837	11055.923379
447.212664	10827.670015
447.587431	11747.511713
447.962139	12716.295453
448.336786	13427.287189
448.711374	12559.203017
449.085901	10934.875193
449.460369	10633.247834
449.834776	10367.352175
450.209124	10968.615635
450.583412	10616.942222
450.957640	10553.408560
451.331808	9914.953988
451.705917	9263.296633
452.079965	9051.157317
452.453954	8942.840565
452.827883	8711.086120
453.201752	8456.961554
453.575562	8305.610993
453.949311	8387.048312
454.323001	8208.384779
454.696632	7960.165925
455.070202	8119.292467
455.443713	7962.182387
455.817164	7888.788228
456.190556	7803.219682
456.563888	7509.232193
456.937160	7391.803555
457.310373	6918.779487
457.683526	6814.031872
458.056619	6634.977649
458.429653	6461.453572
458.802628	6387.572942
459.175542	6254.980513
459.548398	6286.560822
459.921194	6353.204875
460.293930	6316.084339
460.666607	6429.611124
461.039224	6500.267936
461.411782	6370.990066
461.784280	6054.670265
462.156719	5824.823897
462.529099	5599.781748
462.901419	5318.099715
463.273680	5078.080298
463.645882	4948.525165
464.018024	4822.624868
464.390106	4775.911016
464.762130	4882.375144
465.134094	5115.704950
465.505999	5413.327111
465.877845	5613.244149
466.249631	5518.185632
466.621358	5226.958174
466.993026	4932.766518
467.364634	4673.033669
467.736184	4445.027322
468.107674	4283.244092
468.479105	4149.524965
468.850477	4028.484341
469.221790	3880.017319
469.593043	3736.949373
469.964238	3631.823671
470.335373	3565.829926
470.706449	3556.828946
471.077467	3577.371648
471.448425	3662.582271
471.819324	3697.938404
472.190164	3589.281374
472.560945	3444.466668
472.931667	3315.324909
473.302330	3244.171543
473.672934	3184.277594
474.043479	3155.290960
474.413965	3107.382354
474.784393	3070.362641
475.154761	3057.457287
475.525070	3028.299253
475.895321	2999.922598
476.265513	2985.537666
476.635645	2979.810915
477.005719	2959.074129
477.375734	2944.205245
477.745691	2935.965479
478.115588	2939.625357
478.485427	2947.837397
478.855207	2977.804536
479.224928	2996.716424
479.594591	3000.779594
479.964194	2975.180615
480.333739	2959.890796
480.703226	2951.056173
481.072653	2944.981583
481.442022	2937.099739
481.811333	2929.137237
482.180584	2906.918351
482.549777	2892.072153
482.918912	2878.524052
483.287988	2864.973430
483.657005	2849.630679
484.025964	2836.803463
484.394864	2828.760302
484.763706	2820.139929
485.132489	2803.526806
485.501213	2794.150260
485.869879	2788.516771
486.238487	2784.889660
486.607036	2777.915224
486.975527	2771.170160
487.343959	2762.703542
487.712333	2762.043151
488.080648	2756.611308
488.448905	2752.817840
488.817104	2748.938672
489.185244	2753.052253
489.553326	2759.245311
489.921350	2777.917745
490.289315	2795.161011
490.657222	2798.813327
491.025070	2797.931125
491.392861	2786.041564
491.760593	2773.189142
492.128267	2756.462594
492.495883	2742.259143
492.863440	2728.075857
493.230939	2716.057746
493.598380	2706.532486
493.965763	2696.724921
494.333088	2691.945907
494.700354	2684.406861
495.067563	2683.189423
495.434713	2679.504339
495.801805	2680.464679
496.168839	2678.133145
496.535815	2674.720284
496.902733	2671.264573
497.269593	2668.902793
497.636395	2666.336845
498.003139	2665.305929
498.369825	2665.883142
498.736453	2665.762154
499.103023	2662.898778
499.469535	2663.579334
499.835989	2662.278717
500.202385	2659.853922
500.568723	2661.169663
500.935003	2660.847029
501.301226	2661.406597
501.667390	2664.063285
502.033497	2672.537465
502.399546	2664.985816
502.765537	2660.821823
503.131470	2662.308963
503.497345	2666.160405
503.863163	2659.385094
504.228923	2662.853408
504.594625	2666.301557
504.960269	2666.014212
505.325856	2669.795077
505.691385	2667.672751
506.056856	2667.713080
506.422270	2674.271622
506.787625	2676.202383
507.152924	2676.426715
507.518164	2679.302693
507.883347	2677.366890
508.248472	2677.472754
508.613540	2683.270081
508.978550	2687.328210
509.343503	2688.497758
509.708398	2690.831812
510.073236	2696.296423
510.438016	2697.178625
510.802738	2694.441278
511.167403	2703.328832
511.532010	2708.914431
511.896561	2710.653629
512.261053	2719.848693
512.625488	2713.436346
512.989866	2713.360728
513.354186	2716.899618
513.718449	2713.552292
514.082655	2726.931515
514.446803	2723.332131
514.810894	2730.087277
515.174927	2730.699777
515.538904	2731.090467
515.902822	2737.361662
516.266684	2737.137331
516.630488	2740.981210
516.994235	2740.860223
517.357925	2744.504977
517.721558	2745.543455
518.085133	2749.541090
518.448651	2753.654671
518.812112	2752.192737
519.175516	2750.766090
519.538863	2758.766401
519.902152	2757.853952
520.265385	2763.484921
520.628560	2761.503748
520.991678	2758.756319
521.354739	2763.933584
521.717743	2763.868049
522.080690	2766.917947
522.443580	2772.800973
522.806413	2771.530603
523.169189	2773.171498
523.531908	2773.839451
523.894569	2773.274842
524.257174	2774.938423
524.619722	2778.079062
524.982213	2777.469082
525.344647	2777.819442
525.707025	2779.556120
526.069345	2781.542334
526.431608	2782.111985
526.793815	2782.147273
527.155964	2781.118877
527.518057	2780.534103
527.880093	2777.922786
528.242072	2781.940585
528.603995	2784.466203
528.965860	2781.411264
529.327669	2781.920421
529.689421	2782.515277
530.051117	2783.357150
530.412755	2782.404372
530.774337	2784.491409
531.135862	2781.812036
531.497331	2782.011162
531.858743	2777.917745
532.220098	2785.048457
532.581396	2777.378341
532.942638	2777.096037
533.303824	2780.723147
533.664953	2780.256840
534.026025	2779.727519
534.387040	2782.916049
534.747999	2781.628034
535.108902	2781.139042
535.469748	2778.411778
535.830537	2780.745832
536.191270	2778.522683
536.551947	2778.104267
536.912567	2780.392951
537.273131	2781.451593
537.633638	2776.309617
537.994089	2779.465379
538.354483	2776.854061
538.714821	2780.367745
539.075103	2781.776748
539.435328	2780.377828
539.795497	2778.467230
540.155609	2778.366407
540.515665	2781.698610
540.875665	2778.941099
541.235609	2780.569392
541.595496	2779.848507
541.955328	2784.788837
542.315102	2779.520832
542.674821	2774.121756
543.034483	2776.128135
543.394090	2773.736107
543.753640	2774.207455
544.113134	2779.571243
544.472571	2772.513628
544.831953	2778.436983
545.191278	2773.647887
545.550548	2769.660335
545.909761	2773.279883
546.268918	2771.323915
546.628019	2775.301386
546.987064	2772.495984
547.346053	2760.586258
547.704986	2767.870725
548.063863	2760.205651
548.422684	2760.520723
548.781449	2761.075250
549.140158	2760.848398
549.498811	2757.738006
549.857408	2750.125863
550.215949	2751.981008
550.574434	2749.536048
550.932864	2747.827097
551.291237	2747.249885
551.649555	2748.331213
552.007817	2744.550347
552.366022	2741.800398
552.724173	2740.376272
553.082267	2743.436252
553.440305	2740.008268
553.798288	2734.195817
554.156215	2732.416290
554.514086	2729.542832
554.871902	2725.925804
555.229661	2724.143757
555.587365	2722.177707
555.945014	2719.097562
556.302606	2712.271839
556.660143	2711.661860
557.017625	2709.022816
557.375050	2706.575335
557.732421	2703.606096
558.089735	2702.154243
558.446994	2696.573686
558.804197	2699.255580
559.161345	2695.814992
559.518437	2684.943744
559.875474	2684.706810
560.232455	2681.520801
560.589381	2679.302693
560.946251	2676.298165
561.303065	2677.006447
561.659825	2671.110818
562.016528	2664.174190
562.373177	2664.748882
562.729770	2660.693274
563.086307	2656.199085
563.442789	2654.409475
563.799216	2651.886378
564.155587	2650.200112
564.511904	2645.053094
564.868164	2643.397075
565.224370	2642.633340
565.580520	2642.028402
565.936615	2635.976496
566.292654	2633.226547
566.648638	2631.830147
567.004567	2628.157667
567.360441	2622.982922
567.716260	2621.868827
568.072023	2620.006121
568.427732	2615.643002
568.783385	2614.145780
569.138982	2612.625872
569.494525	2611.811725
569.850013	2606.579008
570.205445	2607.761158
570.560823	2604.106322
570.916145	2604.275200
571.271412	2602.742690
571.626625	2598.956783
571.981782	2599.113059
572.336884	2596.567276
572.691931	2591.460587
573.046923	2592.680547
573.401860	2592.272213
573.756743	2587.972109
574.111570	2589.323138
574.466342	2584.942375
574.821059	2586.495051
575.175722	2578.968608
575.530330	2581.771490
575.884882	2577.189081
576.239380	2578.550192
576.593823	2575.253278
576.948211	2575.757393
577.302544	2573.327557
577.656823	2569.788667
578.011047	2571.069120
578.365216	2569.196331
578.719330	2568.513255
579.073389	2567.285734
579.427394	2568.954356
579.781344	2566.280024
580.135239	2562.736093
580.489080	2561.934549
580.842866	2559.600495
581.196597	2564.344221
581.550273	2558.667882
581.903895	2559.378684
582.257463	2560.089487
582.610975	2556.530432
582.964434	2556.979095
583.317837	2558.728375
583.671186	2557.024465
584.024481	2556.721996
584.377721	2555.512119
584.730906	2555.335679
585.084037	2553.475493
585.437113	2555.804506
585.790135	2555.784342
586.143103	2553.099927
586.496016	2550.657488
586.848874	2547.171530
587.201679	2549.155224
587.554428	2543.423432
587.907124	2549.233362
588.259765	2544.716488
588.612352	2551.711089
588.964884	2546.231355
589.317362	2546.488454
589.669786	2546.100285
590.022155	2546.695141
590.374470	2545.303783
590.726731	2544.230017
591.078937	2544.663556
591.431090	2540.575180
591.783188	2544.068700
592.135232	2541.432177
592.487222	2541.064172
592.839157	2541.674152
593.191038	2540.640715
593.542866	2542.541230
593.894639	2540.572660
594.246358	2535.639891
594.598022	2539.514017
594.949633	2538.657021
595.301190	2536.819521
595.652692	2535.120652
596.004141	2535.733152
596.355535	2533.860363
596.706876	2534.850950
597.058162	2532.925229
597.409395	2532.388347
597.760573	2532.922709
598.111698	2532.710980
598.462768	2531.949766
598.813785	2530.896165
599.164748	2530.951618
599.515657	2531.627132
599.866511	2528.153777
600.217312	2527.886596
600.568060	2527.584127
600.918753	2531.133099
601.269392	2530.089580
601.619978	2528.388191
601.970510	2526.096987
602.320988	2528.332738
602.671412	2529.983716
603.021783	2529.156967
603.372100	2528.005063
603.722363	2526.177645
604.072572	2525.360978
604.422728	2526.180166
604.772830	2520.894516
605.122878	2520.491223
605.472872	2527.632018
605.822813	2519.636748
606.172701	2525.426513
606.522534	2525.381143
606.872314	2526.263345
607.222041	2521.010462
607.571714	2525.577748
607.921333	2525.023221
608.270899	2524.322500
608.620411	2525.522295
608.969870	2526.223015
609.319276	2525.368540
609.668627	2525.562624
610.017926	2527.793335
610.367171	2527.662265
610.716362	2525.723941
611.065500	2522.336286
611.414585	2524.035155
611.763616	2528.133613
612.112594	2523.899043
612.461518	2526.091945
612.810389	2523.440298
613.159207	2526.258303
613.507971	2523.523477
613.856682	2525.592871
614.205340	2523.901564
614.553945	2527.863911
614.902496	2523.415093
615.250994	2525.648324
615.599439	2524.236801
615.947830	2525.093797
616.296169	2526.767460
616.644454	2525.839888
616.992686	2525.050947
617.340864	2524.367871
617.688990	2527.183355
618.037063	2523.687315
618.385082	2524.977850
618.733048	2528.736031
619.080961	2525.565145
619.428821	2526.409538
619.776628	2524.151101
620.124382	2524.453570
620.472083	2525.174455
620.819731	2526.626308
621.167326	2525.681091
621.514868	2524.897192
621.862357	2521.033147
622.209793	2521.635565
622.557176	2520.027437
622.904506	2517.358146
623.251783	2512.846314
623.599007	2517.012827
623.946179	2514.320851
624.293297	2511.608710
624.640363	2513.380676
624.987376	2515.308917
625.334336	2513.945285
625.681243	2511.883453
626.028097	2512.097702
626.374899	2510.877743
626.721647	2510.159379
627.068343	2511.921262
627.414987	2509.277177
627.761577	2509.282218
628.108115	2506.764162
628.454600	2508.599142
628.801032	2505.955056
629.147412	2506.174347
629.493739	2509.589728
629.840014	2505.259377
630.186236	2507.459841
630.532405	2505.695437
630.878521	2508.349604
631.224585	2508.185767
631.570597	2501.266783
631.916556	2507.200221
632.262462	2505.536641
632.608316	2501.128152
632.954117	2505.304747
633.299866	2503.825169
633.645562	2502.106135
633.991206	2501.528923
634.336797	2496.696977
634.682336	2504.006650
635.027823	2497.899293
635.373257	2499.399036
635.718639	2497.458192
636.063968	2498.247132
636.409245	2496.560866
636.754470	2498.562204
637.099642	2493.765546
637.444762	2493.042141
637.789829	2492.845536
638.134845	2493.271513
638.479808	2491.857470
638.824719	2490.652634
639.169577	2490.282109
639.514383	2488.202633
639.859137	2491.325628
640.203839	2489.944352
640.548489	2488.545432
640.893086	2487.892602
641.237632	2485.843373
641.582125	2485.848414
641.926566	2483.418578
642.270955	2485.782879
642.615292	2486.160966
642.959576	2486.569299
643.303809	2483.917652
643.647990	2486.392859
643.992118	2486.649958
644.336195	2485.056953
644.680219	2485.682056
645.024192	2487.118785
645.368112	2485.979484
645.711981	2489.336893
646.055797	2489.830926
646.399562	2488.626090
646.743274	2491.035762
647.086935	2491.242449
647.430544	2492.671616
647.774101	2492.260762
648.117606	2488.893271
648.461059	2491.847387
648.804460	2492.777480
649.147810	2492.906030
649.491108	2486.768425
649.834354	2486.891933
650.177548	2484.875472
650.520690	2484.174751
650.863781	2485.737509
651.206820	2487.748929
651.549807	2482.803557
651.892742	2483.595018
652.235626	2480.671149
652.578458	2481.981849
652.921238	2480.988742
653.263967	2479.869606
653.606644	2478.745428
653.949269	2481.870944
654.291843	2478.977322
654.634365	2480.252733
654.976836	2477.961529
655.319255	2478.997486
655.661622	2475.060345
656.003938	2479.050418
656.346203	2473.479943
656.688416	2475.756024
657.030577	2476.933134
657.372687	2478.450521
657.714746	2478.800881
658.056753	2476.353401
658.398708	2470.427525
658.740612	2474.692341
659.082465	2473.633698
659.424266	2472.181846
659.766016	2470.679582
660.107715	2476.214769
660.449362	2473.129583
660.790958	2474.510859
661.132503	2475.871971
661.473996	2475.957670
661.815438	2475.579584
662.156829	2475.907259
662.498168	2473.449696
662.839456	2474.218472
663.180693	2474.026908
663.521879	2474.263843
663.863013	2474.599079
664.204097	2475.912300
664.545129	2476.023205
664.886110	2473.800057
665.227040	2477.333905
665.567918	2478.206025
665.908746	2477.316261
666.249522	2478.231231
666.590248	2473.802577
666.930922	2476.935654
667.271545	2473.865592
667.612118	2478.594194
667.952639	2472.065900
668.293109	2474.364666
668.633528	2477.021354
668.973896	2477.273412
669.314213	2473.996662
669.654480	2475.085551
669.994695	2472.708647
670.334859	2471.597072
670.674973	2473.104377
671.015035	2473.530355
671.355047	2473.550519
671.695008	2474.611682
672.034918	2473.921044
672.374777	2473.086733
672.714585	2474.299131
673.054342	2473.432052
673.394049	2473.278297
673.733705	2471.995323
674.073310	2473.374079
674.412864	2476.202166
674.752368	2474.047073
675.091820	2473.086733
675.431223	2471.889459
675.770574	2472.796867
676.109875	2465.048613
676.449125	2466.233285
676.788324	2463.884107
677.127473	2467.291927
677.466571	2464.390743
677.805619	2470.785447
678.144616	2468.138841
678.483562	2468.406022
678.822458	2468.136320
679.161303	2466.802935
679.500098	2468.247226
679.838842	2466.666824
680.177535	2466.813017
680.516179	2467.120528
680.854771	2469.394088
681.193314	2468.940384
681.531805	2471.004737
681.870247	2472.605303
682.208638	2474.157978
682.546978	2473.714357
682.885268	2475.209059
683.223508	2473.532875
683.561697	2474.488174
683.899836	2470.946763
684.237925	2470.412401
684.575963	2472.590180
684.913951	2471.705457
685.251889	2472.181846
685.589776	2468.763944
685.927614	2469.048769
686.265401	2469.608337
686.603137	2471.208903
686.940824	2473.051445
687.278460	2472.693523
687.616046	2473.059007
687.953582	2476.923051
688.291068	2473.371558
688.628504	2473.795015
688.965889	2471.443317
689.303224	2474.707464
689.640510	2471.355097
689.977745	2470.228399
690.314930	2470.117494
690.652065	2468.290075
690.989150	2466.261011
691.326185	2465.711525
691.663170	2463.712708
692.000105	2465.267904
692.336990	2461.008129
692.673825	2462.119703
693.010610	2459.352110
693.347345	2455.198199
693.684030	2455.457818
694.020665	2454.618466
694.357251	2451.150152
694.693786	2454.119392
695.030272	2452.914556
695.366707	2453.141408
695.703093	2451.182920
696.039429	2455.989660
696.375716	2453.343054
696.711952	2451.392128
697.048139	2450.086469
697.384276	2453.832046
697.720363	2451.833229
698.056400	2452.052519
698.392388	2450.550255
698.728326	2451.629062
699.064214	2449.950358
699.400053	2448.392641
699.735842	2448.957250
700.071581	2450.368773
700.407270	2448.279215
700.742910	2447.638989
701.078501	2445.597321
701.414042	2448.009513
701.749533	2447.333999
702.084974	2444.684872
702.420366	2444.818463
702.755709	2445.231838
703.091002	2445.330140
703.426246	2444.168154
703.761440	2440.745211
704.096584	2446.293001
704.431679	2444.158072
704.766725	2444.828545
705.101721	2441.418205
705.436668	2444.183278
705.771565	2444.274018
706.106413	2445.390634
706.441212	2443.895932
706.775961	2445.620007
707.110661	2444.319389
707.445311	2445.166303
707.779913	2443.041456
708.114465	2444.972218
708.448967	2446.509770
708.783421	2446.882816
709.117825	2448.264092
709.452180	2448.498505
709.786485	2447.671756
710.120742	2451.543362
710.454949	2451.775255
710.789107	2449.758794
711.123216	2448.236365
711.457275	2450.086469
711.791286	2449.012703
712.125247	2453.292643
712.459159	2453.685853
712.793023	2455.576285
713.126837	2454.900771
713.460602	2456.559310
713.794318	2453.433795
714.127985	2453.958075
714.461602	2454.626028
714.795171	2450.913218
715.128691	2450.895574
715.462162	2450.920780
715.795584	2448.581684
716.128957	2445.872064
716.462281	2447.696962
716.795556	2444.347115
717.128782	2443.485078
717.461960	2442.386106
717.795088	2443.588422
718.128167	2440.906528
718.461198	2441.924841
718.794180	2438.854778
719.127113	2437.952412
719.459997	2439.348811
719.792833	2440.024326
720.125619	2439.429470
720.458357	2437.871753
720.791046	2435.729263
721.123686	2437.700354
721.456278	2435.895621
721.788821	2436.215734
722.121315	2437.952412
722.453761	2435.066351
722.786158	2436.253543
723.118506	2434.779005
723.450805	2436.573656
723.783056	2436.009047
724.115259	2437.014757
724.447412	2435.409149
724.779518	2438.640529
725.111574	2440.803184
725.443582	2437.859150
725.775542	2436.966866
726.107453	2438.411157
726.439315	2438.169181
726.771129	2440.987186
727.102895	2440.987186
727.434612	2439.656322
727.766281	2441.345108
728.097901	2440.886363
728.429473	2439.500046
728.760996	2440.336877
729.092471	2434.592483
729.423897	2442.696137
729.755276	2440.011723
730.086606	2443.550613
730.417887	2444.337033
730.749120	2445.045315
731.080305	2442.466765
731.411442	2445.436004
731.742530	2445.241920
732.073570	2446.290480
732.404562	2446.509770
732.735506	2443.054059
733.066401	2444.954574
733.397249	2445.269646
733.728048	2444.200922
734.058798	2440.294027
734.389501	2440.074737
734.720156	2436.777823
735.050762	2439.096753
735.381320	2435.850250
735.711831	2435.462082
736.042293	2436.490477
736.372707	2434.194231
736.703073	2433.788418
737.033391	2435.031063
737.363661	2435.104160
737.693883	2437.712957
738.024056	2436.936619
738.354182	2438.890066
738.684260	2438.073399
739.014290	2437.836465
739.344272	2438.922834
739.674207	2441.360232
740.004093	2441.153544
740.333931	2438.859819
740.663722	2441.481219
740.993464	2440.001641
741.323159	2438.685899
741.652806	2441.488781
741.982405	2440.989707
742.311956	2438.600200
742.641460	2439.006013
742.970915	2437.559202
743.300323	2435.845209
743.629683	2434.199272
743.958996	2433.294385
744.288260	2433.891762
744.617477	2429.052254
744.946647	2428.623756
745.275768	2430.642738
745.604842	2426.821544
745.933869	2428.724579
746.262847	2429.828592
746.591778	2432.127358
746.920662	2430.380598
747.249498	2432.558377
747.578286	2429.793304
747.907027	2429.957142
748.235720	2432.495362
748.564365	2432.737338
748.892963	2431.870259
749.221514	2432.447472
749.550017	2434.539550
749.878473	2433.654828
750.206881	2433.433017
750.535242	2431.154416
750.863555	2431.905548
751.191821	2431.913109
751.520039	2431.477049
751.848210	2432.013932
752.176334	2431.633325
752.504411	2433.312029
752.832440	2428.729621
753.160421	2431.943356
753.488356	2430.927564
753.816243	2431.512338
754.144082	2429.783222
754.471875	2430.040321
754.799620	2429.367327
755.127318	2433.682554
755.454969	2430.514189
755.782572	2430.461257
756.110129	2429.334559
756.437638	2429.793304
756.765100	2427.912954
757.092515	2429.463108
757.419882	2429.410176
757.747203	2428.719538
758.074477	2427.764240
758.401703	2430.433531
758.728882	2431.040990
759.056014	2430.695671
759.383099	2431.487132
759.710138	2429.871442
760.037129	2433.054931
760.364073	2432.243305
760.690970	2433.082657
761.017820	2430.587286
761.344623	2433.251536
761.671379	2435.789757
761.998088	2431.875301
762.324751	2436.997113
762.651366	2443.633792
762.977935	2457.638117
763.304456	2459.430247
763.630931	2468.285034
763.957359	2461.366051
764.283740	2460.191462
764.610074	2450.091510
764.936362	2448.826180
765.262602	2443.265788
765.588796	2438.658173
765.914943	2437.536516
766.241044	2431.814807
766.567097	2431.242636
766.893104	2429.085022
767.219064	2426.105700
767.544978	2425.631832
767.870845	2427.129054
768.196665	2424.001018
768.522438	2421.790472
768.848165	2424.185020
769.173846	2422.408014
769.499479	2423.938004
769.825066	2421.235945
770.150607	2420.376429
770.476101	2423.328024
770.801548	2420.918353
771.126949	2422.796182
771.452303	2419.945410
771.777611	2418.675039
772.102872	2419.332910
772.428087	2418.410379
772.753256	2420.641089
773.078378	2418.536408
773.403453	2418.949782
773.728482	2420.731830
774.053465	2420.986408
774.378401	2417.729823
774.703291	2417.974319
775.028135	2415.710841
775.352932	2417.855852
775.677683	2417.903743
776.002388	2417.813002
776.327046	2415.786458
776.651658	2416.487178
776.976224	2416.522467
777.300743	2420.152097
777.625216	2415.857034
777.949643	2417.097158
778.274024	2420.051274
778.598359	2413.991807
778.922647	2412.570202
779.246889	2413.805285
779.571086	2408.514594
779.895236	2417.601273
780.219339	2413.492733
780.543397	2415.171437
780.867409	2415.342837
781.191374	2413.785120
781.515294	2414.576581
781.839167	2418.493558
782.162995	2416.444329
782.486776	2417.616397
782.810511	2416.633372
783.134201	2415.453742
783.457844	2417.371901
783.781441	2417.122364
784.104993	2415.594894
784.428498	2413.613721
784.751958	2414.223700
785.075372	2415.055491
785.398739	2416.159503
785.722061	2414.737898
786.045337	2416.477096
786.368568	2414.546334
786.691752	2414.740419
787.014891	2415.841911
787.337983	2416.940882
787.661030	2417.618917
787.984031	2424.381625
788.306987	2422.203847
788.629897	2423.030596
788.952760	2422.763415
789.275579	2421.344330
789.598351	2421.246028
789.921078	2421.119999
790.243759	2417.034144
790.566395	2419.640420
790.888984	2416.829977
791.211529	2413.941396
791.534027	2418.193609
791.856480	2416.547672
792.178888	2415.463824
792.501249	2412.711354
792.823566	2414.385017
793.145836	2415.388207
793.468062	2414.662281
793.790241	2414.155645
794.112375	2415.161355
794.434464	2416.230080
794.756507	2418.004566
795.078505	2415.907446
795.400457	2414.435429
795.722364	2413.207908
796.044226	2415.972981
796.366042	2417.936510
796.687812	2416.719072
797.009538	2419.249731
797.331218	2419.451377
797.652852	2417.689494
797.974442	2416.754360
798.295986	2415.657909
798.617484	2417.278640
798.938938	2418.861562
799.260346	2417.213105
799.581709	2415.531880
799.903026	2417.772673
800.224299	2412.948288
800.545526	2414.904256
800.866708	2415.506674
801.187845	2413.291087
801.508936	2414.808474
801.829983	2415.536921
802.150984	2412.529873
802.471940	2414.092630
802.792851	2415.138670
803.113717	2413.286046
803.434538	2413.706982
803.755314	2414.130439
804.076045	2412.050963
804.396731	2413.137332
804.717372	2413.051632
805.037967	2411.783782
805.358518	2411.665315
805.679024	2413.429719
805.999485	2414.843762
806.319901	2414.952147
806.640272	2411.907290
806.960598	2414.223700
807.280879	2414.233783
807.601115	2417.477765
807.921306	2414.377456
808.241453	2415.826787
808.561554	2412.650860
808.881611	2414.848803
809.201623	2414.632034
809.521590	2413.548186
809.841513	2415.226890
810.161390	2414.203536
810.481223	2409.905952
810.801011	2412.897877
811.120755	2414.924421
811.440453	2413.482651
811.760107	2412.771848
812.079716	2412.393762
812.399281	2409.807650
812.718801	2412.227403
813.038276	2406.853533
813.357707	2415.821746
813.677093	2412.867630
813.996434	2409.611045
814.315731	2410.631878
814.634983	2414.107754
814.954191	2411.624986
815.273354	2411.874523
815.592473	2411.534245
815.911547	2414.316962
816.230577	2416.623290
816.549562	2413.341498
816.868502	2412.585325
817.187399	2419.053126
817.506250	2414.019534
817.825058	2414.697569
818.143821	2421.477921
818.462539	2417.921387
818.781213	2419.526994
819.099843	2418.886768
819.418429	2426.977820
819.736970	2428.948911
820.055466	2428.893458
820.373919	2435.451999
820.692327	2443.285952
821.010691	2457.305401
821.329011	2490.151039
821.647286	2538.896476
821.965517	2589.703745
822.283704	2622.647686
822.601847	2632.936681
822.919945	2611.529421
823.237999	2582.280646
823.556010	2558.161246
823.873976	2534.598892
824.191897	2509.269615
824.509775	2497.798469
824.827609	2481.805409
825.145398	2474.752835
825.463144	2465.819910
825.780845	2468.864767
826.098502	2478.251395
826.416116	2486.869248
826.733685	2499.741834
827.051210	2501.450785
827.368692	2495.235043
827.686129	2481.780203
828.003522	2469.641105
828.320872	2452.901953
828.638177	2449.778958
828.955439	2437.642381
829.272656	2434.237081
829.589830	2428.033941
829.906960	2428.260793
830.224046	2424.293405
830.541088	2421.462797
830.858086	2421.697211
831.175041	2419.562282
831.491952	2419.259813
831.808819	2422.155956
832.125642	2422.168559
832.442421	2425.135278
832.759157	2430.920002
833.075849	2438.451486
833.392497	2451.283743
833.709101	2455.752726
834.025662	2458.580813
834.342179	2451.147632
834.658653	2443.361570
834.975083	2437.710436
835.291469	2438.272525
835.607811	2427.083684
835.924110	2425.069743
836.240366	2420.804927
836.556578	2418.117992
836.872746	2416.673701
837.188871	2415.199164
837.504952	2415.531880
837.820990	2411.244378
838.136984	2416.847621
838.452935	2411.723288
838.768842	2410.397465
839.084706	2410.629358
839.400526	2421.162849
839.716303	2424.298446
840.032037	2426.408169
840.347727	2428.520413
840.663373	2423.388518
840.978977	2420.595719
841.294537	2415.791499
841.610054	2415.020203
841.925527	2413.074317
842.240957	2410.810839
842.556344	2411.299831
842.871687	2407.975190
843.186987	2408.824625
843.502244	2405.565519
843.817458	2406.447721
844.132629	2404.111146
844.447756	2405.159706
844.762840	2400.577297
845.077881	2402.760117
845.392879	2401.557801
845.707833	2400.899931
846.022745	2402.434962
846.337613	2405.842782
846.652438	2405.016033
846.967221	2403.536454
847.281960	2405.666342
847.596656	2405.192473
847.911309	2404.343039
848.225919	2404.514438
848.540485	2403.082750
848.855009	2402.568553
849.169490	2403.279355
849.483928	2403.239026
849.798323	2401.522513
850.112675	2405.623492
850.426984	2402.369427
850.741251	2403.007133
851.055474	2408.108781
851.369654	2405.051321
851.683792	2403.735580
851.997887	2406.233472
852.311938	2405.474778
852.625947	2403.717936
852.939914	2403.604510
853.253837	2403.929664
853.567718	2404.274983
853.881555	2405.439490
854.195350	2402.780281
854.509103	2404.524520
854.822812	2402.412277
855.136479	2403.614592
855.450103	2405.560477
855.763685	2402.694582
856.077224	2403.944788
856.390720	2402.230795
856.704173	2405.676424
857.017584	2404.731208
857.330953	2402.031670
857.644278	2403.070148
857.957561	2409.283370
858.270802	2405.310940
858.584000	2403.518810
858.897155	2403.889335
859.210268	2404.075858
859.523339	2404.658111
859.836367	2403.649880
860.149352	2403.564181
860.462295	2404.844634
860.775195	2402.195507
861.088054	2399.508572
861.400869	2403.140724
861.713642	2400.116031
862.026373	2402.828172
862.339062	2401.492266
862.651708	2403.808677
862.964312	2403.811197
863.276873	2405.268091
863.589392	2404.033008
863.901869	2406.626682
864.214303	2403.538975
864.526696	2405.356311
864.839045	2402.659293
865.151353	2406.241033
865.463619	2402.064437
865.775842	2406.167937
866.088023	2407.599624
866.400162	2405.870508
866.712258	2403.392781
867.024313	2403.120559
867.336325	2404.433780
867.648296	2405.888152
867.960224	2405.399161
868.272110	2405.996537
868.583954	2406.039387
868.895755	2405.071486
869.207515	2405.512587
869.519233	2406.104922
869.830909	2403.808677
870.142542	2406.409912
870.454134	2404.723646
870.765684	2407.052659
871.077191	2404.363203
871.388657	2405.494943
871.700081	2406.334295
872.011463	2405.305899
872.322803	2407.665159
872.634101	2406.667011
872.945357	2406.851013
873.256571	2408.012999
873.567744	2406.931671
873.878874	2408.444018
874.189963	2408.985942
874.501010	2410.009296
874.812015	2407.715571
875.122979	2407.150962
875.433900	2405.810015
875.744780	2408.864954
876.055618	2408.194480
876.366415	2407.246743
876.677169	2410.137845
876.987882	2407.806312
877.298554	2405.416805
877.609183	2405.898235
877.919771	2404.907648
878.230317	2407.276990
878.540822	2412.572723
878.851285	2412.716395
879.161707	2413.732188
879.472087	2420.862900
879.782425	2425.548653
880.092722	2436.893769
880.402977	2454.857921
880.713191	2476.053452
881.023363	2498.955414
881.333494	2509.241889
881.643583	2513.879750
881.953631	2511.432270
882.263637	2506.633092
882.573602	2496.354179
882.883526	2490.350165
883.193408	2480.983701
883.503248	2473.036322
883.813048	2464.045424
884.122806	2457.093673
884.432522	2447.676797
884.742197	2442.156734
885.051831	2434.746238
885.361424	2431.953438
885.670975	2425.047058
885.980485	2423.406162
886.289954	2422.040009
886.599382	2421.934145
886.908768	2419.584968
887.218113	2414.977353
887.527417	2414.291756
887.836680	2415.015162
888.145901	2412.963412
888.455082	2409.875705
888.764221	2409.923596
889.073319	2409.215314
889.382376	2413.086920
889.691392	2407.876888
890.000366	2407.266908
890.309300	2407.576939
890.618193	2408.527197
890.927044	2408.970818
891.235855	2409.795047
891.544625	2413.643968
891.853353	2409.671538
892.162041	2414.143042
892.470687	2412.948288
892.779293	2411.614903
893.087858	2412.885274
893.396381	2411.751014
893.704864	2422.123188
894.013306	2422.607139
894.321707	2432.810435
894.630068	2436.992072
894.938387	2439.109356
895.246665	2436.591300
895.554903	2432.724735
895.863100	2431.164498
896.171256	2426.982861
896.479371	2424.910947
896.787446	2422.423137
897.095480	2420.036151
897.403473	2415.221849
897.711425	2416.129257
898.019336	2418.680080
898.327207	2413.931313
898.635038	2414.379976
898.942827	2412.350912
899.250576	2411.234296
899.558284	2408.428894
899.865952	2410.122722
900.173579	2408.096178
900.481165	2410.510891
900.788711	2404.169119
901.096216	2402.742473
901.403681	2405.041239
901.711105	2405.237844
902.018489	2406.793040
902.325832	2410.697413
902.633135	2407.665159
902.940397	2411.677918
903.247619	2416.290573
903.554800	2423.877510
903.861941	2435.089036
904.169041	2443.023812
904.476101	2446.832404
904.783121	2444.369800
905.090100	2440.745211
905.397039	2435.552822
905.703938	2431.124169
906.010796	2426.544280
906.317614	2422.150915
906.624391	2420.424320
906.931129	2417.941551
907.237826	2416.260327
907.544483	2411.829152
907.851099	2409.747156
908.157675	2411.067938
908.464211	2406.787998
908.770707	2403.221382
909.077163	2403.032339
909.383578	2397.958418
909.689954	2400.335322
909.996289	2398.538150
910.302584	2403.964952
910.608839	2404.595097
910.915054	2400.824313
911.221229	2403.982596
911.527363	2404.821948
911.833458	2400.552091
912.139513	2403.831362
912.445527	2404.345559
912.751502	2404.020405
913.057436	2407.279511
913.363331	2404.038049
913.669186	2405.258008
913.975000	2407.793709
914.280775	2412.938206
914.586510	2412.749163
914.892205	2416.467014
915.197859	2426.297264
915.503475	2432.853284
915.809050	2439.167330
916.114585	2442.663370
916.420081	2447.724688
916.725536	2442.859975
917.030952	2440.299069
917.336328	2439.368976
917.641665	2434.718511
917.946961	2432.540733
918.252218	2430.551998
918.557435	2425.707449
918.862612	2422.017324
919.167750	2423.270051
919.472848	2420.625966
919.777906	2417.485327
920.082925	2414.506005
920.387904	2413.883423
920.692843	2410.347053
920.997743	2412.960891
921.302603	2408.592732
921.607423	2407.985272
921.912204	2408.416291
922.216946	2406.011661
922.521647	2407.650036
922.826310	2404.995868
923.130932	2406.309089
923.435516	2403.055024
923.740059	2403.274314
924.044564	2404.315312
924.349028	2400.360527
924.653454	2397.905485
924.957840	2401.963614
925.262186	2398.765002
925.566493	2400.473953
925.870761	2397.575290
926.174989	2403.077709
926.479178	2400.239540
926.783328	2401.114180
927.087438	2400.564694
927.391509	2402.503018
927.695541	2400.796587
927.999533	2400.358007
928.303486	2400.191649
928.607400	2396.057903
928.911275	2395.934394
929.215110	2398.981772
929.518906	2398.245763
929.822663	2397.688716
930.126381	2399.072512
930.430060	2399.652245
930.733699	2397.343397
931.037299	2399.561504
931.340861	2399.644683
931.644383	2397.812224
931.947866	2398.049158
932.251309	2399.506052
932.554714	2397.393808
932.858080	2396.405742
933.161407	2396.763664
933.464694	2400.421021
933.767943	2397.973541
934.071153	2399.584190
934.374323	2398.596123
934.677455	2398.369272
934.980548	2399.692574
935.283602	2398.092008
935.586617	2400.282389
935.889593	2397.648387
936.192530	2396.902296
936.495428	2400.481515
936.798287	2400.204252
937.101108	2398.888510
937.403890	2400.015208
937.706632	2399.800959
938.009336	2399.596793
938.312002	2400.809190
938.614628	2400.405898
938.917216	2400.322719
939.219765	2402.392112
939.522275	2402.089643
939.824747	2404.675755
940.127179	2398.996895
940.429573	2396.735938
940.731929	2398.311298
941.034246	2394.593447
941.336524	2402.208110
941.638763	2400.947822
941.940964	2402.618964
942.243126	2400.680641
942.545250	2400.529406
942.847335	2400.960425
943.149381	2401.688871
943.451389	2400.370610
943.753359	2399.160733
944.055290	2400.252142
944.357182	2399.886659
944.659036	2397.529919
944.960851	2398.724673
945.262628	2402.634088
945.564367	2400.526885
945.866067	2401.575445
946.167729	2399.448078
946.469352	2399.289282
946.770937	2396.728376
947.072484	2401.131824
947.373992	2401.794736
947.675462	2399.874056
947.976893	2399.551422
948.278286	2398.727193
948.579641	2397.366082
948.880958	2396.206617
949.182236	2400.254663
949.483476	2399.836247
949.784678	2400.874725
950.085841	2400.453789
950.386967	2399.942112
950.688054	2399.029663
950.989103	2398.873387
951.290114	2399.611916
951.591087	2400.179046
951.892021	2399.427914
952.192917	2400.660476
952.493776	2400.599982
952.794596	2400.189128
953.095378	2400.504200
953.396122	2401.804818
953.696828	2402.528223
953.997496	2400.562173
954.298126	2399.120403
954.598718	2400.100908
954.899272	2398.321381
955.199788	2397.348438
955.500266	2396.083108
955.800706	2397.063613
956.101108	2391.896430
956.401472	2394.573283
956.701798	2393.169321
957.002087	2395.475649
957.302337	2396.393139
957.602550	2397.308109
957.902724	2395.689898
958.202861	2399.221227
958.502960	2398.888510
958.803022	2396.125958
959.103045	2395.210989
959.403031	2397.623181
959.702979	2395.959600
960.002889	2394.946328
960.302762	2396.020094
960.602596	2394.046482
960.902393	2396.723335
961.202153	2395.967162
961.501875	2398.034035
961.801559	2399.632081
962.101205	2394.154867
962.400814	2397.968500
962.700385	2395.876421
962.999918	2395.735269
963.299414	2395.145454
963.598873	2394.023797
963.898293	2393.902809
964.197677	2398.828017
964.497022	2396.567059
964.796331	2393.948180
965.095601	2391.747716
965.394835	2395.024466
965.694030	2394.464898
965.993189	2396.977913
966.292309	2396.307440
966.591393	2395.962121
966.890439	2396.050341
967.189447	2392.387942
967.488419	2394.172511
967.787353	2395.926833
968.086249	2396.937584
968.385108	2395.722666
968.683930	2395.180742
968.982714	2396.655279
969.281462	2394.860628
969.580172	2394.999260
969.878844	2398.016391
970.177480	2395.074877
970.476078	2396.032697
970.774639	2396.027656
971.073162	2393.754095
971.371649	2388.412993
971.670098	2389.196892
971.968510	2393.423900
972.266885	2389.408621
972.565223	2391.808210
972.863524	2395.584034
973.161788	2396.065464
973.460014	2393.973385
973.758204	2394.444733
974.056356	2393.565052
974.354471	2396.617471
974.652550	2392.740823
974.950591	2395.997409
975.248595	2395.445402
975.546563	2397.648387
975.844493	2395.762995
976.142386	2395.868859
976.440243	2390.777294
976.738062	2393.466749
977.035845	2394.190155
977.333590	2395.634446
977.631299	2394.084291
977.928971	2396.320043
978.226606	2396.125958
978.524204	2395.558828
978.821765	2396.057902
979.119290	2397.018242
979.416777	2392.806358
979.714228	2394.469939
980.011642	2394.101935
980.309020	2396.493962
980.606360	2393.373488
980.903664	2396.425907
981.200931	2396.897255
981.498162	2397.212327
981.795356	2396.693088
982.092513	2397.403891
982.389633	2397.030845
982.686717	2401.585528
982.983764	2399.594272
983.280775	2403.206259
983.577749	2400.012688
983.874686	2399.364899
984.171587	2400.917575
984.468451	2398.613768
984.765279	2397.867677
985.062070	2398.296175
985.358824	2398.646535
985.655543	2398.429765
985.952224	2397.865156
986.248869	2394.850546
986.545478	2394.399363
986.842050	2394.379198
987.138586	2393.703684
987.435086	2391.679660
987.731549	2391.175545
988.027975	2397.237532
988.324366	2392.521533
988.620719	2393.733931
988.917037	2393.912892
989.213318	2394.258211
989.509563	2396.118396
989.805772	2395.919271
990.101944	2392.667727
990.398080	2393.985988
990.694180	2393.353323
990.990244	2390.003477
991.286271	2395.021945
991.582262	2392.763508
991.878217	2394.883314
992.174136	2392.009856
992.470019	2393.335679
992.765865	2395.762995
993.061676	2393.991029
993.357450	2393.844836
993.653188	2394.268293
993.948890	2397.081257
994.244556	2395.120248
994.540186	2394.633777
994.835780	2393.338200
995.131337	2393.562531
995.426859	2395.160577
995.722345	2399.163253
996.017795	2394.260731
996.313208	2394.094373
996.608586	2397.131668
996.903928	2395.526061
997.199234	2397.356000
997.494504	2396.567059
997.789738	2396.148643
998.084936	2396.569580
998.380099	2396.453633
998.675225	2395.135371
998.970316	2397.333314
999.265371	2397.837430
999.560390	2396.685526
999.855373	2397.305588
1000.150320	2395.543705
1000.445232	2395.672254
1000.740108	2392.738303
1001.034948	2393.350803
1001.329752	2393.744013
1001.624521	2392.980278
1001.919254	2390.840308
1002.213951	2392.881976
1002.508613	2389.932901
1002.803239	2395.412635
1003.097829	2387.858466
1003.392384	2391.417520
1003.686903	2394.386760
1003.981386	2395.505896
1004.275834	2394.580844
1004.570246	2395.889024
1004.864623	2391.969527
1005.158964	2392.703015
1005.453270	2394.822820
1005.747540	2394.641338
1006.041775	2393.728889
1006.335974	2394.066647
1006.630138	2393.212171
1006.924266	2393.625546
1007.218359	2395.979765
1007.512416	2391.548590
1007.806438	2392.866852
1008.100425	2392.012377
1008.394376	2390.363919
1008.688292	2393.751575
1008.982172	2390.845349
1009.276017	2393.055895
1009.569827	2393.028169
1009.863602	2393.723848
1010.157341	2392.866852
1010.451045	2391.765360
1010.744714	2392.786194
1011.038347	2389.592623
1011.331945	2394.832902
1011.625508	2391.500699
1011.919036	2391.742675
1012.212528	2392.214023
1012.505986	2392.887017
1012.799408	2391.422562
1013.092795	2394.132182
1013.386147	2394.061606
1013.679464	2391.969527
1013.972745	2393.449105
1014.265992	2392.206461
1014.559204	2393.408776
1014.852380	2392.284599
1015.145521	2393.179404
1015.438628	2391.767881
1015.731699	2392.435833
1016.024736	2391.692263
1016.317737	2392.995402
1016.610703	2396.985475
1016.903635	2391.903992
1017.196531	2389.259907
1017.489393	2391.641852
1017.782219	2387.271171
1018.075011	2393.242418
1018.367768	2391.233518
1018.660490	2393.043293
1018.953177	2393.043293
1019.245829	2393.043293
