Dividing Wavelength (nm)	Counts (n)	Blue Motor Position (mm): 0.000000	Red Motor Position (mm): 47.400000	
326.493990	1996.463281
326.888308	1996.463281
327.282561	1996.463281
327.676750	1973.710033
328.070874	1975.287914
328.464933	1981.160859
328.858929	1992.137971
329.252859	2003.346977
329.646726	2018.450274
330.040528	2033.616585
330.434265	2052.818340
330.827938	2070.706874
331.221547	2092.126737
331.615091	2114.844697
332.008571	2133.983438
332.401986	2152.232414
332.795338	2174.572288
333.188625	2194.588189
333.581847	2214.896477
333.975006	2231.260063
334.368100	2248.916704
334.761129	2268.045362
335.154095	2281.187650
335.546996	2322.941007
335.939833	2414.455593
336.332606	2426.566966
336.725315	2438.491815
337.117960	2447.858279
337.510540	2455.483024
337.903056	2462.885958
338.295508	2471.944912
338.687896	2481.402117
339.080220	2486.012252
339.472480	2493.939466
339.864676	2492.520381
340.256807	2496.465084
340.648875	2500.215703
341.040879	2501.390292
341.432818	2501.435662
341.824694	2503.810045
342.216506	2505.224089
342.608253	2503.653770
342.999937	2503.008502
343.391557	2502.242247
343.783113	2498.824344
344.174605	2499.953563
344.566033	2495.456853
344.957397	2497.329642
345.348697	2492.354023
345.739934	2492.129692
346.131106	2492.386791
346.522215	2487.839670
346.913260	2488.318580
347.304241	2486.052581
347.695159	2481.762559
348.086012	2483.988228
348.476802	2482.427991
348.867528	2481.863382
349.258191	2477.167547
349.648789	2478.868937
350.039324	2478.805922
350.429796	2479.254585
350.820203	2473.863071
351.210548	2473.497587
351.600828	2474.762917
351.991045	2475.254429
352.381198	2474.767958
352.771288	2473.089254
353.161314	2471.087916
353.551276	2473.268215
353.941175	2476.665953
354.331010	2471.677731
354.720782	2479.685604
355.110490	2479.035295
355.500135	2476.068576
355.889717	2475.566981
356.279235	2477.432208
356.668689	2476.446662
357.058080	2475.317444
357.447408	2475.816518
357.836672	2474.087402
358.225873	2477.757362
358.615010	2476.161837
359.004084	2481.694503
359.393095	2480.474544
359.782043	2484.749443
360.170927	2484.154587
360.559748	2485.510657
360.948505	2484.048722
361.337199	2489.760350
361.725830	2484.908239
362.114398	2488.038796
362.502903	2487.988384
362.891344	2490.914774
363.279722	2488.610967
363.668037	2491.010556
364.056289	2490.072901
364.444478	2493.657162
364.832603	2498.965497
365.220665	2495.451812
365.608665	2495.020794
365.996601	2496.124806
366.384474	2497.982472
366.772284	2500.266114
367.160031	2498.267297
367.547715	2500.130003
367.935336	2500.966835
368.322893	2505.632423
368.710388	2501.133193
369.097820	2511.039060
369.485189	2507.984121
369.872495	2509.017557
370.259738	2508.919255
370.646918	2514.817405
371.034035	2513.980573
371.421090	2516.057529
371.808081	2521.597757
372.195010	2525.817203
372.581875	2535.211393
372.968678	2541.376724
373.355418	2546.130532
373.742096	2557.261400
374.128710	2571.767320
374.515262	2582.661253
374.901751	2598.613985
375.288177	2612.938423
375.674540	2632.339304
376.060841	2658.538180
376.447079	2678.778413
376.833254	2704.079964
377.219367	2726.765157
377.605417	2764.210847
377.991404	2792.731175
378.377329	2833.163750
378.763191	2867.395705
379.148991	2919.143149
379.534727	2971.324133
379.920402	3018.900022
380.306013	3068.580593
380.691563	3133.707260
381.077049	3192.605581
381.462474	3249.530290
381.847835	3330.813854
382.233134	3400.449833
382.618371	3461.208340
383.003545	3551.606311
383.388657	3635.095380
383.773706	3727.439236
384.158693	3804.692398
384.543618	3901.999270
384.928480	3981.440293
385.313280	4089.474741
385.698017	4193.483827
386.082692	4321.735822
386.467305	4388.397520
386.851856	4516.636912
387.236344	4674.624153
387.620770	4740.887600
388.005133	4863.753122
388.389435	5012.880535
388.773674	5101.448567
389.157851	5234.847580
389.541965	5373.096183
389.926018	5397.979318
390.310008	5588.393781
390.693936	5710.692174
391.077802	5831.062325
391.461606	5963.785823
391.845348	6086.386685
392.229027	6207.553338
392.612645	6435.773934
392.996200	6558.183232
393.379694	6733.975828
393.763125	6965.460572
394.146494	7066.255922
394.529801	7210.369908
394.913047	7454.901158
395.296230	7454.001312
395.679351	7511.362081
396.062410	7787.062784
396.445408	7675.759149
396.828343	7835.944333
397.211217	7977.139490
397.594028	7862.244032
397.976778	8065.286586
398.359466	8236.882422
398.742092	8209.735808
399.124656	8360.804065
399.507158	8559.175990
399.889598	8574.612003
400.271977	8792.233573
400.654294	8829.921239
401.036549	9026.619501
401.418742	9056.417761
401.800874	9373.143375
402.182944	9453.673287
402.564952	9824.145163
402.946898	9644.947267
403.328783	9701.942552
403.710606	9908.110621
404.092367	10175.755561
404.474067	10542.862467
404.855705	10331.640641
405.237282	10280.780440
405.618797	10719.040711
406.000250	10973.122427
406.381642	11351.766013
406.762972	11300.126953
407.144240	11095.287228
407.525447	11357.240706
407.906593	11286.909048
408.287677	11553.530634
408.668700	11716.264121
409.049661	11685.364368
409.430560	11848.997702
409.811399	11818.836478
410.192176	11989.257725
410.572891	12062.299003
410.953545	12571.160634
411.334138	12022.859536
411.714669	12653.540650
412.095139	11931.720516
412.475547	12464.857823
412.855894	12292.944395
413.236180	12640.529432
413.616405	12310.217908
413.996568	12599.895211
414.376670	12563.286352
414.756711	12440.803958
415.136691	12737.138104
415.516609	12924.714397
415.896466	12993.710150
416.276262	13283.334520
416.655997	13722.688722
417.035670	13760.583076
417.415283	14426.474128
417.794834	14529.038924
418.174324	14271.083082
418.553753	14171.613554
418.933121	14675.353373
419.312428	14472.020953
419.691674	14387.264034
420.070859	14864.477301
420.449983	14497.834182
420.829045	15065.069853
421.208047	14801.430110
421.586988	15273.498880
421.965867	15537.030238
422.344686	15534.507141
422.723444	16110.431241
423.102141	14767.687147
423.480777	15978.796632
423.859352	15480.932278
424.237866	16621.987369
424.616319	16310.902806
424.994712	16999.915111
425.373044	16780.410670
425.751314	17476.180641
426.129524	16569.130871
426.507673	17708.350982
426.885762	17384.197228
427.263789	17601.465917
427.641756	17754.346469
428.019662	17826.407243
428.397508	17872.110344
428.775292	18188.465433
429.153016	18151.055030
429.530679	18228.814828
429.908282	18258.033356
430.285824	17963.367831
430.663305	18689.364561
431.040726	18269.479296
431.418086	18103.466538
431.795385	18765.879194
432.172624	19185.421662
432.549802	18734.629082
432.926920	18918.215302
433.303977	18804.438980
433.680974	19067.534279
434.057910	19364.443117
434.434786	19393.628877
434.811601	19304.685279
435.188355	20357.764674
435.565050	20009.274749
435.941683	19953.627973
436.318257	20856.569203
436.694770	20658.381280
437.071222	21271.698140
437.447614	20313.644495
437.823946	20351.800989
438.200218	20495.607464
438.576429	20275.263670
438.952580	20544.894825
439.328670	20516.682007
439.704700	20947.814087
440.080670	20503.930409
440.456580	21105.450968
440.832429	21282.375303
441.208218	20248.820298
441.583947	20720.541228
441.959616	20816.731484
442.335224	21058.169986
442.710773	21193.363650
443.086261	21749.039956
443.461689	21096.545770
443.837057	21212.469623
444.212365	21888.019527
444.587612	21870.226774
444.962800	21440.493614
445.337927	21886.144217
445.712995	20580.770196
446.088002	22481.396102
446.462949	22683.266587
446.837837	22872.987891
447.212664	22818.982010
447.587431	25734.487967
447.962139	28720.688544
448.336786	31126.306995
448.711374	29525.541523
449.085901	25774.386179
449.460369	25721.093621
449.834776	25656.168601
450.209124	28192.715899
450.583412	27696.333644
450.957640	28226.547082
451.331808	26856.840377
451.705917	25464.987882
452.079965	25520.503589
452.453954	25874.377465
452.827883	25760.981751
453.201752	25559.343159
453.575562	25716.261675
453.949311	26886.056384
454.323001	26932.929032
454.696632	26695.939349
455.070202	28271.708259
455.443713	28421.546475
455.817164	29028.640030
456.190556	29565.250692
456.563888	28995.701131
456.937160	29439.889799
457.310373	27736.559532
457.683526	28209.502941
458.056619	28187.702472
458.429653	28111.825544
458.802628	28714.412308
459.175542	28834.487551
459.548398	30151.574693
459.921194	31760.479108
460.293930	32438.295010
460.666607	34488.703678
461.039224	36277.234487
461.411782	36663.684299
461.784280	35458.493129
462.156719	34987.629195
462.529099	34429.530614
462.901419	33131.471308
463.273680	32037.661911
463.645882	32122.600312
464.018024	32113.896760
464.390106	32966.436534
464.762130	35709.852621
465.134094	39827.300725
465.505999	45160.392831
465.877845	49772.360483
466.249631	50950.241203
466.621358	49255.846381
466.993026	47167.230807
467.364634	45105.577845
467.736184	43101.580559
468.107674	41827.194511
468.479105	41013.141426
468.850477	40324.494605
469.221790	38867.218016
469.593043	37093.419980
469.964238	36191.923040
470.335373	36117.641638
470.706449	37878.846872
471.077467	40514.513338
471.448425	45128.177338
471.819324	47916.013552
472.190164	46035.033024
472.560945	42458.989720
472.931667	39326.179786
473.302330	38182.420116
473.672934	37362.516772
474.043479	37884.530773
474.413965	37075.082782
474.784393	36679.894130
475.154761	37594.493028
475.525070	37632.520972
475.895321	37164.389343
476.265513	37756.697194
476.635645	38761.414279
477.005719	38578.977442
477.375734	39061.801513
477.745691	39751.905228
478.115588	41111.738834
478.485427	43120.492448
478.855207	46506.882503
479.224928	49111.608887
479.594591	50763.121134
479.964194	49774.303848
480.333739	49942.517069
480.703226	49978.536114
481.072653	50610.285952
481.442022	51087.035433
481.811333	51346.579239
482.180584	50064.787735
482.549777	49546.262213
482.918912	49005.439666
483.287988	48737.996372
483.657005	47894.684431
484.025964	47247.498579
484.394864	47264.623379
484.763706	46840.241404
485.132489	45960.799513
485.501213	45799.906047
485.869879	45933.673064
486.238487	45521.296597
486.607036	45724.684469
486.975527	45175.657445
487.343959	45370.770264
487.712333	45448.847654
488.080648	45372.469132
488.448905	45842.150916
488.817104	45663.164748
489.185244	46641.861918
489.553326	48338.888222
489.921350	51042.267466
490.289315	53870.253951
490.657222	54434.953922
491.025070	54710.389966
491.392861	53838.313200
491.760593	52630.891319
492.128267	50975.875470
492.495883	49458.911619
492.863440	48082.384232
493.230939	46719.467961
493.598380	45599.736951
493.965763	45291.997194
494.333088	44455.531139
494.700354	43971.754289
495.067563	43665.020243
495.434713	43544.133373
495.801805	43617.056184
496.168839	43225.303078
496.535815	42882.960841
496.902733	42913.701797
497.269593	42500.879188
497.636395	42430.792026
498.003139	42838.964170
498.369825	42301.801502
498.736453	42613.654840
499.103023	42117.522123
499.469535	41984.755775
499.835989	42120.609830
500.202385	41754.836309
500.568723	41780.750361
500.935003	41972.349495
501.301226	41754.591813
501.667390	42391.632343
502.033497	42684.712424
502.399546	42079.242121
502.765537	41390.189487
503.131470	41782.867645
503.497345	42146.206288
503.863163	40787.035594
504.228923	41418.087233
504.594625	41833.566530
504.960269	41122.116049
505.325856	41822.239057
505.691385	41176.106807
506.056856	41313.669813
506.422270	41754.690116
506.787625	41330.086330
507.152924	41526.996320
507.518164	41633.193267
507.883347	40813.050468
508.248472	41114.284617
508.613540	41583.071595
508.978550	41892.931157
509.343503	41635.471869
509.708398	41841.592047
510.073236	42367.669218
510.438016	42378.157338
510.802738	41829.354646
511.167403	42465.588590
511.532010	42693.978065
511.896561	43005.533976
512.261053	43872.892221
512.625488	43399.729521
512.989866	43280.125626
513.354186	43119.683343
513.718449	43116.265441
514.082655	43803.397395
514.446803	43477.927900
514.810894	44006.820556
515.174927	43918.950723
515.538904	43817.986494
515.902822	44505.877142
516.266684	43945.857882
516.630488	44378.242689
516.994235	44221.636724
517.357925	44823.915977
517.721558	44988.340771
518.085133	45303.944728
518.448651	45448.096523
518.812112	45202.315067
519.175516	45297.529860
519.538863	45640.870246
519.902152	45603.837929
520.265385	46072.753457
520.628560	46119.419418
520.991678	45912.822852
521.354739	46153.860582
521.717743	46465.292984
522.080690	46356.187291
522.443580	46920.247036
522.806413	46953.619475
523.169189	46900.173162
523.531908	47093.246833
523.894569	46947.572611
524.257174	47118.704660
524.619722	47437.098896
524.982213	47426.762010
525.344647	47313.935946
525.707025	47366.552989
526.069345	47772.360832
526.431608	47687.314047
526.793815	48023.616981
527.155964	47540.981953
527.518057	47693.716312
527.880093	47476.442581
528.242072	48002.113940
528.603995	47707.486224
528.965860	47722.282010
529.327669	47803.860482
529.689421	47696.226807
530.051117	47646.994898
530.412755	47803.865523
530.774337	47858.632619
531.135862	47658.473605
531.497331	47859.658494
531.858743	47761.174512
532.220098	48108.262996
532.581396	47806.073549
532.942638	47479.121954
533.303824	47782.695198
533.664953	47723.943070
534.026025	47439.190975
534.387040	47941.736040
534.747999	47872.515957
535.108902	48027.269297
535.469748	47557.216989
535.830537	47659.363369
536.191270	47853.493162
536.551947	47499.210953
536.912567	47826.543154
537.273131	47940.692521
537.633638	47405.334586
537.994089	47759.692413
538.354483	47353.554374
538.714821	47935.076676
539.075103	48277.870096
539.435328	48036.048467
539.795497	47921.684851
540.155609	47888.483811
540.515665	48375.595384
540.875665	47822.139706
541.235609	48144.526536
541.595496	48102.569012
541.955328	48799.327050
542.315102	48152.821754
542.674821	47925.644677
543.034483	47992.336622
543.394090	47948.450857
543.753640	47925.687527
544.113134	48926.815310
544.472571	47906.541224
544.831953	49186.835505
545.191278	48374.042709
545.550548	48080.403059
545.909761	48570.312472
546.268918	48784.722827
546.628019	49071.950129
546.987064	48624.814907
547.346053	47894.507990
547.704986	48792.513931
548.063863	48318.569852
548.422684	48537.187050
548.781449	48387.215244
549.140158	48788.143250
549.498811	48624.245256
549.857408	48059.527641
550.215949	48907.174975
550.574434	48824.069033
550.932864	48586.739072
551.291237	49321.935908
551.649555	48918.280637
552.007817	49149.374691
552.366022	48781.171334
552.724173	48984.642386
553.082267	49377.244927
553.440305	49679.373880
553.798288	48981.781531
554.156215	49297.249377
554.514086	49519.518891
554.871902	49253.804713
555.229661	49276.147107
555.587365	49094.723542
555.945014	49194.624088
556.302606	49110.968660
556.660143	49353.319611
557.017625	49440.450914
557.375050	49222.423531
557.732421	49575.309341
558.089735	49566.021015
558.446994	49464.812290
558.804197	49956.259255
559.161345	49902.245812
559.518437	49139.173916
559.875474	49433.582342
560.232455	49593.212999
560.589381	49777.749477
560.946251	49488.276340
561.303065	50166.876142
561.659825	49981.097020
562.016528	49647.740639
562.373177	49356.273727
562.729770	49835.846254
563.086307	49342.707982
563.442789	49815.308593
563.799216	49870.993179
564.155587	49658.546353
564.511904	49673.160658
564.868164	49771.901738
565.224370	50013.917452
565.580520	49739.262788
565.936615	49954.336055
566.292654	49675.787099
566.648638	49939.252922
567.004567	49887.409696
567.360441	49928.011149
567.716260	49787.907402
568.072023	50060.260779
568.427732	50043.914838
568.783385	49612.220669
569.138982	49993.631849
569.494525	49964.476336
569.850013	49730.309698
570.205445	49690.850067
570.560823	49657.250776
570.916145	49541.568898
571.271412	49576.060473
571.626625	49331.168781
571.981782	49383.218694
572.336884	49070.548689
572.691931	49411.199619
573.046923	48980.702724
573.401860	48851.540801
573.756743	48823.186831
574.111570	48964.550867
574.466342	48790.356317
574.821059	48906.557433
575.175722	48423.690512
575.530330	48436.893294
575.884882	48169.424795
576.239380	48135.233169
576.593823	48106.927090
576.948211	48022.722177
577.302544	47544.845998
577.656823	47571.927076
578.011047	47776.759239
578.365216	47518.952111
578.719330	47323.151175
579.073389	47168.143256
579.427394	47232.516270
579.781344	47204.903350
580.135239	46881.394863
580.489080	46958.718602
580.842866	46422.523835
581.196597	46888.790236
581.550273	46818.811459
581.903895	46690.677931
582.257463	47117.305740
582.610975	46470.061915
582.964434	46757.810977
583.317837	46406.031700
583.671186	46232.825215
584.024481	46469.872872
584.377721	46002.956162
584.730906	46292.729247
585.084037	46335.793303
585.437113	46046.179015
585.790135	46069.219608
586.143103	45679.722418
586.496016	45806.686398
586.848874	45830.523494
587.201679	45846.045207
587.554428	45319.592470
587.907124	45496.708369
588.259765	45254.853972
588.612352	45505.933681
588.964884	44905.927988
589.317362	45191.060691
589.669786	45134.902237
590.022155	44917.200008
590.374470	45332.744840
590.726731	44852.496798
591.078937	44368.780443
591.431090	44457.759329
591.783188	44117.337771
592.135232	43782.088438
592.487222	44043.961257
592.839157	44131.687416
593.191038	43797.776508
593.542866	43550.023962
593.894639	42936.938995
594.246358	43215.480389
594.598022	43207.222979
594.949633	42793.180411
595.301190	42747.994029
595.652692	42569.882502
596.004141	42914.863783
596.355535	41918.867894
596.706876	41860.267001
597.058162	41697.059645
597.409395	42175.691997
597.760573	42261.646191
598.111698	41821.888697
598.462768	41848.342152
598.813785	41900.041705
599.164748	41313.170739
599.515657	41710.887530
599.866511	41172.457011
600.217312	41790.842751
600.568060	40739.179921
600.918753	41505.896571
601.269392	41456.563839
601.619978	41105.639038
601.970510	41334.842659
602.320988	41522.247553
602.671412	41808.658188
603.021783	41547.889382
603.372100	41216.299926
603.722363	41328.957112
604.072572	41389.745866
604.422728	41411.750502
604.772830	41229.043963
605.122878	41326.867554
605.472872	41259.018664
605.822813	41551.876935
606.172701	41356.212110
606.522534	41598.605911
606.872314	41877.006152
607.222041	41615.589558
607.571714	42007.148580
607.921333	41426.657194
608.270899	41728.745818
608.620411	42075.302459
608.969870	41883.242060
609.319276	41871.029864
609.668627	41920.362596
610.017926	42420.787856
610.367171	42607.807102
610.716362	42670.647605
611.065500	42618.811941
611.414585	42798.952532
611.763616	43099.387658
612.112594	43032.322667
612.461518	43255.613015
612.810389	43537.340418
613.159207	43397.740786
613.507971	43481.502078
613.856682	43958.911950
614.205340	43839.895349
614.553945	44535.050300
614.902496	43977.574302
615.250994	44452.927383
615.599439	44529.956214
615.947830	44737.530764
616.296169	44786.510615
616.644454	44901.902627
616.992686	45075.323360
617.340864	45587.073572
617.688990	45294.709334
618.037063	45908.066523
618.385082	45872.629732
618.733048	46176.840681
619.080961	46184.818307
619.428821	46194.235183
619.776628	46325.133783
620.124382	46153.742114
620.472083	46287.453679
620.819731	46427.660770
621.167326	46100.540297
621.514868	46073.766729
621.862357	45652.462379
622.209793	45677.141347
622.557176	45346.539958
622.904506	45099.520899
623.251783	44763.714517
623.599007	44524.123599
623.946179	44267.526347
624.293297	44236.029218
624.640363	43624.945590
624.987376	43623.899551
625.334336	43358.374416
625.681243	42992.064013
626.028097	42943.084162
626.374899	42786.596664
626.721647	42757.133641
627.068343	42634.510094
627.414987	42382.863256
627.761577	42151.030672
628.108115	42488.616581
628.454600	41919.044334
628.801032	42106.754218
629.147412	42067.186202
629.493739	42070.757859
629.840014	41681.371574
630.186236	42027.681200
630.532405	41630.748307
630.878521	41850.479601
631.224585	41710.459032
631.570597	41396.324571
631.916556	41574.141191
632.262462	41501.019254
632.608316	41527.984386
632.954117	41423.050248
633.299866	41414.223188
633.645562	41334.797289
633.991206	40839.541732
634.336797	40396.809957
634.682336	40412.934088
635.027823	40152.717288
635.373257	39977.242284
635.718639	39726.049150
636.063968	39592.105692
636.409245	39002.973768
636.754470	39068.362575
637.099642	38800.485742
637.444762	38296.864390
637.789829	38436.728683
638.134845	38086.101310
638.479808	38026.973616
638.824719	37924.834798
639.169577	37513.569906
639.514383	37567.038904
639.859137	37249.665502
640.203839	37493.274220
640.548489	37118.875286
640.893086	37179.212856
641.237632	36915.593278
641.582125	37041.687659
641.926566	36965.946843
642.270955	36920.677281
642.615292	36928.566687
642.959576	36914.375839
643.303809	36899.428818
643.647990	37041.208749
643.992118	36993.937850
644.336195	36987.124730
644.680219	37061.244815
645.024192	37377.393217
645.368112	37872.134576
645.711981	37873.702375
646.055797	38774.617061
646.399562	38677.108543
646.743274	39648.072582
647.086935	40107.788004
647.430544	39988.350467
647.774101	40125.190067
648.117606	40362.830060
648.461059	40710.657072
648.804460	40339.444147
649.147810	39704.478052
649.491108	39465.802103
649.834354	39070.648738
650.177548	38221.491579
650.520690	37765.849409
650.863781	37777.882643
651.206820	37616.260730
651.549807	37167.149375
651.892742	36681.623245
652.235626	36459.104194
652.578458	36317.636814
652.921238	35682.859763
653.263967	36020.909458
653.606644	35688.064754
653.949269	35624.768027
654.291843	35226.514352
654.634365	35629.562164
654.976836	35192.302562
655.319255	35190.517993
655.661622	35194.860947
656.003938	34964.218077
656.346203	34814.561342
656.688416	35038.582658
657.030577	34829.415102
657.372687	34671.309394
657.714746	34961.808405
658.056753	35081.934060
658.398708	34500.454608
658.740612	34549.094181
659.082465	34849.569635
659.424266	34633.251203
659.766016	34763.277684
660.107715	34648.578831
660.449362	34782.479439
660.790958	34753.409626
661.132503	34762.801295
661.473996	34792.322292
661.815438	34903.583078
662.156829	35113.002691
662.498168	34863.304259
662.839456	34891.602776
663.180693	35028.868354
663.521879	35197.247934
663.863013	35155.239999
664.204097	35147.325387
664.545129	35610.713290
664.886110	35560.755455
665.227040	35620.155371
665.567918	35743.840081
665.908746	35799.955685
666.249522	35977.550493
666.590248	35978.006718
666.930922	36090.006033
667.271545	36051.791566
667.612118	36142.744064
667.952639	35909.086583
668.293109	35967.833669
668.633528	35855.630188
668.973896	35794.090302
669.314213	35842.253486
669.654480	35560.054735
669.994695	35599.118636
670.334859	35478.337631
670.674973	35376.637393
671.015035	35537.414913
671.355047	35479.892827
671.695008	35422.297644
672.034918	35317.219833
672.374777	35384.589813
672.714585	35203.425868
673.054342	35428.009272
673.394049	35174.749264
673.733705	35469.203060
674.073310	35153.760420
674.412864	35228.054425
674.752368	34811.340045
675.091820	35117.204493
675.431223	34689.850758
675.770574	34408.413221
676.109875	34265.675470
676.449125	33966.576251
676.788324	33890.255702
677.127473	33333.190558
677.466571	33274.443472
677.805619	32908.879160
678.144616	32896.472880
678.483562	32792.408341
678.822458	32459.936683
679.161303	32388.811044
679.500098	32292.862763
679.838842	32150.387152
680.177535	32319.996773
680.516179	32588.418051
680.854771	32812.031033
681.193314	33679.714433
681.531805	34806.485414
681.870247	35574.822795
682.208638	36320.482546
682.546978	36549.895375
682.885268	36648.003790
683.223508	36142.302963
683.561697	35813.377757
683.899836	35615.232684
684.237925	35093.783292
684.575963	34936.665650
684.913951	34447.935867
685.251889	34611.735558
685.589776	34567.375925
685.927614	34553.409408
686.265401	34676.496741
686.603137	34749.270838
686.940824	35262.596411
687.278460	35618.885000
687.616046	35742.877220
687.953582	36362.545933
688.291068	36233.850317
688.628504	36539.419857
688.965889	36475.616493
689.303224	36111.935052
689.640510	35802.446015
689.977745	35048.513731
690.314930	34273.615288
690.652065	33753.579939
690.989150	33025.410472
691.326185	32101.825717
691.663170	31392.711811
692.000105	30596.733783
692.336990	29921.357800
692.673825	29448.235429
693.010610	28899.982222
693.347345	28297.808833
693.684030	27588.795751
694.020665	27305.676989
694.357251	26600.790091
694.693786	26547.069035
695.030272	26284.061956
695.366707	25721.070936
695.703093	25421.792755
696.039429	25416.076087
696.375716	25127.427179
696.711952	25074.941206
697.048139	24905.974332
697.384276	24715.428799
697.720363	24827.881818
698.056400	24617.259890
698.392388	24409.203909
698.728326	24366.623803
699.064214	24154.527337
699.400053	24115.458395
699.735842	23752.210493
700.071581	23452.700419
700.407270	23151.050376
700.742910	22964.406696
701.078501	22680.619981
701.414042	22394.337895
701.749533	22071.502403
702.084974	21711.027136
702.420366	21924.890526
702.755709	21464.812141
703.091002	21166.806852
703.426246	21180.503667
703.761440	21072.998540
704.096584	20793.453957
704.431679	20740.408415
704.766725	20624.101434
705.101721	20550.377080
705.436668	20657.017648
705.771565	20309.956891
706.106413	20668.203969
706.441212	20636.361520
706.775961	20769.954618
707.110661	20831.194555
707.445311	21181.781599
707.779913	20999.047334
708.114465	21242.814849
708.448967	21528.149198
708.783421	22228.564592
709.117825	22493.396568
709.452180	22710.395556
709.786485	23114.819603
710.120742	23922.556122
710.454949	23924.663324
710.789107	24383.370516
711.123216	25108.651402
711.457275	25227.410904
711.791286	25806.611755
712.125247	25886.403138
712.459159	25608.610355
712.793023	26313.451883
713.126837	25188.120151
713.460602	25485.633928
713.794318	25120.717404
714.127985	24744.480969
714.461602	23833.925076
714.795171	23815.199710
715.128691	22760.827259
715.462162	22219.394733
715.795584	21765.892533
716.128957	21511.188235
716.462281	21098.158939
716.795556	20851.044098
717.128782	20328.074798
717.461960	19751.384442
717.795088	19684.621921
718.128167	19249.419110
718.461198	18780.019631
718.794180	18620.325959
719.127113	18253.072861
719.459997	18048.780101
719.792833	17674.620621
720.125619	17632.164024
720.458357	17287.364224
720.791046	17115.087833
721.123686	16942.458560
721.456278	16693.128132
721.788821	16649.529713
722.121315	16373.299688
722.453761	16441.728310
722.786158	16354.702872
723.118506	16358.284611
723.450805	16218.957201
723.783056	16379.316305
724.115259	16267.148112
724.447412	16191.490475
724.779518	16446.028415
725.111574	16460.209180
725.443582	16650.129610
725.775542	16625.760673
726.107453	17113.817462
726.439315	16971.193137
726.771129	17377.305970
727.102895	17768.207122
727.434612	17978.977764
727.766281	18101.412268
728.097901	18381.024907
728.429473	18416.459177
728.760996	18414.619156
729.092471	18518.630763
729.423897	18393.736176
729.755276	18270.605994
730.086606	18381.105565
730.417887	18905.453621
730.749120	19410.960364
731.080305	19590.909392
731.411442	19938.501991
731.742530	20025.098931
732.073570	20130.600199
732.404562	20456.195723
732.735506	20273.781571
733.066401	19992.066771
733.397249	19470.783737
733.728048	18835.215224
734.058798	17971.169017
734.389501	17262.168537
734.720156	16779.069723
735.050762	16231.471866
735.381320	15852.321644
735.711831	15596.029382
736.042293	15221.864862
736.372707	15219.886209
736.703073	14988.996321
737.033391	15181.528069
737.363661	15121.573626
737.693883	15222.686570
738.024056	15375.524272
738.354182	15559.428085
738.684260	15839.890158
739.014290	16050.736418
739.344272	16227.121350
739.674207	16531.508740
740.004093	16646.401677
740.333931	16651.805794
740.663722	16699.041406
740.993464	16705.201696
741.323159	16542.556428
741.652806	16277.255625
741.982405	16056.836214
742.311956	15733.511730
742.641460	15608.710405
742.970915	15304.819569
743.300323	14964.725686
743.629683	14746.980607
743.958996	14467.342762
744.288260	14189.610474
744.617477	13881.875758
744.946647	13795.649342
745.275768	13519.106765
745.604842	13330.786902
745.933869	13149.007935
746.262847	13096.524482
746.591778	13020.617308
746.920662	12913.180237
747.249498	12904.499371
747.578286	13018.610929
747.907027	13155.379953
748.235720	13377.563768
748.564365	13395.175039
748.892963	13297.583342
749.221514	13353.847660
749.550017	13206.169578
749.878473	13164.748938
750.206881	12940.125205
750.535242	12839.833970
750.863555	12750.187131
751.191821	12651.047799
751.520039	12675.560410
751.848210	12567.795664
752.176334	12592.998913
752.504411	12493.864622
752.832440	12330.450579
753.160421	12391.385526
753.488356	12254.130031
753.816243	12162.249961
754.144082	12018.647652
754.471875	11955.880246
754.799620	11898.186760
755.127318	11866.803057
755.454969	11827.537510
755.782572	11776.125302
756.110129	11789.013012
756.437638	11700.379445
756.765100	11695.827283
757.092515	11694.025071
757.419882	11706.254910
757.747203	11700.724764
758.074477	11779.016404
758.401703	11724.269473
758.728882	11883.574976
759.056014	11931.193715
759.383099	12052.325080
759.710138	12147.665902
760.037129	12227.709343
760.364073	12246.008732
760.690970	12224.170453
761.017820	12234.227555
761.344623	12427.397009
761.671379	12785.505455
761.998088	13433.381944
762.324751	15029.191962
762.651366	17969.480230
762.977935	21660.482007
763.304456	23923.400515
763.630931	24434.961684
763.957359	23290.682776
764.283740	21384.022609
764.610074	19488.442899
764.936362	17301.746636
765.262602	15745.340797
765.588796	14216.736923
765.914943	13180.507585
766.241044	12265.006320
766.567097	11605.807399
766.893104	11029.439677
767.219064	10647.521862
767.544978	10253.321275
767.870845	9926.162993
768.196665	9723.226304
768.522438	9518.482361
768.848165	9355.456487
769.173846	9177.002161
769.499479	9050.418788
769.825066	8890.140343
770.150607	8700.701343
770.476101	8634.332032
770.801548	8520.079321
771.126949	8375.355356
771.452303	8283.979401
771.777611	8111.561857
772.102872	8088.254083
772.428087	7969.923078
772.753256	7842.180240
773.078378	7753.471056
773.403453	7603.252233
773.728482	7487.983730
774.053465	7420.792711
774.378401	7328.627815
774.703291	7229.987558
775.028135	7133.424256
775.352932	7093.725170
775.677683	7007.818867
776.002388	6914.615494
776.327046	6914.023158
776.651658	6820.492111
776.976224	6739.097641
777.300743	6722.290434
777.625216	6655.205279
777.949643	6608.851869
778.274024	6618.218333
778.598359	6544.519184
778.922647	6542.704369
779.246889	6498.760631
779.571086	6508.656416
779.895236	6515.759402
780.219339	6500.986300
780.543397	6498.846331
780.867409	6549.668723
781.191374	6548.476490
781.515294	6515.260327
781.839167	6568.144552
782.162995	6535.167844
782.486776	6494.210990
782.810511	6451.083918
783.134201	6373.916456
783.457844	6361.472368
783.781441	6317.077446
784.104993	6272.193533
784.428498	6244.631024
784.751958	6225.514969
785.075372	6203.772472
785.398739	6155.155585
785.722061	6184.308577
786.045337	6182.750861
786.368568	6293.590711
786.691752	6318.370502
787.014891	6569.157824
787.337983	6847.684094
787.661030	7286.811444
787.984031	7719.208854
788.306987	7979.191240
788.629897	8071.441835
788.952760	8000.991710
789.275579	7824.410173
789.598351	7523.627208
789.921078	7258.933863
790.243759	6970.579863
790.566395	6764.023626
790.888984	6565.626496
791.211529	6421.338590
791.534027	6255.771974
791.856480	6112.182269
792.178888	6050.082815
792.501249	5975.914839
792.823566	5866.557089
793.145836	5859.005440
793.468062	5837.469631
793.790241	5794.829031
794.112375	5833.368653
794.434464	5937.808757
794.756507	5955.402384
795.078505	6077.713379
795.400457	6297.792512
795.722364	6532.125508
796.044226	6731.803091
796.366042	6891.385857
796.687812	6840.939031
797.009538	6876.627879
797.331218	6789.436082
797.652852	6726.746814
797.974442	6607.205933
798.295986	6529.133583
798.617484	6400.755559
798.938938	6289.840092
799.260346	6220.446089
799.581709	6076.266568
799.903026	6028.524321
800.224299	5949.854594
800.545526	5822.003371
800.866708	5761.128918
801.187845	5710.021700
801.508936	5631.961953
801.829983	5600.845431
802.150984	5486.963245
802.471940	5457.185150
802.792851	5442.676709
803.113717	5417.360034
803.434538	5394.006889
803.755314	5361.839286
804.076045	5340.207695
804.396731	5302.525070
804.717372	5318.261032
805.037967	5315.057379
805.358518	5341.715000
805.679024	5394.821035
805.999485	5403.275050
806.319901	5421.067803
806.640272	5433.043064
806.960598	5482.680785
807.280879	5471.514629
807.601115	5516.522051
807.921306	5479.368747
808.241453	5475.751719
808.561554	5489.130942
808.881611	5452.804387
809.201623	5452.605261
809.521590	5406.329990
809.841513	5392.484461
810.161390	5413.311988
810.481223	5322.422504
810.801011	5315.788346
811.120755	5286.554695
811.440453	5236.982508
811.760107	5208.376481
812.079716	5182.704405
812.399281	5131.128360
812.718801	5125.512515
813.038276	5087.686217
813.357707	5048.735742
813.677093	5074.269186
813.996434	5011.242160
814.315731	5033.214029
814.634983	5030.816960
814.954191	5040.513620
815.273354	5098.933031
815.592473	5142.942304
815.911547	5220.722267
816.230577	5275.514568
816.549562	5367.462693
816.868502	5426.779430
817.187399	5482.892514
817.506250	5569.988529
817.825058	5600.061532
818.143821	5762.772334
818.462539	5934.957985
818.781213	6172.086300
819.099843	6539.452825
819.418429	7184.975095
819.736970	7822.723907
820.055466	8558.213129
820.373919	9517.627885
820.692327	11052.543285
821.010691	13891.947983
821.329011	20353.729230
821.647286	30147.140998
821.965517	40649.200366
822.283704	46121.932434
822.601847	47648.623191
822.919945	43096.519241
823.237999	38008.001234
823.556010	32756.452311
823.873976	27960.265775
824.191897	23612.028607
824.509775	20435.141344
824.827609	17549.050520
825.145398	15907.663431
825.463144	15119.332833
825.780845	15419.629327
826.098502	16703.601129
826.416116	19162.789401
826.733685	21396.786811
827.051210	21843.077640
827.368692	20360.454129
827.686129	17786.756048
828.003522	15276.644560
828.320872	13039.554403
828.638177	11330.232724
828.955439	10048.055573
829.272656	8951.226524
829.589830	8086.880368
829.906960	7326.540778
830.224046	6775.787158
830.541088	6346.916036
830.858086	6081.554739
831.175041	5866.380648
831.491952	5801.289270
831.808819	5839.660013
832.125642	6088.599751
832.442421	6658.575290
832.759157	7807.625651
833.075849	9600.005380
833.392497	11449.788729
833.709101	12566.893298
834.025662	12305.234728
834.342179	11252.629202
834.658653	9937.515672
834.975083	8819.123088
835.291469	7902.739621
835.607811	7133.414174
835.924110	6592.468119
836.240366	6086.096818
836.556578	5620.694975
836.872746	5253.459520
837.188871	4970.053412
837.504952	4741.401797
837.820990	4568.331424
838.136984	4447.404226
838.452935	4397.995877
838.768842	4429.863531
839.084706	4725.007965
839.400526	5484.520806
839.716303	6404.634727
840.032037	6969.869061
840.347727	6819.148643
840.663373	6214.275717
840.978977	5624.531293
841.294537	5176.649979
841.610054	4833.425540
841.925527	4585.007561
842.240957	4367.638048
842.556344	4174.554294
842.871687	4005.899972
843.186987	3850.960108
843.502244	3728.644072
843.817458	3633.308291
844.132629	3563.029565
844.447756	3511.133407
844.762840	3465.168166
845.077881	3422.709048
845.392879	3385.233110
845.707833	3357.884851
846.022745	3330.244204
846.337613	3316.272646
846.652438	3295.114923
846.967221	3280.203190
847.281960	3259.864655
847.596656	3246.775299
847.911309	3239.374885
848.225919	3227.371898
848.540485	3214.378324
848.855009	3204.628732
849.169490	3193.144984
849.483928	3186.430167
849.798323	3181.643592
850.112675	3170.976510
850.426984	3169.297806
850.741251	3160.274140
851.055474	3156.372287
851.369654	3161.000067
851.683792	3152.059580
851.997887	3158.434119
852.311938	3156.485713
852.625947	3159.404541
852.939914	3152.379693
853.253837	3157.448574
853.567718	3154.650733
853.881555	3148.490443
854.195350	3152.911535
854.509103	3151.275681
854.822812	3150.388438
855.136479	3144.361738
855.450103	3147.653612
855.763685	3140.535502
856.077224	3144.301244
856.390720	3149.445742
856.704173	3160.518636
857.017584	3165.116169
857.330953	3169.335614
857.644278	3178.543282
857.957561	3182.601411
858.270802	3181.401616
858.584000	3180.854651
858.897155	3171.420132
859.210268	3164.284378
859.523339	3153.624858
859.836367	3150.050680
860.149352	3143.577839
860.462295	3139.630615
860.775195	3130.180972
861.088054	3129.240797
861.400869	3126.924387
861.713642	3122.130250
862.026373	3132.381436
862.339062	3137.757827
862.651708	3145.501039
862.964312	3159.603667
863.276873	3168.045079
863.589392	3200.406766
863.901869	3227.039182
864.214303	3247.014754
864.526696	3264.623504
864.839045	3282.156637
865.151353	3296.140798
865.463619	3299.906540
865.775842	3302.152374
866.088023	3308.748724
866.400162	3298.348824
866.712258	3301.083650
867.024313	3300.662713
867.336325	3302.500214
867.648296	3301.670944
867.960224	3299.904020
868.272110	3303.793270
868.583954	3303.483239
868.895755	3310.616472
869.207515	3304.904844
869.519233	3329.530881
869.830909	3333.886438
870.142542	3344.064527
870.454134	3352.319417
870.765684	3365.549925
871.077191	3384.570198
871.388657	3398.491345
871.700081	3415.202770
872.011463	3434.896037
872.322803	3455.221970
872.634101	3474.118735
872.945357	3495.757888
873.256571	3521.931558
873.567744	3539.988972
873.878874	3543.129610
874.189963	3562.369174
874.501010	3563.337076
874.812015	3558.628638
875.122979	3580.552616
875.433900	3577.734611
875.744780	3578.155547
876.055618	3589.712392
876.366415	3589.205757
876.677169	3594.100717
876.987882	3612.284159
877.298554	3636.050679
877.609183	3677.501566
877.919771	3727.807240
878.230317	3800.132675
878.540822	3910.198707
878.851285	4075.450251
879.161707	4304.366526
879.472087	4704.561045
879.782425	5364.135532
880.092722	6608.982939
880.402977	8617.451728
880.713191	11057.649974
881.023363	13487.206344
881.333494	14836.037631
881.643583	15317.114943
881.953631	14922.047278
882.263637	14080.991252
882.573602	13054.171228
882.883526	12057.411605
883.193408	11081.673592
883.503248	10128.892995
883.813048	9264.856870
884.122806	8469.640056
884.432522	7673.644385
884.742197	6967.731612
885.051831	6387.431789
885.361424	5865.939548
885.670975	5450.838337
885.980485	5105.138691
886.289954	4822.274508
886.599382	4591.064507
886.908768	4402.371598
887.218113	4230.317018
887.527417	4088.789144
887.836680	3966.069815
888.145901	3855.197198
888.455082	3775.055455
888.764221	3703.148436
889.073319	3642.402532
889.382376	3605.014815
889.691392	3578.009354
890.000366	3566.513002
890.309300	3560.766087
890.618193	3567.057447
890.927044	3559.760377
891.235855	3564.957807
891.544625	3584.615786
891.853353	3615.364304
892.162041	3682.267977
892.470687	3778.314561
892.779293	3897.623549
893.087858	4080.990479
893.396381	4372.505282
893.704864	4805.973937
894.013306	5382.959200
894.321707	5959.384896
894.630068	6319.020811
894.938387	6349.214802
895.246665	6169.906001
895.554903	5848.852557
895.863100	5514.182956
896.171256	5231.086879
896.479371	4988.511597
896.787446	4756.313530
897.095480	4556.857758
897.403473	4397.582502
897.711425	4246.554574
898.019336	4118.151344
898.327207	3991.021006
898.635038	3888.952764
898.942827	3778.216258
899.250576	3690.893391
899.558284	3603.568004
899.865952	3549.322668
900.173579	3483.316320
900.481165	3432.163732
900.788711	3391.027917
901.096216	3357.181610
901.403681	3328.542815
901.711105	3313.734425
902.018489	3312.615289
902.325832	3347.356401
902.633135	3407.754465
902.940397	3591.091148
903.247619	4013.844830
903.554800	4792.960198
903.861941	5785.938957
904.169041	6512.273444
904.476101	6729.625313
904.783121	6450.605009
905.090100	6045.460077
905.397039	5619.633812
905.703938	5248.133541
906.010796	4912.712808
906.317614	4647.807735
906.624391	4400.019900
906.931129	4191.520298
907.237826	4002.323273
907.544483	3821.303000
907.851099	3643.156185
908.157675	3474.811893
908.464211	3327.340499
908.770707	3222.585322
909.077163	3137.578866
909.383578	3075.857499
909.689954	3030.351003
909.996289	2997.265910
910.302584	2977.988538
910.608839	2959.711835
910.915054	2947.303034
911.221229	2941.286417
911.527363	2946.851851
911.833458	2954.340485
912.139513	2969.496714
912.445527	2984.035402
912.751502	3018.572347
913.057436	3061.596074
913.363331	3127.466311
913.669186	3219.053994
913.975000	3346.524610
914.280775	3540.475443
914.586510	3825.083866
914.892205	4219.768403
915.197859	4732.841918
915.503475	5331.461293
915.809050	5825.698537
916.114585	6107.791424
916.420081	6172.161917
916.725536	6108.015755
917.030952	5866.552048
917.336328	5660.925903
917.641665	5446.185352
917.946961	5216.583479
918.252218	5007.468856
918.557435	4774.859935
918.862612	4576.722425
919.167750	4392.730392
919.472848	4195.573385
919.777906	4023.342364
920.082925	3861.060060
920.387904	3696.647868
920.692843	3583.547061
920.997743	3479.961432
921.302603	3382.581463
921.607423	3313.363900
921.912204	3245.058786
922.216946	3191.690611
922.521647	3140.346459
922.826310	3099.129985
923.130932	3060.093811
923.435516	3015.620751
923.740059	2990.916577
924.044564	2955.041206
924.349028	2932.482042
924.653454	2898.202196
924.957840	2872.976262
925.262186	2850.510360
925.566493	2827.343737
925.870761	2801.863225
926.174989	2790.573561
926.479178	2773.645367
926.783328	2755.862697
927.087438	2744.361304
927.391509	2731.231619
927.695541	2717.648230
927.999533	2709.995758
928.303486	2697.075281
928.607400	2692.661751
928.911275	2684.638754
929.215110	2680.542817
929.518906	2678.160872
929.822663	2672.403874
930.126381	2675.171467
930.430060	2675.829338
930.733699	2678.758248
931.037299	2680.356294
931.340861	2681.926614
931.644383	2683.043229
931.947866	2683.161696
932.251309	2679.322858
932.554714	2680.948630
932.858080	2679.753876
933.161407	2672.320695
933.464694	2669.638801
933.767943	2668.106290
934.071153	2663.405414
934.374323	2659.145639
934.677455	2659.964827
934.980548	2656.917449
935.283602	2650.157262
935.586617	2645.970584
935.889593	2652.637510
936.192530	2655.163128
936.495428	2657.550114
936.798287	2666.672082
937.101108	2680.661284
937.403890	2704.248843
937.706632	2726.989488
938.009336	2760.896289
938.312002	2791.175979
938.614628	2814.559371
938.917216	2835.465036
939.219765	2844.891994
939.522275	2858.530836
939.824747	2858.757688
940.127179	2848.728312
940.429573	2846.747139
940.731929	2844.619772
941.034246	2834.976044
941.336524	2835.689368
941.638763	2827.482369
941.940964	2823.535146
942.243126	2804.867753
942.545250	2798.999850
942.847335	2780.740791
943.149381	2767.477515
943.451389	2753.755494
943.753359	2739.524317
944.055290	2731.904613
944.357182	2722.591081
944.659036	2718.527911
944.960851	2714.613455
945.262628	2707.886035
945.564367	2709.947867
945.866067	2708.609441
946.167729	2705.569625
946.469352	2704.203472
946.770937	2703.742207
947.072484	2693.601926
947.373992	2696.006556
947.675462	2694.935311
947.976893	2687.355936
948.278286	2682.491223
948.579641	2680.177333
948.880958	2678.314627
949.182236	2678.349915
949.483476	2670.641991
949.784678	2672.355983
950.085841	2672.461847
950.386967	2673.974193
950.688054	2679.103567
950.989103	2688.790145
951.290114	2696.427493
951.591087	2710.940975
951.892021	2721.043447
952.192917	2734.387381
952.493776	2745.689648
952.794596	2749.321799
953.095378	2750.451018
953.396122	2746.433218
953.696828	2744.464648
953.997496	2742.886767
954.298126	2731.725652
954.598718	2722.712069
954.899272	2711.102292
955.199788	2700.301619
955.500266	2690.068077
955.800706	2672.494615
956.101108	2655.647079
956.401472	2650.028713
956.701798	2631.341155
957.002087	2618.198867
957.302337	2610.710233
957.602550	2596.461412
957.902724	2584.670153
958.202861	2574.686148
958.502960	2567.615930
958.803022	2560.084446
959.103045	2549.624052
959.403031	2544.882846
959.702979	2537.275745
960.002889	2535.163502
960.302762	2530.460105
960.602596	2522.490041
960.902393	2519.727489
961.202153	2517.975688
961.501875	2514.048629
961.801559	2511.459996
962.101205	2511.515449
962.400814	2505.576970
962.700385	2504.450272
962.999918	2503.101763
963.299414	2500.243429
963.598873	2500.808038
963.898293	2497.410301
964.197677	2497.327122
964.497022	2493.112717
964.796331	2495.587923
965.095601	2494.020125
965.394835	2493.263952
965.694030	2494.995588
965.993189	2492.585916
966.292309	2489.137767
966.591393	2491.144146
966.890439	2487.471666
967.189447	2489.210864
967.488419	2490.486276
967.787353	2488.895792
968.086249	2489.304125
968.385108	2491.902840
968.683930	2493.029538
968.982714	2493.896616
969.281462	2494.662872
969.580172	2493.969713
969.878844	2498.355517
970.177480	2500.203100
970.476078	2504.878770
970.774639	2510.129132
971.073162	2507.568226
971.371649	2512.836231
971.670098	2509.899759
971.968510	2512.213649
972.266885	2508.858761
972.565223	2517.963085
972.863524	2517.418640
973.161788	2520.481141
973.460014	2520.614732
973.758204	2519.687159
974.056356	2521.436440
974.354471	2519.989629
974.652550	2521.295287
974.950591	2524.846780
975.248595	2522.215298
975.546563	2519.714886
975.844493	2518.447036
976.142386	2517.101047
976.440243	2514.827487
976.738062	2511.770027
977.035845	2510.514780
977.333590	2508.969666
977.631299	2503.008502
977.928971	2505.133348
978.226606	2503.626043
978.524204	2501.765858
978.821765	2500.543378
979.119290	2500.823162
979.416777	2497.727893
979.714228	2500.581186
980.011642	2501.128152
980.309020	2505.544202
980.606360	2508.273987
980.903664	2519.835873
981.200931	2529.403983
981.498162	2552.721841
981.795356	2582.162179
982.092513	2620.056532
982.389633	2670.120231
982.686717	2713.227138
982.983764	2746.463465
983.280775	2762.751433
983.577749	2766.214706
983.874686	2753.468148
984.171587	2738.188411
984.468451	2720.007490
984.765279	2706.030891
985.062070	2685.939372
985.358824	2665.033707
985.655543	2642.537558
985.952224	2619.686008
986.248869	2592.264651
986.545478	2561.069991
986.842050	2539.720705
987.138586	2522.714372
987.435086	2508.170643
987.731549	2496.540702
988.027975	2489.210864
988.324366	2486.531491
988.620719	2480.789616
988.917037	2474.692341
989.213318	2474.344501
989.509563	2468.330405
989.805772	2467.685137
990.101944	2466.455095
990.398080	2468.408542
990.694180	2465.252780
990.990244	2465.260342
991.286271	2465.204889
991.582262	2469.981382
991.878217	2468.355610
992.174136	2466.692030
992.470019	2468.499283
992.765865	2472.030612
993.061676	2472.935499
993.357450	2475.299800
993.653188	2478.546303
993.948890	2486.738178
994.244556	2490.478714
994.540186	2501.027328
994.835780	2512.412774
995.131337	2529.562780
995.426859	2544.093906
995.722345	2567.568039
996.017795	2585.428847
996.313208	2598.412338
996.608586	2610.637137
996.903928	2611.773917
997.199234	2613.472786
997.494504	2610.334667
997.789738	2602.029366
998.084936	2595.246494
998.380099	2577.930130
998.675225	2568.205745
998.970316	2556.485062
999.265371	2539.395550
999.560390	2524.612367
999.855373	2512.143073
1000.150320	2501.055055
1000.445232	2493.808396
1000.740108	2486.352530
1001.034948	2480.678711
1001.329752	2477.515387
1001.624521	2469.585652
1001.919254	2461.660958
1002.213951	2462.311267
1002.508613	2458.066615
1002.803239	2459.377315
1003.097829	2454.177365
1003.392384	2456.871862
1003.686903	2455.135184
1003.981386	2452.410441
1004.275834	2451.855914
1004.570246	2452.735595
1004.864623	2450.479679
1005.158964	2450.058743
1005.453270	2448.377518
1005.747540	2447.732250
1006.041775	2446.252671
1006.335974	2445.927517
1006.630138	2446.585387
1006.924266	2445.057918
1007.218359	2446.492126
1007.512416	2444.309307
1007.806438	2443.578339
1008.100425	2441.768565
1008.394376	2442.754111
1008.688292	2443.543051
1008.982172	2443.240582
1009.276017	2443.805191
1009.569827	2441.211517
1009.863602	2446.557661
1010.157341	2440.732608
1010.451045	2441.413164
1010.744714	2444.233689
1011.038347	2439.701692
1011.331945	2438.466609
1011.625508	2439.255550
1011.919036	2443.701847
1012.212528	2438.829572
1012.505986	2443.114553
1012.799408	2440.331836
1013.092795	2438.907710
1013.386147	2438.043152
1013.679464	2439.631116
1013.972745	2438.408636
1014.265992	2439.482402
1014.559204	2438.844696
1014.852380	2440.072217
1015.145521	2439.706733
1015.438628	2441.632454
1015.731699	2439.895776
1016.024736	2440.626744
1016.317737	2441.592125
1016.610703	2443.868206
1016.903635	2437.806218
1017.196531	2434.801690
1017.489393	2436.558532
1017.782219	2437.203800
1018.075011	2441.972732
1018.367768	2441.539193
1018.660490	2442.847372
1018.953177	2442.847372
1019.245829	2442.847372
