Dividing Wavelength (nm)	Counts (n)	Blue Motor Position (mm): 0.000000	Red Motor Position (mm): 40.800000	
326.493990	1993.060502
326.888308	1993.060502
327.282561	1993.060502
327.676750	1970.266925
328.070874	1969.011678
328.464933	1977.458131
328.858929	1989.095635
329.252859	1999.727428
329.646726	2013.862824
330.040528	2030.672551
330.434265	2048.840870
330.827938	2067.097408
331.221547	2088.091293
331.615091	2106.889756
332.008571	2128.145781
332.401986	2147.811323
332.795338	2166.614826
333.188625	2190.519978
333.581847	2209.583101
333.975006	2227.327963
334.368100	2246.486868
334.761129	2261.731317
335.154095	2277.235386
335.546996	2306.106074
335.939833	2350.939576
336.332606	2365.195959
336.725315	2378.890253
337.117960	2389.070863
337.510540	2395.021945
337.903056	2407.483678
338.295508	2411.009965
338.687896	2420.905750
339.080220	2427.187028
339.472480	2432.477718
339.864676	2436.550971
340.256807	2438.305292
340.648875	2438.804367
341.040879	2437.990220
341.432818	2447.044133
341.824694	2446.108998
342.216506	2446.918104
342.608253	2445.511622
342.999937	2441.329985
343.391557	2445.057918
343.783113	2442.882660
344.174605	2439.749583
344.566033	2438.360745
344.957397	2437.914603
345.348697	2436.989551
345.739934	2430.118458
346.131106	2431.860177
346.522215	2433.738007
346.913260	2432.225661
347.304241	2427.862542
347.695159	2425.548653
348.086012	2424.767274
348.476802	2422.181162
348.867528	2420.870462
349.258191	2419.930287
349.648789	2420.557910
350.039324	2420.114289
350.429796	2420.686460
350.820203	2415.650347
351.210548	2418.962385
351.600828	2417.344175
351.991045	2415.746129
352.381198	2414.614390
352.771288	2417.084555
353.161314	2417.593712
353.551276	2417.911304
353.941175	2419.272416
354.331010	2418.327200
354.720782	2415.292425
355.110490	2418.675039
355.500135	2420.615883
355.889717	2419.869793
356.279235	2420.623445
356.668689	2417.850811
357.058080	2421.896337
357.447408	2420.701583
357.836672	2417.765111
358.225873	2420.953641
358.615010	2417.818043
359.004084	2426.125865
359.393095	2424.873138
359.782043	2425.886410
360.170927	2426.251893
360.559748	2427.250042
360.948505	2427.993612
361.337199	2430.544436
361.725830	2434.693306
362.114398	2431.313212
362.502903	2429.427820
362.891344	2433.851433
363.279722	2431.058634
363.668037	2435.993923
364.056289	2433.334715
364.444478	2435.789757
364.832603	2439.517690
365.220665	2440.107505
365.608665	2438.431321
365.996601	2439.159768
366.384474	2440.684717
366.772284	2443.084306
367.160031	2441.183791
367.547715	2444.316868
367.935336	2440.147834
368.322893	2445.909873
368.710388	2445.136056
369.097820	2451.097220
369.485189	2447.066818
369.872495	2451.853393
370.259738	2448.788372
370.646918	2457.494444
371.034035	2456.909671
371.421090	2464.630198
371.808081	2461.159363
372.195010	2468.600106
372.581875	2473.641260
372.968678	2483.446304
373.355418	2488.903353
373.742096	2500.450116
374.128710	2511.764986
374.515262	2525.174455
374.901751	2539.307330
375.288177	2557.014383
375.674540	2575.976683
376.060841	2602.341918
376.447079	2625.753036
376.833254	2650.747077
377.219367	2675.836900
377.605417	2710.104143
377.991404	2743.216962
378.377329	2779.609052
378.763191	2815.580205
379.148991	2866.200951
379.534727	2915.989907
379.920402	2964.962196
380.306013	3013.873992
380.691563	3079.081317
381.077049	3135.237250
381.462474	3195.703370
381.847835	3273.057355
382.233134	3345.707943
382.618371	3406.148858
383.003545	3493.449039
383.388657	3579.289807
383.773706	3673.216585
384.158693	3746.769541
384.543618	3843.562215
384.928480	3924.565996
385.313280	4032.812172
385.698017	4138.550373
386.082692	4264.405300
386.467305	4327.568437
386.851856	4458.169610
387.236344	4615.115852
387.620770	4682.274104
388.005133	4801.076456
388.389435	4955.829797
388.773674	5040.304412
389.157851	5175.344320
389.541965	5309.499507
389.926018	5337.709803
390.310008	5525.061766
390.693936	5647.239170
391.077802	5770.167707
391.461606	5904.055712
391.845348	6023.180698
392.229027	6145.254759
392.612645	6377.062136
392.996200	6497.563357
393.379694	6671.631879
393.763125	6903.635861
394.146494	6999.823597
394.529801	7143.244424
394.913047	7394.853453
395.296230	7394.067033
395.679351	7450.137267
396.062410	7722.649441
396.445408	7618.950386
396.828343	7775.382431
397.211217	7920.129081
397.594028	7795.380688
397.976778	8010.360694
398.359466	8173.522679
398.742092	8149.143659
399.124656	8299.889283
399.507158	8492.244590
399.889598	8510.400306
400.271977	8725.402997
400.654294	8762.140405
401.036549	8964.240263
401.418742	8989.834201
401.800874	9302.209299
402.182944	9382.928255
402.564952	9761.357592
402.946898	9578.945960
403.328783	9638.865115
403.710606	9839.203089
404.092367	10102.227812
404.474067	10471.111724
404.855705	10255.609959
405.237282	10211.809893
405.618797	10653.246092
406.000250	10900.229863
406.381642	11276.551997
406.762972	11221.265663
407.144240	11019.443069
407.525447	11286.533482
407.906593	11218.427493
408.287677	11482.500776
408.668700	11643.699232
409.049661	11620.860284
409.430560	11778.363575
409.811399	11753.901376
410.192176	11917.922878
410.572891	11991.720329
410.953545	12506.976663
411.334138	11961.072634
411.714669	12581.527767
412.095139	11856.244360
412.475547	12383.443188
412.855894	12227.301010
413.236180	12566.484964
413.616405	12229.640105
413.996568	12519.904703
414.376670	12495.248419
414.756711	12364.004499
415.136691	12661.092298
415.516609	12857.835930
415.896466	12913.656627
416.276262	13213.201988
416.655997	13654.723886
417.035670	13692.635883
417.415283	14358.700856
417.794834	14443.170430
418.174324	14195.584241
418.553753	14092.361575
418.933121	14595.743472
419.312428	14402.085026
419.691674	14311.828207
420.070859	14771.722591
420.449983	14424.767698
420.829045	14990.070087
421.208047	14714.674373
421.586988	15194.902250
421.965867	15456.533094
422.344686	15453.435305
422.723444	16038.642690
423.102141	14686.844683
423.480777	15909.821045
423.859352	15400.636780
424.237866	16543.872170
424.616319	16231.302987
424.994712	16917.136844
425.373044	16690.247113
425.751314	17385.036580
426.129524	16485.157851
426.507673	17614.958566
426.885762	17295.094833
427.263789	17510.359664
427.641756	17677.451229
428.019662	17736.316783
428.397508	17778.110469
428.775292	18104.217670
429.153016	18051.030976
429.530679	18149.527561
429.908282	18167.060694
430.285824	17873.663019
430.663305	18600.340305
431.040726	18193.667904
431.418086	18005.302670
431.795385	18675.761008
432.172624	19095.006047
432.549802	18643.232963
432.926920	18828.893618
433.303977	18716.337255
433.680974	18975.618921
434.057910	19267.799157
434.434786	19295.235636
434.811601	19200.275421
435.188355	20270.759399
435.565050	19913.482744
435.941683	19849.802889
436.318257	20747.942420
436.694770	20561.112217
437.071222	21167.525216
437.447614	20221.151925
437.823946	20261.652555
438.200218	20411.687376
438.576429	20175.836993
438.952580	20457.801331
439.328670	20422.646844
439.704700	20836.429793
440.080670	20406.494987
440.456580	21002.591265
440.832429	21192.201664
441.208218	20150.951337
441.583947	20608.083168
441.959616	20715.318592
442.335224	20960.147270
442.710773	21095.855132
443.086261	21638.303450
443.461689	21000.481542
443.837057	21115.553440
444.212365	21781.041201
444.587612	21767.230960
444.962800	21343.395950
445.337927	21778.152620
445.712995	20478.507870
446.088002	22370.795707
446.462949	22577.828334
446.837837	22751.347370
447.212664	22712.906051
447.587431	25605.557937
447.962139	28606.133364
448.336786	31014.945386
448.711374	29423.621995
449.085901	25667.662431
449.460369	25614.821057
449.834776	25538.654263
450.209124	28067.274347
450.583412	27580.339215
450.957640	28115.059445
451.331808	26748.568995
451.705917	25375.424222
452.079965	25405.734160
452.453954	25757.021924
452.827883	25648.720296
453.201752	25454.401459
453.575562	25618.518743
453.949311	26758.547959
454.323001	26832.567221
454.696632	26577.580618
455.070202	28167.094235
455.443713	28290.746177
455.817164	28904.521781
456.190556	29442.642269
456.563888	28878.406083
456.937160	29328.545834
457.310373	27614.984545
457.683526	28101.589482
458.056619	28065.951044
458.429653	28003.556683
458.802628	28588.970756
459.175542	28711.652276
459.548398	30011.612098
459.921194	31623.218571
460.293930	32299.083546
460.666607	34349.214951
461.039224	36139.936141
461.411782	36536.856430
461.784280	35328.620403
462.156719	34857.549782
462.529099	34289.762103
462.901419	32974.346104
463.273680	31905.288773
463.645882	31990.970744
464.018024	31958.208285
464.390106	32820.205263
464.762130	35543.514709
465.134094	39660.912401
465.505999	44992.557696
465.877845	49611.320823
466.249631	50785.725667
466.621358	49105.839286
466.993026	47017.362344
467.364634	44936.457216
467.736184	42936.427318
468.107674	41667.357167
468.479105	40856.636285
468.850477	40165.884782
469.221790	38696.466573
469.593043	36926.615761
469.964238	36036.007713
470.335373	35954.953521
470.706449	37707.815646
471.077467	40316.990848
471.448425	44917.124391
471.819324	47740.649454
472.190164	45893.270736
472.560945	42292.409832
472.931667	39158.546297
473.302330	38039.969711
473.672934	37201.630868
474.043479	37721.031031
474.413965	36910.733605
474.784393	36529.443414
475.154761	37435.288348
475.525070	37445.965512
475.895321	36994.943560
476.265513	37612.522715
476.635645	38581.684542
477.005719	38409.014940
477.375734	38873.947956
477.745691	39586.187378
478.115588	40931.872985
478.485427	42921.313939
478.855207	46318.240006
479.224928	48924.675340
479.594591	50581.009451
479.964194	49598.904462
480.333739	49777.651174
480.703226	49790.773298
481.072653	50434.412697
481.442022	50922.741708
481.811333	51178.111439
482.180584	49884.813502
482.549777	49368.536334
482.918912	48822.178600
483.287988	48541.527483
483.657005	47712.875217
484.025964	47066.833708
484.394864	47099.210518
484.763706	46655.715009
485.132489	45792.674511
485.501213	45618.064066
485.869879	45788.001362
486.238487	45348.851327
486.607036	45569.701756
486.975527	45029.693356
487.343959	45211.696654
487.712333	45299.662268
488.080648	45212.236057
488.448905	45692.557196
488.817104	45498.702145
489.185244	46451.023998
489.553326	48157.222682
489.921350	50866.056454
490.289315	53716.274427
490.657222	54293.925123
491.025070	54576.010448
491.392861	53708.402665
491.760593	52486.547961
492.128267	50827.378201
492.495883	49322.676957
492.863440	47913.596319
493.230939	46567.646051
493.598380	45467.930942
493.965763	45136.651517
494.333088	44316.607021
494.700354	43820.847349
495.067563	43527.820199
495.434713	43390.879776
495.801805	43455.396463
496.168839	43066.605034
496.535815	42727.927716
496.902733	42759.540792
497.269593	42345.843542
497.636395	42275.418623
498.003139	42688.382384
498.369825	42131.150882
498.736453	42458.276397
499.103023	41974.459218
499.469535	41830.181395
499.835989	41944.469394
500.202385	41602.570778
500.568723	41615.886986
500.935003	41800.597383
501.301226	41596.322268
501.667390	42216.651372
502.033497	42488.926612
502.399546	41900.414750
502.765537	41206.142001
503.131470	41602.699327
503.497345	41953.727473
503.863163	40607.504982
504.228923	41212.133413
504.594625	41656.072544
504.960269	40930.075814
505.325856	41625.056845
505.691385	40965.278191
506.056856	41115.834771
506.422270	41554.231154
506.787625	41129.655095
507.152924	41322.176760
507.518164	41410.969123
507.883347	40605.226381
508.248472	40884.163505
508.613540	41370.465973
508.978550	41668.990501
509.343503	41390.078582
509.708398	41612.154012
510.073236	42143.582368
510.438016	42122.298616
510.802738	41587.628798
511.167403	42211.816906
511.532010	42433.874691
511.896561	42740.752411
512.261053	43608.292138
512.625488	43121.208292
512.989866	43016.556459
513.354186	42857.966800
513.718449	42831.467975
514.082655	43512.767314
514.446803	43168.542206
514.810894	43691.186352
515.174927	43619.841422
515.538904	43513.629351
515.902822	44202.195514
516.266684	43630.775684
516.630488	44043.061411
516.994235	43917.110702
517.357925	44501.829096
517.721558	44653.754349
518.085133	44967.286392
518.448651	45105.469460
518.812112	44858.979722
519.175516	44967.891331
519.538863	45305.603268
519.902152	45239.677578
520.265385	45713.142748
520.628560	45751.644560
520.991678	45551.924127
521.354739	45767.466222
521.717743	46090.815912
522.080690	45988.394789
522.443580	46534.538273
522.806413	46563.615648
523.169189	46518.830038
523.531908	46702.161680
523.894569	46557.740184
524.257174	46716.473515
524.619722	47042.535346
524.982213	47011.953186
525.344647	46925.310875
525.707025	46963.986607
526.069345	47345.944752
526.431608	47272.046478
526.793815	47592.121938
527.155964	47133.669325
527.518057	47277.710214
527.880093	47053.353662
528.242072	47561.812001
528.603995	47276.848177
528.965860	47283.479815
529.327669	47367.180613
529.689421	47253.121986
530.051117	47219.401708
530.412755	47352.863736
530.774337	47422.396371
531.135862	47215.900627
531.497331	47414.335566
531.858743	47306.936304
532.220098	47661.921755
532.581396	47369.444091
532.942638	47028.873819
533.303824	47326.027153
533.664953	47280.802962
534.026025	46975.583782
534.387040	47465.150397
534.747999	47406.902384
535.108902	47579.778673
535.469748	47084.878518
535.830537	47189.580763
536.191270	47375.168321
536.551947	47025.123201
536.912567	47348.919033
537.273131	47468.737178
537.633638	46934.021989
537.994089	47291.603634
538.354483	46862.465331
538.714821	47437.512271
539.075103	47779.297460
539.435328	47537.339720
539.795497	47417.876976
540.155609	47415.036286
540.515665	47874.179537
540.875665	47318.495669
541.235609	47660.084254
541.595496	47602.443701
541.955328	48282.800345
542.315102	47643.856780
542.674821	47433.411292
543.034483	47476.248497
543.394090	47437.088814
543.753640	47384.549908
544.113134	48388.709946
544.472571	47406.524298
544.831953	48663.752779
545.191278	47852.830251
545.550548	47561.655725
545.909761	48043.368222
546.268918	48245.190816
546.628019	48552.648269
546.987064	48095.670193
547.346053	47364.130715
547.704986	48249.574100
548.063863	47790.347669
548.422684	47993.402826
548.781449	47847.027883
549.140158	48241.611597
549.498811	48090.014019
549.857408	47507.039864
550.215949	48340.304787
550.574434	48290.924164
550.932864	48031.042601
551.291237	48744.217156
551.649555	48352.879945
552.007817	48589.219319
552.366022	48232.550123
552.724173	48401.448942
553.082267	48795.026946
553.440305	49093.695147
553.798288	48400.551616
554.156215	48714.411334
554.514086	48917.196789
554.871902	48668.514149
555.229661	48682.531077
555.587365	48476.990632
555.945014	48586.187065
556.302606	48488.333228
556.660143	48725.585052
557.017625	48797.492070
557.375050	48578.209439
557.732421	48927.717677
558.089735	48903.147093
558.446994	48815.539401
558.804197	49289.463315
559.161345	49209.651767
559.518437	48454.512127
559.875474	48754.536398
560.232455	48878.931910
560.589381	49072.605479
560.946251	48759.615361
561.303065	49439.185584
561.659825	49230.108770
562.016528	48875.990397
562.373177	48584.425182
562.729770	49065.822607
563.086307	48550.530984
563.442789	49009.676756
563.799216	49052.120751
564.155587	48810.707455
564.511904	48832.467595
564.868164	48901.168440
565.224370	49123.697574
565.580520	48843.621148
565.936615	49040.453000
566.292654	48749.265872
566.648638	48966.680755
567.004567	48919.228374
567.360441	48927.170712
567.716260	48763.081154
568.072023	49013.228249
568.427732	48975.724585
568.783385	48505.531124
569.138982	48867.186022
569.494525	48812.688628
569.850013	48565.730063
570.205445	48499.864868
570.560823	48427.935164
570.916145	48294.810894
571.271412	48283.390160
571.626625	47995.953650
571.981782	48025.083957
572.336884	47678.055967
572.691931	47995.762086
573.046923	47524.787247
573.401860	47367.581384
573.756743	47312.693301
574.111570	47370.074235
574.466342	47200.041157
574.821059	47271.439019
575.175722	46769.932431
575.530330	46737.270796
575.884882	46415.393123
576.239380	46358.977570
576.593823	46286.057279
576.948211	46157.545665
577.302544	45640.787067
577.656823	45614.288241
578.011047	45794.464121
578.365216	45466.093442
578.719330	45231.941928
579.073389	45024.906781
579.427394	45056.960957
579.781344	44984.958157
580.135239	44585.585346
580.489080	44614.277073
580.842866	44037.385071
581.196597	44418.367753
581.550273	44304.813242
581.903895	44105.856543
582.257463	44455.256396
582.610975	43780.870999
582.964434	43978.615300
583.317837	43562.957042
583.671186	43350.321173
584.024481	43497.328780
584.377721	42997.982327
584.730906	43213.973084
585.084037	43172.575129
585.437113	42816.324348
585.790135	42785.429637
586.143103	42343.391021
586.496016	42387.246539
586.848874	42344.003521
587.201679	42281.243676
587.554428	41704.823022
587.907124	41813.815289
588.259765	41471.445325
588.612352	41652.112718
588.964884	41008.125478
589.317362	41191.643643
589.669786	41057.120452
590.022155	40771.327359
590.374470	41095.420619
590.726731	40570.860835
591.078937	40034.222446
591.431090	40047.137882
591.783188	39672.754071
592.135232	39293.583685
592.487222	39437.803535
592.839157	39422.763252
593.191038	39039.396105
593.542866	38746.353832
593.894639	38107.145607
594.246358	38284.357288
594.598022	38189.107206
594.949633	37751.381297
595.301190	37626.645507
595.652692	37380.352374
596.004141	37602.064841
596.355535	36631.085678
596.706876	36505.074476
597.058162	36273.826667
597.409395	36618.079501
597.760573	36608.445856
598.111698	36140.931769
598.462768	36070.499288
598.813785	36032.849431
599.164748	35444.932425
599.515657	35685.148447
599.866511	35143.468904
600.217312	35596.116629
600.568060	34579.003347
600.918753	35147.401004
601.269392	35014.579203
601.619978	34625.339112
601.970510	34714.670879
602.320988	34779.285868
602.671412	34949.659224
603.021783	34624.048577
603.372100	34245.054631
603.722363	34252.117287
604.072572	34213.965835
604.422728	34140.879186
604.772830	33882.083992
605.122878	33863.124212
605.472872	33702.354254
605.822813	33841.785008
606.172701	33585.558282
606.522534	33691.838407
606.872314	33813.189063
607.222041	33489.327696
607.571714	33704.771488
607.921333	33124.655668
608.270899	33264.739251
608.620411	33459.176555
608.969870	33173.096115
609.319276	33064.038313
609.668627	33002.904241
610.017926	33287.215235
610.367171	33310.147444
610.716362	33239.813266
611.065500	33097.070474
611.414585	33115.866416
611.763616	33219.777200
612.112594	33061.933632
612.461518	33108.718060
612.810389	33224.704927
613.159207	32982.943792
613.507971	32922.822991
613.856682	33176.433359
614.205340	32955.484627
614.553945	33382.215779
614.902496	32823.184585
615.250994	33049.499626
615.599439	32983.500839
615.947830	32999.267048
616.296169	32900.576379
616.644454	32866.931718
616.992686	32852.929914
617.340864	33099.825464
617.688990	32738.026894
618.037063	33068.557708
618.385082	32876.358676
618.733048	32971.215547
619.080961	32833.685309
619.428821	32717.917731
619.776628	32668.239681
620.124382	32425.301436
620.472083	32390.731723
620.819731	32370.060472
621.167326	32020.464014
621.514868	31885.073746
621.862357	31457.515844
622.209793	31359.341893
622.557176	31014.680725
622.904506	30735.756204
623.251783	30383.699663
623.599007	30117.864497
623.946179	29835.910242
624.293297	29691.854230
624.640363	29157.743980
624.987376	29039.891885
625.334336	28738.123375
625.681243	28379.087357
626.028097	28222.650271
626.374899	28002.298915
626.721647	27859.966978
627.068343	27647.147106
627.414987	27371.305250
627.761577	27095.203775
628.108115	27191.394031
628.454600	26703.238940
628.801032	26697.741561
629.147412	26549.937451
629.493739	26423.550683
629.840014	26070.710243
630.186236	26159.492524
630.532405	25789.078622
630.878521	25786.351358
631.224585	25591.135195
631.570597	25290.778208
631.916556	25265.010350
632.262462	25115.398986
632.608316	25002.187274
632.954117	24828.726211
633.299866	24714.629776
633.645562	24555.742689
633.991206	24141.206088
634.336797	23795.791268
634.682336	23688.356717
635.027823	23436.563686
635.373257	23232.878385
635.718639	22978.721052
636.063968	22811.571514
636.409245	22368.126416
636.754470	22303.934883
637.099642	22054.453221
637.444762	21673.031959
637.789829	21654.374649
638.134845	21368.521061
638.479808	21226.768856
638.824719	21062.533105
639.169577	20747.531566
639.514383	20674.941471
639.859137	20424.358316
640.203839	20446.063004
640.548489	20153.915536
640.893086	20085.073539
641.237632	19855.189362
641.582125	19810.043308
641.926566	19674.668163
642.270955	19562.676410
642.615292	19465.311564
642.959576	19358.875163
643.303809	19268.487274
643.647990	19242.986597
643.992118	19133.843096
644.336195	19025.357465
644.680219	18968.659608
645.024192	19014.808851
645.368112	19172.029836
645.711981	19068.071162
646.055797	19401.697244
646.399562	19261.467467
646.743274	19623.427355
647.086935	19737.037318
647.430544	19581.807588
647.774101	19543.880468
648.117606	19558.958559
648.461059	19619.233115
648.804460	19353.065233
649.147810	18970.602973
649.491108	18766.653012
649.834354	18497.747783
650.177548	18015.392539
650.520690	17710.828709
650.863781	17617.348073
651.206820	17460.273280
651.549807	17167.679670
651.892742	16869.686984
652.235626	16683.681010
652.578458	16538.410079
652.921238	16190.149528
653.263967	16233.332052
653.606644	16010.558422
653.949269	15913.261632
654.291843	15656.354350
654.634365	15745.088740
654.976836	15500.343241
655.319255	15414.343677
655.661622	15342.061093
656.003938	15167.571635
656.346203	15034.396953
656.688416	15040.925247
657.030577	14892.385128
657.372687	14747.799795
657.714746	14778.119815
658.056753	14755.553090
658.398708	14465.386795
658.740612	14406.551488
659.082465	14429.582000
659.424266	14290.418427
659.766016	14254.686729
660.107715	14147.380728
660.449362	14122.212767
660.790958	14050.973702
661.132503	13978.340757
661.473996	13922.893106
661.815438	13882.896591
662.156829	13884.252662
662.498168	13737.252616
662.839456	13670.444724
663.180693	13644.707113
663.521879	13628.290596
663.863013	13544.718347
664.204097	13475.233603
664.545129	13557.830388
664.886110	13482.467659
665.227040	13432.945884
665.567918	13401.902459
665.908746	13361.101880
666.249522	13353.078884
666.590248	13286.192855
666.930922	13259.510027
667.271545	13177.061956
667.612118	13136.276501
667.952639	12992.159995
668.293109	12943.001183
668.633528	12838.372035
668.973896	12742.663209
669.314213	12684.430320
669.654480	12522.483253
669.994695	12468.820170
670.334859	12351.540246
670.674973	12263.826690
671.015035	12251.745565
671.355047	12167.182730
671.695008	12085.158115
672.034918	12002.841114
672.374777	11958.627674
672.714585	11849.597599
673.054342	11853.784277
673.394049	11726.469937
673.733705	11756.585790
674.073310	11599.513518
674.412864	11567.353478
674.752368	11386.681044
675.091820	11402.739640
675.431223	11230.085162
675.770574	11090.815725
676.109875	10989.385189
676.449125	10854.965342
676.788324	10767.410582
677.127473	10559.659591
677.466571	10484.241409
677.805619	10338.400828
678.144616	10280.384709
678.483562	10201.745230
678.822458	10064.414117
679.161303	9991.697993
679.500098	9911.339480
679.838842	9826.123816
680.177535	9817.488319
680.516179	9830.507099
680.854771	9846.575777
681.193314	10016.760089
681.531805	10257.079455
681.870247	10412.062168
682.208638	10548.054855
682.546978	10554.242871
682.885268	10529.508450
683.223508	10349.559422
683.561697	10225.547038
683.899836	10134.380291
684.237925	9967.046751
684.575963	9879.030725
684.913951	9728.713600
685.251889	9728.280061
685.589776	9679.902628
685.927614	9637.325042
686.265401	9632.218353
686.603137	9624.797775
686.940824	9699.679074
687.278460	9762.809444
687.616046	9764.127706
687.953582	9873.873625
688.291068	9810.564294
688.628504	9846.129635
688.965889	9796.272623
689.303224	9670.188324
689.640510	9545.296258
689.977745	9329.217281
690.314930	9106.171429
690.652065	8943.621944
690.989150	8732.127896
691.326185	8488.993046
691.663170	8295.632028
692.000105	8090.484793
692.336990	7900.334991
692.673825	7755.192610
693.010610	7606.216431
693.347345	7449.189530
693.684030	7279.655526
694.020665	7183.094745
694.357251	7023.849736
694.693786	6976.931717
695.030272	6897.112608
695.366707	6766.692917
695.703093	6678.359298
696.039429	6648.785369
696.375716	6580.013949
696.711952	6545.943310
697.048139	6494.223592
697.384276	6444.537980
697.720363	6434.480878
698.056400	6380.843001
698.392388	6320.608775
698.728326	6285.345903
699.064214	6223.858950
699.400053	6188.480132
699.735842	6102.878819
700.071581	6021.171798
700.407270	5953.103618
700.742910	5888.367641
701.078501	5816.654707
701.414042	5739.915743
701.749533	5666.990411
702.084974	5583.347586
702.420366	5593.293783
702.755709	5500.980174
703.091002	5423.989152
703.426246	5406.461060
703.761440	5370.689032
704.096584	5306.111851
704.431679	5278.183859
704.766725	5240.339917
705.101721	5214.330084
705.436668	5208.479825
705.771565	5145.205782
706.106413	5179.162994
706.441212	5161.050129
706.775961	5164.349564
707.110661	5156.941588
707.445311	5195.425757
707.779913	5155.088964
708.114465	5174.331048
708.448967	5205.538311
708.783421	5289.876815
709.117825	5318.689530
709.452180	5347.658521
709.786485	5396.177106
710.120742	5503.820864
710.454949	5511.369992
710.789107	5565.769083
711.123216	5670.257079
711.457275	5692.778433
711.791286	5759.583804
712.125247	5771.445639
712.459159	5722.271704
712.793023	5795.164268
713.126837	5628.360049
713.460602	5640.557121
713.794318	5559.845727
714.127985	5476.228108
714.461602	5327.919883
714.795171	5297.158762
715.128691	5132.544924
715.462162	5037.521695
715.795584	4951.990958
716.128957	4892.326382
716.462281	4819.610258
716.795556	4768.941621
717.128782	4686.627140
717.461960	4603.017083
717.795088	4573.995160
718.128167	4505.508565
718.461198	4436.177576
718.794180	4406.762443
719.127113	4348.804297
719.459997	4312.906241
719.792833	4259.888426
720.125619	4243.618102
720.458357	4194.247562
720.791046	4162.069877
721.123686	4133.426041
721.456278	4099.113427
721.788821	4081.792022
722.121315	4049.324471
722.453761	4043.622926
722.786158	4025.550389
723.118506	4016.075541
723.450805	3997.501409
723.783056	4007.281248
724.115259	3990.234586
724.447412	3974.359993
724.779518	3990.158969
725.111574	3991.943537
725.443582	4006.789735
725.775542	3995.928569
726.107453	4041.031773
726.439315	4025.502498
726.771129	4068.886668
727.102895	4104.935960
727.434612	4124.916573
727.766281	4130.807161
728.097901	4151.944719
728.429473	4147.415243
728.760996	4137.504334
729.092471	4136.929643
729.423897	4115.754276
729.755276	4089.759566
730.086606	4090.762756
730.417887	4132.674909
730.749120	4174.655117
731.080305	4183.482178
731.411442	4208.526630
731.742530	4204.612174
732.073570	4203.921536
732.404562	4228.812233
732.735506	4203.888768
733.066401	4163.884692
733.397249	4098.097634
733.728048	4019.921941
734.058798	3928.099844
734.389501	3843.998275
734.720156	3789.442908
735.050762	3724.893453
735.381320	3682.139428
735.711831	3653.384686
736.042293	3614.973614
736.372707	3605.324846
736.703073	3579.267122
737.033391	3590.279522
737.363661	3583.292483
737.693883	3591.275150
738.024056	3606.806945
738.354182	3624.133391
738.684260	3650.579284
739.014290	3670.527130
739.344272	3687.682176
739.674207	3711.801577
740.004093	3724.472517
740.333931	3716.479768
740.663722	3715.106053
740.993464	3709.553222
741.323159	3687.054553
741.652806	3653.127587
741.982405	3621.612814
742.311956	3584.721650
742.641460	3561.708783
742.970915	3528.104451
743.300323	3488.168431
743.629683	3462.730768
743.958996	3432.352775
744.288260	3401.228691
744.617477	3366.258207
744.946647	3348.485619
745.275768	3320.202226
745.604842	3300.723207
745.933869	3284.442801
746.262847	3273.553908
746.591778	3266.965120
746.920662	3253.028851
747.249498	3250.273860
747.578286	3254.521032
747.907027	3261.578647
748.235720	3280.034312
748.564365	3280.329219
748.892963	3266.861777
749.221514	3269.684823
749.550017	3249.505084
749.878473	3243.329671
750.206881	3222.290415
750.535242	3212.238354
750.863555	3202.075388
751.191821	3188.933100
751.520039	3187.335054
751.848210	3177.524969
752.176334	3177.315761
752.504411	3167.709842
752.832440	3152.183088
753.160421	3155.676608
753.488356	3142.930051
753.816243	3136.346304
754.144082	3125.502782
754.471875	3118.498098
754.799620	3109.345884
755.127318	3107.034515
755.454969	3100.307095
755.782572	3094.686208
756.110129	3092.697473
756.437638	3084.661874
756.765100	3080.263467
757.092515	3080.886050
757.419882	3078.781368
757.747203	3076.664083
758.074477	3079.537541
758.401703	3080.069383
758.728882	3087.671443
759.056014	3092.163111
759.383099	3096.606888
759.710138	3100.294492
760.037129	3106.243053
760.364073	3105.292796
760.690970	3100.206272
761.017820	3095.568410
761.344623	3102.651231
761.671379	3120.012965
761.998088	3149.365083
762.324751	3249.615989
762.651366	3437.721604
762.977935	3671.421935
763.304456	3803.974034
763.630931	3826.525636
763.957359	3748.687700
764.283740	3618.086527
764.610074	3498.018845
764.936362	3362.353833
765.262602	3261.261055
765.588796	3165.741272
765.914943	3097.141250
766.241044	3044.178888
766.567097	3001.727331
766.893104	2964.576548
767.219064	2939.970676
767.544978	2912.869433
767.870845	2890.519477
768.196665	2876.757128
768.522438	2862.271372
768.848165	2850.102027
769.173846	2837.930161
769.499479	2828.939263
769.825066	2813.931748
770.150607	2801.026394
770.476101	2796.834674
770.801548	2788.519291
771.126949	2779.243568
771.452303	2771.076899
771.777611	2761.221443
772.102872	2757.042327
772.428087	2747.915317
772.753256	2744.227713
773.078378	2735.176322
773.403453	2726.865980
773.728482	2720.418344
774.053465	2713.963146
774.378401	2710.671273
774.703291	2701.783719
775.028135	2697.660055
775.352932	2694.912626
775.677683	2686.304856
776.002388	2682.839063
776.327046	2683.007941
776.651658	2677.210614
776.976224	2669.447237
777.300743	2667.040086
777.625216	2665.139571
777.949643	2662.147647
778.274024	2663.644869
778.598359	2656.584733
778.922647	2650.426964
779.246889	2650.326141
779.571086	2648.140801
779.895236	2656.451143
780.219339	2652.299752
780.543397	2652.269506
780.867409	2653.134063
781.191374	2654.107006
781.515294	2649.925369
781.839167	2654.457366
782.162995	2649.590132
782.486776	2645.169040
782.810511	2643.870943
783.134201	2641.216776
783.457844	2634.761578
783.781441	2635.031280
784.104993	2632.689664
784.428498	2631.182359
784.751958	2627.214971
785.075372	2624.313787
785.398739	2627.013325
785.722061	2623.587861
786.045337	2624.933849
786.368568	2627.827471
786.691752	2627.237656
787.014891	2643.439925
787.337983	2656.836791
787.661030	2682.569361
787.984031	2699.729448
788.306987	2707.354194
788.629897	2709.937785
788.952760	2704.848740
789.275579	2693.775846
789.598351	2678.569205
789.921078	2665.247956
790.243759	2652.952582
790.566395	2643.654174
790.888984	2632.614047
791.211529	2624.669188
791.534027	2615.678290
791.856480	2609.611262
792.178888	2607.549430
792.501249	2602.848554
792.823566	2598.929057
793.145836	2598.765219
793.468062	2597.497369
793.790241	2591.868921
794.112375	2596.708428
794.434464	2598.979468
794.756507	2600.988368
795.078505	2606.699995
795.400457	2614.624689
795.722364	2623.875207
796.044226	2634.181846
796.366042	2639.409522
796.687812	2636.213431
797.009538	2639.656539
797.331218	2636.528503
797.652852	2631.694036
797.974442	2626.171452
798.295986	2621.977212
798.617484	2615.650564
798.938938	2610.455655
799.260346	2608.479523
799.581709	2602.783019
799.903026	2600.343100
800.224299	2593.696339
800.545526	2588.645103
800.866708	2584.773497
801.187845	2583.455235
801.508936	2581.005234
801.829983	2579.755028
802.150984	2570.776733
802.471940	2572.357135
802.792851	2571.144737
803.113717	2570.325550
803.434538	2570.743966
803.755314	2565.566701
804.076045	2566.794222
804.396731	2563.000753
804.717372	2563.847667
805.037967	2565.589386
805.358518	2567.295816
805.679024	2571.162381
805.999485	2567.043759
806.319901	2570.133986
806.640272	2569.740776
806.960598	2573.700602
807.280879	2572.306723
807.601115	2574.867629
807.921306	2572.715057
808.241453	2570.159192
808.561554	2569.957546
808.881611	2570.562484
809.201623	2571.144737
809.521590	2571.525344
809.841513	2567.822617
810.161390	2568.631722
810.481223	2563.855229
810.801011	2561.730382
811.120755	2559.613098
811.440453	2558.199054
811.760107	2556.762325
812.079716	2553.117571
812.399281	2549.976932
812.718801	2551.327962
813.038276	2545.583567
813.357707	2551.010369
813.677093	2551.353167
813.996434	2549.833259
814.315731	2550.783517
814.634983	2548.086500
814.954191	2548.401572
815.273354	2550.838970
815.592473	2553.823333
815.911547	2559.378684
816.230577	2560.268448
816.549562	2563.245249
816.868502	2564.397153
817.187399	2569.367731
817.506250	2569.019891
817.825058	2576.122877
818.143821	2578.162023
818.462539	2587.835998
818.781213	2598.379571
819.099843	2611.466406
819.418429	2639.003709
819.736970	2665.303409
820.055466	2691.842563
820.373919	2727.647358
820.692327	2788.680608
821.010691	2896.984757
821.329011	3167.049451
821.647286	3601.788477
821.965517	4080.506528
822.283704	4338.507741
822.601847	4388.198394
822.919945	4165.386956
823.237999	3928.200667
823.556010	3703.150957
823.873976	3508.005371
824.191897	3328.789831
824.509775	3195.368133
824.827609	3076.424628
825.145398	3006.597086
825.463144	2964.402628
825.780845	2968.730459
826.098502	3014.017664
826.416116	3105.375975
826.733685	3186.893953
827.051210	3204.535471
827.368692	3157.410765
827.686129	3060.227401
828.003522	2963.333904
828.320872	2874.869215
828.638177	2809.354380
828.955439	2759.986360
829.272656	2713.481716
829.589830	2674.417815
829.906960	2651.498209
830.224046	2627.507358
830.541088	2606.442897
830.858086	2597.358737
831.175041	2586.295925
831.491952	2583.064546
831.808819	2584.259299
832.125642	2597.910744
832.442421	2618.899588
832.759157	2661.366268
833.075849	2729.477297
833.392497	2796.265024
833.709101	2836.569049
834.025662	2831.280879
834.342179	2794.230918
834.658653	2743.146386
834.975083	2703.381764
835.291469	2672.991168
835.607811	2637.178812
835.924110	2614.944802
836.240366	2595.382605
836.556578	2575.545665
836.872746	2560.344065
837.188871	2548.189843
837.504952	2539.183822
837.820990	2531.019673
838.136984	2527.800897
838.452935	2522.671523
838.768842	2525.650844
839.084706	2537.167360
839.400526	2568.929150
839.716303	2604.212186
840.032037	2630.799231
840.347727	2625.430402
840.663373	2603.481219
840.978977	2577.408371
841.294537	2557.682336
841.610054	2544.134235
841.925527	2534.319108
842.240957	2523.087418
842.556344	2512.281704
842.871687	2506.587721
843.186987	2501.511279
843.502244	2495.275372
843.817458	2491.302943
844.132629	2489.505771
844.447756	2486.730616
844.762840	2480.086375
845.077881	2478.611838
845.392879	2477.911117
845.707833	2480.383803
846.022745	2473.598410
846.337613	2478.508494
846.652438	2475.786271
846.967221	2479.131077
847.281960	2474.687300
847.596656	2476.991107
847.911309	2472.842237
848.225919	2473.845427
848.540485	2469.850313
848.855009	2471.745786
849.169490	2471.191259
849.483928	2473.837865
849.798323	2471.995323
850.112675	2469.691516
850.426984	2471.503811
850.741251	2469.999027
851.055474	2471.493729
851.369654	2471.067751
851.683792	2471.753348
851.997887	2470.961887
852.311938	2472.058338
852.625947	2471.980200
852.939914	2470.611527
853.253837	2473.308544
853.567718	2469.363841
853.881555	2469.200004
854.195350	2470.014150
854.509103	2468.476598
854.822812	2469.452061
855.136479	2470.382154
855.450103	2470.359469
855.763685	2472.088585
856.077224	2469.366362
856.390720	2471.304685
856.704173	2470.253605
857.017584	2472.411219
857.330953	2469.938533
857.644278	2470.790488
857.957561	2475.340129
858.270802	2472.875005
858.584000	2470.331743
858.897155	2474.810808
859.210268	2468.978193
859.523339	2470.165385
859.836367	2471.629840
860.149352	2473.013637
860.462295	2468.663121
860.775195	2467.518779
861.088054	2466.376958
861.400869	2464.972996
861.713642	2465.966103
862.026373	2468.713532
862.339062	2467.954839
862.651708	2472.227217
862.964312	2471.544140
863.276873	2471.574387
863.589392	2473.668987
863.901869	2473.810139
864.214303	2470.674541
864.526696	2472.869964
864.839045	2477.389358
865.151353	2477.170068
865.463619	2475.700572
865.775842	2479.325161
866.088023	2474.505818
866.400162	2478.266519
866.712258	2477.671663
867.024313	2477.003710
867.336325	2476.129070
867.648296	2477.059163
867.960224	2476.766776
868.272110	2478.720223
868.583954	2475.614872
868.895755	2477.699389
869.207515	2479.267188
869.519233	2479.627630
869.830909	2479.549492
870.142542	2480.151910
870.454134	2482.672487
870.765684	2481.802888
871.077191	2483.844556
871.388657	2485.412354
871.700081	2481.961685
872.011463	2485.649289
872.322803	2487.040647
872.634101	2487.562407
872.945357	2487.161635
873.256571	2490.350165
873.567744	2490.577017
873.878874	2489.354537
874.189963	2488.999135
874.501010	2494.451143
874.812015	2490.844198
875.122979	2494.080618
875.433900	2491.406286
875.744780	2494.826709
876.055618	2495.953407
876.366415	2499.247801
876.677169	2496.102121
876.987882	2494.526761
877.298554	2493.505927
877.609183	2495.860146
877.919771	2503.631084
878.230317	2506.832217
878.540822	2513.461334
878.851285	2522.850483
879.161707	2536.597710
879.472087	2555.834753
879.782425	2588.017479
880.092722	2649.012920
880.402977	2738.561457
880.713191	2849.305524
881.023363	2956.238480
881.333494	3023.338758
881.643583	3048.453786
881.953631	3033.090870
882.263637	2998.775736
882.573602	2953.395269
882.883526	2910.583270
883.193408	2868.086343
883.503248	2825.884323
883.813048	2783.846142
884.122806	2746.299628
884.432522	2709.847044
884.742197	2676.635923
885.051831	2646.462096
885.361424	2619.159207
885.670975	2597.935949
885.980485	2581.012796
886.289954	2565.037379
886.599382	2550.385266
886.908768	2541.228010
887.218113	2534.097298
887.527417	2524.352747
887.836680	2517.166583
888.145901	2511.984276
888.455082	2509.025119
888.764221	2505.040087
889.073319	2504.382216
889.382376	2502.718636
889.691392	2498.100939
890.000366	2500.177894
890.309300	2500.689571
890.618193	2496.901144
890.927044	2499.255363
891.235855	2499.988851
891.544625	2497.251504
891.853353	2499.532626
892.162041	2502.743841
892.470687	2509.781292
892.779293	2514.285563
893.087858	2521.232273
893.396381	2534.724921
893.704864	2560.341545
894.013306	2584.218970
894.321707	2618.506378
894.630068	2636.987248
894.938387	2642.857671
895.246665	2634.993471
895.554903	2621.725154
895.863100	2602.077257
896.171256	2589.907912
896.479371	2576.747980
896.787446	2567.142061
897.095480	2554.224104
897.403473	2546.523742
897.711425	2535.997813
898.019336	2531.400280
898.327207	2525.418951
898.635038	2518.424350
898.942827	2510.628206
899.250576	2506.726353
899.558284	2499.603203
899.865952	2499.462050
900.173579	2494.115907
900.481165	2494.741010
900.788711	2488.936121
901.096216	2487.731285
901.403681	2488.278250
901.711105	2487.864876
902.018489	2486.571820
902.325832	2491.940649
902.633135	2493.090032
902.940397	2503.484891
903.247619	2528.960362
903.554800	2567.585683
903.861941	2617.243569
904.169041	2658.076915
904.476101	2668.348266
904.783121	2660.380722
905.090100	2641.325161
905.397039	2615.995883
905.703938	2597.552822
906.010796	2577.189081
906.317614	2565.057544
906.624391	2549.119936
906.931129	2538.742721
907.237826	2528.741072
907.544483	2518.126922
907.851099	2508.258864
908.157675	2499.146978
908.464211	2490.655154
908.770707	2478.785758
909.077163	2476.086220
909.383578	2470.692185
909.689954	2471.844089
909.996289	2468.126238
910.302584	2468.211937
910.608839	2469.817545
910.915054	2467.208748
911.221229	2464.423510
911.527363	2465.472070
911.833458	2468.365693
912.139513	2467.952318
912.445527	2471.768472
912.751502	2470.863584
913.057436	2474.150417
913.363331	2477.623772
913.669186	2485.493013
913.975000	2491.943169
914.280775	2500.629077
914.586510	2519.946779
914.892205	2537.305992
915.197859	2570.234809
915.503475	2601.424428
915.809050	2627.552728
916.114585	2645.718526
916.420081	2653.739002
916.725536	2650.064001
917.030952	2639.129738
917.336328	2629.939715
917.641665	2616.111830
917.946961	2602.704881
918.252218	2594.243304
918.557435	2576.667321
918.862612	2564.364385
919.167750	2552.941131
919.472848	2545.155069
919.777906	2531.024714
920.082925	2522.439629
920.387904	2513.453773
920.692843	2507.149810
920.997743	2501.927174
921.302603	2493.926863
921.607423	2489.173055
921.912204	2486.380256
922.216946	2483.093424
922.521647	2478.689976
922.826310	2478.889101
923.130932	2473.611013
923.435516	2468.292596
923.740059	2471.400467
924.044564	2467.175980
924.349028	2465.018367
924.653454	2461.446709
924.957840	2458.268262
925.262186	2456.476131
925.566493	2458.235494
925.870761	2454.729372
926.174989	2454.673919
926.479178	2455.089814
926.783328	2452.160904
927.087438	2453.330451
927.391509	2453.655606
927.695541	2450.434308
927.999533	2451.535801
928.303486	2449.960440
928.607400	2451.513115
928.911275	2448.579164
929.215110	2449.715944
929.518906	2446.789554
929.822663	2451.084617
930.126381	2450.502364
930.430060	2445.733433
930.733699	2449.998249
931.037299	2449.655450
931.340861	2450.623352
931.644383	2449.295008
931.947866	2447.366766
932.251309	2449.602518
932.554714	2450.308280
932.858080	2448.374997
933.161407	2448.448094
933.464694	2451.606377
933.767943	2448.969853
934.071153	2449.025306
934.374323	2448.390121
934.677455	2447.026488
934.980548	2444.405088
935.283602	2447.409616
935.586617	2444.090016
935.889593	2446.852569
936.192530	2448.705193
936.495428	2448.932045
936.798287	2449.380707
937.101108	2449.816767
937.403890	2450.623352
937.706632	2455.142746
938.009336	2452.465893
938.312002	2456.284567
938.614628	2454.159721
938.917216	2458.527881
939.219765	2459.452933
939.522275	2457.945628
939.824747	2462.381843
940.127179	2459.687346
940.429573	2455.949331
940.731929	2459.213478
941.034246	2453.211984
941.336524	2459.999898
941.638763	2456.682819
941.940964	2459.344548
942.243126	2456.985288
942.545250	2457.927984
942.847335	2454.583178
943.149381	2456.249279
943.451389	2454.288271
943.753359	2455.845987
944.055290	2453.058229
944.357182	2451.155193
944.659036	2448.798454
944.960851	2449.819288
945.262628	2450.711572
945.564367	2447.850717
945.866067	2450.285594
946.167729	2448.770728
946.469352	2451.636624
946.770937	2448.359874
947.072484	2446.945830
947.373992	2450.537652
947.675462	2446.822322
947.976893	2447.507919
948.278286	2446.960953
948.579641	2448.546396
948.880958	2447.475151
949.182236	2447.933896
949.483476	2447.633948
949.784678	2446.945830
950.085841	2445.952723
950.386967	2447.528083
950.688054	2448.261571
950.989103	2449.116047
951.290114	2450.237703
951.591087	2448.511108
951.892021	2448.024637
952.192917	2453.232149
952.493776	2450.073866
952.794596	2451.462704
953.095378	2454.870524
953.396122	2450.514967
953.696828	2451.039247
953.997496	2450.530090
954.298126	2450.565378
954.598718	2450.199895
954.899272	2448.949689
955.199788	2446.996242
955.500266	2447.775100
955.800706	2445.620007
956.101108	2438.214552
956.401472	2442.126487
956.701798	2438.653132
957.002087	2440.523400
957.302337	2442.000458
957.602550	2442.028184
957.902724	2439.714295
958.202861	2440.551126
958.502960	2439.537854
958.803022	2436.969387
959.103045	2435.951073
959.403031	2434.595003
959.702979	2432.099632
960.002889	2436.911413
960.302762	2433.652307
960.602596	2433.047369
960.902393	2431.560228
961.202153	2432.626433
961.501875	2434.204314
961.801559	2434.892431
962.101205	2431.998809
962.400814	2433.145671
962.700385	2433.375044
962.999918	2433.654828
963.299414	2430.370516
963.598873	2434.398398
963.898293	2432.165167
964.197677	2432.626432
964.497022	2431.623243
964.796331	2432.152564
965.095601	2430.264652
965.394835	2431.189704
965.694030	2429.858839
965.993189	2431.945877
966.292309	2428.616195
966.591393	2431.235074
966.890439	2430.642738
967.189447	2432.185332
967.488419	2432.732297
967.787353	2431.487132
968.086249	2429.445464
968.385108	2433.622060
968.683930	2430.882193
968.982714	2430.330187
969.281462	2431.015784
969.580172	2430.993099
969.878844	2434.184149
970.177480	2427.486976
970.476078	2431.441761
970.774639	2433.009560
971.073162	2433.034766
971.371649	2428.033941
971.670098	2428.759868
971.968510	2428.933787
972.266885	2429.730290
972.565223	2433.347317
972.863524	2431.855136
973.161788	2433.223809
973.460014	2431.008222
973.758204	2430.672985
974.056356	2431.504776
974.354471	2428.981678
974.652550	2432.505445
974.950591	2432.515527
975.248595	2431.449323
975.546563	2430.050403
975.844493	2433.400250
976.142386	2432.548295
976.440243	2432.666762
976.738062	2432.513007
977.035845	2431.650969
977.333590	2431.968562
977.631299	2428.795156
977.928971	2428.061668
978.226606	2429.785742
978.524204	2430.332708
978.821765	2431.295568
979.119290	2430.330187
979.416777	2428.301123
979.714228	2427.865063
980.011642	2427.986050
980.309020	2432.278593
980.606360	2430.047882
980.903664	2430.884714
981.200931	2431.230033
981.498162	2432.626433
981.795356	2435.726742
982.092513	2441.526590
982.389633	2441.569439
982.686717	2447.359205
982.983764	2447.177723
983.280775	2451.624021
983.577749	2451.079576
983.874686	2449.408434
984.171587	2448.571602
984.468451	2447.938937
984.765279	2445.070521
985.062070	2440.785540
985.358824	2442.129007
985.655543	2438.310333
985.952224	2437.569284
986.248869	2436.629109
986.545478	2425.309198
986.842050	2432.422266
987.138586	2425.102510
987.435086	2426.241811
987.731549	2423.564958
988.027975	2426.839188
988.324366	2425.024372
988.620719	2428.714497
988.917037	2425.425144
989.213318	2426.062850
989.509563	2421.840884
989.805772	2426.733324
990.101944	2422.501275
990.398080	2426.027562
990.694180	2424.192582
990.990244	2423.287695
991.286271	2420.794844
991.582262	2421.954310
991.878217	2422.871800
992.174136	2424.336255
992.470019	2426.120823
992.765865	2424.245514
993.061676	2425.132757
993.357450	2421.780390
993.653188	2426.844229
993.948890	2424.250555
994.244556	2426.957655
994.540186	2426.692994
994.835780	2428.845567
995.131337	2427.827254
995.426859	2431.265321
995.722345	2430.819179
996.017795	2431.885383
996.313208	2435.167174
996.608586	2434.703388
996.903928	2436.498039
997.199234	2434.055600
997.494504	2437.065168
997.789738	2433.339756
998.084936	2433.884200
998.380099	2434.032914
998.675225	2430.438572
998.970316	2429.853798
999.265371	2428.366657
999.560390	2427.310536
999.855373	2423.509506
1000.150320	2424.979002
1000.445232	2425.455391
1000.740108	2424.245514
1001.034948	2423.811975
1001.329752	2423.476738
1001.624521	2422.019845
1001.919254	2419.889957
1002.213951	2418.748136
1002.508613	2417.873496
1002.803239	2420.358785
1003.097829	2415.743608
1003.392384	2424.366502
1003.686903	2419.751326
1003.981386	2419.947931
1004.275834	2420.910791
1004.570246	2423.867428
1004.864623	2420.608322
1005.158964	2421.142684
1005.453270	2421.097314
1005.747540	2421.059505
1006.041775	2419.655544
1006.335974	2417.513053
1006.630138	2420.625966
1006.924266	2419.426171
1007.218359	2420.605801
1007.512416	2420.169741
1007.806438	2417.190419
1008.100425	2418.354926
1008.394376	2417.656726
1008.688292	2421.019176
1008.982172	2419.166552
1009.276017	2418.604463
1009.569827	2416.149421
1009.863602	2419.915163
1010.157341	2417.518094
1010.451045	2417.616397
1010.744714	2416.978691
1011.038347	2415.794020
1011.331945	2416.235121
1011.625508	2415.418454
1011.919036	2416.872827
1012.212528	2416.953485
1012.505986	2416.956006
1012.799408	2416.401479
1013.092795	2417.495409
1013.386147	2416.333423
1013.679464	2414.861406
1013.972745	2416.923238
1014.265992	2419.655544
1014.559204	2415.637744
1014.852380	2418.435584
1015.145521	2416.403999
1015.438628	2416.487178
1015.731699	2416.537590
1016.024736	2416.219997
1016.317737	2415.773855
1016.610703	2417.336613
1016.903635	2413.134811
1017.196531	2412.108936
1017.489393	2416.673701
1017.782219	2410.558782
1018.075011	2417.356777
1018.367768	2413.820408
1018.660490	2417.729823
1018.953177	2417.729823
1019.245829	2417.729823
