Dividing Wavelength (nm)	Counts (n)	Blue Motor Position (mm): 0.000000	Red Motor Position (mm): 41.200000	
326.493990	1996.420431
326.888308	1996.420431
327.282561	1996.420431
327.676750	1969.838427
328.070874	1970.370269
328.464933	1978.302524
328.858929	1985.128247
329.252859	1999.515700
329.646726	2014.939110
330.040528	2030.690195
330.434265	2048.170396
330.827938	2067.359548
331.221547	2085.696745
331.615091	2106.473861
332.008571	2129.300206
332.401986	2150.286529
332.795338	2169.994920
333.188625	2190.124247
333.581847	2208.380786
333.975006	2225.177911
334.368100	2244.717423
334.761129	2262.048910
335.154095	2276.761517
335.546996	2306.448872
335.939833	2358.203878
336.332606	2371.459592
336.725315	2385.398383
337.117960	2392.312325
337.510540	2398.288613
337.903056	2409.285890
338.295508	2414.805954
338.687896	2423.398600
339.080220	2428.472522
339.472480	2436.014088
339.864676	2438.035591
340.256807	2439.558019
340.648875	2443.658998
341.040879	2444.442897
341.432818	2445.148659
341.824694	2448.092692
342.216506	2447.313834
342.608253	2447.775100
342.999937	2448.037240
343.391557	2447.011365
343.783113	2442.996086
344.174605	2440.883842
344.566033	2439.434511
344.957397	2439.495005
345.348697	2437.549119
345.739934	2435.220106
346.131106	2437.549119
346.522215	2435.812442
346.913260	2433.773295
347.304241	2432.603747
347.695159	2429.700043
348.086012	2427.844898
348.476802	2423.370874
348.867528	2424.613518
349.258191	2424.283323
349.648789	2426.211564
350.039324	2421.785431
350.429796	2420.991449
350.820203	2418.344844
351.210548	2419.264854
351.600828	2419.259813
351.991045	2422.410534
352.381198	2420.454567
352.771288	2420.086562
353.161314	2418.644792
353.551276	2420.366346
353.941175	2420.981367
354.331010	2420.303332
354.720782	2419.113620
355.110490	2420.900709
355.500135	2419.642941
355.889717	2426.277099
356.279235	2421.964392
356.668689	2423.171748
357.058080	2423.970771
357.447408	2418.034813
357.836672	2422.513878
358.225873	2425.382294
358.615010	2420.787283
359.004084	2425.026893
359.393095	2425.548653
359.782043	2428.626277
360.170927	2428.381781
360.559748	2430.166349
360.948505	2433.359920
361.337199	2432.331525
361.725830	2435.043666
362.114398	2436.931578
362.502903	2430.302461
362.891344	2436.273707
363.279722	2434.113573
363.668037	2437.327308
364.056289	2438.108687
364.444478	2437.851588
364.832603	2439.273194
365.220665	2437.675148
365.608665	2440.898966
365.996601	2441.660180
366.384474	2443.288473
366.772284	2443.411981
367.160031	2445.599842
367.547715	2447.371808
367.935336	2448.609411
368.322893	2446.487085
368.710388	2446.464400
369.097820	2452.722992
369.485189	2452.047478
369.872495	2456.118209
370.259738	2456.944959
370.646918	2458.714404
371.034035	2460.902264
371.421090	2463.057358
371.808081	2468.385857
372.195010	2471.090436
372.581875	2474.581435
372.968678	2483.411016
373.355418	2492.245638
373.742096	2502.302740
374.128710	2513.758763
374.515262	2524.834177
374.901751	2541.001158
375.288177	2558.781307
375.674540	2578.048597
376.060841	2600.514500
376.447079	2623.522326
376.833254	2651.737664
377.219367	2678.385203
377.605417	2712.685214
377.991404	2739.826786
378.377329	2780.639968
378.763191	2814.483754
379.148991	2864.416383
379.534727	2917.068714
379.920402	2965.269707
380.306013	3013.649660
380.691563	3080.381934
381.077049	3135.380923
381.462474	3194.359902
381.847835	3272.069289
382.233134	3342.960515
382.618371	3405.117942
383.003545	3495.306704
383.388657	3578.969694
383.773706	3672.808252
384.158693	3748.410436
384.543618	3843.126155
384.928480	3928.745112
385.313280	4032.824774
385.698017	4140.980210
386.082692	4264.009569
386.467305	4328.032223
386.851856	4460.423005
387.236344	4617.981748
387.620770	4689.939178
388.005133	4808.761695
388.389435	4962.874809
388.773674	5048.191297
389.157851	5178.333725
389.541965	5315.884128
389.926018	5341.556204
390.310008	5526.468247
390.693936	5655.574718
391.077802	5775.259272
391.461606	5910.657103
391.845348	6030.407192
392.229027	6157.119114
392.612645	6382.642693
392.996200	6497.669221
393.379694	6678.129926
393.763125	6908.399751
394.146494	7007.791141
394.529801	7148.202399
394.913047	7398.873774
395.296230	7398.835965
395.679351	7455.702701
396.062410	7724.975934
396.445408	7625.536653
396.828343	7784.269985
397.211217	7917.991632
397.594028	7797.606358
397.976778	8014.302876
398.359466	8179.977877
398.742092	8153.136253
399.124656	8308.817166
399.507158	8492.229467
399.889598	8521.881534
400.271977	8728.750323
400.654294	8771.504349
401.036549	8969.737641
401.418742	8999.944235
401.800874	9310.943098
402.182944	9390.056446
402.564952	9765.458570
402.946898	9587.105068
403.328783	9642.855188
403.710606	9847.140386
404.092367	10110.003792
404.474067	10482.731583
404.855705	10262.171020
405.237282	10224.175844
405.618797	10660.885960
406.000250	10921.947153
406.381642	11279.324632
406.762972	11224.837321
407.144240	11027.516477
407.525447	11294.750563
407.906593	11231.476520
408.287677	11490.891777
408.668700	11656.781026
409.049661	11628.500153
409.430560	11791.147941
409.811399	11760.885894
410.192176	11924.264649
410.572891	12003.130981
410.953545	12507.828618
411.334138	11965.821401
411.714669	12591.668048
412.095139	11866.538397
412.475547	12393.389385
412.855894	12231.649005
413.236180	12572.705748
413.616405	12240.304666
413.996568	12526.470805
414.376670	12502.036333
414.756711	12375.745347
415.136691	12670.030264
415.516609	12853.936598
415.896466	12933.619596
416.276262	13225.089029
416.655997	13661.075740
417.035670	13698.715515
417.415283	14362.738820
417.794834	14461.179952
418.174324	14205.981621
418.553753	14098.085805
418.933121	14614.715854
419.312428	14411.554833
419.691674	14320.453622
420.070859	14798.168484
420.449983	14430.570066
420.829045	14997.778011
421.208047	14737.031890
421.586988	15203.275607
421.965867	15474.356093
422.344686	15466.955679
422.723444	16051.399330
423.102141	14694.177042
423.480777	15914.668114
423.859352	15405.219189
424.237866	16550.586987
424.616319	16243.396715
424.994712	16925.820232
425.373044	16708.072633
425.751314	17400.341523
426.129524	16505.516551
426.507673	17633.683932
426.885762	17300.945092
427.263789	17528.059156
427.641756	17693.628292
428.019662	17750.202641
428.397508	17793.775854
428.775292	18116.797869
429.153016	18069.622752
429.530679	18151.549063
429.908282	18183.338579
430.285824	17885.678609
430.663305	18615.589795
431.040726	18203.788020
431.418086	18019.251542
431.795385	18686.884314
432.172624	19110.600856
432.549802	18658.202669
432.926920	18841.393158
433.303977	18732.370645
433.680974	18995.284462
434.057910	19287.676426
434.434786	19306.487492
434.811601	19217.246466
435.188355	20290.820671
435.565050	19931.073850
435.941683	19874.224758
436.318257	20778.380907
436.694770	20582.716082
437.071222	21190.797703
437.447614	20243.209494
437.823946	20272.160840
438.200218	20428.224881
438.576429	20206.822445
438.952580	20474.185081
439.328670	20433.129924
439.704700	20868.907427
440.080670	20425.542987
440.456580	21034.305164
440.832429	21203.975279
441.208218	20176.943526
441.583947	20630.617126
441.959616	20739.014536
442.335224	20975.782409
442.710773	21109.423397
443.086261	21663.451246
443.461689	21018.112978
443.837057	21144.225003
444.212365	21807.955921
444.587612	21803.040796
444.962800	21368.884024
445.337927	21808.147485
445.712995	20492.045889
446.088002	22403.588413
446.462949	22584.749838
446.837837	22777.934415
447.212664	22721.407957
447.587431	25634.010209
447.962139	28628.455593
448.336786	31034.457172
448.711374	29450.135944
449.085901	25698.216865
449.460369	25641.264429
449.834776	25561.042028
450.209124	28096.553369
450.583412	27602.421989
450.957640	28144.734197
451.331808	26772.206965
451.705917	25383.192640
452.079965	25420.706387
452.453954	25783.949248
452.827883	25664.378120
453.201752	25469.482071
453.575562	25639.822659
453.949311	26794.249411
454.323001	26832.884814
454.696632	26601.087519
455.070202	28175.313836
455.443713	28321.338419
455.817164	28930.413147
456.190556	29456.046697
456.563888	28902.659075
456.937160	29336.866258
457.310373	27630.521381
457.683526	28112.962325
458.056619	28089.662112
458.429653	28017.626544
458.802628	28614.161402
459.175542	28726.838752
459.548398	30040.603773
459.921194	31638.954532
460.293930	32306.511687
460.666607	34370.516347
461.039224	36139.366491
461.411782	36562.881387
461.784280	35353.233837
462.156719	34874.074684
462.529099	34320.818132
462.901419	33013.898997
463.273680	31931.510334
463.645882	32009.933044
464.018024	31989.675167
464.390106	32847.697196
464.762130	35568.970015
465.134094	39667.851549
465.505999	45014.310275
465.877845	49629.882352
466.249631	50821.850576
466.621358	49139.539400
466.993026	47042.920994
467.364634	44967.571217
467.736184	42966.603665
468.107674	41708.853425
468.479105	40905.580847
468.850477	40201.301408
469.221790	38748.539172
469.593043	36970.932544
469.964238	36076.014310
470.335373	35992.157237
470.706449	37749.879033
471.077467	40359.283608
471.448425	44954.113857
471.819324	47785.838357
472.190164	45934.668692
472.560945	42340.446987
472.931667	39199.430054
473.302330	38076.434897
473.672934	37232.066834
474.043479	37768.390150
474.413965	36945.147042
474.784393	36562.281490
475.154761	37469.502659
475.525070	37505.768720
475.895321	37033.755403
476.265513	37634.207238
476.635645	38631.612129
477.005719	38450.309552
477.375734	38908.071527
477.745691	39617.986976
478.115588	40976.605664
478.485427	42975.503822
478.855207	46349.071702
479.224928	48960.313777
479.594591	50615.967332
479.964194	49635.089864
480.333739	49790.034768
480.703226	49840.158961
481.072653	50461.685339
481.442022	50943.357507
481.811333	51211.617468
482.180584	49917.754922
482.549777	49402.866591
482.918912	48850.996356
483.287988	48591.664279
483.657005	47736.404803
484.025964	47085.213755
484.394864	47128.809653
484.763706	46689.803291
485.132489	45814.661504
485.501213	45643.105997
485.869879	45802.837477
486.238487	45383.998251
486.607036	45585.326813
486.975527	45042.003854
487.343959	45228.261886
487.712333	45318.516183
488.080648	45231.286578
488.448905	45690.056784
488.817104	45502.089801
489.185244	46471.032337
489.553326	48151.274120
489.921350	50863.097297
490.289315	53705.357808
490.657222	54298.373941
491.025070	54577.290901
491.392861	53693.677455
491.760593	52489.917972
492.128267	50837.382371
492.495883	49324.743830
492.863440	47917.616639
493.230939	46569.816268
493.598380	45447.448734
493.965763	45121.235669
494.333088	44286.559224
494.700354	43809.348477
495.067563	43508.008465
495.434713	43364.333060
495.801805	43438.097743
496.168839	43031.216134
496.535815	42713.046230
496.902733	42748.833381
497.269593	42313.146618
497.636395	42257.078905
498.003139	42656.834844
498.369825	42112.092800
498.736453	42415.177052
499.103023	41944.852521
499.469535	41807.276912
499.835989	41923.906527
500.202385	41578.597571
500.568723	41596.347474
500.935003	41786.043572
501.301226	41579.802407
501.667390	42187.216075
502.033497	42476.674087
502.399546	41894.173802
502.765537	41198.645806
503.131470	41581.103024
503.497345	41947.005094
503.863163	40575.602040
504.228923	41200.977339
504.594625	41614.508230
504.960269	40900.002811
505.325856	41604.897271
505.691385	40966.351957
506.056856	41110.077774
506.422270	41540.940152
506.787625	41118.733435
507.152924	41293.452265
507.518164	41406.174986
507.883347	40599.764290
508.248472	40860.517973
508.613540	41345.524864
508.978550	41655.984324
509.343503	41396.271639
509.708398	41608.237035
510.073236	42139.199084
510.438016	42135.879485
510.802738	41572.903588
511.167403	42216.971485
511.532010	42438.903242
511.896561	42738.194026
512.261053	43605.539668
512.625488	43136.132628
512.989866	43007.830221
513.354186	42841.799819
513.718449	42841.449459
514.082655	43524.112431
514.446803	43176.449256
514.810894	43691.788769
515.174927	43636.895645
515.538904	43526.224674
515.902822	44205.910844
516.266684	43623.256803
516.630488	44069.262808
516.994235	43920.395014
517.357925	44507.727246
517.721558	44662.367161
518.085133	44972.834182
518.448651	45101.827227
518.812112	44878.816663
519.175516	44961.226925
519.538863	45312.466799
519.902152	45267.366116
520.265385	45737.685605
520.628560	45773.931501
520.991678	45544.284258
521.354739	45793.443287
521.717743	46115.721732
522.080690	45999.714700
522.443580	46538.336782
522.806413	46578.539984
523.169189	46526.706841
523.531908	46722.916110
523.894569	46572.266268
524.257174	46720.453506
524.619722	47041.653144
524.982213	47028.969601
525.344647	46945.437682
525.707025	46967.802761
526.069345	47351.248046
526.431608	47277.256510
526.793815	47615.369219
527.155964	47150.378230
527.518057	47294.431722
527.880093	47074.362671
528.242072	47595.721322
528.603995	47298.194943
528.965860	47298.638564
529.327669	47382.790546
529.689421	47285.191287
530.051117	47231.515601
530.412755	47380.663179
530.774337	47448.196996
531.135862	47233.191785
531.497331	47431.800643
531.858743	47345.672530
532.220098	47691.352011
532.581396	47392.547699
532.942638	47055.934733
533.303824	47365.832104
533.664953	47314.069536
534.026025	47013.757919
534.387040	47495.578801
534.747999	47446.770350
535.108902	47607.875544
535.469748	47118.162736
535.830537	47223.366576
536.191270	47401.210922
536.551947	47059.708037
536.912567	47386.498314
537.273131	47495.102412
537.633638	46985.098960
537.994089	47318.296544
538.354483	46926.059487
538.714821	47485.930033
539.075103	47837.714351
539.435328	47579.655165
539.795497	47468.016292
540.155609	47464.837845
540.515665	47914.697811
540.875665	47377.673774
541.235609	47702.666881
541.595496	47672.475410
541.955328	48345.998770
542.315102	47713.500320
542.674821	47496.150972
543.034483	47537.947179
543.394090	47503.674894
543.753640	47468.961509
544.113134	48473.852514
544.472571	47472.800347
544.831953	48737.502339
545.191278	47929.233978
545.550548	47635.596849
545.909761	48121.821179
546.268918	48317.082711
546.628019	48628.802459
546.987064	48184.601188
547.346053	47440.045450
547.704986	48340.256896
548.063863	47873.723313
548.422684	48067.394361
548.781449	47920.154860
549.140158	48325.440944
549.498811	48168.209877
549.857408	47589.888707
550.215949	48435.265002
550.574434	48374.156135
550.932864	48118.413359
551.291237	48842.063432
551.649555	48434.087892
552.007817	48670.192853
552.366022	48326.766768
552.724173	48497.639198
553.082267	48891.466739
553.440305	49199.234223
553.798288	48497.306482
554.156215	48805.898194
554.514086	49012.454432
554.871902	48763.219786
555.229661	48793.149116
555.587365	48601.103840
555.945014	48694.052634
556.302606	48597.199466
556.660143	48826.007357
557.017625	48916.065050
557.375050	48703.260302
557.732421	49051.717458
558.089735	49008.623155
558.446994	48933.038615
558.804197	49399.985572
559.161345	49335.234471
559.518437	48597.597717
559.875474	48886.014732
560.232455	49011.937713
560.589381	49216.298529
560.946251	48903.731867
561.303065	49587.415672
561.659825	49380.662829
562.016528	49041.393175
562.373177	48752.918188
562.729770	49214.997911
563.086307	48727.999764
563.442789	49179.351912
563.799216	49234.870139
564.155587	49010.480820
564.511904	49026.448675
564.868164	49109.978073
565.224370	49323.022276
565.580520	49057.668541
565.936615	49254.127347
566.292654	48974.282815
566.648638	49205.119770
567.004567	49139.912445
567.360441	49165.942443
567.716260	49029.672493
568.072023	49274.372621
568.427732	49242.762066
568.783385	48785.143764
569.138982	49167.386733
569.494525	49100.205797
569.850013	48856.365185
570.205445	48798.797729
570.560823	48752.335934
570.916145	48624.162077
571.271412	48634.287235
571.626625	48354.903968
571.981782	48403.057070
572.336884	48063.903362
572.691931	48369.051966
573.046923	47929.541489
573.401860	47762.195346
573.756743	47744.054754
574.111570	47827.702619
574.466342	47651.307605
574.821059	47733.952281
575.175722	47236.740757
575.530330	47220.493118
575.884882	46917.396264
576.239380	46850.212806
576.593823	46791.216183
576.948211	46700.954323
577.302544	46200.347582
577.656823	46191.966663
578.011047	46358.571757
578.365216	46057.393062
578.719330	45834.863928
579.073389	45635.803886
579.427394	45679.016657
579.781344	45633.134595
580.135239	45258.372697
580.489080	45298.112113
580.842866	44739.448923
581.196597	45127.537111
581.550273	45034.179983
581.903895	44847.543865
582.257463	45210.844699
582.610975	44556.550821
582.964434	44771.024191
583.317837	44376.130445
583.671186	44174.910269
584.024481	44350.082803
584.377721	43855.172566
584.730906	44098.743475
585.084037	44074.893777
585.437113	43734.537754
585.790135	43721.803799
586.143103	43284.161069
586.496016	43352.987943
586.848874	43325.574148
587.201679	43276.548927
587.554428	42715.271899
587.907124	42829.007892
588.259765	42532.149465
588.612352	42722.760533
588.964884	42076.900505
589.317362	42295.363948
589.669786	42179.256093
590.022155	41895.363514
590.374470	42250.928698
590.726731	41727.278842
591.078937	41208.700387
591.431090	41248.878383
591.783188	40860.835566
592.135232	40498.895843
592.487222	40678.340755
592.839157	40696.612417
593.191038	40306.848046
593.542866	40020.891115
593.894639	39377.801201
594.246358	39577.655225
594.598022	39500.949028
594.949633	39058.527284
595.301190	38948.882188
595.652692	38727.487314
596.004141	38982.756221
596.355535	37978.518046
596.706876	37873.873774
597.058162	37657.230187
597.409395	38044.572284
597.760573	38042.502891
598.111698	37579.606501
598.462768	37505.183946
598.813785	37497.279417
599.164748	36906.927534
599.515657	37188.173507
599.866511	36646.032699
600.217312	37120.606922
600.568060	36087.621567
600.918753	36712.838070
601.269392	36595.517817
601.619978	36213.254683
601.970510	36313.195558
602.320988	36409.600063
602.671412	36611.357123
603.021783	36309.182799
603.372100	35914.916678
603.722363	35941.569258
604.072572	35924.298265
604.422728	35855.236978
604.772830	35610.801510
605.122878	35623.147296
605.472872	35477.818392
605.822813	35648.211913
606.172701	35405.878606
606.522534	35530.916866
606.872314	35686.970824
607.222041	35371.117330
607.571714	35610.541891
607.921333	35045.481477
608.270899	35211.907609
608.620411	35424.863592
608.969870	35165.221483
609.319276	35067.448304
609.668627	35014.886714
610.017926	35348.601016
610.367171	35388.100977
610.716362	35360.286411
611.065500	35204.837391
611.414585	35272.524963
611.763616	35423.202531
612.112594	35260.605155
612.461518	35339.070715
612.810389	35477.142877
613.159207	35275.607629
613.507971	35225.536368
613.856682	35527.435949
614.205340	35325.371379
614.553945	35796.076517
614.902496	35216.661417
615.250994	35497.093244
615.599439	35452.673117
615.947830	35506.121950
616.296169	35412.510244
616.644454	35403.017751
616.992686	35423.416780
617.340864	35719.685392
617.688990	35358.398499
618.037063	35726.259057
618.385082	35571.273823
618.733048	35691.137338
619.080961	35588.254949
619.428821	35476.381663
619.776628	35456.685875
620.124382	35205.102051
620.472083	35201.283377
620.819731	35215.620419
621.167326	34850.179615
621.514868	34734.994291
621.862357	34308.689116
622.209793	34229.180037
622.557176	33883.039291
622.904506	33579.332457
623.251783	33235.621546
623.599007	32964.470484
623.946179	32701.140771
624.293297	32559.683474
624.640363	32003.019102
624.987376	31893.174880
625.334336	31609.531838
625.681243	31226.620915
626.028097	31094.845154
626.374899	30864.295544
626.721647	30750.693143
627.068343	30530.440090
627.414987	30253.413562
627.761577	29964.205087
628.108115	30106.211870
628.454600	29582.587220
628.801032	29609.993453
629.147412	29473.002618
629.493739	29357.953405
629.840014	28979.208996
630.186236	29100.095865
630.532405	28718.392299
630.878521	28738.294774
631.224585	28540.759681
631.570597	28235.510254
631.916556	28240.513599
632.262462	28072.151664
632.608316	27974.068454
632.954117	27797.108830
633.299866	27680.562395
633.645562	27543.465695
633.991206	27108.187266
634.336797	26726.188792
634.682336	26634.258311
635.027823	26373.406326
635.373257	26160.052092
635.718639	25897.607102
636.063968	25729.832461
636.409245	25247.383956
636.754470	25201.716143
637.099642	24944.516474
637.444762	24535.210070
637.789829	24532.031622
638.134845	24207.116654
638.479808	24083.283230
638.824719	23916.695781
639.169577	23574.643410
639.514383	23512.276775
639.859137	23236.843252
640.203839	23287.169091
640.548489	22966.236635
640.893086	22909.415269
641.237632	22657.307165
641.582125	22635.952837
641.926566	22500.870079
642.270955	22378.599413
642.615292	22288.571967
642.959576	22185.649250
643.303809	22100.990633
643.647990	22086.393972
643.992118	21977.578145
644.336195	21872.543184
644.680219	21820.876398
645.024192	21897.945558
645.368112	22098.404521
645.711981	22003.829954
646.055797	22391.734139
646.399562	22242.500862
646.743274	22681.093850
647.086935	22823.723215
647.430544	22660.573833
647.774101	22641.190596
648.117606	22678.142254
648.461059	22769.505606
648.804460	22474.633394
649.147810	22035.455632
649.491108	21818.537303
649.834354	21523.551665
650.177548	20995.155563
650.520690	20660.012094
650.863781	20571.302909
651.206820	20409.517159
651.549807	20082.230328
651.892742	19742.325489
652.235626	19539.628254
652.578458	19381.066322
652.921238	18989.373709
653.263967	19066.531089
653.606644	18809.782603
653.949269	18705.473568
654.291843	18407.077590
654.634365	18528.425725
654.976836	18238.244307
655.319255	18146.704514
655.661622	18067.976815
656.003938	17871.215539
656.346203	17715.267445
656.688416	17757.484588
657.030577	17562.457469
657.372687	17415.681754
657.714746	17468.770145
658.056753	17443.327442
658.398708	17102.159793
658.740612	17048.322791
659.082465	17091.396930
659.424266	16925.971467
659.766016	16908.526554
660.107715	16779.384795
660.449362	16754.909993
660.790958	16682.826534
661.132503	16610.919516
661.473996	16550.972635
661.815438	16530.250972
662.156829	16537.177517
662.498168	16360.802668
662.839456	16298.062987
663.180693	16280.098836
663.521879	16272.368226
663.863013	16179.064030
664.204097	16108.147599
664.545129	16227.769138
664.886110	16131.233563
665.227040	16085.417036
665.567918	16067.263841
665.908746	16017.043866
666.249522	16020.055956
666.590248	15939.868842
666.930922	15923.361584
667.271545	15838.508882
667.612118	15804.279448
667.952639	15635.728469
668.293109	15587.532517
668.633528	15477.945395
668.973896	15374.362286
669.314213	15316.331043
669.654480	15144.795702
669.994695	15081.561988
670.334859	14964.748371
670.674973	14846.984497
671.015035	14844.905021
671.355047	14758.605508
671.695008	14668.318443
672.034918	14561.297267
672.374777	14520.282440
672.714585	14390.442481
673.054342	14414.065328
673.394049	14246.273043
673.733705	14299.603409
674.073310	14110.597949
674.412864	14070.785436
674.752368	13854.587992
675.091820	13905.748142
675.431223	13677.567875
675.770574	13523.936191
676.109875	13403.001430
676.449125	13241.530752
676.788324	13140.778251
677.127473	12877.022562
677.466571	12791.227164
677.805619	12593.707195
678.144616	12537.657126
678.483562	12443.291767
678.822458	12268.595622
679.161303	12183.720235
679.500098	12099.049015
679.838842	12001.482523
680.177535	11989.494659
680.516179	12025.112932
680.854771	12040.037268
681.193314	12268.567895
681.531805	12582.034403
681.870247	12793.500725
682.208638	12991.560098
682.546978	13002.287673
682.885268	12973.270791
683.223508	12745.350144
683.561697	12583.604723
683.899836	12458.503449
684.237925	12245.557548
684.575963	12142.551652
684.913951	11949.387239
685.251889	11949.838423
685.589776	11884.111859
685.927614	11841.534273
686.265401	11838.043274
686.603137	11820.368989
686.940824	11924.312540
687.278460	12000.489416
687.616046	12006.707679
687.953582	12145.241108
688.291068	12081.236098
688.628504	12117.718928
688.965889	12047.964482
689.303224	11890.859443
689.640510	11756.197621
689.977745	11479.667647
690.314930	11200.231449
690.652065	10995.618576
690.989150	10734.718700
691.326185	10419.046687
691.663170	10162.520012
692.000105	9901.877234
692.336990	9671.534312
692.673825	9489.573864
693.010610	9303.615781
693.347345	9106.126059
693.684030	8881.114157
694.020665	8763.050334
694.357251	8548.650061
694.693786	8495.745672
695.030272	8392.545691
695.366707	8220.765853
695.703093	8111.632434
696.039429	8070.272287
696.375716	7983.400603
696.711952	7935.771782
697.048139	7865.702264
697.384276	7797.261039
697.720363	7795.433620
698.056400	7715.359933
698.392388	7639.664487
698.728326	7592.660769
699.064214	7515.047164
699.400053	7466.934392
699.735842	7351.610436
700.071581	7253.829695
700.407270	7148.131822
700.742910	7076.270174
701.078501	6984.894220
701.414042	6885.749847
701.749533	6784.410052
702.084974	6681.678898
702.420366	6695.474016
702.755709	6567.229583
703.091002	6475.324307
703.426246	6450.582324
703.761440	6401.647843
704.096584	6315.169370
704.431679	6282.643845
704.766725	6238.085086
705.101721	6194.743766
705.436668	6193.148241
705.771565	6104.030723
706.106413	6152.050234
706.441212	6126.582325
706.775961	6129.377645
707.110661	6125.639629
707.445311	6169.500188
707.779913	6126.090812
708.114465	6155.528630
708.448967	6191.192273
708.783421	6310.944883
709.117825	6347.147929
709.452180	6383.164453
709.786485	6444.598474
710.120742	6589.647594
710.454949	6598.759479
710.789107	6682.374578
711.123216	6816.950700
711.457275	6836.195305
711.791286	6936.801612
712.125247	6946.278981
712.459159	6881.142233
712.793023	6987.830692
713.126837	6756.401401
713.460602	6769.412619
713.794318	6670.830335
714.127985	6563.017698
714.461602	6362.525969
714.795171	6313.402445
715.128691	6095.889260
715.462162	5966.931503
715.795584	5855.506880
716.128957	5779.098111
716.462281	5686.950860
716.795556	5613.319767
717.128782	5500.607128
717.461960	5384.905086
717.795088	5346.763716
718.128167	5262.984780
718.461198	5164.442825
718.794180	5125.152072
719.127113	5049.728849
719.459997	4997.827649
719.792833	4927.556485
720.125619	4903.764760
720.458357	4837.357640
720.791046	4794.089417
721.123686	4753.992079
721.456278	4706.769070
721.788821	4686.836348
722.121315	4635.154439
722.453761	4629.533552
722.786158	4610.513279
723.118506	4604.083287
723.450805	4567.991146
723.783056	4583.316254
724.115259	4558.317172
724.447412	4540.353020
724.779518	4565.324376
725.111574	4559.839600
725.443582	4584.095112
725.775542	4571.441816
726.107453	4630.433398
726.439315	4611.612250
726.771129	4666.389428
727.102895	4716.420359
727.434612	4745.255759
727.766281	4756.273201
728.097901	4783.825627
728.429473	4778.837406
728.760996	4769.775932
729.092471	4764.533132
729.423897	4737.502465
729.755276	4702.438719
730.086606	4702.347978
730.417887	4759.199591
730.749120	4816.731759
731.080305	4827.232483
731.411442	4864.620200
731.742530	4861.650961
732.073570	4867.334862
732.404562	4891.597935
732.735506	4865.227659
733.066401	4811.370492
733.397249	4717.559660
733.728048	4610.062096
734.058798	4482.374710
734.389501	4373.931929
734.720156	4295.035351
735.050762	4212.473853
735.381320	4149.333402
735.711831	4109.838482
736.042293	4055.091551
736.372707	4043.746434
736.703073	4011.440200
737.033391	4030.198333
737.363661	4018.215511
737.693883	4028.018034
738.024056	4050.299934
738.354182	4073.766505
738.684260	4106.740693
739.014290	4131.298674
739.344272	4158.185668
739.674207	4191.611038
740.004093	4205.050754
740.333931	4197.841904
740.663722	4195.996842
740.993464	4185.450748
741.323159	4157.923528
741.652806	4114.481384
741.982405	4072.354982
742.311956	4017.207280
742.641460	3994.338085
742.970915	3943.825724
743.300323	3890.644071
743.629683	3853.175695
743.958996	3812.871670
744.288260	3769.139661
744.617477	3725.959657
744.946647	3702.558621
745.275768	3663.817354
745.604842	3637.961276
745.933869	3609.445989
746.262847	3597.339658
746.591778	3588.535283
746.920662	3566.896130
747.249498	3564.166345
747.578286	3572.335535
747.907027	3584.971187
748.235720	3609.108232
748.564365	3605.713015
748.892963	3589.145263
749.221514	3591.436467
749.550017	3574.165474
749.878473	3564.642734
750.206881	3533.042262
750.535242	3514.526103
750.863555	3505.210051
751.191821	3485.352946
751.520039	3484.327071
751.848210	3467.701346
752.176334	3469.274186
752.504411	3458.163483
752.832440	3434.835543
753.160421	3441.315947
753.488356	3424.995211
753.816243	3410.917789
754.144082	3394.992784
754.471875	3386.604304
754.799620	3375.291955
755.127318	3369.015718
755.454969	3360.775952
755.782572	3352.059797
756.110129	3349.861854
756.437638	3338.874659
756.765100	3333.518433
757.092515	3334.085563
757.419882	3332.724452
757.747203	3331.136488
758.074477	3337.947087
758.401703	3332.479956
758.728882	3342.640401
759.056014	3347.832790
759.383099	3354.880323
759.710138	3364.087990
760.037129	3365.834750
760.364073	3367.994885
760.690970	3362.366436
761.017820	3358.862834
761.344623	3368.428424
761.671379	3390.974984
761.998088	3438.318981
762.324751	3581.603697
762.651366	3844.315868
762.977935	4178.972866
763.304456	4369.936814
763.630931	4403.757916
763.957359	4285.459679
764.283740	4107.932926
764.610074	3931.328703
764.936362	3741.214189
765.262602	3596.843105
765.588796	3460.704224
765.914943	3364.319883
766.241044	3289.947741
766.567097	3226.078842
766.893104	3176.655370
767.219064	3142.786378
767.544978	3103.856067
767.870845	3074.445976
768.196665	3053.547872
768.522438	3034.194883
768.848165	3016.298787
769.173846	2998.485869
769.499479	2987.317193
769.825066	2970.363793
770.150607	2951.104064
770.476101	2942.024946
770.801548	2933.104625
771.126949	2916.052922
771.452303	2906.714184
771.777611	2890.292626
772.102872	2888.805485
772.428087	2874.352497
772.753256	2862.515868
773.078378	2853.587984
773.403453	2841.607682
773.728482	2832.362206
774.053465	2824.944148
774.378401	2814.506439
774.703291	2807.756334
775.028135	2799.287196
775.352932	2794.235960
775.677683	2787.034671
776.002388	2778.631068
776.327046	2778.071500
776.651658	2768.319388
776.976224	2761.675147
777.300743	2761.211361
777.625216	2753.853797
777.949643	2750.458580
778.274024	2750.267016
778.598359	2741.971797
778.922647	2738.634553
779.246889	2736.640777
779.571086	2737.091960
779.895236	2739.912486
780.219339	2734.029459
780.543397	2738.921899
780.867409	2739.683113
781.191374	2738.223699
781.515294	2734.256311
781.839167	2737.255798
782.162995	2732.222206
782.486776	2728.383367
782.810511	2724.544528
783.134201	2719.150494
783.457844	2715.591439
783.781441	2711.286294
784.104993	2706.441745
784.428498	2702.837320
784.751958	2700.972093
785.075372	2701.670293
785.398739	2695.202492
785.722061	2697.662575
786.045337	2697.261804
786.368568	2699.784901
786.691752	2702.446630
787.014891	2722.386914
787.337983	2744.368866
787.661030	2774.686365
787.984031	2804.104018
788.306987	2819.693787
788.629897	2818.093220
788.952760	2809.936633
789.275579	2795.216464
789.598351	2772.659821
789.921078	2752.306162
790.243759	2734.553739
790.566395	2719.634444
790.888984	2704.110211
791.211529	2695.343645
791.534027	2684.616069
791.856480	2675.511745
792.178888	2670.367248
792.501249	2665.704181
792.823566	2658.344096
793.145836	2656.877120
793.468062	2656.229332
793.790241	2651.525935
794.112375	2655.810916
794.434464	2660.645383
794.756507	2662.848367
795.078505	2671.811538
795.400457	2682.080369
795.722364	2697.493697
796.044226	2712.972560
796.366042	2720.244424
796.687812	2713.892570
797.009538	2716.299721
797.331218	2708.846375
797.652852	2703.094419
797.974442	2697.957483
798.295986	2689.334589
798.617484	2682.778569
798.938938	2672.935716
799.260346	2669.449758
799.581709	2661.353665
799.903026	2660.058088
800.224299	2653.285298
800.545526	2644.934627
800.866708	2643.311375
801.187845	2638.285345
801.508936	2633.292082
801.829983	2633.397946
802.150984	2623.582820
802.471940	2622.554424
802.792851	2620.948817
803.113717	2621.243724
803.434538	2618.725668
803.755314	2616.610904
804.076045	2614.115533
804.396731	2612.265429
804.717372	2613.167796
805.037967	2615.227107
805.358518	2616.215173
805.679024	2620.341358
805.999485	2622.501492
806.319901	2619.990997
806.640272	2619.040740
806.960598	2622.214146
807.280879	2621.710031
807.601115	2624.540639
807.921306	2622.438478
808.241453	2622.814044
808.561554	2620.837911
808.881611	2617.934207
809.201623	2619.295318
809.521590	2616.222735
809.841513	2614.143259
810.161390	2612.971191
810.481223	2607.438524
810.801011	2606.964656
811.120755	2604.285283
811.440453	2605.170005
811.760107	2598.089705
812.079716	2597.240270
812.399281	2590.313725
812.718801	2593.764395
813.038276	2587.372212
813.357707	2589.328179
813.677093	2593.174580
813.996434	2588.304825
814.315731	2586.303487
814.634983	2587.704928
814.954191	2588.937490
815.273354	2592.695670
815.592473	2593.998808
815.911547	2597.089036
816.230577	2599.541557
816.549562	2605.719491
816.868502	2608.247630
817.187399	2610.760645
817.506250	2617.631737
817.825058	2617.483023
818.143821	2624.051647
818.462539	2634.421300
818.781213	2647.949237
819.099843	2667.130827
819.418429	2698.605271
819.736970	2734.710015
820.055466	2768.659666
820.373919	2818.622541
820.692327	2895.598440
821.010691	3043.470606
821.329011	3424.707865
821.647286	4056.767735
821.965517	4744.686109
822.283704	5108.634732
822.601847	5143.975741
822.919945	4805.137105
823.237999	4456.304383
823.556010	4140.536588
823.873976	3866.002911
824.191897	3624.889564
824.509775	3445.043880
824.827609	3279.749487
825.145398	3178.192922
825.463144	3125.028913
825.780845	3133.356899
826.098502	3197.248483
826.416116	3316.257523
826.733685	3431.606684
827.051210	3454.037298
827.368692	3379.022409
827.686129	3251.070362
828.003522	3126.122844
828.320872	3006.662621
828.638177	2919.831267
828.955439	2849.040864
829.272656	2793.772173
829.589830	2745.500605
829.906960	2708.296889
830.224046	2679.902590
830.541088	2656.393169
830.858086	2641.899852
831.175041	2633.168574
831.491952	2627.121710
831.808819	2629.614560
832.125642	2640.218627
832.442421	2665.552946
832.759157	2720.173848
833.075849	2808.966211
833.392497	2900.218658
833.709101	2956.747636
834.025662	2944.182560
834.342179	2893.675240
834.658653	2830.807010
834.975083	2775.843310
835.291469	2736.434090
835.607811	2694.128727
835.924110	2666.785508
836.240366	2641.778864
836.556578	2614.733074
836.872746	2594.671802
837.188871	2580.259143
837.504952	2566.169118
837.820990	2558.325083
838.136984	2552.575647
838.452935	2549.213198
838.768842	2549.205636
839.084706	2563.353634
839.400526	2603.340066
839.716303	2652.488796
840.032037	2681.737570
840.347727	2671.861950
840.663373	2645.635347
840.978977	2614.354987
841.294537	2592.801534
841.610054	2572.987279
841.925527	2559.716442
842.240957	2551.683363
842.556344	2535.350024
842.871687	2526.220495
843.186987	2518.966274
843.502244	2510.986128
843.817458	2509.642660
844.132629	2502.582524
844.447756	2498.630260
844.762840	2492.043992
845.077881	2491.986019
845.392879	2488.547952
845.707833	2493.440392
846.022745	2485.147694
846.337613	2490.193889
846.652438	2489.382263
846.967221	2487.257417
847.281960	2487.358240
847.596656	2486.198774
847.911309	2488.502582
848.225919	2481.810450
848.540485	2484.628455
848.855009	2483.259782
849.169490	2482.100316
849.483928	2481.039153
849.798323	2479.609986
850.112675	2480.237610
850.426984	2481.054277
850.741251	2480.577888
851.055474	2480.454380
851.369654	2479.304997
851.683792	2477.470017
851.997887	2479.153762
852.311938	2477.772486
852.625947	2482.249030
852.939914	2479.478916
853.253837	2481.510501
853.567718	2476.209728
853.881555	2482.443115
854.195350	2479.151241
854.509103	2478.319451
854.822812	2480.615697
855.136479	2481.656695
855.450103	2480.391365
855.763685	2478.886581
856.077224	2479.998155
856.390720	2480.540079
856.704173	2478.160655
857.017584	2478.868937
857.330953	2481.326499
857.644278	2480.565285
857.957561	2485.798003
858.270802	2479.546972
858.584000	2481.177785
858.897155	2482.228866
859.210268	2478.942033
859.523339	2480.358598
859.836367	2477.931282
860.149352	2480.845069
860.462295	2479.148721
860.775195	2478.432877
861.088054	2475.877012
861.400869	2479.156283
861.713642	2472.461630
862.026373	2477.525469
862.339062	2477.454893
862.651708	2477.384317
862.964312	2475.796353
863.276873	2483.784062
863.589392	2481.860862
863.901869	2483.216932
864.214303	2485.026706
864.526696	2485.137612
864.839045	2488.714310
865.151353	2487.910246
865.463619	2488.028713
865.775842	2488.449650
866.088023	2488.913436
866.400162	2489.798158
866.712258	2487.907726
867.024313	2490.670278
867.336325	2488.943683
867.648296	2491.098776
867.960224	2489.556183
868.272110	2491.250011
868.583954	2486.481079
868.895755	2490.440905
869.207515	2489.415031
869.519233	2489.717500
869.830909	2491.383601
870.142542	2492.555669
870.454134	2492.487614
870.765684	2492.386791
871.077191	2492.777480
871.388657	2497.432986
871.700081	2494.294868
872.011463	2497.281751
872.322803	2496.250835
872.634101	2500.797956
872.945357	2500.906341
873.256571	2502.786691
873.567744	2503.318533
873.878874	2505.219048
874.189963	2506.252484
874.501010	2508.246261
874.812015	2506.159223
875.122979	2504.966990
875.433900	2508.916734
875.744780	2507.376662
876.055618	2509.073010
876.366415	2507.328771
876.677169	2509.718278
876.987882	2511.699451
877.298554	2508.641991
877.609183	2513.005110
877.919771	2516.039885
878.230317	2523.435257
878.540822	2533.187369
878.851285	2542.614327
879.161707	2558.151163
879.472087	2584.579412
879.782425	2620.134670
880.092722	2687.129084
880.402977	2799.196455
880.713191	2937.003957
881.023363	3075.539906
881.333494	3156.495796
881.643583	3185.497554
881.953631	3162.144408
882.263637	3115.599435
882.573602	3061.122206
882.883526	3007.514576
883.193408	2953.697738
883.503248	2900.707649
883.813048	2853.842563
884.122806	2807.043011
884.432522	2761.670106
884.742197	2723.311966
885.051831	2687.350895
885.361424	2654.598519
885.670975	2629.453243
885.980485	2609.626385
886.289954	2590.999322
886.599382	2577.206725
886.908768	2564.223233
887.218113	2552.905843
887.527417	2546.405275
887.836680	2536.622916
888.145901	2528.226874
888.455082	2526.434744
888.764221	2519.137674
889.073319	2515.150121
889.382376	2512.949657
889.691392	2512.720285
890.000366	2514.144411
890.309300	2510.081241
890.618193	2510.623165
890.927044	2511.631396
891.235855	2511.223062
891.544625	2510.469410
891.853353	2513.126098
892.162041	2516.738084
892.470687	2522.948786
892.779293	2532.337935
893.087858	2539.592155
893.396381	2555.996070
893.704864	2583.654361
894.013306	2612.247785
894.321707	2651.757828
894.630068	2675.405881
894.938387	2679.224555
895.246665	2667.569407
895.554903	2651.694814
895.863100	2631.895682
896.171256	2620.790020
896.479371	2601.069027
896.787446	2590.369177
897.095480	2577.128587
897.403473	2564.697102
897.711425	2557.450443
898.019336	2548.446942
898.327207	2539.977804
898.635038	2537.205169
898.942827	2525.310567
899.250576	2520.750843
899.558284	2513.433608
899.865952	2512.594256
900.173579	2507.583349
900.481165	2503.303409
900.788711	2501.029849
901.096216	2501.602020
901.403681	2498.524396
901.711105	2499.278048
902.018489	2496.200424
902.325832	2503.026146
902.633135	2503.459685
902.940397	2516.566685
903.247619	2542.382434
903.554800	2593.111565
903.861941	2648.108033
904.169041	2693.357430
904.476101	2707.442414
904.783121	2699.515199
905.090100	2674.445541
905.397039	2650.447128
905.703938	2628.646659
906.010796	2604.809563
906.317614	2588.781214
906.624391	2572.669686
906.931129	2559.958417
907.237826	2547.746222
907.544483	2533.446989
907.851099	2522.605987
908.157675	2509.254492
908.464211	2499.230157
908.770707	2490.408138
909.077163	2488.061481
909.383578	2479.912456
909.689954	2478.100161
909.996289	2473.321147
910.302584	2477.601087
910.608839	2476.716364
910.915054	2471.080354
911.221229	2475.526652
911.527363	2472.325519
911.833458	2472.854840
912.139513	2475.816518
912.445527	2475.130921
912.751502	2479.791468
913.057436	2481.974288
913.363331	2488.051398
913.669186	2493.339569
913.975000	2499.484735
914.280775	2514.157014
914.586510	2530.691998
914.892205	2559.028324
915.197859	2593.590475
915.503475	2629.007101
915.809050	2661.013387
916.114585	2679.171623
916.420081	2686.070442
916.725536	2683.204546
917.030952	2668.854902
917.336328	2657.255207
917.641665	2643.346663
917.946961	2628.883593
918.252218	2617.790534
918.557435	2604.708740
918.862612	2586.704259
919.167750	2573.481312
919.472848	2560.563355
919.777906	2548.502395
920.082925	2535.977648
920.387904	2528.378109
920.692843	2519.132633
920.997743	2513.184071
921.302603	2504.538492
921.607423	2498.075733
921.912204	2494.761174
922.216946	2493.836123
922.521647	2487.086017
922.826310	2486.077787
923.130932	2481.056798
923.435516	2480.182157
923.740059	2478.087558
924.044564	2474.793164
924.349028	2471.438276
924.653454	2466.601289
924.957840	2464.909982
925.262186	2465.257821
925.566493	2464.342852
925.870761	2458.371605
926.174989	2459.876390
926.479178	2458.182562
926.783328	2459.319342
927.087438	2458.779939
927.391509	2457.436471
927.695541	2454.464711
927.999533	2456.292129
928.303486	2455.092335
928.607400	2455.170473
928.911275	2453.116202
929.215110	2450.106633
929.518906	2454.741974
929.822663	2453.625359
930.126381	2454.308435
930.430060	2450.802313
930.733699	2452.246603
931.037299	2451.193002
931.340861	2453.597632
931.644383	2454.636110
931.947866	2452.007148
932.251309	2455.631738
932.554714	2453.237190
932.858080	2454.747016
933.161407	2450.278033
933.464694	2451.492951
933.767943	2450.875409
934.071153	2450.535132
934.374323	2452.506223
934.677455	2452.181068
934.980548	2449.874740
935.283602	2449.970522
935.586617	2452.324741
935.889593	2451.331634
936.192530	2451.220728
936.495428	2453.247272
936.798287	2452.710389
937.101108	2451.752570
937.403890	2455.306584
937.706632	2457.859928
938.009336	2461.028293
938.312002	2462.321349
938.614628	2461.361009
938.917216	2464.668006
939.219765	2464.879735
939.522275	2465.540126
939.824747	2468.038018
940.127179	2463.778243
940.429573	2461.565176
940.731929	2463.838737
941.034246	2461.776905
941.336524	2466.167750
941.638763	2462.588530
941.940964	2462.805300
942.243126	2462.041565
942.545250	2465.295630
942.847335	2462.049127
943.149381	2458.797583
943.451389	2459.878910
943.753359	2456.869341
944.055290	2457.252469
944.357182	2458.396811
944.659036	2454.058898
944.960851	2452.851542
945.262628	2455.472942
945.564367	2454.734413
945.866067	2454.298353
946.167729	2454.668878
946.469352	2453.602674
946.770937	2453.769032
947.072484	2452.604525
947.373992	2453.489248
947.675462	2453.292643
947.976893	2452.712910
948.278286	2451.513115
948.579641	2454.447067
948.880958	2452.226439
949.182236	2453.459001
949.483476	2449.330296
949.784678	2453.728703
950.085841	2450.366253
950.386967	2450.981274
950.688054	2454.197530
950.989103	2453.227108
951.290114	2449.821808
951.591087	2451.548403
951.892021	2456.977726
952.192917	2453.736264
952.493776	2454.956223
952.794596	2458.169959
953.095378	2455.311625
953.396122	2456.760957
953.696828	2453.295163
953.997496	2455.271296
954.298126	2454.590740
954.598718	2454.641151
954.899272	2451.225770
955.199788	2452.077725
955.500266	2449.761314
955.800706	2448.311983
956.101108	2443.900973
956.401472	2445.120932
956.701798	2442.950716
957.002087	2441.100612
957.302337	2444.521035
957.602550	2442.552464
957.902724	2443.467434
958.202861	2441.836621
958.502960	2439.762186
958.803022	2440.712443
959.103045	2439.288317
959.403031	2439.023657
959.702979	2440.379727
960.002889	2440.503235
960.302762	2434.947884
960.602596	2438.753955
960.902393	2440.601538
961.202153	2437.508790
961.501875	2435.162133
961.801559	2434.945363
962.101205	2434.852102
962.400814	2436.349325
962.700385	2438.068358
962.999918	2436.336722
963.299414	2432.611309
963.598873	2435.893100
963.898293	2432.649118
964.197677	2431.746751
964.497022	2434.063161
964.796331	2434.531989
965.095601	2432.313881
965.394835	2434.340425
965.694030	2431.507296
965.993189	2435.232709
966.292309	2432.573500
966.591393	2433.869077
966.890439	2432.828079
967.189447	2431.799683
967.488419	2430.045362
967.787353	2432.069385
968.086249	2431.880342
968.385108	2430.178952
968.683930	2433.627102
968.982714	2433.755651
969.281462	2432.182811
969.580172	2431.719025
969.878844	2434.229519
970.177480	2433.095260
970.476078	2432.702050
970.774639	2434.471495
971.073162	2434.771443
971.371649	2430.176432
971.670098	2430.115938
971.968510	2432.578542
972.266885	2430.057965
972.565223	2434.080805
972.863524	2431.159457
973.161788	2436.457709
973.460014	2434.559715
973.758204	2436.039294
974.056356	2432.177770
974.354471	2431.875301
974.652550	2435.482246
974.950591	2435.020981
975.248595	2435.668769
975.546563	2431.449323
975.844493	2433.589293
976.142386	2432.913778
976.440243	2434.090888
976.738062	2433.193562
977.035845	2432.679365
977.333590	2433.128027
977.631299	2429.848757
977.928971	2432.810435
978.226606	2430.733479
978.524204	2434.786567
978.821765	2431.381267
979.119290	2433.054931
979.416777	2431.073757
979.714228	2429.788263
980.011642	2430.022677
980.309020	2431.988727
980.606360	2432.094591
980.903664	2433.680034
981.200931	2435.509972
981.498162	2435.678851
981.795356	2438.837134
982.092513	2440.135231
982.389633	2444.016920
982.686717	2448.012034
982.983764	2450.777107
983.280775	2454.152159
983.577749	2453.975719
983.874686	2454.910853
984.171587	2452.155862
984.468451	2451.417333
984.765279	2446.688731
985.062070	2446.842486
985.358824	2444.604214
985.655543	2443.142279
985.952224	2441.055242
986.248869	2437.302103
986.545478	2431.567790
986.842050	2431.098963
987.138586	2428.830444
987.435086	2426.990423
987.731549	2425.387336
988.027975	2429.150557
988.324366	2427.618046
988.620719	2428.386822
988.917037	2428.076791
989.213318	2426.267017
989.509563	2426.418252
989.805772	2427.156781
990.101944	2425.581420
990.398080	2426.604774
990.694180	2426.841708
990.990244	2425.115113
991.286271	2424.099321
991.582262	2426.201482
991.878217	2427.378591
992.174136	2424.363981
992.470019	2424.885741
992.765865	2425.034455
993.061676	2424.941193
993.357450	2426.277099
993.653188	2426.768612
993.948890	2427.043355
994.244556	2427.234918
994.540186	2429.606781
994.835780	2428.442275
995.131337	2430.930084
995.426859	2433.037287
995.722345	2436.006526
996.017795	2435.535178
996.313208	2434.128696
996.608586	2436.687082
996.903928	2439.247988
997.199234	2438.287648
997.494504	2439.794953
997.789738	2437.165992
998.084936	2439.011054
998.380099	2435.386464
998.675225	2434.295054
998.970316	2433.798501
999.265371	2430.945208
999.560390	2429.556370
999.855373	2428.661565
1000.150320	2426.156112
1000.445232	2429.705084
1000.740108	2424.381625
1001.034948	2424.608477
1001.329752	2425.099990
1001.624521	2422.123188
1001.919254	2418.027251
1002.213951	2421.999680
1002.508613	2418.193609
1002.803239	2422.897006
1003.097829	2417.359298
1003.392384	2422.231573
1003.686903	2422.153435
1003.981386	2423.955648
1004.275834	2422.985226
1004.570246	2422.050092
1004.864623	2420.235276
1005.158964	2420.426840
1005.453270	2419.774011
1005.747540	2417.122364
1006.041775	2419.269895
1006.335974	2419.834505
1006.630138	2423.020514
1006.924266	2422.014804
1007.218359	2418.463311
1007.512416	2419.844587
1007.806438	2418.939700
1008.100425	2420.368867
1008.394376	2419.166552
1008.688292	2421.130081
1008.982172	2419.857190
1009.276017	2419.723599
1009.569827	2419.630338
1009.863602	2420.767118
1010.157341	2419.005235
1010.451045	2418.329720
1010.744714	2416.056160
1011.038347	2418.874165
1011.331945	2420.852818
1011.625508	2421.737540
1011.919036	2417.669329
1012.212528	2415.194122
1012.505986	2414.367373
1012.799408	2417.666808
1013.092795	2420.615883
1013.386147	2420.194947
1013.679464	2418.518763
1013.972745	2418.433064
1014.265992	2420.822571
1014.559204	2418.831315
1014.852380	2418.289391
1015.145521	2419.559762
1015.438628	2418.571696
1015.731699	2416.030954
1016.024736	2418.980029
1016.317737	2418.647313
1016.610703	2419.746284
1016.903635	2417.359298
1017.196531	2414.170768
1017.489393	2414.742939
1017.782219	2412.597928
1018.075011	2415.292425
1018.367768	2418.412899
1018.660490	2418.223856
1018.953177	2418.223856
1019.245829	2418.223856
