Dividing Wavelength (nm)	Counts (n)	Blue Motor Position (mm): 0.000000	Red Motor Position (mm): 19.400000	
326.493990	1982.937865
326.888308	1982.937865
327.282561	1982.937865
327.676750	1959.095728
328.070874	1960.837447
328.464933	1966.165947
328.858929	1976.764972
329.252859	1988.268886
329.646726	2001.418735
330.040528	2019.183762
330.434265	2039.721422
330.827938	2058.807231
331.221547	2075.964798
331.615091	2096.827613
332.008571	2116.523401
332.401986	2139.006947
332.795338	2157.835657
333.188625	2178.640499
333.581847	2196.657583
333.975006	2215.629965
334.368100	2234.829200
334.761129	2251.129771
335.154095	2265.008067
335.546996	2283.856941
335.939833	2298.186421
336.332606	2313.977836
336.725315	2323.510658
337.117960	2333.441731
337.510540	2339.488595
337.903056	2348.539986
338.295508	2353.276150
338.687896	2361.621781
339.080220	2369.012112
339.472480	2374.590149
339.864676	2375.978987
340.256807	2379.807743
340.648875	2383.623897
341.040879	2382.698845
341.432818	2388.710421
341.824694	2386.381408
342.216506	2385.353012
342.608253	2387.619011
342.999937	2386.270502
343.391557	2382.431664
343.783113	2382.252703
344.174605	2380.717671
344.566033	2378.444111
344.957397	2378.265150
345.348697	2376.319265
345.739934	2373.276928
346.131106	2373.075282
346.522215	2372.417412
346.913260	2366.405836
347.304241	2371.598224
347.695159	2367.098994
348.086012	2365.793335
348.476802	2363.055989
348.867528	2360.215299
349.258191	2362.899713
349.648789	2361.402490
350.039324	2361.115145
350.429796	2361.820906
350.820203	2357.896368
351.210548	2356.429392
351.600828	2356.840246
351.991045	2357.669516
352.381198	2356.288240
352.771288	2357.679598
353.161314	2358.241687
353.551276	2357.339320
353.941175	2358.612212
354.331010	2357.893847
354.720782	2358.818899
355.110490	2356.905781
355.500135	2356.452077
355.889717	2358.644979
356.279235	2358.917202
356.668689	2360.976513
357.058080	2358.294619
357.447408	2357.583816
357.836672	2357.193127
358.225873	2358.221522
358.615010	2359.111286
359.004084	2364.971627
359.393095	2364.500279
359.782043	2365.558922
360.170927	2363.711339
360.559748	2365.773171
360.948505	2368.792822
361.337199	2367.731659
361.725830	2368.573532
362.114398	2370.479088
362.502903	2368.681917
362.891344	2368.460106
363.279722	2372.142669
363.668037	2371.386496
364.056289	2371.857843
364.444478	2376.044522
364.832603	2374.247350
365.220665	2376.387320
365.608665	2373.493698
365.996601	2377.506456
366.384474	2375.852958
366.772284	2378.595346
367.160031	2380.175747
367.547715	2376.737680
367.935336	2378.993597
368.322893	2380.503422
368.710388	2381.718340
369.097820	2386.439381
369.485189	2383.011396
369.872495	2385.229504
370.259738	2385.985677
370.646918	2391.500699
371.034035	2390.598333
371.421090	2393.769219
371.808081	2394.800135
372.195010	2398.482698
372.581875	2406.147772
372.968678	2411.390572
373.355418	2421.334248
373.742096	2431.285486
374.128710	2438.567432
374.515262	2450.366253
374.901751	2463.495938
375.288177	2480.726602
375.674540	2500.525734
376.060841	2520.135822
376.447079	2543.902342
376.833254	2568.901424
377.219367	2595.720362
377.605417	2630.201855
377.991404	2654.477531
378.377329	2693.727955
378.763191	2728.373285
379.148991	2776.002106
379.534727	2820.253355
379.920402	2869.510469
380.306013	2917.252716
380.691563	2979.533652
381.077049	3035.397198
381.462474	3087.389138
381.847835	3162.341013
382.233134	3231.694687
382.618371	3291.394552
383.003545	3378.969477
383.388657	3458.591981
383.773706	3547.026422
384.158693	3620.153400
384.543618	3718.110581
384.928480	3789.803350
385.313280	3896.128847
385.698017	4001.393180
386.082692	4116.404585
386.467305	4179.628216
386.851856	4302.939880
387.236344	4461.400989
387.620770	4521.705792
388.005133	4640.142661
388.389435	4787.271256
388.773674	4867.987691
389.157851	5006.410214
389.541965	5136.378722
389.926018	5160.581301
390.310008	5332.663608
390.693936	5456.731446
391.077802	5571.725206
391.461606	5706.112285
391.845348	5813.529192
392.229027	5935.389003
392.612645	6154.517879
392.996200	6271.003821
393.379694	6447.514782
393.763125	6664.755745
394.146494	6758.710250
394.529801	6896.787453
394.913047	7131.876622
395.296230	7127.954604
395.679351	7186.734458
396.062410	7444.428160
396.445408	7332.559915
396.828343	7482.771177
397.211217	7615.101465
397.594028	7499.318764
397.976778	7701.826955
398.359466	7867.209569
398.742092	7842.815425
399.124656	7983.647620
399.507158	8168.194180
399.889598	8192.132099
400.271977	8393.783294
400.654294	8427.196062
401.036549	8623.115465
401.418742	8651.542531
401.800874	8943.606820
402.182944	9026.364923
402.564952	9376.767965
402.946898	9210.440135
403.328783	9262.931149
403.710606	9451.311507
404.092367	9712.589469
404.474067	10058.397500
404.855705	9854.588691
405.237282	9815.555037
405.618797	10233.375950
406.000250	10473.745727
406.381642	10830.689666
406.762972	10787.368510
407.144240	10582.538868
407.525447	10834.558752
407.906593	10772.872673
408.287677	11025.472289
408.668700	11174.072901
409.049661	11147.561473
409.430560	11311.235136
409.811399	11287.652618
410.192176	11438.211719
410.572891	11512.631752
410.953545	11973.582257
411.334138	11468.292284
411.714669	12051.705018
412.095139	11378.564787
412.475547	11869.638706
412.855894	11720.821324
413.236180	12034.373532
413.616405	11719.155223
413.996568	11989.098929
414.376670	11957.906789
414.756711	11838.668377
415.136691	12103.810385
415.516609	12267.592432
415.896466	12327.488901
416.276262	12609.733023
416.655997	13045.026575
417.035670	13070.832242
417.415283	13703.292883
417.794834	13773.475827
418.174324	13503.373324
418.553753	13396.909196
418.933121	13857.307694
419.312428	13643.918173
419.691674	13544.496537
420.070859	13956.094145
420.449983	13600.695320
420.829045	14101.730559
421.208047	13827.050689
421.586988	14226.236977
421.965867	14426.421196
422.344686	14383.604156
422.723444	14867.912847
423.102141	13582.761415
423.480777	14647.601821
423.859352	14120.607160
424.237866	15082.497122
424.616319	14747.484723
424.994712	15259.287867
425.373044	14997.039482
425.751314	15517.309244
426.129524	14644.136028
426.507673	15518.672877
426.885762	15159.074770
427.263789	15215.122318
427.641756	15242.737759
428.019662	15170.845864
428.397508	15095.644452
428.775292	15217.211877
429.153016	15056.348657
429.530679	14993.984543
429.908282	14871.353435
430.285824	14515.715154
430.663305	14918.901598
431.040726	14464.938132
431.418086	14190.648951
431.795385	14516.927552
432.172624	14666.627136
432.549802	14181.600080
432.926920	14147.113547
433.303977	13898.168767
433.680974	13895.638108
434.057910	13927.422583
434.434786	13766.811421
434.811601	13529.433569
435.188355	14026.808931
435.565050	13608.015075
435.941683	13391.116910
436.318257	13737.265218
436.694770	13426.621757
437.071222	13572.064086
437.447614	12802.925162
437.823946	12604.477620
438.200218	12473.140439
438.576429	12142.213895
438.952580	12085.158115
439.328670	11866.913963
439.704700	11877.056764
440.080670	11469.232459
440.456580	11542.878676
440.832429	11426.717888
441.208218	10743.318908
441.583947	10744.942160
441.959616	10592.580846
442.335224	10488.107974
442.710773	10338.610036
443.086261	10358.073931
443.461689	9899.344055
443.837057	9748.129604
444.212365	9795.508888
444.587612	9594.550852
444.962800	9240.795442
445.337927	9193.779121
445.712995	8577.354391
446.088002	8991.364191
446.462949	8863.470118
446.837837	8719.671205
447.212664	8512.517590
447.587431	9129.441395
447.962139	9768.362275
448.336786	10221.567047
448.711374	9581.534593
449.085901	8402.759068
449.460369	8146.915469
449.834776	7918.939369
450.209124	8288.334958
450.583412	8010.884974
450.957640	7929.493025
451.331808	7452.844367
451.705917	6977.811399
452.079965	6803.097609
452.453954	6693.172729
452.827883	6512.959041
453.201752	6318.151212
453.575562	6190.867119
453.949311	6202.839859
454.323001	6060.767541
454.696632	5877.917329
455.070202	5942.910405
455.443713	5823.190563
455.817164	5745.302215
456.190556	5665.450338
456.563888	5465.374504
456.937160	5369.451429
457.310373	5061.918359
457.683526	4975.528105
458.056619	4848.765771
458.429653	4722.149631
458.802628	4663.117719
459.175542	4567.333276
459.548398	4562.793717
459.921194	4584.390020
460.293930	4551.062952
460.666607	4599.584057
461.039224	4614.029484
461.411782	4526.913304
461.784280	4340.161239
462.156719	4195.805278
462.529099	4061.166141
462.901419	3899.171183
463.273680	3766.475411
463.645882	3693.071170
464.018024	3623.503247
464.390106	3584.094027
464.762130	3634.293837
465.134094	3742.575301
465.505999	3885.857496
465.877845	3972.174652
466.249631	3919.683638
466.621358	3771.035135
466.993026	3625.940645
467.364634	3502.628980
467.736184	3395.267527
468.107674	3314.644353
468.479105	3249.641195
468.850477	3194.599357
469.221790	3129.349182
469.593043	3061.066753
469.964238	3012.775020
470.335373	2986.923983
470.706449	2988.723675
471.077467	3001.926457
471.448425	3045.658467
471.819324	3070.929771
472.190164	3023.474869
472.560945	2956.377111
472.931667	2894.038203
473.302330	2863.284644
473.672934	2839.868484
474.043479	2832.485714
474.413965	2808.182312
474.784393	2786.497788
475.154761	2790.109775
475.525070	2776.203752
475.895321	2767.159922
476.265513	2763.384098
476.635645	2768.770571
477.005719	2762.159098
477.375734	2756.177769
477.745691	2756.891092
478.115588	2760.077101
478.485427	2770.474481
478.855207	2792.852163
479.224928	2808.719195
479.594591	2814.198929
479.964194	2801.797690
480.333739	2796.854839
480.703226	2793.104221
481.072653	2790.044240
481.442022	2790.049281
481.811333	2785.492078
482.180584	2772.402722
482.549777	2761.566762
482.918912	2756.145001
483.287988	2745.039339
483.657005	2737.167577
484.025964	2730.465363
484.394864	2723.228787
484.763706	2720.224259
485.132489	2710.325954
485.501213	2704.314378
485.869879	2700.765406
486.238487	2700.354552
486.607036	2693.493541
486.975527	2687.098837
487.343959	2687.575227
487.712333	2683.670853
488.080648	2684.548014
488.448905	2683.726306
488.817104	2681.155317
489.185244	2681.770338
489.553326	2689.571523
489.921350	2705.849409
490.289315	2725.920763
490.657222	2727.153325
491.025070	2728.547204
491.392861	2718.835422
491.760593	2707.512990
492.128267	2697.143337
492.495883	2686.050277
492.863440	2676.545182
493.230939	2666.679644
493.598380	2660.947852
493.965763	2651.949392
494.333088	2650.915956
494.700354	2645.907569
495.067563	2645.884884
495.434713	2641.998155
495.801805	2647.792961
496.168839	2643.102167
496.535815	2642.721560
496.902733	2640.183339
497.269593	2640.092598
497.636395	2639.747279
498.003139	2642.620737
498.369825	2638.670993
498.736453	2637.970273
499.103023	2637.141003
499.469535	2636.783081
499.835989	2638.847433
500.202385	2636.707464
500.568723	2636.697381
500.935003	2638.343318
501.301226	2639.543113
501.667390	2640.417753
502.033497	2644.740542
502.399546	2642.940850
502.765537	2640.059831
503.131470	2642.038484
503.497345	2644.947230
503.863163	2641.075623
504.228923	2645.476551
504.594625	2648.589463
504.960269	2645.005203
505.325856	2650.951244
505.691385	2650.280770
506.056856	2653.111378
506.422270	2658.699497
506.787625	2657.260248
507.152924	2658.830567
507.518164	2660.925167
507.883347	2657.938283
508.248472	2665.308450
508.613540	2666.891372
508.978550	2667.808862
509.343503	2666.898934
509.708398	2675.768844
510.073236	2680.517611
510.438016	2683.895184
510.802738	2683.159176
511.167403	2687.025741
511.532010	2689.702593
511.896561	2691.343489
512.261053	2703.333873
512.625488	2698.562421
512.989866	2698.869932
513.354186	2700.168029
513.718449	2699.152236
514.082655	2710.754452
514.446803	2710.714123
514.810894	2714.961295
515.174927	2717.819629
515.538904	2715.646892
515.902822	2719.372304
516.266684	2721.557645
516.630488	2721.015721
516.994235	2722.812892
517.357925	2727.755743
517.721558	2733.137175
518.085133	2735.637587
518.448651	2736.769326
518.812112	2736.887793
519.175516	2738.692527
519.538863	2741.712178
519.902152	2741.286200
520.265385	2748.502612
520.628560	2744.401633
520.991678	2745.024216
521.354739	2747.549834
521.717743	2748.840369
522.080690	2750.738364
522.443580	2753.170720
522.806413	2760.127513
523.169189	2757.685074
523.531908	2757.478386
523.894569	2757.203643
524.257174	2761.571803
524.619722	2764.266300
524.982213	2763.215219
525.344647	2763.114396
525.707025	2763.608429
526.069345	2766.514655
526.431608	2764.639345
526.793815	2767.341404
527.155964	2766.318050
527.518057	2766.270159
527.880093	2766.214706
528.242072	2767.270828
528.603995	2766.945673
528.965860	2766.628081
529.327669	2768.057248
529.689421	2767.802669
530.051117	2767.908534
530.412755	2769.781322
530.774337	2768.515993
531.135862	2768.253853
531.497331	2764.288985
531.858743	2765.239243
532.220098	2766.302926
532.581396	2764.364602
532.942638	2764.001639
533.303824	2767.527927
533.664953	2766.643204
534.026025	2766.239912
534.387040	2767.076743
534.747999	2767.958945
535.108902	2771.132352
535.469748	2766.975920
535.830537	2763.845364
536.191270	2765.521547
536.551947	2766.943153
536.912567	2766.832247
537.273131	2767.774943
537.633638	2763.590785
537.994089	2766.065992
538.354483	2761.433172
538.714821	2766.960797
539.075103	2768.573966
539.435328	2766.577669
539.795497	2765.183790
540.155609	2763.444592
540.515665	2767.094387
540.875665	2762.574993
541.235609	2764.951897
541.595496	2762.254880
541.955328	2767.689243
542.315102	2759.731782
542.674821	2759.920825
543.034483	2758.169024
543.394090	2755.998808
543.753640	2758.453850
544.113134	2761.498707
544.472571	2755.930752
544.831953	2761.022317
545.191278	2752.096955
545.550548	2747.196953
545.909761	2754.183992
546.268918	2752.843045
546.628019	2751.313055
546.987064	2745.455234
547.346053	2740.454410
547.704986	2742.702764
548.063863	2739.032804
548.422684	2739.123545
548.781449	2735.045252
549.140158	2733.036352
549.498811	2731.644993
549.857408	2724.514281
550.215949	2727.145764
550.574434	2721.421533
550.932864	2719.654609
551.291237	2721.323231
551.649555	2717.917932
552.007817	2717.239896
552.366022	2711.810574
552.724173	2709.703371
553.082267	2709.584904
553.440305	2706.330839
553.798288	2701.420756
554.156215	2698.388502
554.514086	2695.431865
554.871902	2695.351206
555.229661	2688.540607
555.587365	2685.589012
555.945014	2682.513908
556.302606	2677.891170
556.660143	2676.686334
557.017625	2673.850685
557.375050	2670.226096
557.732421	2666.382216
558.089735	2664.408604
558.446994	2661.240239
558.804197	2660.267296
559.161345	2656.052892
559.518437	2648.148362
559.875474	2646.711633
560.232455	2643.964205
560.589381	2642.887918
560.946251	2640.458082
561.303065	2639.885911
561.659825	2637.642598
562.016528	2632.329222
562.373177	2627.036010
562.729770	2625.271606
563.086307	2619.411265
563.442789	2621.291615
563.799216	2618.997890
564.155587	2611.935234
564.511904	2613.717282
564.868164	2611.955398
565.224370	2606.142948
565.580520	2603.927361
565.936615	2601.961311
566.292654	2601.752103
566.648638	2601.477360
567.004567	2596.282451
567.360441	2595.911926
567.716260	2592.045361
568.072023	2592.473859
568.427732	2586.134608
568.783385	2586.598394
569.138982	2583.888774
569.494525	2585.685946
569.850013	2581.496747
570.205445	2580.168403
570.560823	2580.894329
570.916145	2579.782754
571.271412	2575.684296
571.626625	2574.338308
571.981782	2573.226734
572.336884	2572.165571
572.691931	2571.099367
573.046923	2567.464695
573.401860	2564.112328
573.756743	2565.990157
574.111570	2562.811710
574.466342	2566.133830
574.821059	2562.930177
575.175722	2563.756926
575.530330	2562.020249
575.884882	2561.150650
576.239380	2556.825340
576.593823	2557.944476
576.948211	2558.315001
577.302544	2556.041440
577.656823	2555.401214
578.011047	2556.721996
578.365216	2552.560524
578.719330	2551.126315
579.073389	2550.806202
579.427394	2552.419371
579.781344	2549.697148
580.135239	2550.259237
580.489080	2549.036757
580.842866	2548.958619
581.196597	2548.497354
581.550273	2548.724206
581.903895	2543.957795
582.257463	2549.210677
582.610975	2540.242464
582.964434	2543.652805
583.317837	2542.092568
583.671186	2540.146682
584.024481	2543.917465
584.377721	2541.379244
584.730906	2543.083154
585.084037	2543.562064
585.437113	2541.767413
585.790135	2540.796991
586.143103	2539.871939
586.496016	2540.650798
586.848874	2536.529654
587.201679	2535.513862
587.554428	2532.526978
587.907124	2536.544778
588.259765	2530.210568
588.612352	2536.257432
588.964884	2536.307844
589.317362	2534.505631
589.669786	2538.039480
590.022155	2534.104859
590.374470	2535.440765
590.726731	2536.005374
591.078937	2532.342976
591.431090	2532.363141
591.783188	2531.664941
592.135232	2529.567821
592.487222	2529.587986
592.839157	2531.649817
593.191038	2530.210568
593.542866	2526.528005
593.894639	2527.861390
594.246358	2528.277286
594.598022	2525.892820
594.949633	2523.447860
595.301190	2524.062881
595.652692	2524.821575
596.004141	2524.720752
596.355535	2522.850483
596.706876	2521.317973
597.058162	2520.082890
597.409395	2523.231091
597.760573	2521.872500
598.111698	2522.006090
598.462768	2524.466173
598.813785	2518.552900
599.164748	2519.203209
599.515657	2520.037520
599.866511	2519.349402
600.217312	2520.045081
600.568060	2515.621469
600.918753	2520.705472
601.269392	2516.296983
601.619978	2519.016686
601.970510	2516.808661
602.320988	2519.442663
602.671412	2519.193126
603.021783	2518.736902
603.372100	2517.821932
603.722363	2518.099196
604.072572	2516.944772
604.422728	2518.933507
604.772830	2514.129287
605.122878	2512.135511
605.472872	2508.982269
605.822813	2512.523680
606.172701	2516.594412
606.522534	2514.651047
606.872314	2520.556758
607.222041	2514.278001
607.571714	2516.493588
607.921333	2513.337826
608.270899	2516.922087
608.620411	2512.047291
608.969870	2513.799092
609.319276	2514.313289
609.668627	2515.560975
610.017926	2515.450070
610.367171	2514.482168
610.716362	2513.930162
611.065500	2514.464524
611.414585	2514.270440
611.763616	2515.215656
612.112594	2516.904442
612.461518	2512.579133
612.810389	2516.281860
613.159207	2512.924452
613.507971	2512.543844
613.856682	2516.652385
614.205340	2514.953516
614.553945	2518.729340
614.902496	2513.506705
615.250994	2516.097858
615.599439	2514.522497
615.947830	2514.741788
616.296169	2512.455624
616.644454	2515.850841
616.992686	2515.341685
617.340864	2517.769000
617.688990	2515.437467
618.037063	2517.494257
618.385082	2514.066273
618.733048	2517.927797
619.080961	2516.302025
619.428821	2514.391427
619.776628	2513.756242
620.124382	2514.398989
620.472083	2513.093330
620.819731	2515.608866
621.167326	2514.915707
621.514868	2513.184071
621.862357	2513.738598
622.209793	2513.554596
622.557176	2509.204080
622.904506	2506.754079
623.251783	2502.148985
623.599007	2503.532782
623.946179	2503.005981
624.293297	2502.320384
624.640363	2504.909017
624.987376	2504.611589
625.334336	2503.684017
625.681243	2502.625374
626.028097	2498.993223
626.374899	2501.097905
626.721647	2498.277379
627.068343	2500.283758
627.414987	2501.221413
627.761577	2499.678820
628.108115	2500.203100
628.454600	2497.233860
628.801032	2496.724704
629.147412	2498.284941
629.493739	2495.356030
629.840014	2497.508603
630.186236	2500.077071
630.532405	2496.195382
630.878521	2500.172853
631.224585	2495.638335
631.570597	2495.136740
631.916556	2494.620022
632.262462	2497.332163
632.608316	2495.101452
632.954117	2496.029024
633.299866	2496.550784
633.645562	2494.546925
633.991206	2494.488952
634.336797	2491.960813
634.682336	2493.576503
635.027823	2487.993425
635.373257	2491.030720
635.718639	2491.544918
636.063968	2487.295225
636.409245	2490.647593
636.754470	2485.992087
637.099642	2486.259268
637.444762	2486.087869
637.789829	2481.913794
638.134845	2486.329844
638.479808	2483.789103
638.824719	2483.305152
639.169577	2480.928248
639.514383	2486.153404
639.859137	2481.034112
640.203839	2482.279277
640.548489	2482.700214
640.893086	2479.799030
641.237632	2476.960860
641.582125	2480.109061
641.926566	2477.654019
642.270955	2481.656695
642.615292	2482.669967
642.959576	2479.836838
643.303809	2478.478247
643.647990	2478.868937
643.992118	2481.991932
644.336195	2479.831797
644.680219	2478.702579
645.024192	2480.653505
645.368112	2481.427322
645.711981	2479.103350
646.055797	2482.722899
646.399562	2481.220635
646.743274	2483.753815
647.086935	2483.751294
647.430544	2481.737353
647.774101	2481.956643
648.117606	2483.605101
648.461059	2482.425471
648.804460	2486.574340
649.147810	2483.978146
649.491108	2485.392190
649.834354	2479.488999
650.177548	2478.069914
650.520690	2478.150572
650.863781	2475.698051
651.206820	2478.518577
651.549807	2476.534882
651.892742	2474.936837
652.235626	2476.597897
652.578458	2472.270066
652.921238	2472.386013
653.263967	2474.064717
653.606644	2472.748976
653.949269	2473.739563
654.291843	2474.135293
654.634365	2471.919706
654.976836	2473.101857
655.319255	2471.463482
655.661622	2471.929788
656.003938	2472.149079
656.346203	2470.477936
656.688416	2471.410550
657.030577	2470.994654
657.372687	2472.174284
657.714746	2467.917030
658.056753	2470.051959
658.398708	2462.946452
658.740612	2468.436269
659.082465	2465.509879
659.424266	2470.775364
659.766016	2464.257152
660.107715	2473.613534
660.449362	2468.184211
660.790958	2469.658749
661.132503	2471.466002
661.473996	2470.641774
661.815438	2468.617750
662.156829	2467.359983
662.498168	2470.183029
662.839456	2468.799232
663.180693	2468.804273
663.521879	2470.639253
663.863013	2467.985086
664.204097	2472.020529
664.545129	2469.348718
664.886110	2469.270580
665.227040	2469.424335
665.567918	2471.193780
665.908746	2469.043728
666.249522	2468.511886
666.590248	2470.225878
666.930922	2470.467854
667.271545	2472.449027
667.612118	2469.946094
667.952639	2468.542133
668.293109	2472.053297
668.633528	2470.941722
668.973896	2473.293421
669.314213	2467.294448
669.654480	2466.563480
669.994695	2470.830817
670.334859	2467.927112
670.674973	2469.285703
671.015035	2466.472739
671.355047	2467.042390
671.695008	2469.298306
672.034918	2465.497276
672.374777	2470.830817
672.714585	2464.549539
673.054342	2467.906948
673.394049	2466.908799
673.733705	2470.644294
674.073310	2467.327215
674.412864	2467.349900
674.752368	2463.863942
675.091820	2469.653707
675.431223	2464.363017
675.770574	2467.118007
676.109875	2462.303705
676.449125	2461.905454
676.788324	2460.067953
677.127473	2460.877059
677.466571	2457.827161
677.805619	2464.884776
678.144616	2461.570217
678.483562	2464.199179
678.822458	2461.063581
679.161303	2464.330249
679.500098	2459.813375
679.838842	2462.263376
680.177535	2464.393263
680.516179	2461.217337
680.854771	2461.459312
681.193314	2464.277317
681.531805	2465.028449
681.870247	2468.111114
682.208638	2468.653038
682.546978	2468.549695
682.885268	2467.854016
683.223508	2468.267390
683.561697	2467.549026
683.899836	2467.082719
684.237925	2463.584158
684.575963	2465.623305
684.913951	2466.107256
685.251889	2465.162039
685.589776	2466.805456
685.927614	2464.413428
686.265401	2466.082050
686.603137	2466.951649
686.940824	2466.293778
687.278460	2467.029787
687.616046	2468.635394
687.953582	2468.942905
688.291068	2466.845785
688.628504	2470.150261
688.965889	2469.000878
689.303224	2468.741259
689.640510	2463.793366
689.977745	2464.209261
690.314930	2463.122893
690.652065	2461.068622
690.989150	2459.919239
691.326185	2460.723303
691.663170	2460.299847
692.000105	2457.219702
692.336990	2456.279526
692.673825	2454.925977
693.010610	2455.230966
693.347345	2453.030503
693.684030	2447.901129
694.020665	2452.591922
694.357251	2447.873402
694.693786	2451.679473
695.030272	2449.799123
695.366707	2449.090841
695.703093	2449.892384
696.039429	2451.576130
696.375716	2445.950202
696.711952	2450.943465
697.048139	2449.637806
697.384276	2447.906170
697.720363	2448.233845
698.056400	2450.220059
698.392388	2448.352312
698.728326	2448.438012
699.064214	2447.397013
699.400053	2448.133022
699.735842	2444.256374
700.071581	2444.894080
700.407270	2443.091868
700.742910	2444.669749
701.078501	2443.374173
701.414042	2446.202260
701.749533	2444.813422
702.084974	2442.718823
702.420366	2443.245623
702.755709	2442.794440
703.091002	2442.638164
703.426246	2442.466765
703.761440	2442.060952
704.096584	2441.619851
704.431679	2441.080447
704.766725	2441.682865
705.101721	2437.420570
705.436668	2440.722526
705.771565	2438.096084
706.106413	2439.850406
706.441212	2437.614654
706.775961	2443.696806
707.110661	2438.902669
707.445311	2442.280242
707.779913	2442.197063
708.114465	2442.716302
708.448967	2442.562547
708.783421	2442.610438
709.117825	2447.830552
709.452180	2444.682352
709.786485	2445.924996
710.120742	2447.991869
710.454949	2448.221242
710.789107	2443.076744
711.123216	2443.142279
711.457275	2445.357867
711.791286	2444.596652
712.125247	2447.344081
712.459159	2450.404062
712.793023	2450.051181
713.126837	2451.409772
713.460602	2449.607559
713.794318	2450.734257
714.127985	2447.308793
714.461602	2448.054884
714.795171	2447.528083
715.128691	2445.365428
715.462162	2448.006993
715.795584	2442.539862
716.128957	2444.395006
716.462281	2441.151024
716.795556	2443.313679
717.128782	2440.465427
717.461960	2441.597166
717.795088	2440.422577
718.128167	2437.957453
718.461198	2435.754468
718.794180	2437.256732
719.127113	2436.770261
719.459997	2436.573656
719.792833	2437.145827
720.125619	2437.861671
720.458357	2434.824376
720.791046	2435.598193
721.123686	2435.162133
721.456278	2434.335384
721.788821	2433.838830
722.121315	2434.726073
722.453761	2432.530651
722.786158	2432.833120
723.118506	2433.422935
723.450805	2432.792791
723.783056	2433.017122
724.115259	2436.785384
724.447412	2436.210693
724.779518	2436.341763
725.111574	2434.738676
725.443582	2435.625919
725.775542	2436.858481
726.107453	2437.423090
726.439315	2435.535178
726.771129	2439.401743
727.102895	2436.208172
727.434612	2437.007195
727.766281	2432.185332
728.097901	2436.394695
728.429473	2433.543923
728.760996	2435.547781
729.092471	2432.523089
729.423897	2439.406784
729.755276	2437.896959
730.086606	2441.095571
730.417887	2437.314706
730.749120	2442.025664
731.080305	2442.396189
731.411442	2440.286466
731.742530	2443.946343
732.073570	2443.752259
732.404562	2441.904676
732.735506	2443.049018
733.066401	2442.940633
733.397249	2442.249995
733.728048	2440.155396
734.058798	2438.070879
734.389501	2436.908893
734.720156	2437.796136
735.050762	2432.369334
735.381320	2432.649118
735.711831	2434.458892
736.042293	2433.551484
736.372707	2431.635846
736.703073	2432.598706
737.033391	2432.099632
737.363661	2435.338573
737.693883	2430.799014
738.024056	2435.971238
738.354182	2434.297575
738.684260	2434.688264
739.014290	2434.957966
739.344272	2436.828234
739.674207	2436.278748
740.004093	2438.895107
740.333931	2437.987700
740.663722	2438.343101
740.993464	2437.468461
741.323159	2436.344283
741.652806	2437.783533
741.982405	2435.562905
742.311956	2434.731114
742.641460	2437.705395
742.970915	2431.056113
743.300323	2435.051228
743.629683	2431.393870
743.958996	2431.439241
744.288260	2431.656010
744.617477	2426.763571
744.946647	2426.201482
745.275768	2427.789445
745.604842	2425.911616
745.933869	2426.687953
746.262847	2425.258786
746.591778	2431.101483
746.920662	2425.841039
747.249498	2428.449837
747.578286	2429.679878
747.907027	2426.168714
748.235720	2428.878335
748.564365	2431.509817
748.892963	2430.562080
749.221514	2431.076278
749.550017	2429.871442
749.878473	2431.124169
750.206881	2428.011256
750.535242	2428.028900
750.863555	2431.257759
751.191821	2429.720207
751.520039	2431.603078
751.848210	2429.768098
752.176334	2428.938828
752.504411	2426.589651
752.832440	2428.142326
753.160421	2432.258428
753.488356	2425.788107
753.816243	2428.205341
754.144082	2427.456729
754.471875	2427.673499
754.799620	2427.169383
755.127318	2428.293561
755.454969	2427.179466
755.782572	2428.555701
756.110129	2427.383632
756.437638	2427.633170
756.765100	2428.182655
757.092515	2427.292892
757.419882	2428.681730
757.747203	2429.016966
758.074477	2429.107707
758.401703	2427.008067
758.728882	2428.480083
759.056014	2429.223654
759.383099	2429.926895
759.710138	2430.141144
760.037129	2429.707604
760.364073	2430.730959
760.690970	2428.041503
761.017820	2428.502769
761.344623	2429.551329
761.671379	2431.177101
761.998088	2427.348344
762.324751	2435.361258
762.651366	2443.653957
762.977935	2451.482868
763.304456	2457.267593
763.630931	2460.350258
763.957359	2459.397480
764.283740	2455.934207
764.610074	2449.738629
764.936362	2444.941971
765.262602	2440.659511
765.588796	2437.962494
765.914943	2434.390836
766.241044	2429.614343
766.567097	2426.942532
766.893104	2427.101328
767.219064	2425.067222
767.544978	2424.127047
767.870845	2425.548653
768.196665	2426.589651
768.522438	2420.731830
768.848165	2424.779877
769.173846	2422.450863
769.499479	2421.616552
769.825066	2419.995822
770.150607	2418.919535
770.476101	2419.489186
770.801548	2420.963723
771.126949	2418.644792
771.452303	2419.171593
771.777611	2419.481624
772.102872	2420.134453
772.428087	2417.802920
772.753256	2416.214956
773.078378	2418.644792
773.403453	2418.105389
773.728482	2418.911973
774.053465	2415.151273
774.378401	2417.752508
774.703291	2418.082704
775.028135	2417.273598
775.352932	2415.453742
775.677683	2417.472724
776.002388	2415.461304
776.327046	2414.117836
776.651658	2416.288053
776.976224	2415.433577
777.300743	2415.012641
777.625216	2413.865778
777.949643	2417.404668
778.274024	2416.590522
778.598359	2414.364853
778.922647	2409.646333
779.246889	2414.800912
779.571086	2411.640109
779.895236	2416.189750
780.219339	2416.746798
780.543397	2415.221849
780.867409	2417.697055
781.191374	2415.972981
781.515294	2413.729667
781.839167	2417.140008
782.162995	2415.831828
782.486776	2417.283681
782.810511	2413.260840
783.134201	2411.816549
783.457844	2414.258988
783.781441	2414.445511
784.104993	2415.436098
784.428498	2413.691859
784.751958	2412.174471
785.075372	2412.146745
785.398739	2414.027095
785.722061	2414.213618
786.045337	2412.469379
786.368568	2414.173289
786.691752	2411.856879
787.014891	2415.589853
787.337983	2415.841911
787.661030	2419.958013
787.984031	2417.984401
788.306987	2419.726120
788.629897	2423.217119
788.952760	2421.430030
789.275579	2421.230904
789.598351	2417.510533
789.921078	2419.494227
790.243759	2418.687642
790.566395	2414.818557
790.888984	2415.983063
791.211529	2416.497261
791.534027	2412.638257
791.856480	2415.794020
792.178888	2414.851324
792.501249	2414.831159
792.823566	2412.945768
793.145836	2414.294277
793.468062	2413.911149
793.790241	2414.841242
794.112375	2415.252096
794.434464	2413.210428
794.756507	2412.368556
795.078505	2418.579257
795.400457	2415.572209
795.722364	2410.838566
796.044226	2416.756880
796.366042	2415.794020
796.687812	2416.214956
797.009538	2416.764442
797.331218	2418.526325
797.652852	2418.498599
797.974442	2418.601943
798.295986	2418.007086
798.617484	2415.007600
798.938938	2416.333423
799.260346	2416.983732
799.581709	2414.808474
799.903026	2418.100348
800.224299	2413.066756
800.545526	2414.503484
800.866708	2415.075655
801.187845	2414.208577
801.508936	2414.793351
801.829983	2414.548855
802.150984	2412.812177
802.471940	2412.562640
802.792851	2414.417785
803.113717	2413.137332
803.434538	2410.790675
803.755314	2413.117167
804.076045	2414.014492
804.396731	2413.885943
804.717372	2409.782444
805.037967	2412.300500
805.358518	2412.786972
805.679024	2411.640109
805.999485	2413.467527
806.319901	2414.889133
806.640272	2411.826632
806.960598	2412.139183
807.280879	2413.825449
807.601115	2412.824780
807.921306	2412.781930
808.241453	2411.902249
808.561554	2412.174471
808.881611	2415.587333
809.201623	2413.013823
809.521590	2414.745460
809.841513	2413.649009
810.161390	2413.782599
810.481223	2411.917373
810.801011	2414.702610
811.120755	2413.830490
811.440453	2411.652712
811.760107	2410.546179
812.079716	2410.362177
812.399281	2407.035015
812.718801	2411.912331
813.038276	2407.980231
813.357707	2413.170099
813.677093	2411.733370
813.996434	2410.843607
814.315731	2413.149935
814.634983	2411.541807
814.954191	2412.734039
815.273354	2411.015006
815.592473	2413.896025
815.911547	2415.123546
816.230577	2414.211098
816.549562	2412.882753
816.868502	2413.233114
817.187399	2415.294946
817.506250	2414.753022
817.825058	2416.109092
818.143821	2416.348547
818.462539	2417.714699
818.781213	2419.237128
819.099843	2420.091603
819.418429	2422.627304
819.736970	2426.357758
820.055466	2428.674168
820.373919	2434.816814
820.692327	2442.532300
821.010691	2453.574947
821.329011	2481.442446
821.647286	2529.872811
821.965517	2578.756880
822.283704	2609.560850
822.601847	2616.046295
822.919945	2597.227667
823.237999	2573.539285
823.556010	2550.541542
823.873976	2523.536080
824.191897	2502.726197
824.509775	2487.985863
824.827609	2476.338278
825.145398	2468.128758
825.463144	2463.861422
825.780845	2465.277986
826.098502	2471.236630
826.416116	2481.853300
826.733685	2495.166987
827.051210	2495.570279
827.368692	2489.094917
827.686129	2478.616879
828.003522	2466.291258
828.320872	2452.375153
828.638177	2445.239399
828.955439	2438.305292
829.272656	2430.751123
829.589830	2426.267017
829.906960	2427.502100
830.224046	2422.549166
830.541088	2418.513722
830.858086	2419.355595
831.175041	2417.056829
831.491952	2419.229566
831.808819	2420.603281
832.125642	2417.752508
832.442421	2420.658733
832.759157	2428.318767
833.075849	2438.610282
833.392497	2447.974225
833.709101	2456.428240
834.025662	2453.131326
834.342179	2450.240224
834.658653	2439.489963
834.975083	2432.956628
835.291469	2438.380910
835.607811	2425.954465
835.924110	2423.466656
836.240366	2422.317273
836.556578	2417.407189
836.872746	2416.502302
837.188871	2416.945923
837.504952	2412.721437
837.820990	2413.704462
838.136984	2413.076838
838.452935	2408.587690
838.768842	2411.766138
839.084706	2412.902918
839.400526	2415.879719
839.716303	2422.327355
840.032037	2426.062850
840.347727	2426.415731
840.663373	2422.808785
840.978977	2417.664288
841.294537	2416.676222
841.610054	2412.963412
841.925527	2411.672877
842.240957	2411.221693
842.556344	2410.977197
842.871687	2408.146589
843.186987	2406.654408
843.502244	2408.464182
843.817458	2405.454613
844.132629	2405.666342
844.447756	2406.271280
844.762840	2400.693243
845.077881	2401.008316
845.392879	2403.617113
845.707833	2400.589900
846.022745	2400.166443
846.337613	2404.385889
846.652438	2402.871022
846.967221	2402.621485
847.281960	2405.794891
847.596656	2402.994530
847.911309	2404.453944
848.225919	2403.768347
848.540485	2403.032339
848.855009	2402.137534
849.169490	2405.341187
849.483928	2403.385220
849.798323	2402.530744
850.112675	2403.148285
850.426984	2403.780950
850.741251	2405.865467
851.055474	2404.464027
851.369654	2404.055693
851.683792	2402.409756
851.997887	2404.721125
852.311938	2404.446382
852.625947	2403.574263
852.939914	2403.022257
853.253837	2405.535272
853.567718	2402.455127
853.881555	2401.464540
854.195350	2401.215003
854.509103	2403.906979
854.822812	2404.068296
855.136479	2402.583676
855.450103	2407.521486
855.763685	2401.386402
856.077224	2402.931516
856.390720	2407.130797
856.704173	2401.545198
857.017584	2403.632236
857.330953	2405.510066
857.644278	2402.808008
857.957561	2410.039543
858.270802	2404.093502
858.584000	2402.142575
858.897155	2403.975035
859.210268	2405.343708
859.523339	2402.235837
859.836367	2400.501680
860.149352	2406.661970
860.462295	2402.871022
860.775195	2402.276166
861.088054	2401.635939
861.400869	2400.622667
861.713642	2398.674261
862.026373	2403.982596
862.339062	2403.475960
862.651708	2401.772050
862.964312	2402.649211
863.276873	2402.243398
863.589392	2402.848337
863.901869	2404.065775
864.214303	2404.547206
864.526696	2406.407391
864.839045	2404.050652
865.151353	2404.791702
865.463619	2404.161557
865.775842	2403.289438
866.088023	2402.629047
866.400162	2404.658111
866.712258	2404.625343
867.024313	2403.352452
867.336325	2402.382030
867.648296	2407.670200
867.960224	2404.111146
868.272110	2403.627195
868.583954	2406.301527
868.895755	2405.726836
869.207515	2405.124418
869.519233	2403.649880
869.830909	2407.430746
870.142542	2405.837741
870.454134	2407.128276
870.765684	2404.065775
871.077191	2402.835734
871.388657	2407.539130
871.700081	2405.290776
872.011463	2408.438976
872.322803	2403.977555
872.634101	2406.132648
872.945357	2404.484191
873.256571	2408.383524
873.567744	2405.810015
873.878874	2408.116342
874.189963	2406.941754
874.501010	2408.572567
874.812015	2406.009140
875.122979	2405.376475
875.433900	2407.652556
875.744780	2408.242371
876.055618	2408.340674
876.366415	2409.474933
876.677169	2407.826476
876.987882	2405.999058
877.298554	2402.538306
877.609183	2408.000396
877.919771	2405.540313
878.230317	2408.791857
878.540822	2410.195818
878.851285	2413.585994
879.161707	2415.209246
879.472087	2420.716707
879.782425	2426.546801
880.092722	2434.564756
880.402977	2449.950358
880.713191	2472.007926
881.023363	2490.183807
881.333494	2504.107473
881.643583	2507.772392
881.953631	2505.193842
882.263637	2498.262256
882.573602	2491.343272
882.883526	2482.848928
883.193408	2475.052783
883.503248	2468.332925
883.813048	2461.996195
884.122806	2453.983281
884.432522	2445.854420
884.742197	2438.517021
885.051831	2434.587441
885.361424	2429.586617
885.670975	2425.687284
885.980485	2423.070925
886.289954	2422.874320
886.599382	2416.754360
886.908768	2414.523649
887.218113	2414.959709
887.527417	2414.359812
887.836680	2414.626993
888.145901	2410.246230
888.455082	2410.939389
888.764221	2409.023750
889.073319	2407.254305
889.382376	2408.340674
889.691392	2408.398647
890.000366	2409.429563
890.309300	2407.823956
890.618193	2409.951323
890.927044	2409.018709
891.235855	2410.049625
891.544625	2407.138359
891.853353	2408.423853
892.162041	2408.920407
892.470687	2412.232445
892.779293	2412.839904
893.087858	2413.137332
893.396381	2411.728329
893.704864	2417.502971
894.013306	2421.109917
894.321707	2433.617019
894.630068	2436.276228
894.938387	2438.078440
895.246665	2434.879828
895.554903	2431.194745
895.863100	2428.664086
896.171256	2427.267686
896.479371	2423.741399
896.787446	2421.314083
897.095480	2416.973650
897.403473	2418.992632
897.711425	2414.120357
898.019336	2415.824267
898.327207	2414.203536
898.635038	2411.319996
898.942827	2410.261353
899.250576	2408.267577
899.558284	2408.980900
899.865952	2409.053997
900.173579	2409.525345
900.481165	2410.125242
900.788711	2408.317989
901.096216	2406.425035
901.403681	2407.750859
901.711105	2405.174829
902.018489	2404.411094
902.325832	2409.747156
902.633135	2405.419325
902.940397	2410.946950
903.247619	2414.619431
903.554800	2425.253745
903.861941	2434.710950
904.169041	2439.258070
904.476101	2442.227310
904.783121	2440.301589
905.090100	2435.744386
905.397039	2433.463264
905.703938	2428.654003
906.010796	2423.113775
906.317614	2420.696542
906.624391	2420.467169
906.931129	2414.009451
907.237826	2414.874009
907.544483	2411.889646
907.851099	2414.117836
908.157675	2407.982752
908.464211	2408.539799
908.770707	2401.467061
909.077163	2403.607030
909.383578	2401.623336
909.689954	2400.186607
909.996289	2399.848850
910.302584	2400.579818
910.608839	2404.791702
910.915054	2402.465209
911.221229	2404.610220
911.527363	2404.675755
911.833458	2403.339849
912.139513	2402.334139
912.445527	2401.698954
912.751502	2405.943605
913.057436	2404.869839
913.363331	2403.682648
913.669186	2408.275139
913.975000	2407.937382
914.280775	2408.438976
914.586510	2413.404513
914.892205	2413.361663
915.197859	2424.464804
915.503475	2429.299271
915.809050	2438.542227
916.114585	2439.222782
916.420081	2443.900973
916.725536	2440.273863
917.030952	2437.710436
917.336328	2437.511311
917.641665	2432.689447
917.946961	2430.730959
918.252218	2431.172060
918.557435	2425.417583
918.862612	2421.767787
919.167750	2423.698549
919.472848	2421.919022
919.777906	2415.660429
920.082925	2412.754204
920.387904	2413.177661
920.692843	2412.350912
920.997743	2406.019223
921.302603	2409.422001
921.607423	2405.734397
921.912204	2404.973183
922.216946	2404.509397
922.521647	2402.573594
922.826310	2402.525703
923.130932	2403.927144
923.435516	2404.960580
923.740059	2404.917730
924.044564	2404.552247
924.349028	2403.201218
924.653454	2396.410783
924.957840	2400.463871
925.262186	2397.882800
925.566493	2400.017729
925.870761	2397.000598
926.174989	2399.518655
926.479178	2399.798439
926.783328	2399.700136
927.087438	2398.127296
927.391509	2401.920764
927.695541	2400.567215
927.999533	2399.483367
928.303486	2398.608726
928.607400	2397.368602
928.911275	2396.415824
929.215110	2398.928840
929.518906	2398.835578
929.822663	2398.780126
930.126381	2396.793911
930.430060	2399.712739
930.733699	2397.144271
931.037299	2398.152502
931.340861	2399.541340
931.644383	2399.180897
931.947866	2400.859602
932.251309	2398.739796
932.554714	2399.190980
932.858080	2397.403891
933.161407	2396.758623
933.464694	2399.732904
933.767943	2397.784498
934.071153	2396.519168
934.374323	2398.202913
934.677455	2397.381205
934.980548	2398.817934
935.283602	2398.654097
935.586617	2398.946484
935.889593	2398.916237
936.192530	2398.898593
936.495428	2396.987995
936.798287	2398.785167
937.101108	2397.482028
937.403890	2400.337842
937.706632	2398.875907
938.009336	2401.197359
938.312002	2402.150137
938.614628	2400.461350
938.917216	2401.172153
939.219765	2402.235837
939.522275	2401.567884
939.824747	2401.605692
940.127179	2397.943294
940.429573	2397.514796
940.731929	2398.785167
941.034246	2395.977244
941.336524	2405.149623
941.638763	2403.375137
941.940964	2400.378171
942.243126	2399.364899
942.545250	2398.326422
942.847335	2402.722308
943.149381	2400.786505
943.451389	2399.972358
943.753359	2402.598800
944.055290	2399.102759
944.357182	2397.910527
944.659036	2399.962276
944.960851	2400.826834
945.262628	2399.374982
945.564367	2398.384395
945.866067	2397.552605
946.167729	2399.783315
946.469352	2399.800959
946.770937	2398.326422
947.072484	2399.795918
947.373992	2399.687533
947.675462	2400.380692
947.976893	2399.430434
948.278286	2400.181566
948.579641	2396.816596
948.880958	2400.327760
949.182236	2397.025804
949.483476	2396.776267
949.784678	2397.668551
950.085841	2399.475805
950.386967	2398.568397
950.688054	2397.386247
950.989103	2401.696433
951.290114	2399.311967
951.591087	2397.850033
951.892021	2400.221896
952.192917	2397.865156
952.493776	2399.818603
952.794596	2402.871022
953.095378	2397.900444
953.396122	2399.374982
953.696828	2400.287431
953.997496	2398.180228
954.298126	2397.711401
954.598718	2399.475805
954.899272	2397.693757
955.199788	2399.886659
955.500266	2399.135527
955.800706	2397.572769
956.101108	2393.202089
956.401472	2396.229302
956.701798	2394.497665
957.002087	2392.841646
957.302337	2396.095711
957.602550	2400.136196
957.902724	2397.887841
958.202861	2398.535630
958.502960	2397.005639
958.803022	2395.122768
959.103045	2396.435989
959.403031	2395.180742
959.702979	2394.653941
960.002889	2399.100239
960.302762	2396.083108
960.602596	2397.076216
960.902393	2396.705691
961.202153	2396.645197
961.501875	2396.365413
961.801559	2394.263252
962.101205	2397.993706
962.400814	2396.841802
962.700385	2394.245608
962.999918	2397.358520
963.299414	2393.494476
963.598873	2399.359858
963.898293	2394.424569
964.197677	2396.688047
964.497022	2392.602192
964.796331	2395.596637
965.095601	2395.112686
965.394835	2395.296688
965.694030	2395.100083
965.993189	2397.335835
966.292309	2395.712583
966.591393	2396.022614
966.890439	2393.096225
967.189447	2396.587224
967.488419	2393.020607
967.787353	2394.918602
968.086249	2394.976575
968.385108	2395.150495
968.683930	2394.459857
968.982714	2395.861298
969.281462	2393.980947
969.580172	2392.955072
969.878844	2395.773077
970.177480	2395.458005
970.476078	2394.996740
970.774639	2393.865001
971.073162	2396.950187
971.371649	2393.118910
971.670098	2392.196379
971.968510	2395.326935
972.266885	2390.699156
972.565223	2395.198386
972.863524	2394.827861
973.161788	2394.986657
973.460014	2396.519168
973.758204	2397.000598
974.056356	2396.461195
974.354471	2398.245763
974.652550	2392.554301
974.950591	2394.474980
975.248595	2394.618653
975.546563	2395.175701
975.844493	2393.827192
976.142386	2396.693088
976.440243	2396.204096
976.738062	2395.339538
977.035845	2395.873900
977.333590	2394.439692
977.631299	2395.672254
977.928971	2395.619322
978.226606	2393.302912
978.524204	2395.107645
978.821765	2395.032028
979.119290	2394.802655
979.416777	2397.265259
979.714228	2395.301729
980.011642	2392.743344
980.309020	2397.184600
980.606360	2395.901627
980.903664	2397.902965
981.200931	2394.709394
981.498162	2397.991185
981.795356	2397.166956
982.092513	2400.728532
982.389633	2400.836916
982.686717	2397.645866
982.983764	2399.639642
983.280775	2397.865156
983.577749	2398.417162
983.874686	2401.701474
984.171587	2398.883469
984.468451	2399.566546
984.765279	2400.473953
985.062070	2398.525547
985.358824	2397.550084
985.655543	2398.875907
985.952224	2399.221227
986.248869	2395.689898
986.545478	2388.213867
986.842050	2395.183262
987.138586	2390.792417
987.435086	2394.691750
987.731549	2387.525750
988.027975	2395.952038
988.324366	2394.754764
988.620719	2395.465567
988.917037	2393.280227
989.213318	2394.946328
989.509563	2396.519168
989.805772	2393.255021
990.101944	2395.727707
990.398080	2394.724517
990.694180	2395.173180
990.990244	2398.389436
991.286271	2393.401214
991.582262	2395.163098
991.878217	2395.284085
992.174136	2396.458674
992.470019	2395.102604
992.765865	2395.591596
993.061676	2394.588406
993.357450	2395.037069
993.653188	2397.277862
993.948890	2395.087480
994.244556	2398.288613
994.540186	2395.452964
994.835780	2395.624363
995.131337	2397.431617
995.426859	2395.455485
995.722345	2395.788201
996.017795	2396.771226
996.313208	2396.166287
996.608586	2398.076885
996.903928	2397.839950
997.199234	2397.897924
997.494504	2396.650238
997.789738	2396.677964
998.084936	2396.499003
998.380099	2394.981616
998.675225	2395.997409
998.970316	2397.124107
999.265371	2395.526061
999.560390	2394.507748
999.855373	2395.309291
1000.150320	2398.971689
1000.445232	2393.464229
1000.740108	2394.921122
1001.034948	2393.726369
1001.329752	2395.321894
1001.624521	2396.357851
1001.919254	2389.464073
1002.213951	2391.954403
1002.508613	2389.401059
1002.803239	2392.511451
1003.097829	2392.461039
1003.392384	2393.136554
1003.686903	2392.740823
1003.981386	2393.091183
1004.275834	2393.507079
1004.570246	2393.330638
1004.864623	2391.891389
1005.158964	2395.904147
1005.453270	2393.408776
1005.747540	2393.716287
1006.041775	2392.917264
1006.335974	2394.285937
1006.630138	2390.210164
1006.924266	2393.650752
1007.218359	2393.978427
1007.512416	2393.073539
1007.806438	2392.539177
1008.100425	2394.386760
1008.394376	2393.587737
1008.688292	2392.466080
1008.982172	2391.220915
1009.276017	2393.002963
1009.569827	2393.270144
1009.863602	2394.921122
1010.157341	2393.134033
1010.451045	2394.059085
1010.744714	2390.008518
1011.038347	2392.289640
1011.331945	2393.832233
1011.625508	2394.923643
1011.919036	2395.604199
1012.212528	2392.350134
1012.505986	2393.507079
1012.799408	2392.526574
1013.092795	2391.359547
1013.386147	2393.643190
1013.679464	2394.200237
1013.972745	2390.767212
1014.265992	2391.460370
1014.559204	2393.691081
1014.852380	2392.909702
1015.145521	2394.333828
1015.438628	2392.476163
1015.731699	2391.820813
1016.024736	2394.288457
1016.317737	2394.205278
1016.610703	2393.938097
1016.903635	2391.687222
1017.196531	2388.642365
1017.489393	2393.829713
1017.782219	2389.577499
1018.075011	2393.539846
1018.367768	2393.587737
1018.660490	2391.609084
1018.953177	2391.609084
1019.245829	2391.609084
