Dividing Wavelength (nm)	Counts (n)	Blue Motor Position (mm): 0.000000	Red Motor Position (mm): 10.600000	
326.493990	1979.220014
326.888308	1979.220014
327.282561	1979.220014
327.676750	1956.350820
328.070874	1957.374174
328.464933	1962.785853
328.858929	1972.686679
329.252859	1984.911477
329.646726	1996.687612
330.040528	2014.480365
330.434265	2034.650022
330.827938	2051.888247
331.221547	2070.923644
331.615091	2091.476428
332.008571	2113.536518
332.401986	2133.693571
332.795338	2150.566313
333.188625	2174.516835
333.581847	2192.067612
333.975006	2211.110571
334.368100	2226.745709
334.761129	2244.936713
335.154095	2260.055133
335.546996	2275.934768
335.939833	2289.034206
336.332606	2303.572894
336.725315	2314.832311
337.117960	2321.025369
337.510540	2327.770433
337.903056	2340.151506
338.295508	2344.454131
338.687896	2352.835049
339.080220	2361.082377
339.472480	2364.442306
339.864676	2366.194107
340.256807	2371.144520
340.648875	2372.941692
341.040879	2376.326826
341.432818	2374.572505
341.824694	2375.943699
342.216506	2377.103164
342.608253	2374.559902
342.999937	2373.947402
343.391557	2372.863554
343.783113	2371.182329
344.174605	2371.446989
344.566033	2367.580424
344.957397	2370.645446
345.348697	2362.592203
345.739934	2365.117821
346.131106	2363.091277
346.522215	2361.868797
346.913260	2358.486183
347.304241	2357.888806
347.695159	2355.337982
348.086012	2353.447550
348.476802	2354.949813
348.867528	2350.821108
349.258191	2351.058043
349.648789	2351.945286
350.039324	2350.246417
350.429796	2347.531756
350.820203	2347.690552
351.210548	2347.446056
351.600828	2347.766169
351.991045	2347.297342
352.381198	2344.605366
352.771288	2345.850531
353.161314	2345.018740
353.551276	2346.659636
353.941175	2346.473113
354.331010	2346.422702
354.720782	2348.585357
355.110490	2345.837928
355.500135	2348.313134
355.889717	2347.650223
356.279235	2348.756756
356.668689	2349.170131
357.058080	2348.300532
357.447408	2344.938082
357.836672	2347.640140
358.225873	2349.041581
358.615010	2345.376662
359.004084	2352.577951
359.393095	2350.775738
359.782043	2351.524349
360.170927	2353.707169
360.559748	2354.304546
360.948505	2355.532067
361.337199	2357.470390
361.725830	2353.195492
362.114398	2355.839577
362.502903	2358.894516
362.891344	2358.042561
363.279722	2360.127078
363.668037	2360.621112
364.056289	2361.704960
364.444478	2359.297809
364.832603	2358.206399
365.220665	2361.548684
365.608665	2360.893334
365.996601	2361.894003
366.384474	2363.814683
366.772284	2365.097656
367.160031	2363.449199
367.547715	2365.190917
367.935336	2366.635208
368.322893	2363.461802
368.710388	2365.006915
369.097820	2371.126876
369.485189	2364.941380
369.872495	2370.786598
370.259738	2370.920189
370.646918	2376.702392
371.034035	2372.666949
371.421090	2377.057794
371.808081	2378.842362
372.195010	2385.940307
372.581875	2391.394835
372.968678	2397.383726
373.355418	2402.371948
373.742096	2410.790675
374.128710	2419.101017
374.515262	2431.910589
374.901751	2445.506581
375.288177	2461.509723
375.674540	2482.100316
376.060841	2503.653770
376.447079	2524.604805
376.833254	2547.731098
377.219367	2573.577094
377.605417	2607.814090
377.991404	2635.437093
378.377329	2673.659121
378.763191	2706.454348
379.148991	2753.765577
379.534727	2800.118986
379.920402	2846.127077
380.306013	2889.249107
380.691563	2952.986935
381.077049	3007.471726
381.462474	3061.719583
381.847835	3130.624594
382.233134	3198.261755
382.618371	3259.695777
383.003545	3345.418077
383.388657	3418.630754
383.773706	3510.137779
384.158693	3580.534972
384.543618	3670.365813
384.928480	3751.989655
385.313280	3846.753265
385.698017	3950.618679
386.082692	4065.317532
386.467305	4130.600474
386.851856	4247.993823
387.236344	4398.048809
387.620770	4455.046615
388.005133	4572.011466
388.389435	4707.018607
388.773674	4788.569353
389.157851	4911.253394
389.541965	5036.972209
389.926018	5049.776740
390.310008	5214.839240
390.693936	5314.497811
391.077802	5414.950363
391.461606	5526.879102
391.845348	5612.785404
392.229027	5711.276948
392.612645	5899.705196
392.996200	5982.740562
393.379694	6111.705880
393.763125	6284.982940
394.146494	6333.231824
394.529801	6417.207365
394.913047	6590.552481
395.296230	6535.767741
395.679351	6538.502567
396.062410	6705.417692
396.445408	6559.556946
396.828343	6635.290201
397.211217	6678.520615
397.594028	6522.711153
397.976778	6614.432427
398.359466	6672.405696
398.742092	6582.968065
399.124656	6615.934690
399.507158	6669.121384
399.889598	6610.462518
400.271977	6671.712537
400.654294	6608.919925
401.036549	6647.867879
401.418742	6575.555048
401.800874	6674.427198
402.182944	6624.386185
402.564952	6745.336068
402.946898	6529.461258
403.328783	6463.021371
403.710606	6464.400126
404.092367	6494.856257
404.474067	6572.396765
404.855705	6346.611046
405.237282	6200.425146
405.618797	6296.973325
406.000250	6296.829652
406.381642	6334.318192
406.762972	6187.033321
407.144240	5972.557431
407.525447	5952.518844
407.906593	5806.080887
408.287677	5779.662720
408.668700	5711.221495
409.049661	5575.334672
409.430560	5505.575185
409.811399	5377.497110
410.192176	5304.738137
410.572891	5205.192992
410.953545	5218.607503
411.334138	4952.376606
411.714669	4990.129808
412.095139	4698.090724
412.475547	4707.986509
412.855894	4566.511567
413.236180	4528.133263
413.616405	4361.709651
413.996568	4306.607319
414.376670	4202.452040
414.756711	4085.109102
415.136691	4034.463149
415.516609	3968.471925
415.896466	3889.590470
416.276262	3836.159281
416.655997	3808.238850
417.035670	3725.269019
417.415283	3718.473544
417.794834	3642.475629
418.174324	3538.627860
418.553753	3452.698872
418.933121	3418.965991
419.312428	3333.405008
419.691674	3262.125613
420.070859	3228.241497
420.449983	3149.574291
420.829045	3124.381125
421.208047	3054.828325
421.586988	3024.737678
421.965867	2989.258037
422.344686	2943.370934
422.723444	2918.840680
423.102141	2831.900941
423.480777	2834.295489
423.859352	2785.766821
424.237866	2780.723147
424.616319	2741.429873
424.994712	2729.870507
425.373044	2700.530992
425.751314	2688.064218
426.129524	2648.682725
426.507673	2642.973618
426.885762	2620.694238
427.263789	2605.711929
427.641756	2588.448498
428.019662	2577.065572
428.397508	2563.756926
428.775292	2554.151008
429.153016	2541.890922
429.530679	2534.543440
429.908282	2522.837881
430.285824	2514.335975
430.663305	2513.572240
431.040726	2502.048162
431.418086	2499.235198
431.795385	2496.323932
432.172624	2492.832933
432.549802	2486.544093
432.926920	2483.219452
433.303977	2479.552013
433.680974	2477.512866
434.057910	2476.860037
434.434786	2474.294090
434.811601	2470.172946
435.188355	2470.422483
435.565050	2469.222689
435.941683	2464.630198
436.318257	2463.059878
436.694770	2460.120886
437.071222	2462.172635
437.447614	2456.970164
437.823946	2455.601491
438.200218	2455.115020
438.576429	2454.835236
438.952580	2453.045626
439.328670	2451.382045
439.704700	2454.333641
440.080670	2450.114195
440.456580	2452.662498
440.832429	2452.710389
441.208218	2445.163782
441.583947	2446.605552
441.959616	2445.113371
442.335224	2444.745366
442.710773	2447.127312
443.086261	2446.164451
443.461689	2443.462393
443.837057	2446.421550
444.212365	2446.635799
444.587612	2447.845676
444.962800	2446.509770
445.337927	2447.023968
445.712995	2440.982145
446.088002	2449.020265
446.462949	2445.055397
446.837837	2447.008844
447.212664	2448.690069
447.587431	2453.552262
447.962139	2460.009980
448.336786	2468.428707
448.711374	2465.986268
449.085901	2452.128136
449.460369	2453.474124
449.834776	2454.197530
450.209124	2457.985957
450.583412	2460.602316
450.957640	2457.045782
451.331808	2457.318004
451.705917	2448.788372
452.079965	2449.511777
452.453954	2450.094031
452.827883	2452.675101
453.201752	2447.951540
453.575562	2447.792744
453.949311	2455.614094
454.323001	2454.351285
454.696632	2453.673250
455.070202	2456.995370
455.443713	2458.588375
455.817164	2458.517799
456.190556	2458.404373
456.563888	2455.115020
456.937160	2451.198043
457.310373	2453.668209
457.683526	2456.254321
458.056619	2455.714917
458.429653	2457.960751
458.802628	2458.313632
459.175542	2455.092335
459.548398	2461.083746
459.921194	2464.461319
460.293930	2466.402163
460.666607	2467.110445
461.039224	2472.988431
461.411782	2474.473051
461.784280	2470.954325
462.156719	2472.691003
462.529099	2470.203193
462.901419	2466.734879
463.273680	2462.195320
463.645882	2464.300002
464.018024	2460.521657
464.390106	2467.365024
464.762130	2472.529686
465.134094	2481.951602
465.505999	2491.174393
465.877845	2504.697288
466.249631	2505.655108
466.621358	2504.271311
466.993026	2498.766371
467.364634	2494.849394
467.736184	2487.701038
468.107674	2485.114926
468.479105	2483.985708
468.850477	2482.024699
469.221790	2477.437249
469.593043	2472.010447
469.964238	2473.605972
470.335373	2472.796867
470.706449	2472.932978
471.077467	2480.469503
471.448425	2489.593992
471.819324	2497.458192
472.190164	2492.868221
472.560945	2483.274905
472.931667	2476.116467
473.302330	2474.364666
473.672934	2474.662094
474.043479	2477.898515
474.413965	2471.128245
474.784393	2465.935857
475.154761	2469.880559
475.525070	2469.401650
475.895321	2472.756538
476.265513	2468.441310
476.635645	2473.522793
477.005719	2476.003041
477.375734	2475.493884
477.745691	2477.396920
478.115588	2482.148207
478.485427	2483.587457
478.855207	2492.936277
479.224928	2498.121103
479.594591	2499.555312
479.964194	2498.103459
480.333739	2497.899293
480.703226	2498.811741
481.072653	2503.111846
481.442022	2501.055055
481.811333	2503.565549
482.180584	2500.586228
482.549777	2495.855105
482.918912	2497.594303
483.287988	2497.758140
483.657005	2492.389311
484.025964	2492.144815
484.394864	2491.113899
484.763706	2492.762357
485.132489	2486.886892
485.501213	2489.750267
485.869879	2485.770276
486.238487	2487.350678
486.607036	2486.637355
486.975527	2489.152891
487.343959	2484.303301
487.712333	2490.524084
488.080648	2483.111068
488.448905	2488.111892
488.817104	2487.998466
489.185244	2489.394866
489.553326	2493.521050
489.921350	2501.511279
490.289315	2507.777433
490.657222	2508.405057
491.025070	2503.918430
491.392861	2506.759120
491.760593	2503.162257
492.128267	2498.239570
492.495883	2493.833602
492.863440	2496.066833
493.230939	2491.398725
493.598380	2489.808241
493.965763	2482.390183
494.333088	2484.885554
494.700354	2481.974287
495.067563	2486.831439
495.434713	2481.676859
495.801805	2485.006542
496.168839	2482.710296
496.535815	2484.888074
496.902733	2479.980511
497.269593	2486.294556
497.636395	2484.744402
498.003139	2483.572333
498.369825	2484.121819
498.736453	2485.508136
499.103023	2483.758856
499.469535	2484.401603
499.835989	2486.065184
500.202385	2486.425626
500.568723	2490.309835
500.935003	2487.852273
501.301226	2485.107365
501.667390	2491.965854
502.033497	2493.939466
502.399546	2494.428458
502.765537	2493.253869
503.131470	2495.471977
503.497345	2496.023983
503.863163	2494.985506
504.228923	2498.715959
504.594625	2501.602020
504.960269	2501.324757
505.325856	2504.853564
505.691385	2503.580673
506.056856	2503.666372
506.422270	2512.440501
506.787625	2509.962774
507.152924	2512.884122
507.518164	2516.445698
507.883347	2514.933351
508.248472	2519.362005
508.613540	2520.143384
508.978550	2525.292923
509.343503	2524.622449
509.708398	2528.988088
510.073236	2534.311547
510.438016	2535.050076
510.802738	2532.688295
511.167403	2537.429500
511.532010	2542.049718
511.896561	2544.514842
512.261053	2551.179247
512.625488	2545.628937
512.989866	2548.250337
513.354186	2551.038095
513.718449	2549.082128
514.082655	2555.292829
514.446803	2558.350289
514.810894	2561.495969
515.174927	2563.570404
515.538904	2560.560835
515.902822	2566.501835
516.266684	2563.754406
516.630488	2565.717935
516.994235	2564.939077
517.357925	2568.999726
517.721558	2573.143555
518.085133	2572.520972
518.448651	2570.930488
518.812112	2570.988462
519.175516	2570.617937
519.538863	2572.074830
519.902152	2568.472926
520.265385	2571.253122
520.628560	2570.776733
520.991678	2568.997206
521.354739	2570.297823
521.717743	2568.946794
522.080690	2567.167267
522.443580	2568.127607
522.806413	2565.102914
523.169189	2565.785991
523.531908	2561.730382
523.894569	2562.549570
524.257174	2558.156204
524.619722	2559.393808
524.982213	2557.024465
525.344647	2556.462377
525.707025	2549.987015
526.069345	2549.508105
526.431608	2547.274874
526.793815	2544.882846
527.155964	2541.348997
527.518057	2537.515200
527.880093	2535.781043
528.242072	2537.202648
528.603995	2531.599406
528.965860	2528.007584
529.327669	2524.435926
529.689421	2523.788138
530.051117	2522.537932
530.412755	2517.448887
530.774337	2514.686335
531.135862	2514.129287
531.497331	2506.617968
531.858743	2502.179232
532.220098	2504.115035
532.581396	2498.368120
532.942638	2498.289982
533.303824	2497.987513
533.664953	2494.720845
534.026025	2491.544918
534.387040	2490.161121
534.747999	2488.154742
535.108902	2487.665750
535.469748	2483.499237
535.830537	2481.036633
536.191270	2480.295583
536.551947	2478.919348
536.912567	2477.162506
537.273131	2475.168730
537.633638	2472.713688
537.994089	2473.119501
538.354483	2468.950467
538.714821	2470.606486
539.075103	2467.715384
539.435328	2465.651031
539.795497	2467.846454
540.155609	2465.177163
540.515665	2464.496607
540.875665	2465.625826
541.235609	2461.189610
541.595496	2462.495269
541.955328	2462.396967
542.315102	2460.478807
542.674821	2461.083746
543.034483	2458.699280
543.394090	2457.806996
543.753640	2457.849846
544.113134	2456.246759
544.472571	2456.082921
544.831953	2458.185083
545.191278	2456.292129
545.550548	2454.663837
545.909761	2452.118054
546.268918	2454.878086
546.628019	2455.364557
546.987064	2452.486058
547.346053	2454.091666
547.704986	2453.204422
548.063863	2450.940944
548.422684	2449.405913
548.781449	2452.428085
549.140158	2450.278033
549.498811	2449.663012
549.857408	2449.126129
550.215949	2448.070007
550.574434	2449.053032
550.932864	2445.677980
551.291237	2446.512291
551.649555	2451.334154
552.007817	2451.893723
552.366022	2451.215687
552.724173	2449.342899
553.082267	2449.557148
553.440305	2449.448763
553.798288	2450.129319
554.156215	2451.137549
554.514086	2451.417333
554.871902	2448.750563
555.229661	2449.355502
555.587365	2447.170161
555.945014	2446.247630
556.302606	2446.938268
556.660143	2449.189143
557.017625	2447.502878
557.375050	2447.258382
557.732421	2447.525563
558.089735	2447.323917
558.446994	2448.508588
558.804197	2450.388938
559.161345	2451.140070
559.518437	2446.232507
559.875474	2447.460028
560.232455	2448.311983
560.589381	2448.211160
560.946251	2449.736109
561.303065	2446.519853
561.659825	2447.006324
562.016528	2446.383741
562.373177	2448.495985
562.729770	2445.884667
563.086307	2445.173864
563.442789	2447.800306
563.799216	2450.915739
564.155587	2445.889708
564.511904	2448.627055
564.868164	2444.097578
565.224370	2448.364915
565.580520	2445.887188
565.936615	2448.364915
566.292654	2446.114040
566.648638	2445.221755
567.004567	2447.586057
567.360441	2444.573967
567.716260	2448.735440
568.072023	2445.433484
568.427732	2446.282918
568.783385	2445.819132
569.138982	2442.471806
569.494525	2444.606735
569.850013	2441.884512
570.205445	2447.177723
570.560823	2441.710592
570.916145	2446.008175
571.271412	2442.615479
571.626625	2443.704368
571.981782	2447.016406
572.336884	2444.016920
572.691931	2445.370469
573.046923	2444.999945
573.401860	2444.458021
573.756743	2446.106478
574.111570	2444.422733
574.466342	2442.726384
574.821059	2444.664708
575.175722	2443.550613
575.530330	2442.842331
575.884882	2442.686055
576.239380	2444.052208
576.593823	2443.283432
576.948211	2444.296704
577.302544	2442.658329
577.656823	2442.315530
578.011047	2442.073555
578.365216	2442.083637
578.719330	2438.486774
579.073389	2442.212187
579.427394	2443.560695
579.781344	2441.491302
580.135239	2440.720005
580.489080	2439.366455
580.842866	2441.314861
581.196597	2442.532300
581.550273	2441.188832
581.903895	2439.996599
582.257463	2441.120777
582.610975	2440.634305
582.964434	2440.578853
583.317837	2437.473502
583.671186	2440.838472
584.024481	2441.640016
584.377721	2439.200097
584.730906	2441.024995
585.084037	2441.524069
585.437113	2439.495005
585.790135	2438.789243
586.143103	2441.748400
586.496016	2440.404933
586.848874	2432.737338
587.201679	2437.861671
587.554428	2434.353028
587.907124	2440.150355
588.259765	2432.704570
588.612352	2439.963832
588.964884	2439.356373
589.317362	2437.586928
589.669786	2438.529624
590.022155	2439.409305
590.374470	2436.959304
590.726731	2439.991558
591.078937	2437.929726
591.431090	2437.788574
591.783188	2435.711619
592.135232	2438.640529
592.487222	2436.374530
592.839157	2437.211362
593.191038	2439.976435
593.542866	2434.925199
593.894639	2436.840837
594.246358	2436.336722
594.598022	2435.983841
594.949633	2433.838830
595.301190	2434.748758
595.652692	2437.430652
596.004141	2433.143151
596.355535	2436.369489
596.706876	2434.607606
597.058162	2436.089705
597.409395	2432.717173
597.760573	2435.530137
598.111698	2434.244643
598.462768	2433.001998
598.813785	2432.540733
599.164748	2433.392688
599.515657	2434.877308
599.866511	2431.807245
600.217312	2431.391350
600.568060	2433.312029
600.918753	2433.990065
601.269392	2434.879828
601.619978	2432.616350
601.970510	2436.077102
602.320988	2433.738007
602.671412	2431.935794
603.021783	2432.286155
603.372100	2435.890580
603.722363	2433.178439
604.072572	2432.651638
604.422728	2434.443768
604.772830	2431.759354
605.122878	2428.311205
605.472872	2429.619384
605.822813	2430.249528
606.172701	2431.018304
606.522534	2434.156423
606.872314	2438.370827
607.222041	2432.301278
607.571714	2433.906886
607.921333	2433.193562
608.270899	2433.397729
608.620411	2434.453851
608.969870	2430.340269
609.319276	2433.858995
609.668627	2433.637184
610.017926	2434.748758
610.367171	2430.637697
610.716362	2432.447472
611.065500	2433.813624
611.414585	2433.226330
611.763616	2430.680547
612.112594	2432.472677
612.461518	2433.997626
612.810389	2433.238933
613.159207	2433.591813
613.507971	2433.932091
613.856682	2433.576690
614.205340	2431.479570
614.553945	2434.605085
614.902496	2432.923861
615.250994	2431.759354
615.599439	2434.564756
615.947830	2437.526434
616.296169	2430.690629
616.644454	2433.314550
616.992686	2435.015939
617.340864	2435.951073
617.688990	2432.737338
618.037063	2432.452513
618.385082	2432.502924
618.733048	2435.565425
619.080961	2434.113573
619.428821	2435.227668
619.776628	2433.133068
620.124382	2432.825558
620.472083	2432.026535
620.819731	2434.156423
621.167326	2432.684406
621.514868	2434.963007
621.862357	2434.504262
622.209793	2433.443099
622.557176	2431.840012
622.904506	2432.233223
623.251783	2425.833478
623.599007	2430.804055
623.946179	2424.744588
624.293297	2430.315063
624.640363	2430.138623
624.987376	2432.414704
625.334336	2430.216761
625.681243	2430.846905
626.028097	2428.832964
626.374899	2429.891607
626.721647	2430.831782
627.068343	2426.365319
627.414987	2430.191555
627.761577	2428.895979
628.108115	2428.172573
628.454600	2427.663417
628.801032	2428.626277
629.147412	2428.966555
629.493739	2428.651483
629.840014	2427.509661
630.186236	2427.383633
630.532405	2430.705753
630.878521	2429.284147
631.224585	2428.190217
631.570597	2425.830957
631.916556	2428.666606
632.262462	2428.207861
632.608316	2425.830957
632.954117	2428.422110
633.299866	2428.190217
633.645562	2428.719538
633.991206	2427.998653
634.336797	2428.792635
634.682336	2426.919846
635.027823	2424.132088
635.373257	2427.391194
635.718639	2424.111924
636.063968	2427.640731
636.409245	2423.764084
636.754470	2428.346493
637.099642	2424.734506
637.444762	2427.494538
637.789829	2425.762902
638.134845	2423.658220
638.479808	2422.430699
638.824719	2423.736358
639.169577	2421.649320
639.514383	2423.522109
639.859137	2426.481266
640.203839	2424.351378
640.548489	2423.123858
640.893086	2423.144022
641.237632	2420.706624
641.582125	2420.570513
641.926566	2418.117992
642.270955	2423.055802
642.615292	2422.218970
642.959576	2425.551173
643.303809	2423.166707
643.647990	2424.497572
643.992118	2421.621594
644.336195	2423.514547
644.680219	2421.046902
645.024192	2422.697880
645.368112	2422.362643
645.711981	2425.538570
646.055797	2425.009249
646.399562	2425.677202
646.743274	2421.954310
647.086935	2424.328693
647.430544	2424.535381
647.774101	2423.287695
648.117606	2424.452202
648.461059	2425.899013
648.804460	2425.576379
649.147810	2423.854825
649.491108	2421.921542
649.834354	2422.329876
650.177548	2423.650658
650.520690	2425.967068
650.863781	2422.395411
651.206820	2423.822057
651.549807	2420.406676
651.892742	2421.094793
652.235626	2422.130750
652.578458	2423.698549
652.921238	2422.040009
653.263967	2423.877510
653.606644	2420.310894
653.949269	2421.752664
654.291843	2421.724937
654.634365	2421.790472
654.976836	2420.315935
655.319255	2419.872313
655.661622	2421.288878
656.003938	2421.762746
656.346203	2418.060018
656.688416	2419.358116
657.030577	2420.469690
657.372687	2422.259300
657.714746	2423.118816
658.056753	2418.622107
658.398708	2415.131108
658.740612	2419.048085
659.082465	2417.465162
659.424266	2419.617735
659.766016	2415.788979
660.107715	2418.231418
660.449362	2417.533218
660.790958	2420.663774
661.132503	2418.947262
661.473996	2417.389545
661.815438	2416.789648
662.156829	2420.134453
662.498168	2418.977508
662.839456	2417.044226
663.180693	2420.084042
663.521879	2423.595205
663.863013	2418.894329
664.204097	2419.763928
664.545129	2421.440112
664.886110	2422.329876
665.227040	2420.383990
665.567918	2419.065729
665.908746	2419.592529
666.249522	2420.825091
666.590248	2417.790317
666.930922	2421.311563
667.271545	2420.320976
667.612118	2418.498599
667.952639	2420.900709
668.293109	2420.197468
668.633528	2416.784607
668.973896	2421.329207
669.314213	2419.595050
669.654480	2419.705955
669.994695	2419.053126
670.334859	2421.258631
670.674973	2420.646130
671.015035	2421.790472
671.355047	2418.523805
671.695008	2419.458939
672.034918	2419.408527
672.374777	2420.804927
672.714585	2417.127405
673.054342	2421.750143
673.394049	2421.351892
673.733705	2421.924063
674.073310	2420.298291
674.412864	2421.588826
674.752368	2417.928948
675.091820	2420.280647
675.431223	2421.954310
675.770574	2419.116140
676.109875	2414.163207
676.449125	2415.378125
676.788324	2414.644637
677.127473	2415.678073
677.466571	2414.523649
677.805619	2419.128743
678.144616	2418.238979
678.483562	2419.073290
678.822458	2418.102868
679.161303	2419.504309
679.500098	2418.007086
679.838842	2416.943403
680.177535	2415.713361
680.516179	2416.283012
680.854771	2414.437949
681.193314	2416.343506
681.531805	2417.076993
681.870247	2420.066398
682.208638	2423.612849
682.546978	2420.210071
682.885268	2419.942889
683.223508	2417.165214
683.561697	2421.440112
683.899836	2417.739905
684.237925	2419.390883
684.575963	2418.334761
684.913951	2416.504823
685.251889	2419.136305
685.589776	2416.174627
685.927614	2417.694535
686.265401	2419.322827
686.603137	2420.983888
686.940824	2419.196799
687.278460	2420.751995
687.616046	2421.104875
687.953582	2419.965575
688.291068	2418.972467
688.628504	2420.661254
688.965889	2417.835687
689.303224	2420.300811
689.640510	2417.979360
689.977745	2419.857190
690.314930	2421.304001
690.652065	2419.789134
690.989150	2417.807961
691.326185	2418.493558
691.663170	2418.420461
692.000105	2415.851993
692.336990	2415.191602
692.673825	2417.860893
693.010610	2415.627662
693.347345	2413.049112
693.684030	2412.600449
694.020665	2411.440983
694.357251	2409.726991
694.693786	2413.172620
695.030272	2414.057342
695.366707	2412.098854
695.703093	2413.417116
696.039429	2414.480799
696.375716	2413.258319
696.711952	2413.480130
697.048139	2415.363001
697.384276	2416.194792
697.720363	2414.067425
698.056400	2414.798392
698.392388	2413.722106
698.728326	2414.473237
699.064214	2413.228072
699.400053	2411.955181
699.735842	2409.691703
700.071581	2412.897877
700.407270	2413.918711
700.742910	2413.654050
701.078501	2409.996693
701.414042	2412.421488
701.749533	2410.755387
702.084974	2408.877557
702.420366	2409.122053
702.755709	2413.631365
703.091002	2410.289080
703.426246	2412.822260
703.761440	2410.226065
704.096584	2410.647002
704.431679	2410.901580
704.766725	2412.194636
705.101721	2414.115316
705.436668	2410.100037
705.771565	2411.186405
706.106413	2409.391754
706.441212	2412.038360
706.775961	2413.066756
707.110661	2411.292269
707.445311	2411.246899
707.779913	2410.344533
708.114465	2411.531724
708.448967	2411.730850
708.783421	2412.650860
709.117825	2411.118350
709.452180	2412.691190
709.786485	2411.937537
710.120742	2415.975501
710.454949	2411.763617
710.789107	2412.902918
711.123216	2409.386713
711.457275	2410.800757
711.791286	2412.388720
712.125247	2412.184554
712.459159	2414.193453
712.793023	2414.153124
713.126837	2414.077507
713.460602	2416.285532
713.794318	2411.937537
714.127985	2415.005079
714.461602	2412.676066
714.795171	2415.337795
715.128691	2411.496436
715.462162	2414.553896
715.795584	2411.158679
716.128957	2410.586508
716.462281	2410.831004
716.795556	2411.882084
717.128782	2410.989800
717.461960	2409.971487
717.795088	2410.624317
718.128167	2411.594739
718.461198	2412.499626
718.794180	2411.556930
719.127113	2407.912176
719.459997	2409.812691
719.792833	2407.902093
720.125619	2409.237999
720.458357	2408.948133
720.791046	2409.520304
721.123686	2411.897208
721.456278	2408.643143
721.788821	2406.858575
722.121315	2409.638771
722.453761	2407.322361
722.786158	2410.319327
723.118506	2409.127094
723.450805	2407.460992
723.783056	2408.575088
724.115259	2410.188257
724.447412	2407.876888
724.779518	2407.990314
725.111574	2409.396796
725.443582	2407.836558
725.775542	2407.803791
726.107453	2409.006106
726.439315	2408.101219
726.771129	2412.403844
727.102895	2410.210942
727.434612	2412.257650
727.766281	2409.180026
728.097901	2405.885632
728.429473	2405.938564
728.760996	2409.210273
729.092471	2405.774727
729.423897	2408.532238
729.755276	2408.834707
730.086606	2411.100706
730.417887	2408.257495
730.749120	2412.431570
731.080305	2410.447876
731.411442	2410.480644
731.742530	2411.125911
732.073570	2410.901580
732.404562	2411.627506
732.735506	2410.967115
733.066401	2414.500964
733.397249	2410.369738
733.728048	2411.141035
734.058798	2408.514594
734.389501	2407.075344
734.720156	2411.115829
735.050762	2408.625499
735.381320	2411.254461
735.711831	2407.420663
736.042293	2407.110632
736.372707	2411.375448
736.703073	2407.365211
737.033391	2409.094326
737.363661	2407.365211
737.693883	2407.808832
738.024056	2406.810684
738.354182	2408.181878
738.684260	2407.095509
739.014290	2407.987793
739.344272	2410.100037
739.674207	2407.864285
740.004093	2409.542989
740.333931	2410.347053
740.663722	2409.064079
740.993464	2406.780437
741.323159	2410.228586
741.652806	2409.048956
741.982405	2407.675242
742.311956	2407.236661
742.641460	2408.764131
742.970915	2406.304048
743.300323	2407.924779
743.629683	2410.175654
743.958996	2406.142731
744.288260	2404.980745
744.617477	2406.966959
744.946647	2403.481002
745.275768	2404.358162
745.604842	2403.682648
745.933869	2402.908831
746.262847	2403.327246
746.591778	2406.815725
746.920662	2404.305230
747.249498	2404.431259
747.578286	2405.920920
747.907027	2407.342525
748.235720	2406.102402
748.564365	2407.652556
748.892963	2403.682648
749.221514	2407.466034
749.550017	2407.087947
749.878473	2407.425704
750.206881	2404.615261
750.535242	2409.633730
750.863555	2406.919068
751.191821	2407.418143
751.520039	2406.263718
751.848210	2404.814387
752.176334	2405.562998
752.504411	2409.885787
752.832440	2406.125087
753.160421	2408.847310
753.488356	2406.785478
753.816243	2407.118194
754.144082	2408.012999
754.471875	2405.729356
754.799620	2406.281362
755.127318	2406.518297
755.454969	2404.557288
755.782572	2406.977042
756.110129	2407.403019
756.437638	2406.946795
756.765100	2406.752710
757.092515	2405.207597
757.419882	2407.087947
757.747203	2405.749521
758.074477	2405.812535
758.401703	2404.625343
758.728882	2406.276321
759.056014	2406.649367
759.383099	2406.994686
759.710138	2409.069121
760.037129	2407.781106
760.364073	2406.936712
760.690970	2405.104253
761.017820	2406.984603
761.344623	2405.968811
761.671379	2408.731363
761.998088	2403.601989
762.324751	2406.170457
762.651366	2408.943092
762.977935	2416.134298
763.304456	2412.925603
763.630931	2415.141190
763.957359	2415.824267
764.283740	2415.980543
764.610074	2415.075655
764.936362	2410.735222
765.262602	2409.031312
765.588796	2409.432084
765.914943	2405.807494
766.241044	2407.271949
766.567097	2406.046949
766.893104	2407.634912
767.219064	2404.300189
767.544978	2406.200704
767.870845	2405.247926
768.196665	2404.862278
768.522438	2402.941598
768.848165	2404.809346
769.173846	2404.433780
769.499479	2406.309089
769.825066	2401.620816
770.150607	2403.178532
770.476101	2400.799108
770.801548	2402.868501
771.126949	2404.748852
771.452303	2403.274314
771.777611	2401.958573
772.102872	2402.858419
772.428087	2403.302041
772.753256	2401.603172
773.078378	2401.835065
773.403453	2401.000754
773.728482	2400.504200
774.053465	2405.852864
774.378401	2402.087123
774.703291	2402.192987
775.028135	2399.445558
775.352932	2402.525703
775.677683	2401.315826
776.002388	2400.844478
776.327046	2399.937070
776.651658	2401.010836
776.976224	2401.467061
777.300743	2400.708367
777.625216	2401.399005
777.949643	2400.352966
778.274024	2400.201731
778.598359	2398.913716
778.922647	2397.161915
779.246889	2399.710218
779.571086	2396.108314
779.895236	2400.050496
780.219339	2400.441186
780.543397	2403.715415
780.867409	2399.115362
781.191374	2401.363717
781.515294	2400.761299
781.839167	2402.734911
782.162995	2399.483367
782.486776	2399.811042
782.810511	2400.778943
783.134201	2399.450599
783.457844	2398.775084
783.781441	2401.008316
784.104993	2400.937739
784.428498	2398.898593
784.751958	2400.925137
785.075372	2399.664848
785.398739	2399.758109
785.722061	2398.938922
786.045337	2401.464540
786.368568	2400.458830
786.691752	2398.996895
787.014891	2402.830693
787.337983	2401.610733
787.661030	2404.242216
787.984031	2402.162740
788.306987	2405.925961
788.629897	2402.316495
788.952760	2402.886145
789.275579	2403.516290
789.598351	2405.565519
789.921078	2402.679458
790.243759	2403.286917
790.566395	2400.065620
790.888984	2401.981258
791.211529	2401.731721
791.534027	2400.584859
791.856480	2399.193500
792.178888	2400.998233
792.501249	2403.785991
792.823566	2398.530588
793.145836	2400.582338
793.468062	2400.254663
793.790241	2400.564694
794.112375	2401.162071
794.434464	2402.475291
794.756507	2399.843809
795.078505	2401.078892
795.400457	2400.748696
795.722364	2397.799621
796.044226	2397.797101
796.366042	2398.586041
796.687812	2398.472615
797.009538	2402.482853
797.331218	2401.835065
797.652852	2402.200548
797.974442	2401.608213
798.295986	2401.492266
798.617484	2400.168963
798.938938	2398.097049
799.260346	2398.220557
799.581709	2399.579148
799.903026	2400.448747
800.224299	2401.451937
800.545526	2397.459343
800.866708	2397.691236
801.187845	2402.356824
801.508936	2397.676113
801.829983	2398.207955
802.150984	2401.154509
802.471940	2400.252142
802.792851	2399.269117
803.113717	2400.002605
803.434538	2401.091495
803.755314	2400.786505
804.076045	2400.110990
804.396731	2399.616957
804.717372	2399.455640
805.037967	2397.605537
805.358518	2397.371123
805.679024	2398.228119
805.999485	2402.041752
806.319901	2402.014026
806.640272	2401.525034
806.960598	2399.364899
807.280879	2399.896741
807.601115	2399.803480
807.921306	2401.514952
808.241453	2400.373130
808.561554	2401.509910
808.881611	2401.169632
809.201623	2401.209962
809.521590	2399.856412
809.841513	2396.168808
810.161390	2401.477143
810.481223	2396.047820
810.801011	2398.470095
811.120755	2400.952863
811.440453	2399.400188
811.760107	2400.315157
812.079716	2396.196534
812.399281	2397.424055
812.718801	2397.308109
813.038276	2394.023797
813.357707	2397.784498
813.677093	2399.216185
813.996434	2398.631412
814.315731	2401.217523
814.634983	2399.455640
814.954191	2399.995044
815.273354	2399.001936
815.592473	2400.257184
815.911547	2398.865825
816.230577	2397.653428
816.549562	2400.617626
816.868502	2398.792728
817.187399	2400.607544
817.506250	2397.610578
817.825058	2400.811711
818.143821	2403.279355
818.462539	2402.825652
818.781213	2400.819272
819.099843	2405.494943
819.418429	2403.228944
819.736970	2405.363873
820.055466	2404.378327
820.373919	2408.610376
820.692327	2409.961405
821.010691	2416.633372
821.329011	2424.608477
821.647286	2447.538166
821.965517	2462.228088
822.283704	2472.910293
822.601847	2474.924234
822.919945	2471.697895
823.237999	2457.822119
823.556010	2450.270471
823.873976	2440.904007
824.191897	2434.917637
824.509775	2430.060485
824.827609	2421.682087
825.145398	2419.864752
825.463144	2419.408527
825.780845	2415.325193
826.098502	2423.028076
826.416116	2425.657037
826.733685	2427.171904
827.051210	2430.675506
827.368692	2429.243818
827.686129	2421.402303
828.003522	2418.765780
828.320872	2412.819739
828.638177	2408.154151
828.955439	2404.763975
829.272656	2402.434962
829.589830	2401.330949
829.906960	2406.785478
830.224046	2402.795405
830.541088	2402.440003
830.858086	2403.024777
831.175041	2401.668707
831.491952	2400.244581
831.808819	2401.106618
832.125642	2403.279355
832.442421	2402.679458
832.759157	2404.176681
833.075849	2408.040725
833.392497	2411.236817
833.709101	2412.822260
834.025662	2414.319482
834.342179	2409.185067
834.658653	2412.401323
834.975083	2407.027453
835.291469	2413.013823
835.607811	2404.539644
835.924110	2404.900086
836.240366	2402.029149
836.556578	2400.630229
836.872746	2401.661145
837.188871	2398.880949
837.504952	2397.421535
837.820990	2398.505383
838.136984	2399.228788
838.452935	2399.879097
838.768842	2397.509755
839.084706	2397.943294
839.400526	2397.361041
839.716303	2401.590569
840.032037	2402.253481
840.347727	2401.537637
840.663373	2402.054355
840.978977	2401.557801
841.294537	2399.528737
841.610054	2398.311298
841.925527	2399.995044
842.240957	2397.343397
842.556344	2397.852553
842.871687	2396.156205
843.186987	2400.259704
843.502244	2396.940104
843.817458	2395.493293
844.132629	2397.403891
844.447756	2396.637635
844.762840	2390.711759
845.077881	2394.069167
845.392879	2391.415000
845.707833	2392.670247
846.022745	2390.807541
846.337613	2395.800804
846.652438	2396.441030
846.967221	2397.819786
847.281960	2395.195865
847.596656	2397.512275
847.911309	2396.035217
848.225919	2397.988664
848.540485	2396.047820
848.855009	2395.258880
849.169490	2394.394322
849.483928	2396.463715
849.798323	2396.577141
850.112675	2394.202758
850.426984	2394.941287
850.741251	2395.241236
851.055474	2392.851729
851.369654	2394.038920
851.683792	2395.175701
851.997887	2395.236194
852.311938	2393.176883
852.625947	2393.577655
852.939914	2395.783160
853.253837	2396.317522
853.567718	2394.164949
853.881555	2395.374826
854.195350	2395.364744
854.509103	2395.337018
854.822812	2397.431617
855.136479	2394.296019
855.450103	2393.280227
855.763685	2393.307953
856.077224	2394.880793
856.390720	2397.943294
856.704173	2394.404404
857.017584	2394.870711
857.330953	2395.389950
857.644278	2396.751061
857.957561	2399.543860
858.270802	2396.831720
858.584000	2394.835423
858.897155	2396.861967
859.210268	2397.668551
859.523339	2394.845505
859.836367	2396.012532
860.149352	2396.589744
860.462295	2397.363561
860.775195	2391.140257
861.088054	2390.726882
861.400869	2391.505741
861.713642	2388.402910
862.026373	2395.838612
862.339062	2392.536657
862.651708	2393.771739
862.964312	2394.548077
863.276873	2396.786349
863.589392	2396.430948
863.901869	2393.892727
864.214303	2395.125289
864.526696	2394.898437
864.839045	2399.014539
865.151353	2394.931205
865.463619	2395.253838
865.775842	2394.895917
866.088023	2397.124107
866.400162	2400.748696
866.712258	2394.787532
867.024313	2394.532953
867.336325	2395.654610
867.648296	2394.248128
867.960224	2397.068654
868.272110	2393.726369
868.583954	2395.727707
868.895755	2394.462377
869.207515	2394.590927
869.519233	2395.349620
869.830909	2394.512789
870.142542	2399.594272
870.454134	2395.281565
870.765684	2395.818448
871.077191	2396.229302
871.388657	2395.642007
871.700081	2396.095711
872.011463	2393.285268
872.322803	2395.589075
872.634101	2397.028325
872.945357	2395.505896
873.256571	2396.882131
873.567744	2394.716956
873.878874	2395.268962
874.189963	2396.783829
874.501010	2398.989333
874.812015	2394.951369
875.122979	2396.239384
875.433900	2395.684857
875.744780	2398.707029
876.055618	2398.200393
876.366415	2398.515465
876.677169	2397.955897
876.987882	2392.125802
877.298554	2391.324259
877.609183	2394.946328
877.919771	2392.428272
878.230317	2392.821482
878.540822	2399.448078
878.851285	2396.821637
879.161707	2399.798439
879.472087	2401.157030
879.782425	2402.737431
880.092722	2408.408729
880.402977	2413.989287
880.713191	2419.915163
881.023363	2430.529312
881.333494	2435.701536
881.643583	2432.649118
881.953631	2435.477205
882.263637	2430.428489
882.573602	2430.022677
882.883526	2427.371030
883.193408	2421.233425
883.503248	2420.152097
883.813048	2414.747980
884.122806	2414.563978
884.432522	2412.403844
884.742197	2408.819583
885.051831	2406.364542
885.361424	2409.016188
885.670975	2400.806669
885.980485	2403.924623
886.289954	2401.000754
886.599382	2398.568397
886.908768	2401.590569
887.218113	2399.158212
887.527417	2399.853891
887.836680	2400.113511
888.145901	2396.534292
888.455082	2395.248797
888.764221	2396.219219
889.073319	2395.440361
889.382376	2398.449930
889.691392	2393.605381
890.000366	2397.986144
890.309300	2394.543036
890.618193	2399.140568
890.927044	2393.983468
891.235855	2396.463715
891.544625	2398.898593
891.853353	2396.355331
892.162041	2394.149826
892.470687	2399.959756
892.779293	2395.384908
893.087858	2395.939435
893.396381	2397.608057
893.704864	2399.881618
894.013306	2399.102759
894.321707	2403.778430
894.630068	2405.532751
894.938387	2408.262536
895.246665	2406.356980
895.554903	2407.148441
895.863100	2402.588717
896.171256	2403.299520
896.479371	2402.742473
896.787446	2400.446227
897.095480	2401.721639
897.403473	2399.836247
897.711425	2395.934394
898.019336	2400.058058
898.327207	2400.269787
898.635038	2397.812224
898.942827	2397.512275
899.250576	2395.382388
899.558284	2396.970351
899.865952	2399.861453
900.173579	2398.064282
900.481165	2394.124620
900.788711	2396.335166
901.096216	2393.822151
901.403681	2396.146123
901.711105	2397.033366
902.018489	2393.945659
902.325832	2398.588562
902.633135	2396.642676
902.940397	2395.805845
903.247619	2400.269787
903.554800	2404.519479
903.861941	2406.324212
904.169041	2408.146589
904.476101	2407.876888
904.783121	2409.273287
905.090100	2408.290262
905.397039	2405.736918
905.703938	2404.131310
906.010796	2402.424880
906.317614	2402.069478
906.624391	2400.673079
906.931129	2399.478325
907.237826	2399.359858
907.544483	2397.998747
907.851099	2397.978582
908.157675	2396.856925
908.464211	2394.696791
908.770707	2391.949362
909.077163	2389.398538
909.383578	2388.581871
909.689954	2389.688405
909.996289	2390.779814
910.302584	2395.755433
910.608839	2393.184445
910.915054	2393.068498
911.221229	2393.746533
911.527363	2396.710732
911.833458	2391.031872
912.139513	2391.818292
912.445527	2396.589744
912.751502	2393.970865
913.057436	2394.601009
913.363331	2395.505896
913.669186	2394.515309
913.975000	2394.117058
914.280775	2397.655948
914.586510	2400.559653
914.892205	2397.998747
915.197859	2400.431103
915.503475	2404.464027
915.809050	2406.442679
916.114585	2404.716084
916.420081	2411.604821
916.725536	2407.282032
917.030952	2408.481826
917.336328	2406.488050
917.641665	2405.532751
917.946961	2406.200704
918.252218	2405.439490
918.557435	2401.358676
918.862612	2403.307082
919.167750	2402.598800
919.472848	2400.869684
919.777906	2399.569066
920.082925	2398.263407
920.387904	2400.032852
920.692843	2398.984292
920.997743	2395.992368
921.302603	2395.929353
921.607423	2396.050341
921.912204	2397.393808
922.216946	2395.090001
922.521647	2395.949518
922.826310	2393.998591
923.130932	2393.789383
923.435516	2394.056564
923.740059	2393.181924
924.044564	2393.454147
924.349028	2392.803838
924.653454	2390.114382
924.957840	2388.634803
925.262186	2389.769063
925.566493	2392.410628
925.870761	2388.677653
926.174989	2390.600853
926.479178	2392.982799
926.783328	2393.801986
927.087438	2392.511451
927.391509	2393.323077
927.695541	2390.573127
927.999533	2393.791904
928.303486	2395.642007
928.607400	2389.668240
928.911275	2390.895761
929.215110	2392.198899
929.518906	2392.937428
929.822663	2394.386760
930.126381	2391.430123
930.430060	2393.242418
930.733699	2391.596481
931.037299	2392.478683
931.340861	2391.188148
931.644383	2393.650752
931.947866	2392.113200
932.251309	2394.152346
932.554714	2390.225288
932.858080	2394.578324
933.161407	2393.340721
933.464694	2390.260576
933.767943	2390.550442
934.071153	2395.004301
934.374323	2390.114382
934.677455	2393.192007
934.980548	2391.331821
935.283602	2390.099259
935.586617	2390.250493
935.889593	2392.214023
936.192530	2393.991029
936.495428	2391.732593
936.798287	2393.123951
937.101108	2393.839795
937.403890	2393.416338
937.706632	2391.906512
938.009336	2390.487428
938.312002	2394.595968
938.614628	2393.169321
938.917216	2392.919784
939.219765	2390.109341
939.522275	2395.400032
939.824747	2392.990360
940.127179	2392.445916
940.429573	2387.858466
940.731929	2392.829043
941.034246	2389.562376
941.336524	2392.365257
941.638763	2391.420041
941.940964	2396.040258
942.243126	2393.905330
942.545250	2391.135216
942.847335	2392.113200
943.149381	2393.418858
943.451389	2391.616646
943.753359	2392.708056
944.055290	2391.120092
944.357182	2390.280740
944.659036	2390.615977
944.960851	2391.377191
945.262628	2391.324259
945.564367	2394.056564
945.866067	2393.978427
946.167729	2391.258724
946.469352	2391.886348
946.770937	2392.030021
947.072484	2391.508261
947.373992	2390.585730
947.675462	2391.921636
947.976893	2391.175545
948.278286	2393.058416
948.579641	2391.609084
948.880958	2389.489279
949.182236	2392.594630
949.483476	2391.261245
949.784678	2391.914074
950.085841	2391.641852
950.386967	2391.760319
950.688054	2391.886348
950.989103	2392.939949
951.290114	2389.930380
951.591087	2390.152191
951.892021	2391.457850
952.192917	2392.912223
952.493776	2393.428941
952.794596	2391.215874
953.095378	2391.374671
953.396122	2393.255021
953.696828	2391.132695
953.997496	2390.883158
954.298126	2389.585061
954.598718	2394.069167
954.899272	2393.915412
955.199788	2394.790052
955.500266	2391.354506
955.800706	2388.901985
956.101108	2387.369474
956.401472	2390.016080
956.701798	2387.631614
957.002087	2388.377705
957.302337	2389.605226
957.602550	2392.206461
957.902724	2390.827705
958.202861	2391.175545
958.502960	2390.182438
958.803022	2392.292161
959.103045	2391.543549
959.403031	2393.333159
959.702979	2388.856614
960.002889	2391.752757
960.302762	2391.142778
960.602596	2390.003477
960.902393	2391.175545
961.202153	2389.327962
961.501875	2389.277551
961.801559	2391.903992
962.101205	2391.500699
962.400814	2391.374671
962.700385	2390.202602
962.999918	2393.900289
963.299414	2389.900133
963.598873	2391.009187
963.898293	2392.186296
964.197677	2388.304608
964.497022	2386.986346
964.796331	2388.617159
965.095601	2387.316542
965.394835	2390.653786
965.694030	2384.763197
965.993189	2390.953734
966.292309	2389.726213
966.591393	2389.297715
966.890439	2389.065822
967.189447	2390.285781
967.488419	2389.171686
967.787353	2390.268137
968.086249	2388.952396
968.385108	2392.035062
968.683930	2389.380894
968.982714	2389.239742
969.281462	2392.392984
969.580172	2390.999105
969.878844	2387.422406
970.177480	2390.726882
970.476078	2389.335524
970.774639	2387.820657
971.073162	2388.891902
971.371649	2388.307128
971.670098	2385.771428
971.968510	2387.387118
972.266885	2384.095244
972.565223	2387.175389
972.863524	2391.306615
973.161788	2388.823847
973.460014	2391.233518
973.758204	2389.446429
974.056356	2389.945503
974.354471	2389.232180
974.652550	2390.825185
974.950591	2393.045813
975.248595	2391.961965
975.546563	2390.555483
975.844493	2388.886861
976.142386	2387.989536
976.440243	2392.599671
976.738062	2390.013559
977.035845	2390.530277
977.333590	2389.975750
977.631299	2390.091697
977.928971	2389.774104
978.226606	2389.549773
978.524204	2390.285781
978.821765	2389.595143
979.119290	2390.245452
979.416777	2391.455329
979.714228	2389.043137
980.011642	2388.554145
980.309020	2392.103117
980.606360	2388.591954
980.903664	2391.619167
981.200931	2388.556666
981.498162	2392.486245
981.795356	2392.498848
982.092513	2389.670761
982.389633	2391.427603
982.686717	2391.997253
982.983764	2392.035062
983.280775	2391.147819
983.577749	2390.636142
983.874686	2395.150495
984.171587	2390.452139
984.468451	2392.309805
984.765279	2392.095556
985.062070	2391.369629
985.358824	2390.578168
985.655543	2393.786863
985.952224	2391.760319
986.248869	2388.622201
986.545478	2384.685059
986.842050	2385.834443
987.138586	2384.049874
987.435086	2387.369474
987.731549	2388.349978
988.027975	2388.944834
988.324366	2386.877961
988.620719	2389.733775
988.917037	2390.348796
989.213318	2389.232180
989.509563	2392.203940
989.805772	2391.535988
990.101944	2390.782335
990.398080	2390.152191
990.694180	2389.174207
990.990244	2392.445916
991.286271	2390.303425
991.582262	2388.886861
991.878217	2390.023641
992.174136	2391.450288
992.470019	2390.583209
992.765865	2391.906512
993.061676	2386.948538
993.357450	2390.613456
993.653188	2388.644886
993.948890	2392.307284
994.244556	2388.876779
994.540186	2386.557848
994.835780	2390.709238
995.131337	2390.179917
995.426859	2389.025493
995.722345	2391.034393
996.017795	2392.405587
996.313208	2390.174876
996.608586	2390.704197
996.903928	2391.488097
997.199234	2390.290823
997.494504	2392.405587
997.789738	2389.325442
998.084936	2387.853425
998.380099	2391.364588
998.675225	2391.263765
998.970316	2390.149670
999.265371	2391.541029
999.560390	2390.237890
999.855373	2390.862993
1000.150320	2388.841491
1000.445232	2390.132026
1000.740108	2389.176728
1001.034948	2389.224618
1001.329752	2388.397869
1001.624521	2389.000287
1001.919254	2384.553989
1002.213951	2385.491644
1002.508613	2385.360574
1002.803239	2388.856614
1003.097829	2382.719009
1003.392384	2390.237890
1003.686903	2391.241080
1003.981386	2386.736809
1004.275834	2388.493651
1004.570246	2389.030534
1004.864623	2388.420554
1005.158964	2389.973230
1005.453270	2388.047509
1005.747540	2386.714124
1006.041775	2389.166645
1006.335974	2386.323434
1006.630138	2389.670761
1006.924266	2389.320400
1007.218359	2388.546583
1007.512416	2389.764022
1007.806438	2388.039947
1008.100425	2390.600853
1008.394376	2388.062633
1008.688292	2390.673950
1008.982172	2387.918960
1009.276017	2388.496172
1009.569827	2388.070194
1009.863602	2388.869217
1010.157341	2385.408465
1010.451045	2389.098590
1010.744714	2387.671943
1011.038347	2389.590102
1011.331945	2389.562376
1011.625508	2389.070863
1011.919036	2391.478014
1012.212528	2388.894423
1012.505986	2388.171017
1012.799408	2389.758981
1013.092795	2388.975081
1013.386147	2389.635473
1013.679464	2389.552293
1013.972745	2388.102962
1014.265992	2388.801162
1014.559204	2388.964999
1014.852380	2390.431975
1015.145521	2389.040616
1015.438628	2387.152704
1015.731699	2389.648075
1016.024736	2389.993394
1016.317737	2389.610267
1016.610703	2390.437016
1016.903635	2385.504247
1017.196531	2383.747405
1017.489393	2385.511809
1017.782219	2381.340254
1018.075011	2388.602036
1018.367768	2387.992056
1018.660490	2387.966851
1018.953177	2387.966851
1019.245829	2387.966851
