Dividing Wavelength (nm)	Counts (n)	Blue Motor Position (mm): 0.000000	Red Motor Position (mm): 41.400000	
326.493990	1992.722745
326.888308	1992.722745
327.282561	1992.722745
327.676750	1970.506380
328.070874	1971.028139
328.464933	1976.124746
328.858929	1985.390387
329.252859	2000.259270
329.646726	2013.318379
330.040528	2028.653569
330.434265	2045.352391
330.827938	2068.995403
331.221547	2084.018041
331.615091	2108.828080
332.008571	2129.761471
332.401986	2148.501961
332.795338	2169.866371
333.188625	2190.973682
333.581847	2210.117463
333.975006	2225.490462
334.368100	2244.772876
334.761129	2261.716194
335.154095	2276.517021
335.546996	2305.405353
335.939833	2356.880575
336.332606	2372.679552
336.725315	2381.461242
337.117960	2394.956410
337.510540	2399.551422
337.903056	2411.564492
338.295508	2416.325862
338.687896	2422.037489
339.080220	2431.288006
339.472480	2437.289500
339.864676	2439.527772
340.256807	2439.976435
340.648875	2444.435335
341.040879	2444.851231
341.432818	2446.855089
341.824694	2447.185285
342.216506	2449.796602
342.608253	2448.695110
342.999937	2447.122270
343.391557	2446.610593
343.783113	2446.512291
344.174605	2441.629933
344.566033	2442.295366
344.957397	2439.764706
345.348697	2437.201280
345.739934	2436.359407
346.131106	2434.451330
346.522215	2432.918819
346.913260	2433.319591
347.304241	2432.364292
347.695159	2431.734148
348.086012	2428.946390
348.476802	2426.471184
348.867528	2426.940011
349.258191	2422.902047
349.648789	2424.482448
350.039324	2424.676533
350.429796	2424.237953
350.820203	2419.768970
351.210548	2420.308373
351.600828	2418.788465
351.991045	2420.893147
352.381198	2421.745102
352.771288	2421.863569
353.161314	2422.662592
353.551276	2421.248548
353.941175	2421.873651
354.331010	2421.803075
354.720782	2420.600760
355.110490	2422.846594
355.500135	2423.317942
355.889717	2422.919691
356.279235	2422.390370
356.668689	2421.026737
357.058080	2421.976995
357.447408	2422.713003
357.836672	2422.889444
358.225873	2425.145360
358.615010	2422.581933
359.004084	2428.822882
359.393095	2425.747778
359.782043	2431.209868
360.170927	2429.422779
360.559748	2429.568973
360.948505	2432.341607
361.337199	2436.011567
361.725830	2435.774633
362.114398	2435.993923
362.502903	2437.513831
362.891344	2435.363779
363.279722	2436.009047
363.668037	2437.498708
364.056289	2438.378389
364.444478	2439.132042
364.832603	2440.863678
365.220665	2440.767896
365.608665	2440.039449
365.996601	2442.368462
366.384474	2444.110181
366.772284	2447.195367
367.160031	2446.895418
367.547715	2446.890377
367.935336	2446.126643
368.322893	2449.584874
368.710388	2449.768876
369.097820	2455.909002
369.485189	2452.196192
369.872495	2455.677108
370.259738	2456.115689
370.646918	2459.556276
371.034035	2459.291616
371.421090	2465.903089
371.808081	2464.635239
372.195010	2473.553040
372.581875	2478.493371
372.968678	2483.456387
373.355418	2490.927377
373.742096	2502.282576
374.128710	2514.189781
374.515262	2526.170083
374.901751	2540.025695
375.288177	2558.569579
375.674540	2580.138156
376.060841	2602.236054
376.447079	2623.633231
376.833254	2652.818991
377.219367	2678.264215
377.605417	2711.140100
377.991404	2739.468864
378.377329	2778.966305
378.763191	2813.699855
379.148991	2866.601723
379.534727	2913.731470
379.920402	2960.803244
380.306013	3012.681759
380.691563	3077.972263
381.077049	3133.619039
381.462474	3193.896116
381.847835	3271.015687
382.233134	3342.153930
382.618371	3403.018301
383.003545	3494.452229
383.388657	3575.468612
383.773706	3669.705422
384.158693	3744.359869
384.543618	3840.696319
384.928480	3924.500461
385.313280	4030.324362
385.698017	4138.956186
386.082692	4260.639558
386.467305	4324.833611
386.851856	4459.001400
387.236344	4619.428559
387.620770	4681.638918
388.005133	4806.851098
388.389435	4955.401299
388.773674	5042.583013
389.157851	5176.528992
389.541965	5311.173170
389.926018	5339.872458
390.310008	5525.777609
390.693936	5648.817051
391.077802	5768.763745
391.461606	5911.597278
391.845348	6023.538620
392.229027	6153.368496
392.612645	6376.109358
392.996200	6492.272666
393.379694	6674.775038
393.763125	6901.964718
394.146494	7003.594380
394.529801	7138.223435
394.913047	7393.865387
395.296230	7389.235088
395.679351	7453.109027
396.062410	7720.181796
396.445408	7610.216587
396.828343	7774.865713
397.211217	7910.797906
397.594028	7793.437323
397.976778	7999.204621
398.359466	8169.157040
398.742092	8147.691807
399.124656	8293.542470
399.507158	8486.454825
399.889598	8507.506683
400.271977	8718.158859
400.654294	8755.087831
401.036549	8954.394890
401.418742	8987.573244
401.800874	9299.119072
402.182944	9382.910611
402.564952	9752.250747
402.946898	9571.986647
403.328783	9630.867324
403.710606	9833.156225
404.092367	10098.948541
404.474067	10466.083173
404.855705	10249.444628
405.237282	10202.559376
405.618797	10638.805707
406.000250	10893.207535
406.381642	11266.220152
406.762972	11216.224509
407.144240	11010.260607
407.525447	11271.783066
407.906593	11208.887110
408.287677	11477.273099
408.668700	11638.572378
409.049661	11616.744182
409.430560	11774.421392
409.811399	11740.166752
410.192176	11908.001887
410.572891	11984.312353
410.953545	12489.488901
411.334138	11946.264245
411.714669	12573.784555
412.095139	11854.873167
412.475547	12380.201727
412.855894	12208.053884
413.236180	12547.583158
413.616405	12227.918551
413.996568	12507.725275
414.376670	12487.520330
414.756711	12351.681399
415.136691	12648.809527
415.516609	12832.824245
415.896466	12907.700503
416.276262	13195.157178
416.655997	13646.201815
417.035670	13682.946786
417.415283	14337.578421
417.794834	14445.287714
418.174324	14178.885419
418.553753	14072.123863
418.933121	14587.337347
419.312428	14385.819743
419.691674	14293.284323
420.070859	14764.904430
420.449983	14410.521397
420.829045	14966.540502
421.208047	14710.762438
421.586988	15184.247772
421.965867	15441.301247
422.344686	15438.584065
422.723444	16018.374731
423.102141	14669.684596
423.480777	15898.077677
423.859352	15387.799482
424.237866	16528.567227
424.616319	16218.957201
424.994712	16904.407931
425.373044	16678.564239
425.751314	17368.488992
426.129524	16479.463867
426.507673	17596.812932
426.885762	17287.318854
427.263789	17499.367428
427.641756	17670.721289
428.019662	17724.122232
428.397508	17767.418181
428.775292	18086.324094
429.153016	18034.954737
429.530679	18122.650649
429.908282	18144.902302
430.285824	17856.820524
430.663305	18573.970029
431.040726	18175.580244
431.418086	17995.051483
431.795385	18659.324326
432.172624	19081.117668
432.549802	18627.746538
432.926920	18814.049940
433.303977	18701.327219
433.680974	18965.942426
434.057910	19252.738709
434.434786	19277.538666
434.811601	19194.468012
435.188355	20255.751884
435.565050	19894.628829
435.941683	19845.273412
436.318257	20741.325905
436.694770	20545.925741
437.071222	21156.815285
437.447614	20203.588545
437.823946	20241.964329
438.200218	20384.384487
438.576429	20172.000675
438.952580	20444.303641
439.328670	20414.427243
439.704700	20829.667085
440.080670	20387.623428
440.456580	20992.393011
440.832429	21176.969818
441.208218	20142.154524
441.583947	20597.373237
441.959616	20704.679237
442.335224	20948.487081
442.710773	21086.413051
443.086261	21624.820884
443.461689	20990.971405
443.837057	21103.618509
444.212365	21775.221189
444.587612	21755.109505
444.962800	21329.409269
445.337927	21757.867017
445.712995	20467.404729
446.088002	22369.056509
446.462949	22560.075910
446.837837	22739.969485
447.212664	22696.693700
447.587431	25581.045326
447.962139	28560.180726
448.336786	30978.709572
448.711374	29408.148174
449.085901	25666.286196
449.460369	25603.072648
449.834776	25525.343097
450.209124	28060.554489
450.583412	27566.576865
450.957640	28110.126676
451.331808	26731.580307
451.705917	25331.140206
452.079965	25383.727003
452.453954	25751.990853
452.827883	25625.410000
453.201752	25423.504227
453.575562	25589.383394
453.949311	26740.334270
454.323001	26795.799565
454.696632	26555.059263
455.070202	28132.131312
455.443713	28272.623229
455.817164	28883.984120
456.190556	29423.493446
456.563888	28849.747124
456.937160	29298.959302
457.310373	27601.809489
457.683526	28072.343227
458.056619	28047.772644
458.429653	27981.451224
458.802628	28573.098683
459.175542	28685.337453
459.548398	29986.124024
459.921194	31583.164083
460.293930	32260.669954
460.666607	34309.727593
461.039224	36085.700887
461.411782	36502.548858
461.784280	35294.116225
462.156719	34824.908311
462.529099	34260.611631
462.901419	32949.150417
463.273680	31890.228325
463.645882	31956.048151
464.018024	31947.987346
464.390106	32777.783954
464.762130	35512.420872
465.134094	39589.428839
465.505999	44939.923009
465.877845	49548.339168
466.249631	50731.679457
466.621358	49073.235624
466.993026	46976.463463
467.364634	44898.643521
467.736184	42912.471755
468.107674	41640.608804
468.479105	40831.914466
468.850477	40132.189709
469.221790	38671.346504
469.593043	36911.676301
469.964238	36010.305391
470.335373	35924.865395
470.706449	37692.147740
471.077467	40285.607144
471.448425	44866.906937
471.819324	47712.081235
472.190164	45856.674480
472.560945	42270.372428
472.931667	39152.272581
473.302330	38023.971609
473.672934	37199.619447
474.043479	37725.913388
474.413965	36899.189363
474.784393	36504.961050
475.154761	37416.946110
475.525070	37441.010058
475.895321	36980.997208
476.265513	37593.371371
476.635645	38578.916948
477.005719	38384.257833
477.375734	38856.767704
477.745691	39567.033513
478.115588	40929.717892
478.485427	42912.675922
478.855207	46281.462268
479.224928	48904.687165
479.594591	50542.278266
479.964194	49575.216080
480.333739	49739.600545
480.703226	49760.899420
481.072653	50398.466750
481.442022	50877.799822
481.811333	51136.821868
482.180584	49844.040650
482.549777	49347.018168
482.918912	48793.854877
483.287988	48512.576137
483.657005	47686.394036
484.025964	47041.078453
484.394864	47062.246258
484.763706	46642.693708
485.132489	45759.959943
485.501213	45592.394510
485.869879	45741.060658
486.238487	45334.753740
486.607036	45522.267019
486.975527	44984.020502
487.343959	45177.137024
487.712333	45255.690804
488.080648	45184.063569
488.448905	45627.354912
488.817104	45450.538962
489.185244	46408.801814
489.553326	48094.626674
489.921350	50791.555762
490.289315	53654.069109
490.657222	54227.737293
491.025070	54503.064952
491.392861	53625.606755
491.760593	52417.506838
492.128267	50762.344796
492.495883	49243.861037
492.863440	47862.761324
493.230939	46516.763165
493.598380	45393.450415
493.965763	45061.364405
494.333088	44243.192698
494.700354	43751.402934
495.067563	43437.591107
495.434713	43297.855364
495.801805	43362.558573
496.168839	42985.127385
496.535815	42644.216836
496.902733	42678.809233
497.269593	42270.725309
497.636395	42182.389170
498.003139	42607.101340
498.369825	42044.044785
498.736453	42362.940616
499.103023	41882.561504
499.469535	41745.406831
499.835989	41839.230266
500.202385	41490.286638
500.568723	41531.959336
500.935003	41704.041643
501.301226	41499.506908
501.667390	42123.838689
502.033497	42388.700912
502.399546	41797.204687
502.765537	41100.912956
503.131470	41504.386745
503.497345	41861.933102
503.863163	40502.399445
504.228923	41116.406942
504.594625	41545.683877
504.960269	40828.569661
505.325856	41531.803060
505.691385	40876.097659
506.056856	41015.178053
506.422270	41440.457353
506.787625	41023.652232
507.152924	41220.905020
507.518164	41338.515140
507.883347	40509.361278
508.248472	40790.745883
508.613540	41257.811308
508.978550	41562.584346
509.343503	41299.163893
509.708398	41506.746005
510.073236	42043.802810
510.438016	42030.118598
510.802738	41474.212919
511.167403	42108.037192
511.532010	42336.996317
511.896561	42636.428253
512.261053	43510.821429
512.625488	43025.207079
512.989866	42905.630909
513.354186	42759.989454
513.718449	42721.691808
514.082655	43418.394393
514.446803	43095.589148
514.810894	43608.995379
515.174927	43534.666086
515.538904	43430.341928
515.902822	44110.053304
516.266684	43543.447776
516.630488	43984.747863
516.994235	43826.869007
517.357925	44408.469447
517.721558	44567.482563
518.085133	44878.630140
518.448651	45025.315114
518.812112	44782.533145
519.175516	44886.731274
519.538863	45223.598818
519.902152	45181.434608
520.265385	45648.043808
520.628560	45692.854624
520.991678	45482.439383
521.354739	45713.311626
521.717743	46033.394649
522.080690	45926.043277
522.443580	46469.396483
522.806413	46511.217895
523.169189	46451.432331
523.531908	46638.547359
523.894569	46501.329672
524.257174	46656.196439
524.619722	46971.535735
524.982213	46950.778784
525.344647	46863.952471
525.707025	46909.804286
526.069345	47286.113818
526.431608	47208.641365
526.793815	47542.537149
527.155964	47058.142758
527.518057	47225.796412
527.880093	47001.671753
528.242072	47522.813635
528.603995	47221.667707
528.965860	47241.209740
529.327669	47313.215061
529.689421	47207.486941
530.051117	47167.089655
530.412755	47316.181780
530.774337	47368.085500
531.135862	47180.703291
531.497331	47375.932056
531.858743	47263.421064
532.220098	47622.467164
532.581396	47325.636464
532.942638	46987.748086
533.303824	47303.808268
533.664953	47247.405318
534.026025	46960.573746
534.387040	47432.685366
534.747999	47383.713077
535.108902	47535.902991
535.469748	47043.593988
535.830537	47172.148453
536.191270	47358.769447
536.551947	47002.140580
536.912567	47325.598655
537.273131	47420.931916
537.633638	46911.445182
537.994089	47267.048174
538.354483	46846.941097
538.714821	47418.234898
539.075103	47776.066081
539.435328	47520.756844
539.795497	47404.323834
540.155609	47396.441990
540.515665	47860.074389
540.875665	47305.852456
541.235609	47632.383114
541.595496	47614.003067
541.955328	48271.011606
542.315102	47632.098288
542.674821	47427.210673
543.034483	47474.242117
543.394090	47433.910366
543.753640	47388.935712
544.113134	48406.835414
544.472571	47391.655415
544.831953	48670.034057
545.191278	47856.439717
545.550548	47576.711131
545.909761	48039.567192
546.268918	48245.289119
546.628019	48543.687618
546.987064	48113.536043
547.346053	47370.961478
547.704986	48272.140825
548.063863	47813.766350
548.422684	48010.101648
548.781449	47864.563536
549.140158	48254.756406
549.498811	48092.705995
549.857408	47533.316879
550.215949	48367.317809
550.574434	48293.132189
550.932864	48055.086384
551.291237	48780.326941
551.649555	48377.289212
552.007817	48612.002814
552.366022	48256.601468
552.724173	48444.192885
553.082267	48836.029171
553.440305	49138.425305
553.798288	48443.996280
554.156215	48745.411910
554.514086	48966.917689
554.871902	48702.148727
555.229661	48730.031349
555.587365	48543.927073
555.945014	48631.897728
556.302606	48549.883196
556.660143	48776.762845
557.017625	48865.950939
557.375050	48638.756218
557.732421	48981.708434
558.089735	48969.897011
558.446994	48885.616480
558.804197	49362.313029
559.161345	49287.136822
559.518437	48542.797854
559.875474	48826.272017
560.232455	48987.750257
560.589381	49169.950160
560.946251	48866.926403
561.303065	49547.802285
561.659825	49351.303149
562.016528	49015.423671
562.373177	48720.833764
562.729770	49201.227999
563.086307	48701.296772
563.442789	49154.035238
563.799216	49201.578359
564.155587	48988.186317
564.511904	49009.175161
564.868164	49083.595195
565.224370	49326.049489
565.580520	49050.590761
565.936615	49250.709445
566.292654	48965.186053
566.648638	49191.289364
567.004567	49145.654319
567.360441	49166.247433
567.716260	49010.475779
568.072023	49288.760074
568.427732	49254.384446
568.783385	48814.553855
569.138982	49173.713382
569.494525	49136.527310
569.850013	48891.560001
570.205445	48847.230614
570.560823	48800.688162
570.916145	48669.908028
571.271412	48679.594605
571.626625	48411.826157
571.981782	48447.517526
572.336884	48128.674627
572.691931	48433.273746
573.046923	48004.387500
573.401860	47842.659723
573.756743	47820.985282
574.111570	47912.615815
574.466342	47735.981346
574.821059	47813.829364
575.175722	47331.065787
575.530330	47323.188984
575.884882	47019.187242
576.239380	46962.857389
576.593823	46910.540294
576.948211	46818.312385
577.302544	46322.673700
577.656823	46317.756055
578.011047	46510.373502
578.365216	46190.507249
578.719330	45989.062742
579.073389	45801.128526
579.427394	45862.640686
579.781344	45797.239276
580.135239	45416.599393
580.489080	45481.756307
580.842866	44919.092961
581.196597	45340.651890
581.550273	45237.721611
581.903895	45059.211833
582.257463	45439.839112
582.610975	44781.459379
582.964434	45002.851733
583.317837	44626.116223
583.671186	44427.799752
584.024481	44617.344616
584.377721	44116.367349
584.730906	44361.806007
585.084037	44356.313669
585.437113	44023.262279
585.790135	44008.784085
586.143103	43591.081639
586.496016	43663.817927
586.848874	43647.837470
587.201679	43603.878608
587.554428	43050.382601
587.907124	43173.071683
588.259765	42878.189388
588.612352	43078.315634
588.964884	42433.365535
589.317362	42656.103876
589.669786	42559.527972
590.022155	42277.845939
590.374470	42649.368895
590.726731	42138.193374
591.078937	41621.515434
591.431090	41662.563029
591.783188	41293.154837
592.135232	40933.244179
592.487222	41113.750254
592.839157	41154.679382
593.191038	40766.732347
593.542866	40480.919088
593.894639	39854.434735
594.246358	40061.716899
594.598022	39995.219039
594.949633	39545.021315
595.301190	39458.167276
595.652692	39234.645035
596.004141	39490.665074
596.355535	38502.679578
596.706876	38401.521265
597.058162	38178.208232
597.409395	38600.465360
597.760573	38604.057182
598.111698	38132.058989
598.462768	38094.885520
598.813785	38073.896676
599.164748	37463.334808
599.515657	37785.353633
599.866511	37225.677171
600.217312	37737.858402
600.568060	36709.475620
600.918753	37343.448608
601.269392	37227.781853
601.619978	36840.429674
601.970510	36972.003789
602.320988	37065.633140
602.671412	37272.257433
603.021783	36972.918759
603.372100	36596.810873
603.722363	36622.845912
604.072572	36633.119784
604.422728	36572.182316
604.772830	36327.782136
605.122878	36349.519592
605.472872	36214.769549
605.822813	36394.728659
606.172701	36165.215007
606.522534	36312.724210
606.872314	36476.236555
607.222041	36160.035222
607.571714	36424.322753
607.921333	35858.203697
608.270899	36041.341254
608.620411	36253.856136
608.969870	36007.920925
609.319276	35915.614877
609.668627	35888.869036
610.017926	36235.924752
610.367171	36294.021529
610.716362	36267.797447
611.065500	36135.898177
611.414585	36200.127518
611.763616	36372.313169
612.112594	36209.078087
612.461518	36320.046486
612.810389	36468.528631
613.159207	36264.034225
613.507971	36226.230613
613.856682	36544.070322
614.205340	36352.451023
614.553945	36860.319546
614.902496	36275.268437
615.250994	36571.481596
615.599439	36527.608434
615.947830	36600.848837
616.296169	36539.739970
616.644454	36525.947373
616.992686	36558.654380
617.340864	36883.357619
617.688990	36531.701851
618.037063	36914.895078
618.385082	36766.415453
618.733048	36901.795640
619.080961	36801.363252
619.428821	36711.938224
619.776628	36716.167752
620.124382	36475.490465
620.472083	36476.407955
620.819731	36488.811714
621.167326	36146.318242
621.514868	36030.381786
621.862357	35603.602742
622.209793	35530.740425
622.557176	35192.393302
622.904506	34907.285806
623.251783	34557.321344
623.599007	34270.588075
623.946179	34023.566495
624.293297	33885.070876
624.640363	33315.584328
624.987376	33222.491861
625.334336	32924.731068
625.681243	32555.269944
626.028097	32410.563622
626.374899	32192.841229
626.721647	32066.346076
627.068343	31863.467360
627.414987	31594.662955
627.761577	31308.194346
628.108115	31469.102936
628.454600	30938.876895
628.801032	30980.158904
629.147412	30840.050115
629.493739	30738.937172
629.840014	30347.153818
630.186236	30489.445427
630.532405	30107.169689
630.878521	30137.320831
631.224585	29939.241293
631.570597	29627.118253
631.916556	29643.156684
632.262462	29490.762603
632.608316	29398.980835
632.954117	29215.210613
633.299866	29120.424318
633.645562	28972.428644
633.991206	28529.986735
634.336797	28126.757442
634.682336	28042.930615
635.027823	27783.285987
635.373257	27576.006343
635.718639	27313.369790
636.063968	27142.189849
636.409245	26642.601421
636.754470	26601.218589
637.099642	26329.933936
637.444762	25909.925162
637.789829	25928.698419
638.134845	25596.514107
638.479808	25470.974252
638.824719	25315.825181
639.169577	24961.114473
639.514383	24903.889815
639.859137	24612.039775
640.203839	24690.316291
640.548489	24348.982285
640.893086	24320.098994
641.237632	24050.629156
641.582125	24031.331619
641.926566	23903.971908
642.270955	23793.762203
642.615292	23702.814747
642.959576	23597.817594
643.303809	23503.038861
643.647990	23513.768957
643.992118	23393.676069
644.336195	23294.579587
644.680219	23255.961828
645.024192	23345.936342
645.368112	23554.201531
645.711981	23461.986224
646.055797	23894.885229
646.399562	23732.376073
646.743274	24219.651483
647.086935	24382.700042
647.430544	24215.091759
647.774101	24194.420508
648.117606	24237.628238
648.461059	24354.527554
648.804460	24056.381113
649.147810	23586.916099
649.491108	23361.669783
649.834354	23067.664650
650.177548	22482.951298
650.520690	22133.745530
650.863781	22052.204866
651.206820	21895.240979
651.549807	21555.479813
651.892742	21189.665964
652.235626	20990.505099
652.578458	20823.862197
652.921238	20388.571165
653.263967	20488.058336
653.606644	20227.052596
653.949269	20113.906418
654.291843	19789.891296
654.634365	19934.141392
654.976836	19637.971083
655.319255	19547.976405
655.661622	19473.112750
656.003938	19271.219579
656.346203	19113.542369
656.688416	19154.726076
657.030577	18980.365167
657.372687	18810.304363
657.714746	18876.991266
658.056753	18862.782774
658.398708	18494.178646
658.740612	18433.969625
659.082465	18501.543772
659.424266	18328.533892
659.766016	18311.719124
660.107715	18178.133588
660.449362	18161.275970
660.790958	18072.602073
661.132503	18008.954986
661.473996	17939.291281
661.815438	17926.950536
662.156829	17942.147094
662.498168	17749.983351
662.839456	17688.299792
663.180693	17677.814192
663.521879	17674.781938
663.863013	17574.352071
664.204097	17498.588570
664.545129	17637.258110
664.886110	17545.173873
665.227040	17499.223756
665.567918	17479.971589
665.908746	17432.516687
666.249522	17437.734282
666.590248	17363.089917
666.930922	17343.976382
667.271545	17250.120179
667.612118	17225.078248
667.952639	17042.359106
668.293109	16986.631671
668.633528	16871.448867
668.973896	16772.244001
669.314213	16714.391719
669.654480	16530.797937
669.994695	16459.183306
670.334859	16329.081207
670.674973	16223.133797
671.015035	16217.984259
671.355047	16123.941534
671.695008	16039.164449
672.034918	15916.593835
672.374777	15877.401384
672.714585	15734.096504
673.054342	15756.375883
673.394049	15597.120792
673.733705	15649.100129
674.073310	15445.064469
674.412864	15407.931329
674.752368	15172.973231
675.091820	15228.131016
675.431223	15002.287323
675.770574	14817.955012
676.109875	14690.565055
676.449125	14520.438715
676.788324	14415.660853
677.127473	14145.664215
677.466571	14045.304924
677.805619	13849.209081
678.144616	13783.903453
678.483562	13688.013145
678.822458	13504.000948
679.161303	13412.309921
679.500098	13319.252742
679.838842	13216.319942
680.177535	13203.333929
680.516179	13242.032347
680.854771	13274.449487
681.193314	13534.275597
681.531805	13869.499725
681.870247	14101.165950
682.208638	14317.063446
682.546978	14339.438607
682.885268	14318.245596
683.223508	14076.499584
683.561697	13894.990319
683.899836	13769.044652
684.237925	13539.828428
684.575963	13421.494903
684.913951	13205.489023
685.251889	13204.579094
685.589776	13147.472904
685.927614	13089.562649
686.265401	13076.183427
686.603137	13064.598855
686.940824	13183.640662
687.278460	13265.032611
687.616046	13266.577725
687.953582	13436.368828
688.291068	13356.345552
688.628504	13403.550916
688.965889	13336.432994
689.303224	13159.238957
689.640510	12981.739930
689.977745	12677.975123
690.314930	12353.460926
690.652065	12123.511214
690.989150	11836.014210
691.326185	11494.947385
691.663170	11216.592513
692.000105	10924.689541
692.336990	10657.513428
692.673825	10465.745416
693.010610	10248.988403
693.347345	10028.432881
693.684030	9778.636146
694.020665	9645.690837
694.357251	9411.753572
694.693786	9346.674797
695.030272	9238.489115
695.366707	9036.318681
695.703093	8915.903159
696.039429	8873.035708
696.375716	8760.083615
696.711952	8719.025937
697.048139	8642.738156
697.384276	8564.927946
697.720363	8568.923061
698.056400	8477.766396
698.392388	8394.970486
698.728326	8343.265891
699.064214	8259.920495
699.400053	8208.283956
699.735842	8083.341478
700.071581	7964.178684
700.407270	7850.382197
700.742910	7767.051924
701.078501	7663.073085
701.414042	7548.943883
701.749533	7440.037315
702.084974	7316.932338
702.420366	7335.889597
702.755709	7188.166146
703.091002	7083.476504
703.426246	7060.075468
703.761440	7001.209914
704.096584	6906.174082
704.431679	6870.616303
704.766725	6815.607233
705.101721	6774.325224
705.436668	6769.271467
705.771565	6671.856210
706.106413	6725.105918
706.441212	6696.474685
706.775961	6698.496187
707.110661	6696.756989
707.445311	6757.759992
707.779913	6700.066507
708.114465	6731.203194
708.448967	6772.636437
708.783421	6903.777013
709.117825	6955.421114
709.452180	6994.590879
709.786485	7065.676190
710.120742	7237.115750
710.454949	7242.318220
710.789107	7334.745256
711.123216	7485.059860
711.457275	7514.006166
711.791286	7632.737942
712.125247	7644.972822
712.459159	7559.863022
712.793023	7680.160076
713.126837	7413.392297
713.460602	7429.876870
713.794318	7321.103893
714.127985	7199.042435
714.461602	6971.736808
714.795171	6919.366782
715.128691	6677.333424
715.462162	6523.338777
715.795584	6397.415795
716.128957	6309.087217
716.462281	6198.464138
716.795556	6118.365244
717.128782	5988.338763
717.461960	5855.834555
717.795088	5814.421476
718.128167	5713.298450
718.461198	5605.092603
718.794180	5556.758020
719.127113	5466.415502
719.459997	5411.933232
719.792833	5324.877546
720.125619	5305.275020
720.458357	5230.484461
720.791046	5177.249877
721.123686	5132.141632
721.456278	5077.596347
721.788821	5055.763110
722.121315	4998.609028
722.453761	4992.552082
722.786158	4963.567968
723.118506	4954.052790
723.450805	4921.335702
723.783056	4934.162918
724.115259	4905.282147
724.447412	4879.393302
724.779518	4913.983179
725.111574	4904.767949
725.443582	4933.116878
725.775542	4918.235392
726.107453	4994.281198
726.439315	4964.848421
726.771129	5031.905849
727.102895	5086.123459
727.434612	5118.096977
727.766281	5130.757835
728.097901	5163.585829
728.429473	5159.182381
728.760996	5142.571779
729.092471	5143.605216
729.423897	5107.835709
729.755276	5077.485442
730.086606	5077.387139
730.417887	5139.574813
730.749120	5209.588878
731.080305	5224.480447
731.411442	5267.408393
731.742530	5257.681486
732.073570	5265.762456
732.404562	5301.151356
732.735506	5266.553917
733.066401	5203.022776
733.397249	5097.702989
733.728048	4972.324452
734.058798	4823.318027
734.389501	4697.878996
734.720156	4606.679481
735.050762	4512.351931
735.381320	4444.054379
735.711831	4396.481010
736.042293	4334.613449
736.372707	4319.837828
736.703073	4282.119914
737.033391	4298.859066
737.363661	4291.234321
737.693883	4297.674395
738.024056	4323.888395
738.354182	4346.944112
738.684260	4388.954567
739.014290	4419.307355
739.344272	4447.215182
739.674207	4486.805884
740.004093	4503.550077
740.333931	4495.799303
740.663722	4496.051360
740.993464	4483.408146
741.323159	4448.243578
741.652806	4395.039240
741.982405	4355.123384
742.311956	4295.857059
742.641460	4260.780710
742.970915	4203.911454
743.300323	4139.883759
743.629683	4096.328189
743.958996	4050.226838
744.288260	3998.328159
744.617477	3945.857309
744.946647	3921.385027
745.275768	3880.670148
745.604842	3846.415508
745.933869	3813.905107
746.262847	3801.140905
746.591778	3789.977270
746.920662	3766.298971
747.249498	3757.050974
747.578286	3772.469343
747.907027	3783.673307
748.235720	3810.262873
748.564365	3811.881084
748.892963	3794.100934
749.221514	3798.572438
749.550017	3771.798869
749.878473	3757.638268
750.206881	3724.774986
750.535242	3705.071637
750.863555	3689.867517
751.191821	3672.198272
751.520039	3666.073270
751.848210	3648.588028
752.176334	3654.246723
752.504411	3633.343579
752.832440	3613.156278
753.160421	3614.867750
753.488356	3597.538784
753.816243	3588.381528
754.144082	3560.987898
754.471875	3551.492885
754.799620	3542.867470
755.127318	3535.661141
755.454969	3524.953730
755.782572	3517.207997
756.110129	3510.601565
756.437638	3500.612519
756.765100	3496.796365
757.092515	3489.945437
757.419882	3492.904595
757.747203	3491.188082
758.074477	3499.344669
758.401703	3493.633041
758.728882	3504.963035
759.056014	3509.507635
759.383099	3520.232690
759.710138	3526.778628
760.037129	3537.546532
760.364073	3534.592416
760.690970	3529.954555
761.017820	3518.319572
761.344623	3531.847508
761.671379	3563.470666
761.998088	3615.770117
762.324751	3786.274543
762.651366	4099.272223
762.977935	4495.837111
763.304456	4727.417637
763.630931	4766.262247
763.957359	4622.269250
764.283740	4409.363679
764.610074	4203.142678
764.936362	3974.821258
765.262602	3805.751041
765.588796	3644.454282
765.914943	3537.753220
766.241044	3442.568673
766.567097	3370.437324
766.893104	3311.712923
767.219064	3272.717077
767.544978	3226.492217
767.870845	3188.776824
768.196665	3164.725479
768.522438	3141.306799
768.848165	3119.821401
769.173846	3100.022270
769.499479	3087.827718
769.825066	3064.797207
770.150607	3042.938764
770.476101	3032.929553
770.801548	3020.114940
771.126949	3003.670696
771.452303	2991.110661
771.777611	2975.084833
772.102872	2969.111066
772.428087	2954.584981
772.753256	2940.951181
773.078378	2930.523554
773.403453	2916.173909
773.728482	2903.356776
774.053465	2895.205230
774.378401	2888.218191
774.703291	2874.707898
775.028135	2865.616177
775.352932	2857.557893
775.677683	2848.509022
776.002388	2839.739935
776.327046	2837.806652
776.651658	2829.279541
776.976224	2818.554486
777.300743	2817.831080
777.625216	2811.320430
777.949643	2806.548978
778.274024	2803.776343
778.598359	2795.897020
778.922647	2794.525826
779.246889	2790.986936
779.571086	2788.395783
779.895236	2793.832667
780.219339	2789.409055
780.543397	2789.761936
780.867409	2790.437450
781.191374	2791.967440
781.515294	2786.152469
781.839167	2792.859725
782.162995	2786.283539
782.486776	2781.885133
782.810511	2775.785337
783.134201	2766.025663
783.457844	2766.771753
783.781441	2759.000815
784.104993	2755.164497
784.428498	2751.837335
784.751958	2749.583939
785.075372	2745.692169
785.398739	2738.218658
785.722061	2738.629512
786.045337	2739.867115
786.368568	2746.445821
786.691752	2748.880698
787.014891	2768.810900
787.337983	2794.992133
787.661030	2839.011488
787.984031	2873.077085
788.306987	2890.665671
788.629897	2891.515105
788.952760	2880.064124
789.275579	2859.465970
789.598351	2834.487052
789.921078	2810.186170
790.243759	2787.185906
790.566395	2772.044800
790.888984	2755.184661
791.211529	2742.622106
791.534027	2733.855539
791.856480	2718.084290
792.178888	2713.617827
792.501249	2703.825386
792.823566	2698.585107
793.145836	2695.573017
793.468062	2694.269879
793.790241	2687.325689
794.112375	2692.331555
794.434464	2700.021835
794.756507	2700.112576
795.078505	2711.803012
795.400457	2728.108624
795.722364	2742.523803
796.044226	2761.841505
796.366042	2770.779471
796.687812	2767.611106
797.009538	2765.866866
797.331218	2758.983171
797.652852	2754.413365
797.974442	2742.667476
798.295986	2737.195304
798.617484	2726.273644
798.938938	2718.288456
799.260346	2711.639174
799.581709	2697.546629
799.903026	2696.548480
800.224299	2689.548838
800.545526	2682.652540
800.866708	2677.994514
801.187845	2672.426559
801.508936	2665.726866
801.829983	2665.976403
802.150984	2655.813437
802.471940	2656.282264
802.792851	2654.787562
803.113717	2651.898981
803.434538	2649.769093
803.755314	2646.865389
804.076045	2643.351704
804.396731	2643.702065
804.717372	2643.974287
805.037967	2642.809780
805.358518	2647.477889
805.679024	2650.225318
805.999485	2653.174393
806.319901	2653.741522
806.640272	2653.686070
806.960598	2656.559527
807.280879	2656.859476
807.601115	2658.878458
807.921306	2654.618683
808.241453	2652.798827
808.561554	2653.227325
808.881611	2653.411327
809.201623	2649.733805
809.521590	2645.751294
809.841513	2643.502939
810.161390	2646.094092
810.481223	2636.341980
810.801011	2636.646970
811.120755	2634.045734
811.440453	2630.758902
811.760107	2626.443674
812.079716	2626.131123
812.399281	2616.469752
812.718801	2618.400513
813.038276	2614.125615
813.357707	2613.976901
813.677093	2613.245934
813.996434	2611.582353
814.315731	2615.504371
814.634983	2613.964298
814.954191	2611.847013
815.273354	2613.734926
815.592473	2618.501337
815.911547	2623.388735
816.230577	2625.327059
816.549562	2635.474902
816.868502	2636.672176
817.187399	2642.013278
817.506250	2643.921355
817.825058	2647.719864
818.143821	2653.557520
818.462539	2669.222906
818.781213	2681.626665
819.099843	2703.979141
819.418429	2744.038670
819.736970	2782.956378
820.055466	2825.609581
820.373919	2878.975235
820.692327	2970.714153
821.010691	3148.092192
821.329011	3603.623457
821.647286	4375.527454
821.965517	5220.581114
822.283704	5661.064535
822.601847	5695.369587
822.919945	5264.771869
823.237999	4842.025749
823.556010	4455.089465
823.873976	4119.797281
824.191897	3830.152746
824.509775	3616.662401
824.827609	3420.642175
825.145398	3302.328815
825.463144	3241.855133
825.780845	3251.297214
826.098502	3330.246725
826.416116	3473.405412
826.733685	3604.261163
827.051210	3628.609936
827.368692	3542.141544
827.686129	3388.890467
828.003522	3237.887745
828.320872	3100.266766
828.638177	2999.098370
828.955439	2916.574681
829.272656	2849.401306
829.589830	2792.680764
829.906960	2750.675349
830.224046	2716.927345
830.541088	2688.366688
830.858086	2671.753565
831.175041	2657.008190
831.491952	2653.786893
831.808819	2653.423930
832.125642	2667.702998
832.442421	2698.451516
832.759157	2761.738161
833.075849	2867.287320
833.392497	2974.190028
833.709101	3042.701830
834.025662	3029.070550
834.342179	2966.819862
834.658653	2892.203223
834.975083	2825.886844
835.291469	2778.167282
835.607811	2732.764130
835.924110	2698.993440
836.240366	2667.050169
836.556578	2641.073103
836.872746	2618.829012
837.188871	2599.473501
837.504952	2585.852304
837.820990	2575.185222
838.136984	2568.548543
838.452935	2562.854560
838.768842	2565.286917
839.084706	2582.459607
839.400526	2629.223871
839.716303	2683.910308
840.032037	2717.605380
840.347727	2710.938454
840.663373	2676.434277
840.978977	2638.910448
841.294537	2612.880450
841.610054	2592.584765
841.925527	2578.414081
842.240957	2564.805486
842.556344	2550.609597
842.871687	2540.592824
843.186987	2531.687626
843.502244	2524.773684
843.817458	2515.757580
844.132629	2510.812208
844.447756	2509.350273
844.762840	2502.814418
845.077881	2499.300733
845.392879	2496.646566
845.707833	2499.013388
846.022745	2491.376039
846.337613	2494.057933
846.652438	2493.828561
846.967221	2496.064313
847.281960	2492.328817
847.596656	2494.141112
847.911309	2490.075422
848.225919	2489.843529
848.540485	2489.367140
848.855009	2488.981491
849.169490	2492.525423
849.483928	2489.510812
849.798323	2488.890751
850.112675	2486.526449
850.426984	2487.673312
850.741251	2486.939824
851.055474	2482.632158
851.369654	2484.898157
851.683792	2485.543424
851.997887	2487.605256
852.311938	2488.207674
852.625947	2485.384628
852.939914	2486.045019
853.253837	2486.213898
853.567718	2486.420585
853.881555	2485.465287
854.195350	2484.895636
854.509103	2485.354381
854.822812	2485.485451
855.136479	2485.429998
855.450103	2485.465287
855.763685	2486.982674
856.077224	2485.061994
856.390720	2487.106182
856.704173	2486.725575
857.017584	2484.754484
857.330953	2485.014103
857.644278	2487.224649
857.957561	2489.641883
858.270802	2485.835811
858.584000	2488.333703
858.897155	2485.402272
859.210268	2485.548466
859.523339	2483.360605
859.836367	2485.987046
860.149352	2483.824391
860.462295	2486.753301
860.775195	2481.835656
861.088054	2482.352374
861.400869	2482.337251
861.713642	2479.587301
862.026373	2482.475882
862.339062	2485.177941
862.651708	2484.845225
862.964312	2486.680205
863.276873	2487.418734
863.589392	2489.054588
863.901869	2492.210350
864.214303	2489.357057
864.526696	2493.082470
864.839045	2490.408138
865.151353	2495.300578
865.463619	2491.988540
865.775842	2495.517347
866.088023	2495.527430
866.400162	2495.575321
866.712258	2494.902327
867.024313	2494.357882
867.336325	2491.751605
867.648296	2496.714621
867.960224	2494.327635
868.272110	2496.535660
868.583954	2494.236894
868.895755	2497.299395
869.207515	2495.086329
869.519233	2497.639673
869.830909	2498.884838
870.142542	2499.008346
870.454134	2499.227637
870.765684	2498.153871
871.077191	2499.724190
871.388657	2502.988337
871.700081	2501.760816
872.011463	2501.395333
872.322803	2505.907165
872.634101	2508.510921
872.945357	2506.663338
873.256571	2512.054853
873.567744	2511.049142
873.878874	2511.724657
874.189963	2511.701972
874.501010	2513.627693
874.812015	2514.053670
875.122979	2514.663650
875.433900	2513.360511
875.744780	2514.303207
876.055618	2514.192302
876.366415	2517.249762
876.677169	2518.845287
876.987882	2515.439987
877.298554	2518.126922
877.609183	2521.781759
877.919771	2523.752850
878.230317	2529.530012
878.540822	2545.134904
878.851285	2551.819474
879.161707	2566.748851
879.472087	2596.597523
879.782425	2638.489512
880.092722	2714.613455
880.402977	2843.213290
880.713191	3004.326046
881.023363	3171.394926
881.333494	3266.181221
881.643583	3288.213584
881.953631	3256.532453
882.263637	3202.962631
882.573602	3138.085502
882.883526	3076.502766
883.193408	3017.753159
883.503248	2955.210084
883.813048	2901.489028
884.122806	2851.609332
884.432522	2800.076136
884.742197	2755.514857
885.051831	2718.013713
885.361424	2678.675069
885.670975	2651.281439
885.980485	2626.562142
886.289954	2607.131014
886.599382	2591.231215
886.908768	2576.768144
887.218113	2566.111145
887.527417	2555.572613
887.836680	2546.526262
888.145901	2538.906558
888.455082	2535.942360
888.764221	2528.524302
889.073319	2521.975843
889.382376	2522.046419
889.691392	2520.345030
890.000366	2519.324196
890.309300	2521.249917
890.618193	2518.308404
890.927044	2517.050636
891.235855	2518.840246
891.544625	2517.801768
891.853353	2522.734537
892.162041	2525.567665
892.470687	2532.249715
892.779293	2542.072403
893.087858	2551.040616
893.396381	2568.699778
893.704864	2595.964858
894.013306	2632.475415
894.321707	2673.134841
894.630068	2697.813810
894.938387	2700.629294
895.246665	2691.915660
895.554903	2675.098371
895.863100	2656.942655
896.171256	2638.446662
896.479371	2621.402521
896.787446	2604.013060
897.095480	2587.694845
897.403473	2580.339802
897.711425	2571.462330
898.019336	2560.139898
898.327207	2550.317210
898.635038	2546.470810
898.942827	2537.961342
899.250576	2528.078160
899.558284	2525.108920
899.865952	2518.988960
900.173579	2514.827487
900.481165	2515.205574
900.788711	2507.112001
901.096216	2506.706188
901.403681	2504.372134
901.711105	2503.217710
902.018489	2503.363903
902.325832	2507.802639
902.633135	2510.615603
902.940397	2524.476256
903.247619	2554.158569
903.554800	2607.216714
903.861941	2669.671569
904.169041	2718.732078
904.476101	2737.714543
904.783121	2720.287274
905.090100	2697.912112
905.397039	2671.249450
905.703938	2643.991931
906.010796	2623.615587
906.317614	2601.691609
906.624391	2585.595205
906.931129	2569.221537
907.237826	2557.662171
907.544483	2541.648946
907.851099	2527.805938
908.157675	2515.560975
908.464211	2504.175529
908.770707	2494.620022
909.077163	2490.458549
909.383578	2487.065853
909.689954	2482.652323
909.996289	2474.881384
910.302584	2479.040336
910.608839	2477.233082
910.915054	2479.673001
911.221229	2474.931796
911.527363	2477.502784
911.833458	2475.322485
912.139513	2480.865234
912.445527	2484.005872
912.751502	2480.308186
913.057436	2488.495020
913.363331	2491.565083
913.669186	2498.421052
913.975000	2508.841117
914.280775	2523.765453
914.586510	2541.913607
914.892205	2571.706826
915.197859	2604.237392
915.503475	2647.251037
915.809050	2679.174144
916.114585	2700.339428
916.420081	2705.491487
916.725536	2703.636343
917.030952	2688.996832
917.336328	2676.494770
917.641665	2661.903151
917.946961	2647.866058
918.252218	2633.637401
918.557435	2616.580657
918.862612	2601.452154
919.167750	2585.315421
919.472848	2575.349060
919.777906	2560.364230
920.082925	2545.039122
920.387904	2534.631660
920.692843	2527.977337
920.997743	2517.075842
921.302603	2509.110819
921.607423	2508.294152
921.912204	2500.498007
922.216946	2498.806700
922.521647	2492.704383
922.826310	2487.201964
923.130932	2485.344299
923.435516	2483.844556
923.740059	2480.151910
924.044564	2477.575881
924.349028	2476.207207
924.653454	2468.854685
924.957840	2467.798563
925.262186	2465.777060
925.566493	2465.729169
925.870761	2462.293623
926.174989	2465.719087
926.479178	2462.727162
926.783328	2461.718931
927.087438	2459.432768
927.391509	2461.824796
927.695541	2460.259517
927.999533	2457.010494
928.303486	2459.994857
928.607400	2455.397324
928.911275	2455.772890
929.215110	2454.182406
929.518906	2453.769032
929.822663	2455.109979
930.126381	2452.574278
930.430060	2455.170472
930.733699	2455.046964
931.037299	2455.273816
931.340861	2454.184927
931.644383	2456.501337
931.947866	2454.018569
932.251309	2454.830195
932.554714	2455.046964
932.858080	2455.004114
933.161407	2453.471604
933.464694	2454.134515
933.767943	2455.646862
934.071153	2454.174845
934.374323	2451.112344
934.677455	2453.506892
934.980548	2452.607046
935.283602	2456.037551
935.586617	2448.969853
935.889593	2452.838939
936.192530	2451.250975
936.495428	2455.750205
936.798287	2453.161573
937.101108	2454.724330
937.403890	2455.185596
937.706632	2455.906481
938.009336	2460.176338
938.312002	2464.783953
938.614628	2461.933180
938.917216	2468.214458
939.219765	2469.079016
939.522275	2467.990127
939.824747	2472.955663
940.127179	2466.722277
940.429573	2463.558952
940.731929	2468.277472
941.034246	2463.503500
941.336524	2470.984572
941.638763	2467.770837
941.940964	2465.023408
942.243126	2465.149437
942.545250	2462.936370
942.847335	2461.779425
943.149381	2466.606330
943.451389	2462.437296
943.753359	2461.146760
944.055290	2457.900257
944.357182	2458.558128
944.659036	2456.768518
944.960851	2456.660133
945.262628	2455.261213
945.564367	2455.190637
945.866067	2457.330607
946.167729	2455.306584
946.469352	2454.792386
946.770937	2456.889506
947.072484	2455.193158
947.373992	2455.848508
947.675462	2455.588888
947.976893	2454.981429
948.278286	2453.234669
948.579641	2452.024792
948.880958	2452.947324
949.182236	2453.040585
949.483476	2453.330451
949.784678	2452.511264
950.085841	2452.702828
950.386967	2454.182406
950.688054	2453.685853
950.989103	2455.387242
951.290114	2455.775411
951.591087	2452.148301
951.892021	2456.166100
952.192917	2459.881431
952.493776	2455.510750
952.794596	2459.271451
953.095378	2459.679785
953.396122	2458.734568
953.696828	2458.754733
953.997496	2458.532922
954.298126	2456.387911
954.598718	2456.861780
954.899272	2454.968826
955.199788	2453.907663
955.500266	2454.323559
955.800706	2450.572940
956.101108	2448.301900
956.401472	2447.356684
956.701798	2442.257557
957.002087	2444.586570
957.302337	2444.183278
957.602550	2446.066149
957.902724	2443.386775
958.202861	2445.100768
958.502960	2443.429625
958.803022	2442.255036
959.103045	2440.382248
959.403031	2439.651280
959.702979	2440.321754
960.002889	2438.892587
960.302762	2441.085489
960.602596	2438.993410
960.902393	2439.437031
961.202153	2437.158430
961.501875	2436.127514
961.801559	2434.831937
962.101205	2436.861002
962.400814	2437.710436
962.700385	2437.135745
962.999918	2438.038111
963.299414	2436.392174
963.598873	2433.929571
963.898293	2434.839499
964.197677	2435.399067
964.497022	2433.717842
964.796331	2435.467123
965.095601	2434.186670
965.394835	2435.550302
965.694030	2434.428645
965.993189	2435.736824
966.292309	2433.866556
966.591393	2434.279931
966.890439	2432.933943
967.189447	2436.800508
967.488419	2430.617533
967.787353	2433.974941
968.086249	2434.133737
968.385108	2433.695157
968.683930	2434.161464
968.982714	2433.531320
969.281462	2431.540064
969.580172	2434.209355
969.878844	2434.552153
970.177480	2433.032245
970.476078	2434.290013
970.774639	2436.868563
971.073162	2434.710950
971.371649	2433.241453
971.670098	2432.172729
971.968510	2432.001329
972.266885	2429.533685
972.565223	2434.562236
972.863524	2434.186670
973.161788	2438.010385
973.460014	2438.678338
973.758204	2436.581218
974.056356	2436.563574
974.354471	2435.555343
974.652550	2432.936463
974.950591	2435.116762
975.248595	2436.046855
975.546563	2434.214396
975.844493	2433.801021
976.142386	2436.004006
976.440243	2437.269335
976.738062	2434.554674
977.035845	2434.297575
977.333590	2433.463264
977.631299	2433.732966
977.928971	2434.957966
978.226606	2431.688778
978.524204	2434.194231
978.821765	2431.895465
979.119290	2432.790270
979.416777	2431.477049
979.714228	2433.695157
980.011642	2433.155754
980.309020	2433.617019
980.606360	2433.823707
980.903664	2435.484767
981.200931	2437.372679
981.498162	2437.246650
981.795356	2441.246806
982.092513	2442.774275
982.389633	2449.506736
982.686717	2452.438167
982.983764	2451.699638
983.280775	2452.710389
983.577749	2455.775411
983.874686	2455.969495
984.171587	2453.272478
984.468451	2453.111161
984.765279	2451.049329
985.062070	2447.734771
985.358824	2445.380552
985.655543	2443.202773
985.952224	2441.803853
986.248869	2437.614654
986.545478	2433.508634
986.842050	2432.954107
987.138586	2428.563263
987.435086	2429.584096
987.731549	2428.752306
988.027975	2432.497883
988.324366	2427.033272
988.620719	2426.546801
988.917037	2423.499423
989.213318	2425.838519
989.509563	2427.444126
989.805772	2423.940524
990.101944	2426.927408
990.398080	2425.737696
990.694180	2426.178797
990.990244	2426.713159
991.286271	2423.186872
991.582262	2427.328180
991.878217	2426.193920
992.174136	2428.790114
992.470019	2424.616039
992.765865	2429.516041
993.061676	2428.011256
993.357450	2427.181986
993.653188	2428.170053
993.948890	2429.516041
994.244556	2427.403797
994.540186	2428.961514
994.835780	2432.205496
995.131337	2430.060485
995.426859	2436.687082
995.722345	2436.707247
996.017795	2435.199942
996.313208	2437.360076
996.608586	2438.406115
996.903928	2439.295879
997.199234	2440.452824
997.494504	2439.920982
997.789738	2439.011054
998.084936	2437.675148
998.380099	2436.460230
998.675225	2433.523758
998.970316	2434.030394
999.265371	2432.689447
999.560390	2432.283634
999.855373	2426.408169
1000.150320	2427.492017
1000.445232	2428.780032
1000.740108	2426.292223
1001.034948	2424.537901
1001.329752	2425.467994
1001.624521	2426.433375
1001.919254	2418.571696
1002.213951	2421.104875
1002.508613	2423.733837
1002.803239	2421.188054
1003.097829	2418.115471
1003.392384	2420.381470
1003.686903	2422.695359
1003.981386	2424.187541
1004.275834	2422.458425
1004.570246	2422.425658
1004.864623	2420.260482
1005.158964	2421.127561
1005.453270	2419.063208
1005.747540	2420.862900
1006.041775	2421.936666
1006.335974	2421.997160
1006.630138	2419.708476
1006.924266	2421.906419
1007.218359	2420.711665
1007.512416	2421.765267
1007.806438	2422.193765
1008.100425	2420.096645
1008.394376	2421.414906
1008.688292	2419.201840
1008.982172	2420.477252
1009.276017	2419.683270
1009.569827	2418.070101
1009.863602	2421.356933
1010.157341	2420.424320
1010.451045	2418.743095
1010.744714	2421.987077
1011.038347	2416.887950
1011.331945	2419.335430
1011.625508	2418.029772
1011.919036	2420.021027
1012.212528	2417.870975
1012.505986	2422.186203
1012.799408	2417.707138
1013.092795	2419.098496
1013.386147	2418.659916
1013.679464	2419.128743
1013.972745	2417.288722
1014.265992	2417.429874
1014.559204	2419.098496
1014.852380	2421.369536
1015.145521	2418.047416
1015.438628	2418.279309
1015.731699	2418.511202
1016.024736	2420.477252
1016.317737	2419.146387
1016.610703	2421.840884
1016.903635	2415.426016
1017.196531	2416.734195
1017.489393	2416.509864
1017.782219	2410.878895
1018.075011	2419.219484
1018.367768	2418.264185
1018.660490	2418.259144
1018.953177	2418.259144
1019.245829	2418.259144
