Dividing Wavelength (nm)	Counts (n)	Blue Motor Position (mm): 0.000000	Red Motor Position (mm): 24.200000	
326.493990	1985.173617
326.888308	1985.173617
327.282561	1985.173617
327.676750	1961.165122
328.070874	1962.311984
328.464933	1969.112501
328.858929	1977.614407
329.252859	1987.225367
329.646726	2005.781854
330.040528	2020.953207
330.434265	2037.770496
330.827938	2058.219936
331.221547	2075.342215
331.615091	2099.975814
332.008571	2115.298401
332.401986	2140.030302
332.795338	2157.492858
333.188625	2181.851714
333.581847	2200.009950
333.975006	2214.876313
334.368100	2233.904148
334.761129	2251.938876
335.154095	2266.734662
335.546996	2283.569596
335.939833	2307.270580
336.332606	2321.746254
336.725315	2332.962821
337.117960	2338.903821
337.510540	2345.457321
337.903056	2355.716069
338.295508	2360.545494
338.687896	2369.861547
339.080220	2377.934954
339.472480	2382.681201
339.864676	2386.542725
340.256807	2388.743188
340.648875	2389.277551
341.040879	2392.027500
341.432818	2393.597819
341.824694	2394.260731
342.216506	2393.368447
342.608253	2391.921636
342.999937	2390.532798
343.391557	2392.299722
343.783113	2390.328631
344.174605	2391.024310
344.566033	2388.044988
344.957397	2385.980636
345.348697	2385.423588
345.739934	2383.875954
346.131106	2380.269009
346.522215	2376.054604
346.913260	2377.755993
347.304241	2376.344470
347.695159	2373.337422
348.086012	2373.400437
348.476802	2371.126876
348.867528	2370.073275
349.258191	2370.090919
349.648789	2367.719056
350.039324	2367.169570
350.429796	2367.802235
350.820203	2365.369878
351.210548	2367.217461
351.600828	2365.306864
351.991045	2365.188397
352.381198	2363.933150
352.771288	2365.357276
353.161314	2369.175950
353.551276	2365.478263
353.941175	2366.368027
354.331010	2367.845085
354.720782	2364.482635
355.110490	2366.466329
355.500135	2369.977493
355.889717	2368.039169
356.279235	2368.969262
356.668689	2367.935826
357.058080	2367.411546
357.447408	2366.894828
357.836672	2363.940711
358.225873	2367.764427
358.615010	2366.806607
359.004084	2371.499922
359.393095	2372.876157
359.782043	2372.924048
360.170927	2373.788605
360.559748	2372.770292
360.948505	2374.648122
361.337199	2373.677700
361.725830	2378.008051
362.114398	2379.018803
362.502903	2379.018803
362.891344	2380.165665
363.279722	2381.670449
363.668037	2380.339585
364.056289	2381.022661
364.444478	2383.273536
364.832603	2382.033412
365.220665	2383.059287
365.608665	2382.693804
365.996601	2385.305121
366.384474	2385.960471
366.772284	2388.831408
367.160031	2386.837632
367.547715	2388.707900
367.935336	2387.293857
368.322893	2389.282592
368.710388	2390.061450
369.097820	2395.526061
369.485189	2394.613612
369.872495	2396.534292
370.259738	2395.228633
370.646918	2400.647873
371.034035	2399.667369
371.421090	2400.365568
371.808081	2406.142731
372.195010	2411.430901
372.581875	2416.013310
372.968678	2423.005390
373.355418	2427.330700
373.742096	2441.652618
374.128710	2449.032868
374.515262	2462.306226
374.901751	2476.953298
375.288177	2493.568941
375.674540	2510.595438
376.060841	2533.552853
376.447079	2555.885165
376.833254	2584.700400
377.219367	2607.448607
377.605417	2642.598052
377.991404	2667.458502
378.377329	2710.835110
378.763191	2742.614544
379.148991	2789.850156
379.534727	2838.706498
379.920402	2883.303066
380.306013	2932.635797
380.691563	2998.727845
381.077049	3050.906308
381.462474	3108.158692
381.847835	3182.571164
382.233134	3251.604725
382.618371	3311.448262
383.003545	3398.776170
383.388657	3479.684169
383.773706	3570.656831
384.158693	3645.102070
384.543618	3733.748240
384.928480	3813.700940
385.313280	3917.737753
385.698017	4023.720451
386.082692	4142.976507
386.467305	4205.353224
386.851856	4329.441226
387.236344	4481.948732
387.620770	4552.098909
388.005133	4669.043596
388.389435	4816.273014
388.773674	4899.285695
389.157851	5034.060943
389.541965	5164.465510
389.926018	5188.012740
390.310008	5368.513774
390.693936	5488.828472
391.077802	5603.030772
391.461606	5738.284929
391.845348	5850.125448
392.229027	5975.075487
392.612645	6194.867274
392.996200	6308.227701
393.379694	6486.669423
393.763125	6704.926179
394.146494	6801.403782
394.529801	6934.094512
394.913047	7180.284302
395.296230	7176.299270
395.679351	7221.614202
396.062410	7486.289902
396.445408	7386.031434
396.828343	7536.575412
397.211217	7674.211514
397.594028	7556.424955
397.976778	7760.886593
398.359466	7925.707118
398.742092	7896.405411
399.124656	8045.273205
399.507158	8231.347235
399.889598	8247.184019
400.271977	8450.771018
400.654294	8487.662181
401.036549	8682.328858
401.418742	8710.037560
401.800874	9007.974793
402.182944	9089.260878
402.564952	9454.704203
402.946898	9274.419939
403.328783	9329.494544
403.710606	9525.159369
404.092367	9782.971539
404.474067	10143.272886
404.855705	9937.878635
405.237282	9887.013392
405.618797	10317.414505
406.000250	10559.778058
406.381642	10919.507235
406.762972	10862.630417
407.144240	10672.102528
407.525447	10922.657956
407.906593	10861.871723
408.287677	11121.223965
408.668700	11266.804926
409.049661	11242.622511
409.430560	11409.000753
409.811399	11377.314580
410.192176	11541.167204
410.572891	11611.531629
410.953545	12089.465781
411.334138	11571.540156
411.714669	12165.884633
412.095139	11482.946918
412.475547	11971.948923
412.855894	11826.138590
413.236180	12146.019966
413.616405	11834.045639
413.996568	12105.418513
414.376670	12085.044689
414.756711	11963.636061
415.136691	12236.811147
415.516609	12413.128023
415.896466	12472.595994
416.276262	12768.110953
416.655997	13205.090772
417.035670	13249.243717
417.415283	13884.494637
417.794834	13975.341271
418.174324	13721.791397
418.553753	13620.121406
418.933121	14110.474441
419.312428	13913.577054
419.691674	13827.824506
420.070859	14274.412764
420.449983	13940.945478
420.829045	14483.900432
421.208047	14230.786618
421.586988	14680.495350
421.965867	14929.364512
422.344686	14931.897692
422.723444	15487.914276
423.102141	14185.824567
423.480777	15361.676222
423.859352	14872.326377
424.237866	15966.196268
424.616319	15664.460525
424.994712	16320.768344
425.373044	16112.014164
425.751314	16779.515865
426.129524	15916.210707
426.507673	16995.191550
426.885762	16688.880960
427.263789	16887.915796
427.641756	17057.056590
428.019662	17112.461391
428.397508	17146.789128
428.775292	17439.488603
429.153016	17399.330772
429.530679	17486.482239
429.908282	17503.730547
430.285824	17227.061942
430.663305	17917.039628
431.040726	17522.161006
431.418086	17346.534767
431.795385	17988.117376
432.172624	18405.930727
432.549802	17964.875136
432.926920	18153.091656
433.303977	18026.362090
433.680974	18278.505482
434.057910	18565.982321
434.434786	18585.534436
434.811601	18494.297113
435.188355	19515.642444
435.565050	19176.556792
435.941683	19123.914543
436.318257	19980.656119
436.694770	19788.898188
437.071222	20354.752584
437.447614	19430.842675
437.823946	19459.584813
438.200218	19595.315360
438.576429	19361.294916
438.952580	19616.614235
439.328670	19570.480116
439.704700	19961.474529
440.080670	19517.616056
440.456580	20082.258054
440.832429	20231.130889
441.208218	19224.442713
441.583947	19635.374889
441.959616	19718.649710
442.335224	19921.167983
442.710773	20014.078969
443.086261	20498.097794
443.461689	19851.476552
443.837057	19936.344377
444.212365	20503.534678
444.587612	20458.078594
444.962800	20000.266207
445.337927	20354.051864
445.712995	19098.098795
446.088002	20810.286369
446.462949	20918.961043
446.837837	21017.134994
447.212664	20904.946636
447.587431	23457.751655
447.962139	26106.078978
448.336786	28229.831394
448.711374	26668.802818
449.085901	23174.884951
449.460369	23013.200024
449.834776	22821.948729
450.209124	24936.916934
450.583412	24405.206274
450.957640	24754.563276
451.331808	23416.386467
451.705917	22055.363149
452.079965	21956.397737
452.453954	22121.664404
452.827883	21885.014999
453.201752	21580.020150
453.575562	21568.790980
453.949311	22355.689889
454.323001	22237.510120
454.696632	21882.507025
455.070202	23002.694259
455.443713	22941.169497
455.817164	23216.141754
456.190556	23455.808290
456.563888	22806.726965
456.937160	22950.334315
457.310373	21453.492230
457.683526	21591.766038
458.056619	21370.348479
458.429653	21107.918613
458.802628	21320.221766
459.175542	21202.379754
459.548398	21931.567534
459.921194	22824.973422
460.293930	23073.585485
460.666607	24257.359314
461.039224	25239.945733
461.411782	25213.361208
461.784280	24095.883594
462.156719	23478.884172
462.529099	22795.943937
462.901419	21658.485710
463.273680	20689.165086
463.645882	20474.106943
464.018024	20192.167811
464.390106	20424.723800
464.762130	21798.312194
465.134094	23992.582790
465.505999	26916.172237
465.877845	29426.467727
466.249631	29733.806712
466.621358	28189.217338
466.993026	26464.683978
467.364634	24833.976573
467.736184	23336.937883
468.107674	22274.003032
468.479105	21503.974344
468.850477	20789.037906
469.221790	19722.659947
469.593043	18534.404533
469.964238	17770.952030
470.335373	17429.441583
470.706449	17900.388696
471.077467	18765.624616
471.448425	20533.194307
471.819324	21529.167511
472.190164	20353.872903
472.560945	18443.779711
472.931667	16784.753624
473.302330	16019.103178
473.672934	15394.650410
474.043479	15303.503828
474.413965	14736.290841
474.784393	14328.348069
475.154761	14381.292787
475.525070	14125.897851
475.895321	13710.801681
476.265513	13639.648315
476.635645	13694.997664
477.005719	13382.509140
477.375734	13275.495526
477.745691	13216.768604
478.115588	13353.646014
478.485427	13672.498994
478.855207	14383.258837
479.224928	14884.997318
479.594591	15055.804213
479.964194	14441.242188
480.333739	14149.059432
480.703226	13849.398124
481.072653	13727.321543
481.442022	13572.548037
481.811333	13355.969986
482.180584	12737.506108
482.549777	12311.082466
482.918912	11928.743714
483.287988	11603.332192
483.657005	11172.285812
484.025964	10787.055959
484.394864	10546.658455
484.763706	10212.810562
485.132489	9830.902829
485.501213	9575.732225
485.869879	9389.995952
486.238487	9112.225855
486.607036	8933.229605
486.975527	8659.212647
487.343959	8494.011515
487.712333	8312.240110
488.080648	8114.639482
488.448905	7987.310018
488.817104	7781.704038
489.185244	7727.360399
489.553326	7762.303157
489.921350	7933.314219
490.289315	8135.514900
490.657222	8037.930764
491.025070	7886.910398
491.392861	7584.345385
491.760593	7249.572441
492.128267	6890.927112
492.495883	6573.137815
492.863440	6288.700791
493.230939	6032.645464
493.598380	5802.484023
493.965763	5647.763450
494.333088	5468.356347
494.700354	5312.461184
495.067563	5189.255384
495.434713	5072.401438
495.801805	4976.092715
496.168839	4857.159292
496.535815	4745.540585
496.902733	4650.610617
497.269593	4548.302920
497.636395	4457.116008
498.003139	4398.343716
498.369825	4296.446874
498.736453	4234.455805
499.103023	4148.168895
499.469535	4070.066298
499.835989	4014.112011
500.202385	3937.960341
500.568723	3881.479254
500.935003	3831.521419
501.301226	3773.686782
501.667390	3743.830548
502.033497	3706.876370
502.399546	3637.789877
502.765537	3572.869898
503.131470	3546.779406
503.497345	3519.181609
503.863163	3448.373562
504.228923	3427.772887
504.594625	3405.735483
504.960269	3356.410313
505.325856	3346.554857
505.691385	3305.429124
506.056856	3280.563633
506.422270	3269.853702
506.787625	3240.022674
507.152924	3222.141701
507.518164	3204.215358
507.883347	3169.393588
508.248472	3158.517298
508.613540	3150.486740
508.978550	3141.001809
509.343503	3122.215949
509.708398	3113.865278
510.073236	3101.784153
510.438016	3097.650407
510.802738	3073.606623
511.167403	3076.601069
511.532010	3069.225861
511.896561	3065.339131
512.261053	3071.277610
512.625488	3052.630382
512.989866	3041.088661
513.354186	3033.554656
513.718449	3022.421268
514.082655	3023.464787
514.446803	3017.513705
514.810894	3015.973632
515.174927	3010.037673
515.538904	3003.073319
515.902822	3005.649349
516.266684	2991.234170
516.630488	2993.497648
516.994235	2982.477685
517.357925	2985.840135
517.721558	2983.700165
518.085133	2983.644713
518.448651	2978.807725
518.812112	2972.985193
519.175516	2970.734318
519.538863	2966.812300
519.902152	2964.359778
520.265385	2966.028400
520.628560	2959.943728
520.991678	2955.268058
521.354739	2953.486010
521.717743	2952.848304
522.080690	2946.307407
522.443580	2951.101544
522.806413	2948.696913
523.169189	2948.805298
523.531908	2945.286573
523.894569	2936.336004
524.257174	2935.826848
524.619722	2937.976900
524.982213	2934.458174
525.344647	2930.185797
525.707025	2927.884510
526.069345	2929.774943
526.431608	2928.668409
526.793815	2927.708069
527.155964	2920.789086
527.518057	2920.650454
527.880093	2917.547624
528.242072	2921.704055
528.603995	2911.213414
528.965860	2908.823907
529.327669	2909.249885
529.689421	2905.668145
530.051117	2904.927095
530.412755	2907.515728
530.774337	2904.503638
531.135862	2899.684295
531.497331	2897.627504
531.858743	2896.314284
532.220098	2900.143040
532.581396	2891.928480
532.942638	2889.239024
533.303824	2894.025600
533.664953	2889.574261
534.026025	2883.615617
534.387040	2890.521998
534.747999	2885.551420
535.108902	2886.970505
535.469748	2882.650236
535.830537	2884.722151
536.191270	2882.998076
536.551947	2879.708723
536.912567	2879.297869
537.273131	2882.342726
537.633638	2874.924668
537.994089	2878.246788
538.354483	2868.184645
538.714821	2878.110677
539.075103	2880.021275
539.435328	2879.096223
539.795497	2874.539020
540.155609	2874.390306
540.515665	2878.229144
540.875665	2870.092722
541.235609	2871.892414
541.595496	2870.891745
541.955328	2878.093033
542.315102	2872.706560
542.674821	2867.821682
543.034483	2868.751775
543.394090	2864.391177
543.753640	2864.880169
544.113134	2872.167157
544.472571	2861.603419
544.831953	2873.130017
545.191278	2866.364789
545.550548	2863.274562
545.909761	2863.766074
546.268918	2865.989223
546.628019	2868.638349
546.987064	2862.513347
547.346053	2855.669981
547.704986	2860.645600
548.063863	2856.983202
548.422684	2858.072091
548.781449	2854.523118
549.140158	2856.471524
549.498811	2858.089735
549.857408	2850.091944
550.215949	2855.135619
550.574434	2850.933817
550.932864	2850.172603
551.291237	2854.596215
551.649555	2854.747450
552.007817	2856.073273
552.366022	2853.308200
552.724173	2849.923066
553.082267	2853.807275
553.440305	2855.533870
553.798288	2848.486337
554.156215	2847.901563
554.514086	2852.582274
554.871902	2847.130266
555.229661	2846.553054
555.587365	2843.157837
555.945014	2842.394102
556.302606	2841.650532
556.660143	2841.126252
557.017625	2841.564833
557.375050	2838.877897
557.732421	2841.537106
558.089735	2838.794718
558.446994	2837.395798
558.804197	2844.677745
559.161345	2842.540296
559.518437	2829.889520
559.875474	2833.267093
560.232455	2832.712566
560.589381	2832.422700
560.946251	2829.818944
561.303065	2835.031497
561.659825	2831.565704
562.016528	2828.709890
562.373177	2821.561534
562.729770	2822.874755
563.086307	2818.945175
563.442789	2820.155052
563.799216	2821.264106
564.155587	2816.964002
564.511904	2814.703044
564.868164	2814.730771
565.224370	2813.473003
565.580520	2809.891263
565.936615	2808.928402
566.292654	2805.069399
566.648638	2805.034111
567.004567	2800.870118
567.360441	2799.761064
567.716260	2797.459777
568.072023	2793.613377
568.427732	2786.152469
568.783385	2783.468055
569.138982	2782.873199
569.494525	2782.006120
569.850013	2775.089657
570.205445	2775.140069
570.560823	2774.988834
570.916145	2768.712598
571.271412	2769.030190
571.626625	2765.781167
571.981782	2762.501896
572.336884	2758.002666
572.691931	2754.683067
573.046923	2752.593508
573.401860	2748.626120
573.756743	2745.997158
574.111570	2744.767117
574.466342	2738.216137
574.821059	2735.887124
575.175722	2730.868656
575.530330	2725.260372
575.884882	2721.913046
576.239380	2720.935062
576.593823	2717.965822
576.948211	2712.642364
577.302544	2710.484750
577.656823	2708.314533
578.011047	2707.830583
578.365216	2700.455375
578.719330	2694.889941
579.073389	2693.186031
579.427394	2693.869107
579.781344	2689.511030
580.135239	2687.653364
580.489080	2685.026923
580.842866	2677.273629
581.196597	2679.968125
581.550273	2676.530058
581.903895	2673.462516
582.257463	2673.132321
582.610975	2666.218378
582.964434	2666.861125
583.317837	2665.308450
583.671186	2659.924498
584.024481	2658.717141
584.377721	2655.100113
584.730906	2654.812768
585.084037	2656.733447
585.437113	2652.173724
585.790135	2651.397386
586.143103	2647.621562
586.496016	2645.345481
586.848874	2643.323978
587.201679	2640.866416
587.554428	2636.150416
587.907124	2637.524131
588.259765	2633.322329
588.612352	2636.591517
588.964884	2632.019191
589.317362	2627.411576
589.669786	2632.167905
590.022155	2628.538274
590.374470	2626.610032
590.726731	2625.536267
591.078937	2625.574075
591.431090	2624.291102
591.783188	2619.970833
592.135232	2617.044443
592.487222	2616.147118
592.839157	2619.325565
593.191038	2614.778444
593.542866	2612.792230
593.894639	2609.822990
594.246358	2611.562188
594.598022	2608.290479
594.949633	2606.553802
595.301190	2606.805860
595.652692	2605.018771
596.004141	2602.750251
596.355535	2598.228336
596.706876	2598.679520
597.058162	2596.151381
597.409395	2599.181114
597.760573	2600.012905
598.111698	2595.927050
598.462768	2594.054261
598.813785	2594.727255
599.164748	2592.922522
599.515657	2594.268510
599.866511	2592.685588
600.217312	2591.982347
600.568060	2589.116451
600.918753	2594.139961
601.269392	2590.515371
601.619978	2588.975298
601.970510	2588.743405
602.320988	2589.050916
602.671412	2590.338931
603.021783	2588.357757
603.372100	2585.466655
603.722363	2586.800041
604.072572	2586.386666
604.422728	2590.495206
604.772830	2584.019844
605.122878	2582.623445
605.472872	2583.866089
605.822813	2581.315265
606.172701	2584.443301
606.522534	2584.778538
606.872314	2585.678384
607.222041	2583.407344
607.571714	2587.830957
607.921333	2583.861048
608.270899	2584.534042
608.620411	2586.391707
608.969870	2584.019844
609.319276	2584.760894
609.668627	2585.701069
610.017926	2583.341809
610.367171	2587.359609
610.716362	2585.842221
611.065500	2584.347519
611.414585	2584.937334
611.763616	2585.653178
612.112594	2584.849114
612.461518	2586.830287
612.810389	2588.367839
613.159207	2588.128385
613.507971	2585.227201
613.856682	2587.362129
614.205340	2586.852973
614.553945	2588.564444
614.902496	2585.191912
615.250994	2585.015472
615.599439	2585.469176
615.947830	2589.139136
616.296169	2587.278950
616.644454	2590.101996
616.992686	2585.708631
617.340864	2591.899168
617.688990	2589.633169
618.037063	2591.493355
618.385082	2587.715010
618.733048	2590.026379
619.080961	2588.851790
619.428821	2588.655185
619.776628	2585.706110
620.124382	2588.781214
620.472083	2587.082345
620.819731	2587.470514
621.167326	2583.666963
621.514868	2584.481110
621.862357	2583.792992
622.209793	2585.219639
622.557176	2581.703434
622.904506	2578.406519
623.251783	2573.216652
623.599007	2575.157496
623.946179	2569.864284
624.293297	2574.240006
624.640363	2572.397464
624.987376	2573.869481
625.334336	2570.716239
625.681243	2571.001064
626.028097	2567.706670
626.374899	2569.037535
626.721647	2567.999057
627.068343	2567.719273
627.414987	2566.375806
627.761577	2566.663152
628.108115	2566.305230
628.454600	2561.722821
628.801032	2562.536967
629.147412	2560.457491
629.493739	2563.343552
629.840014	2560.074363
630.186236	2562.438665
630.532405	2559.366081
630.878521	2559.373643
631.224585	2560.565876
631.570597	2558.221739
631.916556	2558.365412
632.262462	2558.630073
632.608316	2560.086966
632.954117	2555.804506
633.299866	2554.050185
633.645562	2555.761656
633.991206	2554.902140
634.336797	2553.210832
634.682336	2552.958775
635.027823	2550.596994
635.373257	2547.577343
635.718639	2548.855276
636.063968	2549.886192
636.409245	2544.736653
636.754470	2545.263453
637.099642	2543.078113
637.444762	2540.139121
637.789829	2540.287835
638.134845	2540.131559
638.479808	2539.007382
638.824719	2538.586445
639.169577	2540.418905
639.514383	2537.696682
639.859137	2535.957483
640.203839	2536.229706
640.548489	2537.863040
640.893086	2533.000847
641.237632	2528.667975
641.582125	2534.132586
641.926566	2530.157636
642.270955	2533.694005
642.615292	2531.617050
642.959576	2534.760209
643.303809	2532.887421
643.647990	2534.455220
643.992118	2530.303829
644.336195	2531.967410
644.680219	2532.748789
645.024192	2533.956145
645.368112	2533.996475
645.711981	2534.422452
646.055797	2535.995292
646.399562	2537.754655
646.743274	2538.790612
647.086935	2539.642567
647.430544	2539.700540
647.774101	2539.052752
648.117606	2541.144831
648.461059	2539.231713
648.804460	2536.784233
649.147810	2539.405633
649.491108	2534.888759
649.834354	2537.747093
650.177548	2532.630322
650.520690	2531.198634
650.863781	2529.691329
651.206820	2531.576721
651.549807	2528.738551
651.892742	2527.662265
652.235626	2528.146216
652.578458	2527.521112
652.921238	2525.005577
653.263967	2524.085566
653.606644	2521.345699
653.949269	2523.336955
654.291843	2521.784279
654.634365	2522.726975
654.976836	2522.537932
655.319255	2524.262007
655.661622	2520.813857
656.003938	2519.684639
656.346203	2518.641120
656.688416	2519.694721
657.030577	2521.365864
657.372687	2518.419309
657.714746	2517.910153
658.056753	2516.549041
658.398708	2510.847496
658.740612	2515.092148
659.082465	2512.995028
659.424266	2514.509894
659.766016	2509.942609
660.107715	2514.237672
660.449362	2516.145749
660.790958	2516.702796
661.132503	2516.705317
661.473996	2517.063239
661.815438	2517.519463
662.156829	2516.917045
662.498168	2518.068949
662.839456	2516.954854
663.180693	2515.780265
663.521879	2515.752539
663.863013	2517.088445
664.204097	2516.100378
664.545129	2516.833866
664.886110	2521.433919
665.227040	2517.542148
665.567918	2516.324710
665.908746	2516.105420
666.249522	2518.792355
666.590248	2517.431243
666.930922	2519.989629
667.271545	2517.448887
667.612118	2519.621624
667.952639	2518.835204
668.293109	2517.285050
668.633528	2519.964423
668.973896	2515.787827
669.314213	2517.521984
669.654480	2518.333610
669.994695	2514.575429
670.334859	2516.236490
670.674973	2511.414626
671.015035	2513.189112
671.355047	2515.336644
671.695008	2514.580471
672.034918	2513.955368
672.374777	2513.025275
672.714585	2513.206756
673.054342	2517.189268
673.394049	2511.951509
673.733705	2517.910153
674.073310	2515.921418
674.412864	2517.716068
674.752368	2513.153824
675.091820	2512.322034
675.431223	2510.978566
675.770574	2513.713392
676.109875	2504.077227
676.449125	2509.781292
676.788324	2503.048831
677.127473	2504.649398
677.466571	2503.197545
677.805619	2505.468585
678.144616	2507.537979
678.483562	2506.693585
678.822458	2507.487567
679.161303	2505.332474
679.500098	2503.573111
679.838842	2503.051352
680.177535	2506.030674
680.516179	2505.087978
680.854771	2506.275170
681.193314	2508.019409
681.531805	2509.146107
681.870247	2512.639626
682.208638	2512.548886
682.546978	2517.330420
682.885268	2516.299504
683.223508	2513.262209
683.561697	2515.089627
683.899836	2513.854544
684.237925	2512.054852
684.575963	2511.933865
684.913951	2507.046466
685.251889	2511.649040
685.589776	2510.373628
685.927614	2507.911024
686.265401	2509.831704
686.603137	2509.937568
686.940824	2510.918072
687.278460	2514.351098
687.616046	2512.962260
687.953582	2514.978722
688.291068	2514.217508
688.628504	2515.785306
688.965889	2514.119205
689.303224	2514.610718
689.640510	2514.091479
689.977745	2510.260202
690.314930	2508.856240
690.652065	2506.373472
690.989150	2506.131497
691.326185	2501.218892
691.663170	2499.583038
692.000105	2498.355517
692.336990	2497.057420
692.673825	2495.877790
693.010610	2494.743530
693.347345	2487.433857
693.684030	2486.223980
694.020665	2486.990236
694.357251	2481.036633
694.693786	2484.757004
695.030272	2484.053763
695.366707	2484.227683
695.703093	2484.167189
696.039429	2484.714155
696.375716	2479.952785
696.711952	2485.908908
697.048139	2481.694503
697.384276	2482.458238
697.720363	2479.075624
698.056400	2479.143680
698.392388	2480.540079
698.728326	2480.666108
699.064214	2478.997486
699.400053	2479.433546
699.735842	2478.067393
700.071581	2478.357260
700.407270	2475.113277
700.742910	2477.767445
701.078501	2475.609831
701.414042	2475.070427
701.749533	2470.982052
702.084974	2474.238637
702.420366	2473.520272
702.755709	2471.990282
703.091002	2469.686475
703.426246	2471.531537
703.761440	2468.738738
704.096584	2469.235292
704.431679	2466.601289
704.766725	2470.145220
705.101721	2467.677575
705.436668	2470.528348
705.771565	2466.618933
706.106413	2468.353090
706.441212	2467.896865
706.775961	2469.467185
707.110661	2471.090436
707.445311	2469.056331
707.779913	2470.971969
708.114465	2471.161013
708.448967	2471.143368
708.783421	2475.763586
709.117825	2472.822073
709.452180	2477.419605
709.786485	2476.681076
710.120742	2482.279277
710.454949	2479.693165
710.789107	2478.405151
711.123216	2480.943372
711.457275	2480.129225
711.791286	2482.208701
712.125247	2485.339258
712.459159	2484.411685
712.793023	2488.958806
713.126837	2485.956799
713.460602	2484.542755
713.794318	2483.504278
714.127985	2482.768269
714.461602	2481.301293
714.795171	2479.879688
715.128691	2476.232413
715.462162	2474.062197
715.795584	2471.314768
716.128957	2472.905252
716.462281	2471.312247
716.795556	2472.247381
717.128782	2467.569190
717.461960	2466.576083
717.795088	2465.512400
718.128167	2466.344190
718.461198	2464.216823
718.794180	2464.768829
719.127113	2463.931998
719.459997	2464.005095
719.792833	2460.872017
720.125619	2463.425362
720.458357	2460.534260
720.791046	2461.857563
721.123686	2459.871348
721.456278	2458.548046
721.788821	2457.068467
722.121315	2460.451081
722.453761	2456.657613
722.786158	2459.936883
723.118506	2457.285237
723.450805	2459.029476
723.783056	2458.885803
724.115259	2456.675257
724.447412	2455.079732
724.779518	2460.251956
725.111574	2459.704990
725.443582	2460.249435
725.775542	2461.030814
726.107453	2464.778912
726.439315	2460.186421
726.771129	2467.367544
727.102895	2462.265897
727.434612	2467.082719
727.766281	2465.736731
728.097901	2462.681792
728.429473	2460.214147
728.760996	2465.149437
729.092471	2461.035855
729.423897	2465.698922
729.755276	2466.248408
730.086606	2466.409725
730.417887	2464.282358
730.749120	2469.623461
731.080305	2471.967597
731.411442	2472.222175
731.742530	2470.243522
732.073570	2473.220324
732.404562	2470.482977
732.735506	2472.244861
733.066401	2474.155458
733.397249	2469.371403
733.728048	2465.363686
734.058798	2463.879066
734.389501	2463.291771
734.720156	2460.380505
735.050762	2456.546708
735.381320	2460.136009
735.711831	2458.916050
736.042293	2454.913374
736.372707	2455.220884
736.703073	2455.823302
737.033391	2456.907150
737.363661	2455.278857
737.693883	2454.946141
738.024056	2459.989816
738.354182	2457.000411
738.684260	2457.053343
739.014290	2457.113837
739.344272	2460.473766
739.674207	2462.548201
740.004093	2461.686164
740.333931	2459.833540
740.663722	2461.255145
740.993464	2459.306739
741.323159	2459.662141
741.652806	2457.229784
741.982405	2460.272120
742.311956	2458.134671
742.641460	2457.688529
742.970915	2457.433951
743.300323	2455.788014
743.629683	2454.593260
743.958996	2453.895061
744.288260	2451.893723
744.617477	2451.545883
744.946647	2449.778958
745.275768	2450.179730
745.604842	2448.309462
745.933869	2448.075048
746.262847	2444.256374
746.591778	2447.454987
746.920662	2449.552107
747.249498	2450.101592
747.578286	2450.162086
747.907027	2452.060081
748.235720	2451.094700
748.564365	2453.499330
748.892963	2452.135698
749.221514	2455.341872
749.550017	2450.903136
749.878473	2448.518670
750.206881	2449.153855
750.535242	2452.105451
750.863555	2449.305090
751.191821	2449.839452
751.520039	2449.655450
751.848210	2449.201746
752.176334	2449.539504
752.504411	2449.481530
752.832440	2447.928855
753.160421	2449.935234
753.488356	2447.954061
753.816243	2448.274174
754.144082	2447.555810
754.471875	2446.131684
754.799620	2445.867023
755.127318	2447.875923
755.454969	2446.154369
755.782572	2449.138732
756.110129	2446.532455
756.437638	2447.099585
756.765100	2446.577826
757.092515	2449.872220
757.419882	2448.309462
757.747203	2445.546910
758.074477	2448.024637
758.401703	2448.745522
758.728882	2449.703341
759.056014	2446.741663
759.383099	2449.579833
759.710138	2448.374997
760.037129	2450.320883
760.364073	2449.610080
760.690970	2448.992538
761.017820	2449.907508
761.344623	2451.482868
761.671379	2454.545369
761.998088	2448.395162
762.324751	2460.715742
762.651366	2467.990127
762.977935	2488.227839
763.304456	2492.727069
763.630931	2498.781494
763.957359	2497.100270
764.283740	2489.828405
764.610074	2481.568475
764.936362	2471.650004
765.262602	2466.508028
765.588796	2460.020062
765.914943	2454.590740
766.241044	2450.290636
766.567097	2446.781993
766.893104	2446.857610
767.219064	2446.159410
767.544978	2442.711261
767.870845	2441.342588
768.196665	2440.135231
768.522438	2441.140941
768.848165	2438.070879
769.173846	2435.124324
769.499479	2437.395364
769.825066	2434.534509
770.150607	2434.607606
770.476101	2435.346135
770.801548	2435.527617
771.126949	2435.089036
771.452303	2432.039138
771.777611	2434.854623
772.102872	2433.125507
772.428087	2431.403953
772.753256	2433.448141
773.078378	2427.371030
773.403453	2431.378747
773.728482	2431.802204
774.053465	2431.802204
774.378401	2429.198448
774.703291	2429.505958
775.028135	2429.357244
775.352932	2431.267842
775.677683	2429.042172
776.002388	2428.832964
776.327046	2427.310536
776.651658	2431.146854
776.976224	2428.457398
777.300743	2427.534867
777.625216	2427.408838
777.949643	2427.466812
778.274024	2428.790114
778.598359	2425.702408
778.922647	2424.656368
779.246889	2426.819023
779.571086	2425.142840
779.895236	2426.433375
780.219339	2425.432706
780.543397	2428.565783
780.867409	2424.989084
781.191374	2424.643765
781.515294	2426.682912
781.839167	2428.669127
782.162995	2427.582758
782.486776	2426.440937
782.810511	2427.940680
783.134201	2426.534198
783.457844	2426.695515
783.781441	2427.983530
784.104993	2425.266348
784.428498	2425.518406
784.751958	2428.260793
785.075372	2425.049578
785.398739	2425.208375
785.722061	2425.951945
786.045337	2426.677871
786.368568	2427.305495
786.691752	2424.517737
787.014891	2428.966555
787.337983	2429.120310
787.661030	2431.807245
787.984031	2433.296906
788.306987	2432.767585
788.629897	2432.787749
788.952760	2434.640373
789.275579	2435.204983
789.598351	2435.799839
789.921078	2433.019643
790.243759	2431.711463
790.566395	2428.986719
790.888984	2428.396904
791.211529	2424.363981
791.534027	2427.822213
791.856480	2425.445309
792.178888	2426.171235
792.501249	2424.757191
792.823566	2423.842222
793.145836	2426.418252
793.468062	2426.781215
793.790241	2423.859866
794.112375	2425.727613
794.434464	2424.971440
794.756507	2425.379774
795.078505	2426.740885
795.400457	2428.669127
795.722364	2426.385484
796.044226	2426.435896
796.366042	2427.126534
796.687812	2429.682399
797.009538	2432.626432
797.331218	2428.031421
797.652852	2429.763057
797.974442	2427.315577
798.295986	2431.688778
798.617484	2429.664755
798.938938	2427.126534
799.260346	2427.368509
799.581709	2426.251893
799.903026	2427.411359
800.224299	2424.023703
800.545526	2423.481779
800.866708	2424.273241
801.187845	2424.195103
801.508936	2424.709300
801.829983	2426.501431
802.150984	2424.870617
802.471940	2425.599064
802.792851	2421.334248
803.113717	2423.557397
803.434538	2423.615370
803.755314	2423.181831
804.076045	2424.048909
804.396731	2424.540422
804.717372	2424.699218
805.037967	2421.157807
805.358518	2424.273241
805.679024	2422.846594
805.999485	2421.687129
806.319901	2423.423806
806.640272	2423.106213
806.960598	2425.352047
807.280879	2423.184351
807.601115	2425.115113
807.921306	2423.990936
808.241453	2425.974630
808.561554	2423.799372
808.881611	2423.983374
809.201623	2423.938004
809.521590	2422.196285
809.841513	2421.508168
810.161390	2424.429516
810.481223	2422.408014
810.801011	2425.190731
811.120755	2422.508837
811.440453	2424.742068
811.760107	2425.268868
812.079716	2417.719741
812.399281	2416.199833
812.718801	2421.873651
813.038276	2416.290573
813.357707	2423.078487
813.677093	2423.244845
813.996434	2422.289547
814.315731	2419.912643
814.634983	2424.207706
814.954191	2425.410021
815.273354	2425.004208
815.592473	2423.806934
815.911547	2424.767274
816.230577	2424.532860
816.549562	2425.692325
816.868502	2423.776687
817.187399	2429.198448
817.506250	2427.587799
817.825058	2429.601740
818.143821	2427.834816
818.462539	2430.894796
818.781213	2430.594848
819.099843	2435.961156
819.418429	2441.771086
819.736970	2444.836107
820.055466	2449.393310
820.373919	2456.995370
820.692327	2468.456433
821.010691	2487.537201
821.329011	2533.507483
821.647286	2605.424583
821.965517	2676.686334
822.283704	2722.737275
822.601847	2731.970148
822.919945	2703.049048
823.237999	2665.431958
823.556010	2631.159674
823.873976	2599.145826
824.191897	2568.364541
824.509775	2542.349667
824.827609	2520.115658
825.145398	2506.938081
825.463144	2500.049345
825.780845	2506.244923
826.098502	2513.615090
826.416116	2527.868952
826.733685	2543.383103
827.051210	2549.067004
827.368692	2542.425284
827.686129	2521.854856
828.003522	2503.515138
828.320872	2483.607621
828.638177	2474.480612
828.955439	2461.187090
829.272656	2452.838939
829.589830	2445.985490
829.906960	2444.417691
830.224046	2439.583225
830.541088	2435.091557
830.858086	2432.260949
831.175041	2433.485949
831.491952	2432.502924
831.808819	2431.504776
832.125642	2434.600044
832.442421	2439.308482
832.759157	2446.091354
833.075849	2461.950824
833.392497	2474.488174
833.709101	2486.634834
834.025662	2479.312558
834.342179	2478.884060
834.658653	2465.630867
834.975083	2457.658282
835.291469	2457.257510
835.607811	2443.747218
835.924110	2439.144644
836.240366	2434.663059
836.556578	2428.023859
836.872746	2430.927564
837.188871	2422.836512
837.504952	2419.980698
837.820990	2421.026738
838.136984	2422.977664
838.452935	2417.583629
838.768842	2420.026068
839.084706	2423.398600
839.400526	2428.601071
839.716303	2434.718511
840.032037	2442.139090
840.347727	2439.941147
840.663373	2435.978800
840.978977	2430.168870
841.294537	2427.305495
841.610054	2423.582603
841.925527	2425.089908
842.240957	2421.558579
842.556344	2418.090265
842.871687	2416.595563
843.186987	2417.324010
843.502244	2416.880388
843.817458	2412.504667
844.132629	2412.736560
844.447756	2411.161199
844.762840	2403.475960
845.077881	2410.437794
845.392879	2408.938051
845.707833	2411.176323
846.022745	2407.324881
846.337613	2410.037022
846.652438	2410.223545
846.967221	2410.788154
847.281960	2406.356980
847.596656	2410.125242
847.911309	2408.348236
848.225919	2407.889491
848.540485	2408.068452
848.855009	2411.866961
849.169490	2408.098698
849.483928	2409.961405
849.798323	2409.232958
850.112675	2409.046435
850.426984	2407.352608
850.741251	2406.609038
851.055474	2407.453431
851.369654	2411.317475
851.683792	2405.810015
851.997887	2408.910324
852.311938	2408.875036
852.625947	2411.352763
852.939914	2408.590211
853.253837	2411.088103
853.567718	2408.305386
853.881555	2409.414440
854.195350	2408.799419
854.509103	2408.519635
854.822812	2410.110119
855.136479	2409.757238
855.450103	2410.054666
855.763685	2408.683472
856.077224	2407.708009
856.390720	2407.753379
856.704173	2409.598442
857.017584	2408.849830
857.330953	2407.944943
857.644278	2409.900911
857.957561	2412.005593
858.270802	2407.380334
858.584000	2406.296486
858.897155	2410.286559
859.210268	2406.704819
859.523339	2407.062741
859.836367	2410.531055
860.149352	2407.105591
860.462295	2408.585170
860.775195	2406.225910
861.088054	2405.774727
861.400869	2408.277659
861.713642	2403.400343
862.026373	2408.048287
862.339062	2410.803278
862.651708	2408.214645
862.964312	2408.796898
863.276873	2408.323030
863.589392	2410.405026
863.901869	2411.312434
864.214303	2412.318144
864.526696	2410.165572
864.839045	2410.336971
865.151353	2409.777403
865.463619	2409.611045
865.775842	2412.988618
866.088023	2411.435942
866.400162	2407.554254
866.712258	2411.206570
867.024313	2411.816549
867.336325	2409.066600
867.648296	2412.645819
867.960224	2411.793864
868.272110	2409.686662
868.583954	2410.480644
868.895755	2412.081210
869.207515	2412.655902
869.519233	2411.294790
869.830909	2412.083731
870.142542	2411.466189
870.454134	2412.764286
870.765684	2412.529873
871.077191	2412.224883
871.388657	2413.898546
871.700081	2412.028278
872.011463	2415.478948
872.322803	2412.101375
872.634101	2415.579771
872.945357	2413.028947
873.256571	2416.774524
873.567744	2412.582805
873.878874	2416.545152
874.189963	2416.305697
874.501010	2416.721592
874.812015	2415.592374
875.122979	2415.907446
875.433900	2412.497105
875.744780	2416.492220
876.055618	2417.444998
876.366415	2415.305028
876.677169	2416.585481
876.987882	2415.312590
877.298554	2411.877043
877.609183	2414.074986
877.919771	2414.085069
878.230317	2416.209915
878.540822	2423.471697
878.851285	2423.189392
879.161707	2427.323139
879.472087	2434.068203
879.782425	2439.716815
880.092722	2458.721965
880.402977	2480.587970
880.713191	2510.058556
881.023363	2540.338246
881.333494	2560.049158
881.643583	2562.589899
881.953631	2558.829198
882.263637	2549.911397
882.573602	2541.510314
882.883526	2529.766947
883.193408	2516.680111
883.503248	2503.938595
883.813048	2494.665392
884.122806	2480.943372
884.432522	2474.601600
884.742197	2465.197327
885.051831	2459.505865
885.361424	2448.276695
885.670975	2445.272167
885.980485	2438.116249
886.289954	2434.816814
886.599382	2432.702050
886.908768	2429.168201
887.218113	2426.695515
887.527417	2425.266348
887.836680	2422.748292
888.145901	2422.231573
888.455082	2420.366346
888.764221	2420.535225
889.073319	2418.347364
889.382376	2419.141346
889.691392	2416.905594
890.000366	2418.468352
890.309300	2419.526994
890.618193	2416.910635
890.927044	2416.209915
891.235855	2413.959040
891.544625	2416.091448
891.853353	2414.997518
892.162041	2419.370718
892.470687	2419.378280
892.779293	2419.698393
893.087858	2424.618560
893.396381	2424.943714
893.704864	2431.650969
894.013306	2438.728749
894.321707	2452.475976
894.630068	2458.094342
894.938387	2457.938066
895.246665	2453.317848
895.554903	2450.772066
895.863100	2444.896601
896.171256	2443.200253
896.479371	2440.024326
896.787446	2438.587597
897.095480	2433.458223
897.403473	2432.366813
897.711425	2428.495207
898.019336	2427.015628
898.327207	2423.113775
898.635038	2421.157807
898.942827	2420.139494
899.250576	2418.604463
899.558284	2419.902560
899.865952	2417.162693
900.173579	2415.388207
900.481165	2415.126067
900.788711	2414.601787
901.096216	2414.911818
901.403681	2414.755542
901.711105	2413.162537
902.018489	2412.071128
902.325832	2412.567681
902.633135	2414.067425
902.940397	2420.918353
903.247619	2426.201482
903.554800	2439.411826
903.861941	2453.567386
904.169041	2466.273614
904.476101	2469.162195
904.783121	2464.957873
905.090100	2456.138374
905.397039	2452.019751
905.703938	2447.878443
906.010796	2443.772424
906.317614	2436.858481
906.624391	2432.691967
906.931129	2428.671647
907.237826	2426.798859
907.544483	2423.086049
907.851099	2421.752664
908.157675	2420.920873
908.464211	2413.424677
908.770707	2408.136507
909.077163	2411.224214
909.383578	2405.157185
909.689954	2407.498801
909.996289	2405.666342
910.302584	2409.578277
910.608839	2408.519635
910.915054	2408.441497
911.221229	2408.312948
911.527363	2407.823956
911.833458	2407.657598
912.139513	2409.048956
912.445527	2411.657753
912.751502	2409.202711
913.057436	2409.583318
913.363331	2409.795047
913.669186	2412.965933
913.975000	2415.017682
914.280775	2417.850811
914.586510	2424.535381
914.892205	2432.170208
915.197859	2439.900817
915.503475	2451.402210
915.809050	2460.705659
916.114585	2462.573407
916.420081	2466.906279
916.725536	2465.212451
917.030952	2459.105093
917.336328	2454.797427
917.641665	2454.111830
917.946961	2451.966819
918.252218	2450.399020
918.557435	2443.898453
918.862612	2438.517021
919.167750	2436.099788
919.472848	2432.061823
919.777906	2429.256421
920.082925	2425.538570
920.387904	2421.772828
920.692843	2421.029258
920.997743	2420.424320
921.302603	2414.677404
921.607423	2415.204205
921.912204	2418.619587
922.216946	2415.935172
922.521647	2412.124060
922.826310	2411.362846
923.130932	2411.796385
923.435516	2409.505180
923.740059	2410.609193
924.044564	2408.733884
924.349028	2410.614234
924.653454	2401.898079
924.957840	2404.784140
925.262186	2402.119890
925.566493	2405.759603
925.870761	2403.478481
926.174989	2406.767834
926.479178	2404.020405
926.783328	2402.064437
927.087438	2404.978224
927.391509	2405.991496
927.695541	2402.480333
927.999533	2401.991341
928.303486	2403.544016
928.607400	2402.568553
928.911275	2403.528892
929.215110	2399.044786
929.518906	2403.982596
929.822663	2400.698285
930.126381	2402.999571
930.430060	2403.564181
930.733699	2401.245250
931.037299	2405.321023
931.340861	2400.088305
931.644383	2400.322719
931.947866	2401.943450
932.251309	2402.770199
932.554714	2402.679458
932.858080	2402.639129
933.161407	2400.456309
933.464694	2403.579304
933.767943	2402.986968
934.071153	2404.574932
934.374323	2403.397823
934.677455	2404.713564
934.980548	2400.962945
935.283602	2405.283214
935.586617	2404.146434
935.889593	2403.039901
936.192530	2404.153996
936.495428	2399.067471
936.798287	2401.215003
937.101108	2403.102915
937.403890	2404.320354
937.706632	2403.211300
938.009336	2405.298338
938.312002	2404.569891
938.614628	2403.823800
938.917216	2406.072155
939.219765	2404.118708
939.522275	2405.144582
939.824747	2406.929151
940.127179	2406.150293
940.429573	2400.940260
940.731929	2403.334808
941.034246	2399.906823
941.336524	2407.854202
941.638763	2404.587535
941.940964	2406.480488
942.243126	2405.888153
942.545250	2405.104253
942.847335	2405.205076
943.149381	2407.329923
943.451389	2404.504356
943.753359	2404.103584
944.055290	2405.759603
944.357182	2407.433266
944.659036	2403.554098
944.960851	2404.209448
945.262628	2405.605848
945.564367	2401.835065
945.866067	2403.176012
946.167729	2402.361865
946.469352	2404.131310
946.770937	2402.361865
947.072484	2403.410425
947.373992	2404.927813
947.675462	2400.897410
947.976893	2403.680127
948.278286	2404.925292
948.579641	2403.284397
948.880958	2402.644170
949.182236	2402.631567
949.483476	2403.823800
949.784678	2404.191804
950.085841	2403.163409
950.386967	2401.734242
950.688054	2403.055024
950.989103	2403.123080
951.290114	2403.324726
951.591087	2405.938564
951.892021	2405.137021
952.192917	2404.700961
952.493776	2405.129459
952.794596	2403.690209
953.095378	2404.224572
953.396122	2405.368914
953.696828	2403.032339
953.997496	2404.181722
954.298126	2402.802966
954.598718	2405.963770
954.899272	2405.626013
955.199788	2404.461506
955.500266	2402.666855
955.800706	2400.032852
956.101108	2397.366082
956.401472	2399.241391
956.701798	2397.030845
957.002087	2397.726524
957.302337	2401.240209
957.602550	2398.006308
957.902724	2399.017060
958.202861	2399.876577
958.502960	2399.158212
958.803022	2397.971020
959.103045	2402.752555
959.403031	2399.881618
959.702979	2399.450599
960.002889	2400.902451
960.302762	2398.492780
960.602596	2399.294323
960.902393	2398.207955
961.202153	2397.413973
961.501875	2395.730228
961.801559	2398.429765
962.101205	2394.366595
962.400814	2399.828686
962.700385	2395.447923
962.999918	2398.754920
963.299414	2393.703684
963.598873	2401.361196
963.898293	2396.541853
964.197677	2398.396998
964.497022	2396.715773
964.796331	2397.802142
965.095601	2400.191649
965.394835	2399.304406
965.694030	2395.805845
965.993189	2396.834240
966.292309	2398.649056
966.591393	2399.800959
966.890439	2395.962121
967.189447	2398.621329
967.488419	2395.997409
967.787353	2398.228119
968.086249	2396.877090
968.385108	2398.212996
968.683930	2396.259549
968.982714	2398.439848
969.281462	2395.982285
969.580172	2398.155022
969.878844	2399.730383
970.177480	2398.475136
970.476078	2398.344066
970.774639	2397.396329
971.073162	2398.281051
971.371649	2396.206617
971.670098	2397.870197
971.968510	2396.970351
972.266885	2394.785011
972.565223	2395.263921
972.863524	2396.957748
973.161788	2397.237533
973.460014	2397.779457
973.758204	2398.951525
974.056356	2399.637122
974.354471	2396.446071
974.652550	2399.947153
974.950591	2401.164591
975.248595	2399.899262
975.546563	2399.019580
975.844493	2397.303067
976.142386	2398.772564
976.440243	2398.344066
976.738062	2399.057389
977.035845	2397.902965
977.333590	2400.219375
977.631299	2398.704508
977.928971	2399.301885
978.226606	2398.913716
978.524204	2397.895403
978.821765	2396.993037
979.119290	2398.853222
979.416777	2398.301216
979.714228	2397.479508
980.011642	2396.569580
980.309020	2398.891031
980.606360	2397.729045
980.903664	2400.746176
981.200931	2399.788356
981.498162	2400.652914
981.795356	2398.006308
982.092513	2403.334808
982.389633	2401.711557
982.686717	2405.489901
982.983764	2403.536454
983.280775	2407.861764
983.577749	2400.907493
983.874686	2403.707853
984.171587	2407.166085
984.468451	2403.402864
984.765279	2405.376475
985.062070	2403.286917
985.358824	2401.036042
985.655543	2401.318347
985.952224	2400.065620
986.248869	2398.412121
986.545478	2395.626884
986.842050	2396.987995
987.138586	2394.359034
987.435086	2393.018087
987.731549	2392.985319
988.027975	2396.715773
988.324366	2397.222409
988.620719	2397.071174
988.917037	2398.359189
989.213318	2396.466236
989.509563	2395.732748
989.805772	2395.652090
990.101944	2397.083777
990.398080	2394.008673
990.694180	2395.803324
990.990244	2397.315670
991.286271	2397.214847
991.582262	2397.131668
991.878217	2394.308622
992.174136	2395.561349
992.470019	2397.174518
992.765865	2398.059241
993.061676	2395.853736
993.357450	2397.620660
993.653188	2399.997564
993.948890	2397.721483
994.244556	2395.475649
994.540186	2399.435476
994.835780	2398.137378
995.131337	2398.276010
995.426859	2396.867008
995.722345	2399.604354
996.017795	2399.642163
996.313208	2401.832544
996.608586	2402.515621
996.903928	2401.590569
997.199234	2402.387071
997.494504	2401.323388
997.789738	2401.015877
998.084936	2400.156361
998.380099	2396.773746
998.675225	2400.153840
998.970316	2399.611916
999.265371	2398.828017
999.560390	2397.834909
999.855373	2399.017060
1000.150320	2398.714591
1000.445232	2396.456154
1000.740108	2396.239384
1001.034948	2397.968500
1001.329752	2399.485887
1001.624521	2398.281051
1001.919254	2391.893909
1002.213951	2393.832233
1002.508613	2393.096225
1002.803239	2393.101266
1003.097829	2391.662016
1003.392384	2395.815927
1003.686903	2395.253838
1003.981386	2396.239384
1004.275834	2395.153015
1004.570246	2396.294837
1004.864623	2393.854918
1005.158964	2397.235012
1005.453270	2393.862480
1005.747540	2396.491442
1006.041775	2396.307440
1006.335974	2394.734600
1006.630138	2396.955228
1006.924266	2393.451626
1007.218359	2393.428941
1007.512416	2396.423386
1007.806438	2394.648900
1008.100425	2394.684188
1008.394376	2395.757954
1008.688292	2393.814589
1008.982172	2394.681667
1009.276017	2396.683006
1009.569827	2396.723335
1009.863602	2398.245763
1010.157341	2396.176370
1010.451045	2396.025135
1010.744714	2394.787532
1011.038347	2396.037738
1011.331945	2394.492624
1011.625508	2395.062275
1011.919036	2396.133520
1012.212528	2395.309291
1012.505986	2392.506410
1012.799408	2396.166287
1013.092795	2393.852398
1013.386147	2395.538664
1013.679464	2394.396842
1013.972745	2393.426420
1014.265992	2394.011194
1014.559204	2395.188303
1014.852380	2394.598488
1015.145521	2395.095042
1015.438628	2396.546894
1015.731699	2394.348951
1016.024736	2395.158057
1016.317737	2396.448592
1016.610703	2396.506565
1016.903635	2392.755947
1017.196531	2389.557335
1017.489393	2393.910371
1017.782219	2390.232849
1018.075011	2397.035886
1018.367768	2395.924312
1018.660490	2394.427089
1018.953177	2394.427089
1019.245829	2394.427089
