Dividing Wavelength (nm)	Counts (n)	Blue Motor Position (mm): 0.000000	Red Motor Position (mm): 19.600000	
326.493990	1984.389718
326.888308	1984.389718
327.282561	1984.389718
327.676750	1958.636983
328.070874	1958.662189
328.464933	1968.676441
328.858929	1974.259519
329.252859	1989.249390
329.646726	2002.184991
330.040528	2018.886333
330.434265	2036.419467
330.827938	2057.249514
331.221547	2077.111660
331.615091	2097.220823
332.008571	2116.223453
332.401986	2136.698099
332.795338	2158.012097
333.188625	2178.552279
333.581847	2196.692871
333.975006	2212.660726
334.368100	2234.131000
334.761129	2248.601632
335.154095	2264.103180
335.546996	2281.263268
335.939833	2300.734724
336.332606	2312.299131
336.725315	2322.620894
337.117960	2331.291678
337.510540	2338.021619
337.903056	2348.802126
338.295508	2353.195492
338.687896	2362.166225
339.080220	2369.246526
339.472480	2373.294572
339.864676	2376.914121
340.256807	2380.437887
340.648875	2380.904194
341.040879	2380.296735
341.432818	2385.232025
341.824694	2386.688918
342.216506	2386.038609
342.608253	2383.550800
342.999937	2384.430481
343.391557	2382.928217
343.783113	2379.936293
344.174605	2383.490306
344.566033	2379.895963
344.957397	2380.148021
345.348697	2375.361445
345.739934	2374.315406
346.131106	2370.897504
346.522215	2369.591845
346.913260	2372.367000
347.304241	2367.388861
347.695159	2367.383819
348.086012	2363.711339
348.476802	2363.401308
348.867528	2362.824096
349.258191	2359.101204
349.648789	2358.871831
350.039324	2360.696729
350.429796	2360.643797
350.820203	2356.230267
351.210548	2357.634228
351.600828	2357.505678
351.991045	2359.456605
352.381198	2354.773373
352.771288	2357.780421
353.161314	2356.384022
353.551276	2356.421830
353.941175	2357.498117
354.331010	2359.007942
354.720782	2355.650534
355.110490	2357.896368
355.500135	2358.849146
355.889717	2358.473580
356.279235	2357.767818
356.668689	2358.932325
357.058080	2356.996522
357.447408	2356.474763
357.836672	2356.459639
358.225873	2360.326204
358.615010	2362.012470
359.004084	2360.822758
359.393095	2363.429034
359.782043	2366.481453
360.170927	2365.105218
360.559748	2364.583458
360.948505	2366.980527
361.337199	2367.928264
361.725830	2366.713346
362.114398	2369.130579
362.502903	2367.885414
362.891344	2371.724253
363.279722	2370.380785
363.668037	2371.777185
364.056289	2373.085364
364.444478	2374.837165
364.832603	2374.617875
365.220665	2372.545961
365.608665	2370.773995
365.996601	2375.661394
366.384474	2373.312216
366.772284	2376.175592
367.160031	2377.980325
367.547715	2378.590304
367.935336	2377.657691
368.322893	2382.713968
368.710388	2380.163144
369.097820	2383.699514
369.485189	2382.126674
369.872495	2382.842518
370.259738	2384.962323
370.646918	2389.035575
371.034035	2389.620349
371.421090	2393.408776
371.808081	2398.308778
372.195010	2401.010836
372.581875	2406.046949
372.968678	2413.669173
373.355418	2419.216963
373.742096	2427.860022
374.128710	2439.167330
374.515262	2453.055708
374.901751	2462.921247
375.288177	2480.023361
375.674540	2499.157060
376.060841	2521.287726
376.447079	2542.919317
376.833254	2568.377144
377.219367	2593.235073
377.605417	2629.664972
377.991404	2654.956441
378.377329	2693.334745
378.763191	2728.663151
379.148991	2776.644853
379.534727	2822.448777
379.920402	2870.511138
380.306013	2917.121646
380.691563	2979.536172
381.077049	3034.129348
381.462474	3089.980291
381.847835	3163.760098
382.233134	3233.461612
382.618371	3292.377577
383.003545	3378.755228
383.388657	3458.725572
383.773706	3548.672359
384.158693	3622.749594
384.543618	3716.101681
384.928480	3794.847025
385.313280	3897.114392
385.698017	3994.857324
386.082692	4118.458855
386.467305	4179.971014
386.851856	4304.109428
387.236344	4461.542142
387.620770	4523.976832
388.005133	4641.526457
388.389435	4788.168582
388.773674	4874.649576
389.157851	5002.619266
389.541965	5132.335716
389.926018	5157.980066
390.310008	5337.659392
390.693936	5451.760868
391.077802	5576.720990
391.461606	5702.270926
391.845348	5817.199152
392.229027	5938.501916
392.612645	6158.770092
392.996200	6269.582215
393.379694	6446.451098
393.763125	6666.119377
394.146494	6755.887203
394.529801	6894.816362
394.913047	7129.938298
395.296230	7128.783874
395.679351	7181.479055
396.062410	7433.934999
396.445408	7332.794329
396.828343	7483.214798
397.211217	7615.212370
397.594028	7498.963363
397.976778	7697.622633
398.359466	7860.840071
398.742092	7835.959456
399.124656	7981.298442
399.507158	8165.855084
399.889598	8183.536932
400.271977	8391.721462
400.654294	8424.012573
401.036549	8615.248744
401.418742	8641.666911
401.800874	8934.061396
402.182944	9016.181792
402.564952	9381.572184
402.946898	9206.200524
403.328783	9260.682794
403.710606	9450.804871
404.092367	9701.652686
404.474067	10061.144928
404.855705	9850.091982
405.237282	9809.160333
405.618797	10226.073838
406.000250	10473.211364
406.381642	10826.041722
406.762972	10777.409711
407.144240	10580.903013
407.525447	10826.140025
407.906593	10765.550397
408.287677	11022.477843
408.668700	11171.078456
409.049661	11141.620473
409.430560	11307.325721
409.811399	11276.340269
410.192176	11434.410689
410.572891	11506.383242
410.953545	11982.868063
411.334138	11464.211470
411.714669	12043.462732
412.095139	11374.952800
412.475547	11857.497087
412.855894	11705.954961
413.236180	12021.571521
413.616405	11717.315202
413.996568	11984.619864
414.376670	11958.562139
414.756711	11834.219559
415.136691	12096.339395
415.516609	12268.381373
415.896466	12331.859582
416.276262	12615.611008
416.655997	13055.050910
417.035670	13080.808685
417.415283	13703.812122
417.794834	13783.661478
418.174324	13508.999252
418.553753	13407.200712
418.933121	13879.478689
419.312428	13680.804295
419.691674	13576.747318
420.070859	13997.474457
420.449983	13640.926248
420.829045	14150.549093
421.208047	13875.637330
421.586988	14287.048416
421.965867	14500.180839
422.344686	14454.429847
422.723444	14953.378049
423.102141	13671.377338
423.480777	14748.578653
423.859352	14231.454571
424.237866	15214.129211
424.616319	14867.640625
424.994712	15420.594708
425.373044	15151.586136
425.751314	15702.390167
426.129524	14821.751001
426.507673	15710.791250
426.885762	15356.831673
427.263789	15428.652992
427.641756	15469.347707
428.019662	15420.342650
428.397508	15352.312279
428.775292	15481.789274
429.153016	15334.380895
429.530679	15275.853099
429.908282	15172.514486
430.285824	14811.341019
430.663305	15230.855759
431.040726	14784.348160
431.418086	14513.635678
431.795385	14859.312639
432.172624	15040.453899
432.549802	14540.999061
432.926920	14516.370504
433.303977	14278.486016
433.680974	14301.932423
434.057910	14334.702443
434.434786	14185.882540
434.811601	13943.564357
435.188355	14483.560154
435.565050	14062.089446
435.941683	13837.470754
436.318257	14221.566348
436.694770	13904.644129
437.071222	14075.385489
437.447614	13299.914875
437.823946	13103.173764
438.200218	12987.554901
438.576429	12647.957572
438.952580	12601.831014
439.328670	12373.045809
439.704700	12399.852144
440.080670	11960.238323
440.456580	12068.199674
440.832429	11949.172990
441.208218	11242.521688
441.583947	11253.556774
441.959616	11106.408014
442.335224	11013.368478
442.710773	10864.283915
443.086261	10896.774152
443.461689	10424.186143
443.837057	10273.475808
444.212365	10336.268420
444.587612	10124.532397
444.962800	9761.871789
445.337927	9712.516373
445.712995	9056.279129
446.088002	9521.749029
446.462949	9393.529801
446.837837	9251.303728
447.212664	9037.689875
447.587431	9711.563594
447.962139	10431.478172
448.336786	10938.567838
448.711374	10245.411704
449.085901	8967.648083
449.460369	8700.524902
449.834776	8461.992626
450.209124	8882.538283
450.583412	8584.815298
450.957640	8508.091457
451.331808	7997.944332
451.705917	7475.232131
452.079965	7290.214223
452.453954	7179.318921
452.827883	6980.110165
453.201752	6773.821108
453.575562	6643.635831
453.949311	6668.113153
454.323001	6523.174939
454.696632	6318.655327
455.070202	6405.947948
455.443713	6274.570437
455.817164	6192.056831
456.190556	6113.603874
456.563888	5886.736828
456.937160	5787.526920
457.310373	5447.072595
457.683526	5355.290828
458.056619	5221.319643
458.429653	5078.599537
458.802628	5015.665772
459.175542	4905.418258
459.548398	4909.552004
459.921194	4941.097025
460.293930	4897.450715
460.666607	4962.690807
461.039224	4986.618644
461.411782	4885.788005
461.784280	4677.847971
462.156719	4507.366230
462.529099	4356.514742
462.901419	4172.621012
463.273680	4014.099408
463.645882	3931.580761
464.018024	3845.992051
464.390106	3808.069971
464.762130	3868.120196
465.134094	3996.820854
465.505999	4165.959127
465.877845	4270.928553
466.249631	4204.992781
466.621358	4031.163714
466.993026	3859.373794
467.364634	3709.162533
467.736184	3577.417018
468.107674	3479.399343
468.479105	3403.381264
468.850477	3336.028928
469.221790	3256.358533
469.593043	3176.070596
469.964238	3118.530866
470.335373	3080.185329
470.706449	3082.763879
471.077467	3093.733430
471.448425	3147.444404
471.819324	3171.117662
472.190164	3114.568519
472.560945	3034.877959
472.931667	2960.909109
473.302330	2924.179262
473.672934	2891.900754
474.043479	2882.627551
474.413965	2855.453211
474.784393	2834.534943
475.154761	2833.955211
475.525070	2821.581699
475.895321	2801.633853
476.265513	2795.917184
476.635645	2803.738535
477.005719	2789.086421
477.375734	2787.279167
477.745691	2783.775565
478.115588	2788.214301
478.485427	2799.408183
478.855207	2822.819302
479.224928	2840.256653
479.594591	2846.195132
479.964194	2830.912874
480.333739	2825.677636
480.703226	2819.247644
481.072653	2817.684887
481.442022	2815.413847
481.811333	2812.464772
482.180584	2794.016669
482.549777	2784.990483
482.918912	2779.135183
483.287988	2768.727721
483.657005	2760.107348
484.025964	2751.902870
484.394864	2745.435070
484.763706	2738.528689
485.132489	2728.025445
485.501213	2724.095866
485.869879	2719.843652
486.238487	2713.527087
486.607036	2710.336036
486.975527	2700.304140
487.343959	2702.786908
487.712333	2701.019984
488.080648	2696.384643
488.448905	2697.995292
488.817104	2691.605629
489.185244	2696.099818
489.553326	2702.123997
489.921350	2718.595967
490.289315	2736.580283
490.657222	2740.386354
491.025070	2737.374265
491.392861	2729.711711
491.760593	2721.814743
492.128267	2706.020808
492.495883	2696.016639
492.863440	2686.241841
493.230939	2675.231961
493.598380	2669.769871
493.965763	2661.162101
494.333088	2657.106493
494.700354	2656.075577
495.067563	2653.517191
495.434713	2648.453352
495.801805	2651.173055
496.168839	2648.997797
496.535815	2646.542755
496.902733	2644.637199
497.269593	2644.788433
497.636395	2645.123670
498.003139	2645.879843
498.369825	2644.690131
498.736453	2643.233237
499.103023	2642.547640
499.469535	2638.058493
499.835989	2642.461941
500.202385	2640.407671
500.568723	2639.301137
500.935003	2642.353556
501.301226	2641.274749
501.667390	2644.637199
502.033497	2648.808753
502.399546	2647.939154
502.765537	2641.526807
503.131470	2646.270532
503.497345	2649.123826
503.863163	2644.722898
504.228923	2648.407982
504.594625	2651.087355
504.960269	2648.740698
505.325856	2656.168838
505.691385	2652.818991
506.056856	2656.957779
506.422270	2659.755619
506.787625	2657.479538
507.152924	2661.285609
507.518164	2665.094201
507.883347	2662.964313
508.248472	2666.556136
508.613540	2670.241219
508.978550	2674.208607
509.343503	2672.547547
509.708398	2679.038032
510.073236	2685.223528
510.438016	2685.573888
510.802738	2685.402489
511.167403	2690.289888
511.532010	2690.231915
511.896561	2697.370188
512.261053	2705.446117
512.625488	2700.921681
512.989866	2701.216589
513.354186	2705.267156
513.718449	2703.139789
514.082655	2712.503732
514.446803	2711.891232
514.810894	2718.656461
515.174927	2714.295862
515.538904	2718.356512
515.902822	2727.475959
516.266684	2724.630228
516.630488	2725.464539
516.994235	2726.404714
517.357925	2733.734552
517.721558	2735.889645
518.085133	2736.469378
518.448651	2740.129255
518.812112	2742.465830
519.175516	2740.028432
519.538863	2748.361460
519.902152	2745.477920
520.265385	2749.931779
520.628560	2749.523446
520.991678	2749.026892
521.354739	2754.010072
521.717743	2752.853128
522.080690	2754.788931
522.443580	2758.968047
522.806413	2759.940990
523.169189	2759.605753
523.531908	2762.731269
523.894569	2762.832092
524.257174	2760.924015
524.619722	2764.694798
524.982213	2765.897113
525.344647	2765.088008
525.707025	2767.820313
526.069345	2768.856271
526.431608	2767.288472
526.793815	2772.072527
527.155964	2770.935747
527.518057	2772.417846
527.880093	2766.325611
528.242072	2772.869029
528.603995	2770.182094
528.965860	2770.562701
529.327669	2773.400871
529.689421	2769.395674
530.051117	2772.644698
530.412755	2772.778288
530.774337	2771.202928
531.135862	2770.141765
531.497331	2771.099584
531.858743	2768.669748
532.220098	2770.963473
532.581396	2768.599172
532.942638	2766.252515
533.303824	2770.013215
533.664953	2770.552619
534.026025	2767.608585
534.387040	2771.896086
534.747999	2772.309461
535.108902	2770.464399
535.469748	2766.870056
535.830537	2766.756630
536.191270	2772.601848
536.551947	2768.866353
536.912567	2770.766868
537.273131	2769.970366
537.633638	2764.074736
537.994089	2766.292844
538.354483	2761.032400
538.714821	2767.444747
539.075103	2772.707712
539.435328	2769.796446
539.795497	2766.174377
540.155609	2765.219078
540.515665	2768.334511
540.875665	2764.208327
541.235609	2763.991557
541.595496	2766.305447
541.955328	2770.986158
542.315102	2763.658841
542.674821	2763.477359
543.034483	2764.969541
543.394090	2759.336052
543.753640	2758.647934
544.113134	2765.526588
544.472571	2758.060640
544.831953	2763.820158
545.191278	2757.738006
545.550548	2756.802872
545.909761	2757.322111
546.268918	2756.881010
546.628019	2754.741040
546.987064	2752.926224
547.346053	2746.720564
547.704986	2748.653847
548.063863	2743.716036
548.422684	2744.993969
548.781449	2740.225037
549.140158	2740.378792
549.498811	2738.170767
549.857408	2730.069633
550.215949	2731.720611
550.574434	2729.815055
550.932864	2721.308107
551.291237	2724.877244
551.649555	2724.264744
552.007817	2724.262224
552.366022	2716.773590
552.724173	2716.894577
553.082267	2716.939948
553.440305	2716.508929
553.798288	2706.343442
554.156215	2705.617516
554.514086	2707.008875
554.871902	2699.376568
555.229661	2696.177956
555.587365	2689.997501
555.945014	2692.167718
556.302606	2688.706966
556.660143	2685.241172
557.017625	2683.930472
557.375050	2677.697086
557.732421	2674.833710
558.089735	2676.179698
558.446994	2667.554284
558.804197	2670.122752
559.161345	2665.240394
559.518437	2657.247645
559.875474	2655.785710
560.232455	2652.314876
560.589381	2653.370998
560.946251	2650.847900
561.303065	2646.562919
561.659825	2644.372538
562.016528	2640.062352
562.373177	2634.963224
562.729770	2634.058337
563.086307	2631.313429
563.442789	2628.671864
563.799216	2626.476442
564.155587	2623.179527
564.511904	2623.166924
564.868164	2617.644340
565.224370	2616.258023
565.580520	2610.755604
565.936615	2611.002620
566.292654	2606.770572
566.648638	2607.559512
567.004567	2607.249481
567.360441	2603.824017
567.716260	2600.106166
568.072023	2599.823862
568.427732	2592.670464
568.783385	2593.802203
569.138982	2589.847418
569.494525	2590.316245
569.850013	2584.788620
570.205445	2587.528487
570.560823	2584.529001
570.916145	2584.007241
571.271412	2580.415419
571.626625	2581.590008
571.981782	2580.105388
572.336884	2574.532393
572.691931	2578.691345
573.046923	2573.004923
573.401860	2572.248750
573.756743	2567.658779
574.111570	2570.449058
574.466342	2568.523337
574.821059	2567.583162
575.175722	2564.714746
575.530330	2562.189127
575.884882	2561.899261
576.239380	2564.916392
576.593823	2560.621329
576.948211	2559.781977
577.302544	2558.380536
577.656823	2557.871379
578.011047	2559.711400
578.365216	2553.984650
578.719330	2554.282078
579.073389	2553.611604
579.427394	2554.171172
579.781344	2551.025492
580.135239	2550.334854
580.489080	2553.667057
580.842866	2549.490461
581.196597	2548.731767
581.550273	2550.886861
581.903895	2547.920142
582.257463	2546.624565
582.610975	2544.683721
582.964434	2547.353012
583.317837	2548.003321
583.671186	2547.226983
584.024481	2545.989380
584.377721	2543.947712
584.730906	2546.725388
585.084037	2545.765048
585.437113	2544.343443
585.790135	2544.935778
586.143103	2542.662218
586.496016	2540.756662
586.848874	2536.335570
587.201679	2539.007382
587.554428	2534.339273
587.907124	2535.730632
588.259765	2532.589993
588.612352	2537.981507
588.964884	2538.215920
589.317362	2537.487474
589.669786	2539.519059
590.022155	2537.394212
590.374470	2537.845396
590.726731	2537.190046
591.078937	2534.200641
591.431090	2533.862884
591.783188	2534.336752
592.135232	2531.347348
592.487222	2535.763399
592.839157	2533.383974
593.191038	2532.794159
593.542866	2532.206865
593.894639	2532.627801
594.246358	2530.137471
594.598022	2526.167563
594.949633	2527.679909
595.301190	2524.922398
595.652692	2527.483304
596.004141	2529.499765
596.355535	2525.212264
596.706876	2525.199661
597.058162	2524.138498
597.409395	2525.728982
597.760573	2523.994825
598.111698	2524.211595
598.462768	2523.556245
598.813785	2522.994156
599.164748	2521.151615
599.515657	2517.622807
599.866511	2519.417458
600.217312	2521.675895
600.568060	2518.721778
600.918753	2521.257479
601.269392	2521.360823
601.619978	2519.084742
601.970510	2520.052643
602.320988	2524.836698
602.671412	2518.416789
603.021783	2521.149094
603.372100	2515.969308
603.722363	2518.010976
604.072572	2518.048784
604.422728	2519.639268
604.772830	2513.053001
605.122878	2512.246416
605.472872	2514.890502
605.822813	2513.496623
606.172701	2515.011489
606.522534	2515.679442
606.872314	2517.466531
607.222041	2516.806140
607.571714	2517.685821
607.921333	2515.671880
608.270899	2517.431243
608.620411	2516.614576
608.969870	2516.112981
609.319276	2515.450070
609.668627	2515.656757
610.017926	2515.755059
610.367171	2518.058867
610.716362	2516.128105
611.065500	2514.885460
611.414585	2517.126253
611.763616	2516.891840
612.112594	2517.779083
612.461518	2516.017199
612.810389	2516.901922
613.159207	2517.128774
613.507971	2514.230110
613.856682	2517.307735
614.205340	2517.322858
614.553945	2519.919052
614.902496	2513.998217
615.250994	2513.831859
615.599439	2518.116840
615.947830	2518.313445
616.296169	2518.406706
616.644454	2518.089114
616.992686	2515.722292
617.340864	2519.316635
617.688990	2514.986283
618.037063	2516.773372
618.385082	2516.385204
618.733048	2519.389731
619.080961	2516.503671
619.428821	2517.393434
619.776628	2518.535256
620.124382	2518.429392
620.472083	2516.478465
620.819731	2518.807478
621.167326	2514.036026
621.514868	2517.469052
621.862357	2515.523166
622.209793	2512.231293
622.557176	2513.194153
622.904506	2508.924296
623.251783	2506.670900
623.599007	2507.782475
623.946179	2503.968842
624.293297	2505.294665
624.640363	2505.730725
624.987376	2507.593431
625.334336	2507.608555
625.681243	2504.266270
626.028097	2503.736949
626.374899	2500.026659
626.721647	2503.227792
627.068343	2502.801815
627.414987	2500.152688
627.761577	2502.373317
628.108115	2502.259891
628.454600	2499.756958
628.801032	2497.385095
629.147412	2501.271824
629.493739	2502.764006
629.840014	2499.464571
630.186236	2501.284427
630.532405	2497.251504
630.878521	2497.528768
631.224585	2502.214520
631.570597	2497.327122
631.916556	2495.613129
632.262462	2494.977944
632.608316	2496.197903
632.954117	2494.246977
633.299866	2496.674292
633.645562	2496.384426
633.991206	2494.393170
634.336797	2495.668582
634.682336	2492.091883
635.027823	2491.287819
635.373257	2493.846205
635.718639	2490.428302
636.063968	2488.003508
636.409245	2488.653816
636.754470	2488.570637
637.099642	2487.176758
637.444762	2484.787251
637.789829	2485.487972
638.134845	2484.908239
638.479808	2484.789772
638.824719	2484.842704
639.169577	2484.820019
639.514383	2485.470328
639.859137	2482.916983
640.203839	2482.455718
640.548489	2483.756335
640.893086	2479.509163
641.237632	2478.614358
641.582125	2479.113433
641.926566	2475.813998
642.270955	2480.038484
642.615292	2480.802219
642.959576	2482.654843
643.303809	2481.034112
643.647990	2482.554020
643.992118	2479.279791
644.336195	2479.796509
644.680219	2478.019502
645.024192	2483.922693
645.368112	2481.283649
645.711981	2478.553865
646.055797	2480.824904
646.399562	2483.484113
646.743274	2485.694659
647.086935	2485.278764
647.430544	2484.124340
647.774101	2481.870944
648.117606	2485.586274
648.461059	2486.357571
648.804460	2488.121975
649.147810	2483.983187
649.491108	2481.346664
649.834354	2482.538897
650.177548	2481.553351
650.520690	2479.511684
650.863781	2479.428505
651.206820	2479.267188
651.549807	2476.766776
651.892742	2477.144862
652.235626	2475.985397
652.578458	2477.772486
652.921238	2473.477423
653.263967	2477.076807
653.606644	2473.328709
653.949269	2476.610500
654.291843	2471.791157
654.634365	2475.612351
654.976836	2471.128245
655.319255	2476.116467
655.661622	2472.575056
656.003938	2476.819708
656.346203	2472.635550
656.688416	2472.822073
657.030577	2471.138327
657.372687	2474.417598
657.714746	2471.818883
658.056753	2470.281331
658.398708	2466.485342
658.740612	2468.842082
659.082465	2466.664303
659.424266	2467.826289
659.766016	2467.745631
660.107715	2468.443831
660.449362	2470.687144
660.790958	2472.617906
661.132503	2469.900724
661.473996	2470.031794
661.815438	2471.342494
662.156829	2472.630509
662.498168	2469.835189
662.839456	2469.741928
663.180693	2469.300827
663.521879	2473.185036
663.863013	2468.932822
664.204097	2468.315281
664.545129	2468.844602
664.886110	2468.564818
665.227040	2470.377113
665.567918	2469.071454
665.908746	2471.216465
666.249522	2469.704119
666.590248	2471.438276
666.930922	2468.113635
667.271545	2470.823255
667.612118	2469.288224
667.952639	2468.786629
668.293109	2470.228399
668.633528	2469.696557
668.973896	2473.240488
669.314213	2470.170426
669.654480	2471.796198
669.994695	2468.542133
670.334859	2470.540951
670.674973	2468.156485
671.015035	2469.789819
671.355047	2467.087760
671.695008	2468.232102
672.034918	2469.872998
672.374777	2469.499952
672.714585	2468.864767
673.054342	2468.360652
673.394049	2470.583800
673.733705	2469.477267
674.073310	2466.991978
674.412864	2466.119859
674.752368	2466.414766
675.091820	2467.153295
675.431223	2465.570373
675.770574	2467.312092
676.109875	2463.001905
676.449125	2464.345372
676.788324	2461.708849
677.127473	2461.063581
677.466571	2458.323714
677.805619	2463.417800
678.144616	2463.400156
678.483562	2464.466360
678.822458	2461.701287
679.161303	2460.294805
679.500098	2463.377471
679.838842	2462.858232
680.177535	2462.681792
680.516179	2464.826803
680.854771	2463.011987
681.193314	2461.774384
681.531805	2466.810497
681.870247	2466.124900
682.208638	2466.250929
682.546978	2470.125055
682.885268	2467.675055
683.223508	2468.496763
683.561697	2468.453913
683.899836	2469.368882
684.237925	2468.458954
684.575963	2468.383337
684.913951	2464.390743
685.251889	2467.458285
685.589776	2465.479632
685.927614	2464.173973
686.265401	2465.000723
686.603137	2467.145733
686.940824	2467.332256
687.278460	2467.687657
687.616046	2464.501648
687.953582	2470.636732
688.291068	2471.135807
688.628504	2469.817545
688.965889	2468.842082
689.303224	2466.845785
689.640510	2469.308388
689.977745	2464.723459
690.314930	2466.140023
690.652065	2467.864098
690.989150	2465.338480
691.326185	2461.534929
691.663170	2462.001236
692.000105	2460.234312
692.336990	2461.023252
692.673825	2458.084259
693.010610	2456.624845
693.347345	2453.998404
693.684030	2447.729729
694.020665	2449.806685
694.357251	2445.395675
694.693786	2452.158383
695.030272	2450.935903
695.366707	2451.944134
695.703093	2449.758794
696.039429	2448.763166
696.375716	2452.259206
696.711952	2448.422888
697.048139	2447.913732
697.384276	2447.792744
697.720363	2448.584205
698.056400	2447.422219
698.392388	2448.417847
698.728326	2446.363577
699.064214	2448.664863
699.400053	2448.606890
699.735842	2445.985490
700.071581	2448.679987
700.407270	2447.263423
700.742910	2445.249482
701.078501	2441.566919
701.414042	2444.679831
701.749533	2440.853596
702.084974	2440.334357
702.420366	2441.597166
702.755709	2439.676486
703.091002	2442.025664
703.426246	2444.430294
703.761440	2442.723864
704.096584	2441.249326
704.431679	2440.777978
704.766725	2442.055911
705.101721	2440.276383
705.436668	2440.097422
705.771565	2441.214038
706.106413	2440.934254
706.441212	2440.092381
706.775961	2441.619851
707.110661	2439.328647
707.445311	2442.615479
707.779913	2443.308637
708.114465	2440.694799
708.448967	2442.106322
708.783421	2442.068514
709.117825	2444.032043
709.452180	2444.306786
709.786485	2446.847528
710.120742	2447.699483
710.454949	2448.934565
710.789107	2449.980605
711.123216	2445.562033
711.457275	2446.356015
711.791286	2446.908021
712.125247	2448.077569
712.459159	2452.067642
712.793023	2451.634103
713.126837	2450.419185
713.460602	2451.324072
713.794318	2451.523198
714.127985	2449.559668
714.461602	2446.645881
714.795171	2447.830552
715.128691	2446.098916
715.462162	2444.470623
715.795584	2443.301076
716.128957	2445.917435
716.462281	2442.413833
716.795556	2441.544234
717.128782	2441.793771
717.461960	2442.189501
717.795088	2441.405602
718.128167	2440.561209
718.461198	2438.990889
718.794180	2436.845878
719.127113	2437.349994
719.459997	2437.095415
719.792833	2436.404777
720.125619	2435.081474
720.458357	2437.692792
720.791046	2438.252360
721.123686	2432.810435
721.456278	2433.372523
721.788821	2434.297575
722.121315	2434.557194
722.453761	2433.281783
722.786158	2433.604416
723.118506	2434.960487
723.450805	2434.146340
723.783056	2433.949735
724.115259	2434.910075
724.447412	2435.593152
724.779518	2433.760692
725.111574	2433.639704
725.443582	2435.938471
725.775542	2435.938471
726.107453	2435.288162
726.439315	2436.641712
726.771129	2439.595828
727.102895	2439.008533
727.434612	2436.808070
727.766281	2437.062648
728.097901	2438.378389
728.429473	2431.754313
728.760996	2436.918975
729.092471	2433.286824
729.423897	2440.062134
729.755276	2437.967535
730.086606	2437.894438
730.417887	2440.175560
730.749120	2442.214707
731.080305	2442.517176
731.411442	2443.906014
731.742530	2442.171857
732.073570	2445.763679
732.404562	2443.986673
732.735506	2444.205963
733.066401	2444.228648
733.397249	2443.522887
733.728048	2439.724377
734.058798	2436.724891
734.389501	2439.106836
734.720156	2436.808070
735.050762	2433.690116
735.381320	2435.784715
735.711831	2430.488983
736.042293	2435.656166
736.372707	2434.872267
736.703073	2436.611465
737.033391	2431.948397
737.363661	2433.949735
737.693883	2431.441761
738.024056	2438.983328
738.354182	2435.774633
738.684260	2433.707760
739.014290	2434.506783
739.344272	2436.863522
739.674207	2439.207659
740.004093	2438.529624
740.333931	2435.489808
740.663722	2440.412495
740.993464	2435.860333
741.323159	2436.412339
741.652806	2439.500046
741.982405	2434.915116
742.311956	2435.779674
742.641460	2435.603234
742.970915	2432.258428
743.300323	2432.598706
743.629683	2434.781526
743.958996	2434.970569
744.288260	2431.537543
744.617477	2428.177614
744.946647	2427.555032
745.275768	2428.190217
745.604842	2424.432037
745.933869	2425.946904
746.262847	2424.603436
746.591778	2428.051585
746.920662	2427.234918
747.249498	2427.008067
747.578286	2430.609971
747.907027	2431.459405
748.235720	2429.934456
748.564365	2427.986050
748.892963	2427.865063
749.221514	2428.371699
749.550017	2428.986719
749.878473	2430.189035
750.206881	2427.769281
750.535242	2429.800866
750.863555	2431.444282
751.191821	2429.009405
751.520039	2429.702563
751.848210	2429.795825
752.176334	2431.212389
752.504411	2431.494693
752.832440	2429.064857
753.160421	2431.676175
753.488356	2428.502769
753.816243	2428.006215
754.144082	2428.517892
754.471875	2428.349013
754.799620	2426.471184
755.127318	2428.691812
755.454969	2426.763571
755.782572	2429.188366
756.110129	2425.515885
756.437638	2427.098807
756.765100	2426.738365
757.092515	2429.957142
757.419882	2428.568304
757.747203	2426.365319
758.074477	2426.569486
758.401703	2426.589651
758.728882	2427.116451
759.056014	2428.822882
759.383099	2429.387491
759.710138	2431.618202
760.037129	2428.182655
760.364073	2427.844898
760.690970	2429.692481
761.017820	2430.642738
761.344623	2429.011925
761.671379	2431.668613
761.998088	2428.674168
762.324751	2435.484767
762.651366	2442.466765
762.977935	2453.348095
763.304456	2455.606532
763.630931	2464.234467
763.957359	2455.631738
764.283740	2454.255503
764.610074	2446.701334
764.936362	2442.731425
765.262602	2442.086158
765.588796	2435.973759
765.914943	2434.302616
766.241044	2434.564756
766.567097	2428.374219
766.893104	2428.555701
767.219064	2426.070412
767.544978	2427.078643
767.870845	2422.284505
768.196665	2424.416913
768.522438	2422.649989
768.848165	2424.245514
769.173846	2421.213260
769.499479	2421.654361
769.825066	2422.355082
770.150607	2420.688980
770.476101	2419.726120
770.801548	2420.938517
771.126949	2417.807961
771.452303	2420.106727
771.777611	2417.495409
772.102872	2419.426171
772.428087	2418.624628
772.753256	2419.259813
773.078378	2415.322672
773.403453	2417.944072
773.728482	2416.267888
774.053465	2415.574730
774.378401	2415.756211
774.703291	2416.199833
775.028135	2416.144380
775.352932	2418.155800
775.677683	2417.946593
776.002388	2416.023392
776.327046	2417.790317
776.651658	2414.508526
776.976224	2415.736047
777.300743	2414.470717
777.625216	2417.064391
777.949643	2412.368556
778.274024	2415.234452
778.598359	2410.677249
778.922647	2411.738412
779.246889	2414.697569
779.571086	2410.604152
779.895236	2415.902405
780.219339	2414.632034
780.543397	2415.005079
780.867409	2412.512229
781.191374	2413.089441
781.515294	2413.447363
781.839167	2415.289904
782.162995	2414.238824
782.486776	2416.961047
782.810511	2417.044226
783.134201	2414.747980
783.457844	2416.202353
783.781441	2415.433577
784.104993	2412.101375
784.428498	2414.952147
784.751958	2412.913000
785.075372	2416.396438
785.398739	2412.759245
785.722061	2413.936355
786.045337	2414.395100
786.368568	2416.086407
786.691752	2413.021385
787.014891	2415.670512
787.337983	2417.394586
787.661030	2419.905081
787.984031	2420.794844
788.306987	2419.809299
788.629897	2424.089238
788.952760	2421.971954
789.275579	2423.212078
789.598351	2416.945923
789.921078	2418.947262
790.243759	2418.579257
790.566395	2415.864596
790.888984	2417.008938
791.211529	2414.087589
791.534027	2413.618762
791.856480	2415.892322
792.178888	2416.572878
792.501249	2416.028433
792.823566	2412.373597
793.145836	2414.707651
793.468062	2414.511046
793.790241	2414.064904
794.112375	2415.065573
794.434464	2412.789492
794.756507	2415.133629
795.078505	2415.547003
795.400457	2414.485840
795.722364	2412.514749
796.044226	2412.749163
796.366042	2413.643968
796.687812	2415.821746
797.009538	2416.451890
797.331218	2418.659916
797.652852	2415.642785
797.974442	2417.558424
798.295986	2416.008269
798.617484	2415.864596
798.938938	2417.129926
799.260346	2414.395100
799.581709	2414.808474
799.903026	2418.886768
800.224299	2413.477610
800.545526	2415.352919
800.866708	2413.575912
801.187845	2409.999213
801.508936	2414.256468
801.829983	2414.606828
802.150984	2416.000707
802.471940	2413.212949
802.792851	2411.846796
803.113717	2413.129770
803.434538	2412.595408
803.755314	2415.483989
804.076045	2411.060376
804.396731	2411.602300
804.717372	2414.140521
805.037967	2412.199677
805.358518	2412.308062
805.679024	2413.689338
805.999485	2414.097672
806.319901	2414.632034
806.640272	2414.745460
806.960598	2415.219328
807.280879	2411.516601
807.601115	2415.317631
807.921306	2414.044739
808.241453	2416.088927
808.561554	2416.167065
808.881611	2411.967784
809.201623	2411.882084
809.521590	2414.763104
809.841513	2413.742270
810.161390	2413.278484
810.481223	2412.345871
810.801011	2412.698751
811.120755	2411.630027
811.440453	2414.294277
811.760107	2412.371076
812.079716	2411.567012
812.399281	2408.088616
812.718801	2412.497105
813.038276	2406.972001
813.357707	2413.643968
813.677093	2408.902763
813.996434	2413.984246
814.315731	2410.069790
814.634983	2414.296797
814.954191	2412.504667
815.273354	2413.860737
815.592473	2413.560789
815.911547	2414.964750
816.230577	2416.716551
816.549562	2413.434760
816.868502	2412.429050
817.187399	2414.657240
817.506250	2414.145562
817.825058	2415.131108
818.143821	2415.877199
818.462539	2416.141859
818.781213	2415.872158
819.099843	2416.766962
819.418429	2423.035637
819.736970	2427.547470
820.055466	2430.010074
820.373919	2434.252205
820.692327	2442.796960
821.010691	2456.312294
821.329011	2485.918990
821.647286	2535.140817
821.965517	2581.295101
822.283704	2612.865327
822.601847	2622.554424
822.919945	2600.025508
823.237999	2575.134811
823.556010	2548.701520
823.873976	2524.453570
824.191897	2508.026971
824.509775	2490.425782
824.827609	2476.335757
825.145398	2468.204376
825.463144	2467.422997
825.780845	2466.676906
826.098502	2471.004737
826.416116	2481.570995
826.733685	2492.951400
827.051210	2495.824858
827.368692	2492.285968
827.686129	2479.325161
828.003522	2465.893007
828.320872	2448.952209
828.638177	2444.858792
828.955439	2434.133737
829.272656	2428.812800
829.589830	2426.075453
829.906960	2423.325504
830.224046	2425.619229
830.541088	2419.653023
830.858086	2418.352405
831.175041	2420.202509
831.491952	2416.426685
831.808819	2416.940882
832.125642	2421.167890
832.442421	2423.610329
832.759157	2429.947059
833.075849	2438.574994
833.392497	2446.645881
833.709101	2455.772890
834.025662	2451.132508
834.342179	2447.281067
834.658653	2439.323605
834.975083	2435.726742
835.291469	2439.726898
835.607811	2425.596543
835.924110	2421.921542
836.240366	2420.000863
836.556578	2415.564647
836.872746	2416.063722
837.188871	2417.447518
837.504952	2414.022054
837.820990	2409.381672
838.136984	2412.461817
838.452935	2410.553740
838.768842	2410.594070
839.084706	2414.684966
839.400526	2416.900553
839.716303	2421.447674
840.032037	2424.452202
840.347727	2424.696697
840.663373	2421.891295
840.978977	2418.085224
841.294537	2417.349216
841.610054	2413.956519
841.925527	2413.613721
842.240957	2410.904101
842.556344	2409.827814
842.871687	2408.438976
843.186987	2404.776578
843.502244	2406.853533
843.817458	2405.250447
844.132629	2404.461506
844.447756	2405.431928
844.762840	2402.863460
845.077881	2401.066289
845.392879	2399.306926
845.707833	2402.571073
846.022745	2399.281720
846.337613	2402.593758
846.652438	2402.654252
846.967221	2403.841444
847.281960	2402.515621
847.596656	2405.305899
847.911309	2405.043759
848.225919	2403.544016
848.540485	2403.047462
848.855009	2402.891187
849.169490	2403.982596
849.483928	2404.257339
849.798323	2402.218192
850.112675	2402.374468
850.426984	2404.685837
850.741251	2401.441855
851.055474	2402.359345
851.369654	2404.287586
851.683792	2403.165929
851.997887	2402.157699
852.311938	2404.408574
852.625947	2404.968142
852.939914	2404.554767
853.253837	2404.695920
853.567718	2405.857906
853.881555	2402.313974
854.195350	2404.058214
854.509103	2405.351270
854.822812	2405.278173
855.136479	2403.808677
855.450103	2402.936557
855.763685	2401.787174
856.077224	2399.407749
856.390720	2405.739438
856.704173	2404.522000
857.017584	2403.062586
857.330953	2403.788512
857.644278	2399.049827
857.957561	2407.992834
858.270802	2403.758265
858.584000	2405.240364
858.897155	2404.096022
859.210268	2403.849006
859.523339	2401.194838
859.836367	2401.275497
860.149352	2402.326577
860.462295	2404.587535
860.775195	2399.143089
861.088054	2400.554612
861.400869	2398.613768
861.713642	2399.085115
862.026373	2401.391443
862.339062	2404.821948
862.651708	2404.053173
862.964312	2406.167937
863.276873	2404.655590
863.589392	2401.411608
863.901869	2405.905797
864.214303	2402.976886
864.526696	2402.369427
864.839045	2404.832031
865.151353	2404.595097
865.463619	2405.174829
865.775842	2403.758265
866.088023	2402.331618
866.400162	2404.658111
866.712258	2403.826321
867.024313	2406.006620
867.336325	2406.273801
867.648296	2406.520817
867.960224	2404.073337
868.272110	2406.147772
868.583954	2405.510066
868.895755	2405.315982
869.207515	2404.506876
869.519233	2406.195663
869.830909	2404.395971
870.142542	2403.244067
870.454134	2405.714233
870.765684	2404.509397
871.077191	2407.322361
871.388657	2407.080385
871.700081	2407.453431
872.011463	2405.114335
872.322803	2404.451424
872.634101	2408.587690
872.945357	2404.645508
873.256571	2407.067782
873.567744	2408.872516
873.878874	2405.321023
874.189963	2408.887639
874.501010	2404.068296
874.812015	2406.568708
875.122979	2409.444687
875.433900	2408.756569
875.744780	2407.077865
876.055618	2408.529717
876.366415	2408.007958
876.677169	2406.598955
876.987882	2407.148441
877.298554	2403.307082
877.609183	2407.702968
877.919771	2405.366393
878.230317	2407.241702
878.540822	2411.057856
878.851285	2408.839748
879.161707	2413.011303
879.472087	2419.784093
879.782425	2423.978333
880.092722	2430.778850
880.402977	2452.836418
880.713191	2471.551702
881.023363	2492.497696
881.333494	2501.778460
881.643583	2509.589728
881.953631	2505.098060
882.263637	2499.212513
882.573602	2493.193375
882.883526	2483.920173
883.193408	2475.753504
883.503248	2469.101701
883.813048	2461.464353
884.122806	2453.784155
884.432522	2449.395831
884.742197	2441.493822
885.051831	2439.759665
885.361424	2428.038983
885.670975	2426.135947
885.980485	2423.370874
886.289954	2418.614545
886.599382	2417.142528
886.908768	2417.694535
887.218113	2413.550706
887.527417	2414.107754
887.836680	2410.669687
888.145901	2411.841755
888.455082	2412.310582
888.764221	2409.719429
889.073319	2408.683472
889.382376	2412.517270
889.691392	2407.392937
890.000366	2409.548030
890.309300	2409.031312
890.618193	2408.887639
890.927044	2407.992834
891.235855	2408.224727
891.544625	2405.293296
891.853353	2407.392937
892.162041	2409.658936
892.470687	2410.803278
892.779293	2408.219686
893.087858	2412.048443
893.396381	2411.990469
893.704864	2417.651685
894.013306	2419.756367
894.321707	2432.170208
894.630068	2433.841351
894.938387	2438.159099
895.246665	2436.346804
895.554903	2430.862029
895.863100	2431.431679
896.171256	2426.388005
896.479371	2425.800710
896.787446	2424.051430
897.095480	2417.729823
897.403473	2417.528177
897.711425	2415.380645
898.019336	2415.398289
898.327207	2413.764955
898.635038	2413.522980
898.942827	2411.332599
899.250576	2410.906621
899.558284	2408.875036
899.865952	2410.427712
900.173579	2407.894532
900.481165	2408.365880
900.788711	2406.233472
901.096216	2408.547361
901.403681	2407.062741
901.711105	2406.135169
902.018489	2403.049983
902.325832	2406.036867
902.633135	2406.578791
902.940397	2410.268915
903.247619	2413.427198
903.554800	2423.176790
903.861941	2434.350507
904.169041	2439.948708
904.476101	2441.945005
904.783121	2440.470468
905.090100	2434.310178
905.397039	2431.023346
905.703938	2428.482604
906.010796	2426.801379
906.317614	2420.358785
906.624391	2421.949269
906.931129	2416.071283
907.237826	2416.895512
907.544483	2411.854358
907.851099	2411.761097
908.157675	2410.122722
908.464211	2406.901424
908.770707	2400.569735
909.077163	2401.542678
909.383578	2403.349932
909.689954	2400.547050
909.996289	2400.234498
910.302584	2402.601320
910.608839	2402.916392
910.915054	2402.976886
911.221229	2402.165260
911.527363	2402.114849
911.833458	2402.560991
912.139513	2402.313974
912.445527	2403.400343
912.751502	2404.864798
913.057436	2404.753893
913.363331	2404.489232
913.669186	2404.834551
913.975000	2409.142217
914.280775	2410.178174
914.586510	2414.415264
914.892205	2418.415420
915.197859	2423.859866
915.503475	2431.716504
915.809050	2435.013419
916.114585	2442.527259
916.420081	2441.801332
916.725536	2442.486929
917.030952	2438.020467
917.336328	2434.489139
917.641665	2434.166505
917.946961	2432.127358
918.252218	2429.558890
918.557435	2426.254414
918.862612	2426.819023
919.167750	2419.300142
919.472848	2419.537077
919.777906	2414.662281
920.082925	2413.074317
920.387904	2410.215983
920.692843	2411.372928
920.997743	2409.477454
921.302603	2408.620458
921.607423	2408.832186
921.912204	2408.431415
922.216946	2404.761455
922.521647	2407.350087
922.826310	2403.642318
923.130932	2405.283214
923.435516	2403.407905
923.740059	2403.203738
924.044564	2401.462019
924.349028	2402.525703
924.653454	2396.015053
924.957840	2397.275341
925.262186	2396.400701
925.566493	2401.338511
925.870761	2396.352810
926.174989	2400.272307
926.479178	2399.919426
926.783328	2401.504869
927.087438	2399.669889
927.391509	2399.707698
927.695541	2400.060579
927.999533	2399.909344
928.303486	2401.585528
928.607400	2402.223234
928.911275	2398.230640
929.215110	2398.167625
929.518906	2397.204765
929.822663	2399.526216
930.126381	2397.471946
930.430060	2397.804662
930.733699	2395.853736
931.037299	2397.280382
931.340861	2400.683161
931.644383	2397.842471
931.947866	2398.182749
932.251309	2398.913716
932.554714	2396.574621
932.858080	2401.852709
933.161407	2398.588562
933.464694	2398.999416
933.767943	2398.321381
934.071153	2398.581000
934.374323	2398.845661
934.677455	2399.410270
934.980548	2398.381874
935.283602	2398.631412
935.586617	2396.625032
935.889593	2402.064437
936.192530	2398.039076
936.495428	2400.950342
936.798287	2398.313819
937.101108	2397.129148
937.403890	2398.911196
937.706632	2400.486556
938.009336	2396.413304
938.312002	2401.502349
938.614628	2399.841288
938.917216	2400.839437
939.219765	2400.544529
939.522275	2402.180384
939.824747	2401.048645
940.127179	2400.516803
940.429573	2397.313150
940.731929	2400.191649
941.034246	2396.803993
941.336524	2401.086453
941.638763	2399.642163
941.940964	2404.753893
942.243126	2401.341032
942.545250	2399.894221
942.847335	2398.457492
943.149381	2400.506721
943.451389	2397.108983
943.753359	2400.131155
944.055290	2400.932698
944.357182	2398.893552
944.659036	2399.443037
944.960851	2400.012688
945.262628	2399.120403
945.564367	2399.836247
945.866067	2398.954045
946.167729	2399.453120
946.469352	2400.489077
946.770937	2397.020763
947.072484	2398.467574
947.373992	2400.143758
947.675462	2399.783315
947.976893	2397.237533
948.278286	2397.658469
948.579641	2397.108983
948.880958	2400.272307
949.182236	2398.611247
949.483476	2398.626370
949.784678	2396.597306
950.085841	2397.469426
950.386967	2399.942112
950.688054	2397.731566
950.989103	2397.461864
951.290114	2397.988664
951.591087	2398.160064
951.892021	2397.194683
952.192917	2399.140568
952.493776	2402.553429
952.794596	2398.212996
953.095378	2398.538150
953.396122	2400.116031
953.696828	2400.660476
953.997496	2400.050496
954.298126	2397.940773
954.598718	2397.996226
954.899272	2399.170815
955.199788	2399.092677
955.500266	2396.670403
955.800706	2396.226781
956.101108	2394.215361
956.401472	2398.545712
956.701798	2394.202758
957.002087	2397.124107
957.302337	2398.021432
957.602550	2398.034035
957.902724	2398.986813
958.202861	2396.267110
958.502960	2396.262069
958.803022	2396.315001
959.103045	2393.769219
959.403031	2395.783160
959.702979	2394.550598
960.002889	2396.405742
960.302762	2395.558828
960.602596	2396.695608
960.902393	2394.434651
961.202153	2396.622512
961.501875	2394.938766
961.801559	2395.533623
962.101205	2396.292316
962.400814	2396.554456
962.700385	2396.224261
962.999918	2392.597150
963.299414	2393.602861
963.598873	2394.916081
963.898293	2393.978427
964.197677	2396.882131
964.497022	2393.723848
964.796331	2394.351472
965.095601	2394.898437
965.394835	2393.267624
965.694030	2392.760988
965.993189	2395.384908
966.292309	2395.984806
966.591393	2395.979765
966.890439	2394.318704
967.189447	2395.634446
967.488419	2396.231822
967.787353	2397.507234
968.086249	2396.229302
968.385108	2395.919271
968.683930	2394.848026
968.982714	2395.982285
969.281462	2394.210320
969.580172	2394.109497
969.878844	2391.656975
970.177480	2394.041441
970.476078	2395.052192
970.774639	2395.694939
971.073162	2393.224774
971.371649	2395.334497
971.670098	2389.469114
971.968510	2394.268293
972.266885	2387.104813
972.565223	2394.974054
972.863524	2394.386760
973.161788	2395.836092
973.460014	2396.909857
973.758204	2396.471277
974.056356	2395.984806
974.354471	2396.365413
974.652550	2397.960938
974.950591	2394.240567
975.248595	2397.086298
975.546563	2398.429765
975.844493	2393.827192
976.142386	2398.013870
976.440243	2394.381719
976.738062	2396.083108
977.035845	2394.986657
977.333590	2396.045300
977.631299	2396.322563
977.928971	2396.604868
978.226606	2395.687378
978.524204	2396.746020
978.821765	2394.863149
979.119290	2396.897255
979.416777	2396.274672
979.714228	2396.493962
980.011642	2394.301060
980.309020	2397.711401
980.606360	2394.681668
980.903664	2396.912378
981.200931	2394.006153
981.498162	2397.603016
981.795356	2392.299722
982.092513	2396.776267
982.389633	2395.132851
982.686717	2397.809703
982.983764	2400.244581
983.280775	2402.046793
983.577749	2397.630743
983.874686	2400.355486
984.171587	2399.057389
984.468451	2398.112173
984.765279	2398.742317
985.062070	2396.408263
985.358824	2398.069323
985.655543	2397.204765
985.952224	2397.156874
986.248869	2394.787532
986.545478	2390.706718
986.842050	2391.472973
987.138586	2391.737634
987.435086	2393.423900
987.731549	2391.830895
988.027975	2395.997409
988.324366	2392.934908
988.620719	2393.128992
988.917037	2394.442213
989.213318	2392.955072
989.509563	2394.023797
989.805772	2394.782491
990.101944	2394.706873
990.398080	2391.241080
990.694180	2394.855587
990.990244	2395.140413
991.286271	2393.786863
991.582262	2396.123438
991.878217	2390.477345
992.174136	2394.643859
992.470019	2394.842984
992.765865	2395.858777
993.061676	2394.936246
993.357450	2391.535987
993.653188	2394.230484
993.948890	2397.965979
994.244556	2392.748385
994.540186	2395.339538
994.835780	2394.043962
995.131337	2395.533622
995.426859	2396.002450
995.722345	2395.808365
996.017795	2393.784342
996.313208	2397.056051
996.608586	2395.503376
996.903928	2397.582852
997.199234	2395.760474
997.494504	2396.887172
997.789738	2396.166287
998.084936	2396.652759
998.380099	2394.573283
998.675225	2393.575134
998.970316	2395.647048
999.265371	2395.957079
999.560390	2394.119579
999.855373	2395.626884
1000.150320	2393.423900
1000.445232	2395.838612
1000.740108	2391.389794
1001.034948	2391.301574
1001.329752	2392.103117
1001.624521	2393.401214
1001.919254	2389.312839
1002.213951	2392.264434
1002.508613	2389.471635
1002.803239	2392.380381
1003.097829	2388.082797
1003.392384	2391.914074
1003.686903	2392.345093
1003.981386	2394.989178
1004.275834	2391.669578
1004.570246	2393.514640
1004.864623	2391.236039
1005.158964	2395.032028
1005.453270	2390.961296
1005.747540	2392.453478
1006.041775	2393.166801
1006.335974	2394.749723
1006.630138	2390.890720
1006.924266	2394.437172
1007.218359	2392.811399
1007.512416	2391.790566
1007.806438	2391.538508
1008.100425	2393.973385
1008.394376	2392.030021
1008.688292	2392.566903
1008.982172	2395.316853
1009.276017	2392.554301
1009.569827	2395.009342
1009.863602	2392.433313
1010.157341	2390.711759
1010.451045	2391.498179
1010.744714	2391.873745
1011.038347	2393.393653
1011.331945	2392.110679
1011.625508	2393.071019
1011.919036	2395.145454
1012.212528	2393.935577
1012.505986	2392.042623
1012.799408	2389.504402
1013.092795	2392.592109
1013.386147	2393.378529
1013.679464	2392.307284
1013.972745	2392.065309
1014.265992	2395.551267
1014.559204	2391.112531
1014.852380	2392.992881
1015.145521	2392.183776
1015.438628	2392.161091
1015.731699	2392.975237
1016.024736	2391.576317
1016.317737	2392.602192
1016.610703	2392.811399
1016.903635	2389.519526
1017.196531	2387.581202
1017.489393	2391.951883
1017.782219	2387.573641
1018.075011	2392.110679
1018.367768	2389.998436
1018.660490	2393.912892
1018.953177	2393.912892
1019.245829	2393.912892
