Dividing Wavelength (nm)	Counts (n)	Blue Motor Position (mm): 0.000000	Red Motor Position (mm): 28.200000	
326.493990	1988.468011
326.888308	1988.468011
327.282561	1988.468011
327.676750	1961.943980
328.070874	1963.584876
328.464933	1968.658797
328.858929	1978.945272
329.252859	1994.083857
329.646726	2008.204128
330.040528	2024.053516
330.434265	2041.120342
330.827938	2058.973589
331.221547	2080.975705
331.615091	2098.801225
332.008571	2122.000615
332.401986	2142.986938
332.795338	2160.192396
333.188625	2181.612259
333.581847	2202.845599
333.975006	2220.620708
334.368100	2239.189798
334.761129	2252.637076
335.154095	2268.025198
335.546996	2291.133847
335.939833	2317.967909
336.332606	2329.161791
336.725315	2340.262412
337.117960	2349.916221
337.510540	2357.583816
337.903056	2368.838192
338.295508	2373.140817
338.687896	2380.140459
339.080220	2389.721172
339.472480	2391.195710
339.864676	2396.073026
340.256807	2397.613098
340.648875	2403.090312
341.040879	2404.726167
341.432818	2403.622154
341.824694	2406.299007
342.216506	2405.200035
342.608253	2406.782957
342.999937	2403.841444
343.391557	2404.101063
343.783113	2401.275497
344.174605	2402.387071
344.566033	2396.582182
344.957397	2398.023952
345.348697	2396.173849
345.739934	2393.804507
346.131106	2393.454147
346.522215	2390.260576
346.913260	2388.755791
347.304241	2392.186296
347.695159	2387.104813
348.086012	2384.533825
348.476802	2382.724051
348.867528	2382.976108
349.258191	2379.961498
349.648789	2381.569626
350.039324	2375.149717
350.429796	2380.601725
350.820203	2377.937475
351.210548	2377.241796
351.600828	2377.163658
351.991045	2379.691797
352.381198	2375.923534
352.771288	2377.592156
353.161314	2377.561909
353.551276	2377.534183
353.941175	2378.272712
354.331010	2377.120808
354.720782	2378.126518
355.110490	2377.166178
355.500135	2378.721374
355.889717	2379.880840
356.279235	2380.513505
356.668689	2380.032074
357.058080	2378.819677
357.447408	2376.626775
357.836672	2376.979656
358.225873	2378.532331
358.615010	2378.812115
359.004084	2384.929555
359.393095	2385.360574
359.782043	2387.021634
360.170927	2386.562889
360.559748	2385.559700
360.948505	2386.903167
361.337199	2388.528939
361.725830	2390.845349
362.114398	2394.364075
362.502903	2388.987684
362.891344	2393.638149
363.279722	2392.216543
363.668037	2394.752244
364.056289	2393.335679
364.444478	2395.984806
364.832603	2396.251987
365.220665	2396.735938
365.608665	2395.997409
365.996601	2396.851884
366.384474	2398.765002
366.772284	2402.029149
367.160031	2401.966135
367.547715	2401.555281
367.935336	2398.422204
368.322893	2401.945970
368.710388	2402.286248
369.097820	2408.766651
369.485189	2406.966959
369.872495	2408.915365
370.259738	2408.620458
370.646918	2413.543145
371.034035	2415.781417
371.421090	2418.231418
371.808081	2425.127716
372.195010	2425.347006
372.581875	2430.441092
372.968678	2440.213369
373.355418	2448.652261
373.742096	2457.736420
374.128710	2466.346711
374.515262	2480.378762
374.901751	2494.486431
375.288177	2509.473782
375.674540	2531.115455
376.060841	2554.284598
376.447079	2574.005592
376.833254	2603.004830
377.219367	2626.647841
377.605417	2662.122441
377.991404	2688.709486
378.377329	2731.302195
378.763191	2765.516506
379.148991	2812.719350
379.534727	2863.067874
379.920402	2910.759710
380.306013	2960.120168
380.691563	3024.281454
381.077049	3077.730287
381.462474	3134.864204
381.847835	3212.888663
382.233134	3284.213428
382.618371	3344.487984
383.003545	3436.632715
383.388657	3516.008203
383.773706	3606.607820
384.158693	3682.867874
384.543618	3778.400260
384.928480	3859.058722
385.313280	3966.518478
385.698017	4071.777770
386.082692	4192.105071
386.467305	4258.323148
386.851856	4389.433477
387.236344	4542.684554
387.620770	4605.651086
388.005133	4729.605497
388.389435	4879.148806
388.773674	4962.771466
389.157851	5099.911015
389.541965	5227.684100
389.926018	5255.949850
390.310008	5441.650834
390.693936	5557.859512
391.077802	5681.912226
391.461606	5813.471218
391.845348	5932.533190
392.229027	6049.913937
392.612645	6280.566890
392.996200	6393.387913
393.379694	6576.265851
393.763125	6798.691641
394.146494	6891.068264
394.529801	7032.896087
394.913047	7275.728467
395.296230	7279.579909
395.679351	7329.789801
396.062410	7598.654701
396.445408	7490.761405
396.828343	7648.118502
397.211217	7789.767363
397.594028	7661.170049
397.976778	7870.088068
398.359466	8041.114253
398.742092	8014.199533
399.124656	8162.409456
399.507158	8350.298301
399.889598	8372.151703
400.271977	8581.959485
400.654294	8614.910987
401.036549	8818.104775
401.418742	8843.688631
401.800874	9147.763469
402.182944	9227.887568
402.564952	9597.774670
402.946898	9420.356301
403.328783	9477.568356
403.710606	9671.655300
404.092367	9939.300240
404.474067	10301.446650
404.855705	10082.234596
405.237282	10039.377226
405.618797	10474.895110
406.000250	10727.265354
406.381642	11094.478123
406.762972	11038.740606
407.144240	10831.884419
407.525447	11096.053484
407.906593	11030.064780
408.287677	11295.254678
408.668700	11445.975096
409.049661	11422.934502
409.430560	11595.220976
409.811399	11557.286293
410.192176	11719.001467
410.572891	11792.677931
410.953545	12284.853343
411.334138	11753.553536
411.714669	12362.963501
412.095139	11657.433856
412.475547	12173.910149
412.855894	12014.125737
413.236180	12345.813496
413.616405	12036.218594
413.996568	12304.259264
414.376670	12286.259825
414.756711	12152.621357
415.136691	12436.680294
415.516609	12619.424641
415.896466	12689.065661
416.276262	12981.792862
416.655997	13431.496552
417.035670	13464.135503
417.415283	14106.512094
417.794834	14206.049676
418.174324	13949.989308
418.553753	13850.711345
418.933121	14336.124048
419.312428	14151.796779
419.691674	14065.968614
420.070859	14523.846535
420.449983	14170.716229
420.829045	14722.412544
421.208047	14473.495491
421.586988	14929.936683
421.965867	15184.492268
422.344686	15182.296845
422.723444	15751.556540
423.102141	14425.455815
423.480777	15627.254289
423.859352	15130.105779
424.237866	16245.445944
424.616319	15945.116683
424.994712	16603.884586
425.373044	16396.768780
425.751314	17070.771049
426.129524	16197.852411
426.507673	17289.199204
426.885762	16982.984396
427.263789	17191.491560
427.641756	17343.157194
428.019662	17409.448367
428.397508	17459.073486
428.775292	17758.649094
429.153016	17727.096512
429.530679	17800.853634
429.908282	17824.836924
430.285824	17541.221608
430.663305	18254.179394
431.040726	17854.423456
431.418086	17681.373247
431.795385	18331.374583
432.172624	18745.709538
432.549802	18302.824008
432.926920	18488.020877
433.303977	18373.954689
433.680974	18629.803329
434.057910	18913.385877
434.434786	18938.261450
434.811601	18857.121558
435.188355	19903.881867
435.565050	19551.719462
435.941683	19491.351644
436.318257	20385.727954
436.694770	20197.788697
437.071222	20785.801485
437.447614	19855.002839
437.823946	19881.685666
438.200218	20031.833913
438.576429	19800.802873
438.952580	20078.315872
439.328670	20042.352280
439.704700	20461.854418
440.080670	20028.277379
440.456580	20610.752459
440.832429	20791.646703
441.208218	19781.691859
441.583947	20223.415403
441.959616	20341.242292
442.335224	20578.305072
442.710773	20707.376255
443.086261	21242.724108
443.461689	20603.195769
443.837057	20721.385621
444.212365	21370.043489
444.587612	21359.305832
444.962800	20955.824481
445.337927	21368.521061
445.712995	20093.376319
446.088002	21955.583591
446.462949	22154.936020
446.837837	22319.585146
447.212664	22286.613479
447.587431	25119.411745
447.962139	28064.733606
448.336786	30459.574070
448.711374	28889.148782
449.085901	25180.049264
449.460369	25127.800225
449.834776	25046.932555
450.209124	27547.216314
450.583412	27073.027739
450.957640	27604.067926
451.331808	26232.967341
451.705917	24878.973912
452.079965	24908.396607
452.453954	25262.709063
452.827883	25139.924200
453.201752	24947.364726
453.575562	25105.102430
453.949311	26238.172333
454.323001	26282.053056
454.696632	26053.782048
455.070202	27599.616587
455.443713	27738.109686
455.817164	28329.293360
456.190556	28860.341109
456.563888	28295.931003
456.937160	28728.318331
457.310373	27047.035550
457.683526	27488.280184
458.056619	27461.690618
458.429653	27410.192711
458.802628	27972.845974
459.175542	28092.580940
459.548398	29393.349867
459.921194	30949.193616
460.293930	31612.622065
460.666607	33620.112871
461.039224	35364.541145
461.411782	35749.866780
461.784280	34544.642842
462.156719	34039.249525
462.529099	33476.616426
462.901419	32169.619154
463.273680	31092.969845
463.645882	31169.635712
464.018024	31135.108850
464.390106	31953.522533
464.762130	34615.579438
465.134094	38623.810944
465.505999	43825.586034
465.877845	48389.171211
466.249631	49505.973311
466.621358	47753.340559
466.993026	45629.600746
467.364634	43511.111295
467.736184	41523.638912
468.107674	40258.120253
468.479105	39437.017115
468.850477	38692.582364
469.221790	37233.652277
469.593043	35477.730172
469.964238	34572.422120
470.335373	34443.242553
470.706449	36053.603861
471.077467	38496.090790
471.448425	42880.243659
471.819324	45601.897085
472.190164	43721.957555
472.560945	40191.085510
472.931667	37091.345545
473.302330	35945.818951
473.672934	35072.986012
474.043479	35478.017518
474.413965	34626.677538
474.784393	34184.931309
475.154761	34963.192202
475.525070	34896.270884
475.895321	34353.694017
476.265513	34832.154969
476.635645	35642.338968
477.005719	35382.568311
477.375734	35712.690791
477.745691	36238.596563
478.115588	37377.609987
478.485427	39082.019061
478.855207	42053.973338
479.224928	44376.064910
479.594591	45779.691020
479.964194	44687.076376
480.333739	44690.983270
480.703226	44530.669537
481.072653	44937.697340
481.442022	45211.681531
481.811333	45286.129291
482.180584	43885.595929
482.549777	43200.024212
482.918912	42512.509130
483.287988	42043.986812
483.657005	41101.190219
484.025964	40323.846817
484.394864	40145.458026
484.763706	39564.212988
485.132489	38571.496370
485.501213	38223.064419
485.869879	38126.942218
486.238487	37551.186996
486.607036	37499.679006
486.975527	36806.449776
487.343959	36746.152535
487.712333	36584.132371
488.080648	36276.967306
488.448905	36397.818887
488.817104	35990.360065
489.185244	36514.075456
489.553326	37600.618030
489.921350	39542.178104
490.289315	41755.617688
490.657222	41989.852381
491.025070	41943.647686
491.392861	40813.846971
491.760593	39426.138305
492.128267	37702.834986
492.495883	36159.999933
492.863440	34786.245181
493.230939	33452.799495
493.598380	32337.882787
493.965763	31781.503240
494.333088	30895.482643
494.700354	30251.923902
495.067563	29742.830377
495.434713	29358.407109
495.801805	29089.229658
496.168839	28521.230251
496.535815	27988.970105
496.902733	27696.300877
497.269593	27122.342826
497.636395	26764.418383
498.003139	26729.843629
498.369825	26060.201958
498.736453	25951.086183
499.103023	25361.303950
499.469535	24965.570853
499.835989	24721.112700
500.202385	24202.748494
500.568723	23907.036930
500.935003	23701.085631
501.301226	23272.244755
501.667390	23300.399600
502.033497	23127.067086
502.399546	22489.575374
502.765537	21818.980925
503.131470	21709.139223
503.497345	21582.029050
503.863163	20603.712488
504.228923	20594.497258
504.594625	20480.930144
504.960269	19826.295988
505.325856	19845.533031
505.691385	19254.697198
506.056856	19009.588736
506.422270	18894.884842
506.787625	18410.220749
507.152924	18192.775619
507.518164	17923.046162
507.883347	17288.286755
508.248472	17108.977954
508.613540	16990.984707
508.978550	16819.991289
509.343503	16439.996674
509.708398	16222.685135
510.073236	16129.547297
510.438016	15846.524317
510.802738	15365.729310
511.167403	15305.187573
511.532010	15101.368682
511.896561	14923.148770
512.261053	14926.440643
512.625488	14512.977808
512.989866	14196.670610
513.354186	13883.398186
513.718449	13624.028300
514.082655	13558.788208
514.446803	13209.544631
514.810894	13083.117534
515.174927	12821.731186
515.538904	12530.851568
515.902822	12455.017491
516.266684	12075.363153
516.630488	11949.230964
516.994235	11678.904130
517.357925	11575.184910
517.721558	11394.905687
518.085133	11228.603063
518.448651	11036.383866
518.812112	10775.400811
519.175516	10578.049720
519.538863	10440.690881
519.902152	10224.984949
520.265385	10102.961300
520.628560	9910.855529
520.991678	9674.687554
521.354739	9523.513432
521.717743	9392.473679
522.080690	9189.242083
522.443580	9085.447246
522.806413	8920.755270
523.169189	8733.138647
523.531908	8583.494516
523.894569	8394.274806
524.257174	8252.817509
524.619722	8126.423179
524.982213	7961.587531
525.344647	7792.837426
525.707025	7643.488202
526.069345	7536.227572
526.431608	7385.277782
526.793815	7279.887419
527.155964	7084.134374
527.518057	6966.869574
527.880093	6812.108672
528.242072	6730.625982
528.603995	6582.224495
528.965860	6460.364683
529.327669	6347.152970
529.689421	6224.458847
530.051117	6105.429643
530.412755	6006.035733
530.774337	5909.701804
531.135862	5785.994409
531.497331	5699.589032
531.858743	5589.190284
532.220098	5519.564387
532.581396	5402.614659
532.942638	5291.905880
533.303824	5228.851127
533.664953	5141.929032
534.026025	5041.040420
534.387040	4991.405219
534.747999	4912.289351
535.108902	4846.845092
535.469748	4744.746603
535.830537	4685.722253
536.191270	4627.227224
536.551947	4547.796284
536.912567	4497.372142
537.273131	4445.160912
537.633638	4367.292729
537.994089	4326.930731
538.354483	4254.796861
538.714821	4221.046336
539.075103	4188.117519
539.435328	4131.391935
539.795497	4082.018874
540.155609	4037.994478
540.515665	4006.961135
540.875665	3951.642033
541.235609	3918.821601
541.595496	3878.404150
541.955328	3864.299001
542.315102	3811.170281
542.674821	3768.791821
543.034483	3737.728231
543.394090	3708.171946
543.753640	3675.049045
544.113134	3676.982327
544.472571	3621.249851
544.831953	3625.428967
545.191278	3583.297524
545.550548	3548.327040
545.909761	3538.658107
546.268918	3519.370652
546.628019	3505.041172
546.987064	3473.647387
547.346053	3438.674382
547.704986	3438.780246
548.063863	3413.287131
548.422684	3399.633166
548.781449	3381.996689
549.140158	3373.399002
549.498811	3355.359233
549.857408	3328.643638
550.215949	3330.400480
550.574434	3314.636792
550.932864	3297.194399
551.291237	3295.419913
551.649555	3281.697892
552.007817	3273.921913
552.366022	3255.735950
552.724173	3250.062132
553.082267	3245.358735
553.440305	3241.741707
553.798288	3221.839232
554.156215	3214.925289
554.514086	3210.622664
554.871902	3196.802341
555.229661	3189.716999
555.587365	3177.479598
555.945014	3173.887776
556.302606	3161.345386
556.660143	3158.156856
557.017625	3152.931700
557.375050	3141.876449
557.732421	3141.281593
558.089735	3134.455871
558.446994	3123.730816
558.804197	3124.302987
559.161345	3119.158490
559.518437	3100.380192
559.875474	3098.935901
560.232455	3096.322063
560.589381	3087.129519
560.946251	3084.102306
561.303065	3083.699013
561.659825	3076.563260
562.016528	3066.155798
562.373177	3057.303532
562.729770	3054.881257
563.086307	3043.498332
563.442789	3045.066131
563.799216	3039.339380
564.155587	3030.958462
564.511904	3028.079963
564.868164	3026.209695
565.224370	3026.285312
565.580520	3016.583612
565.936615	3012.533045
566.292654	3007.575070
566.648638	3008.979031
567.004567	2999.962928
567.360441	2996.834892
567.716260	2992.686022
568.072023	2990.936742
568.427732	2983.317038
568.783385	2977.428970
569.138982	2974.442086
569.494525	2971.926550
569.850013	2962.988585
570.205445	2964.349696
570.560823	2963.795169
570.916145	2956.049436
571.271412	2953.644806
571.626625	2949.352263
571.981782	2943.451593
572.336884	2937.941612
572.691931	2936.267949
573.046923	2929.348965
573.401860	2923.065167
573.756743	2921.681370
574.111570	2920.378232
574.466342	2918.003848
574.821059	2912.579567
575.175722	2907.145203
575.530330	2904.939698
575.884882	2900.526168
576.239380	2897.405694
576.593823	2894.557442
576.948211	2891.696587
577.302544	2883.431615
577.656823	2881.440359
578.011047	2876.946171
578.365216	2874.879298
578.719330	2869.906199
579.073389	2867.975438
579.427394	2866.137937
579.781344	2861.283306
580.135239	2858.097297
580.489080	2854.056812
580.842866	2846.968949
581.196597	2851.175792
581.550273	2845.859896
581.903895	2841.474092
582.257463	2845.524659
582.610975	2837.471416
582.964434	2837.589883
583.317837	2831.245591
583.671186	2829.463543
584.024481	2828.732575
584.377721	2823.033551
584.730906	2821.102789
585.084037	2820.419713
585.437113	2813.709937
585.790135	2813.992242
586.143103	2809.513176
586.496016	2806.606951
586.848874	2799.098152
587.201679	2798.934315
587.554428	2793.542801
587.907124	2793.063891
588.259765	2786.490227
588.612352	2794.495579
588.964884	2784.924948
589.317362	2785.615587
589.669786	2781.416305
590.022155	2778.578136
590.374470	2781.375976
590.726731	2772.657301
591.078937	2768.074892
591.431090	2766.582710
591.783188	2763.076588
592.135232	2756.386977
592.487222	2754.398241
592.839157	2755.913108
593.191038	2750.955133
593.542866	2747.844741
593.894639	2740.348546
594.246358	2739.957856
594.598022	2741.119842
594.949633	2735.922412
595.301190	2731.894531
595.652692	2728.811865
596.004141	2729.499982
596.355535	2720.609908
596.706876	2717.713765
597.058162	2716.715616
597.409395	2716.594629
597.760573	2715.891388
598.111698	2709.872250
598.462768	2710.278063
598.813785	2707.787733
599.164748	2705.519214
599.515657	2701.360262
599.866511	2699.237936
600.217312	2700.767926
600.568060	2693.559076
600.918753	2698.627956
601.269392	2692.848273
601.619978	2690.804086
601.970510	2690.400793
602.320988	2687.786955
602.671412	2692.203006
603.021783	2685.087417
603.372100	2684.805113
603.722363	2681.727488
604.072572	2681.886284
604.422728	2681.014165
604.772830	2677.225738
605.122878	2672.817249
605.472872	2674.012002
605.822813	2671.662824
606.172701	2673.147444
606.522534	2674.097702
606.872314	2675.337826
607.222041	2670.808349
607.571714	2671.443534
607.921333	2667.609737
608.270899	2672.988648
608.620411	2667.929850
608.969870	2668.625529
609.319276	2667.030004
609.668627	2666.180570
610.017926	2666.205775
610.367171	2668.063441
610.716362	2667.108142
611.065500	2664.968172
611.414585	2665.812565
611.763616	2668.328101
612.112594	2663.952380
612.461518	2664.426248
612.810389	2661.436844
613.159207	2659.561535
613.507971	2661.862821
613.856682	2663.879283
614.205340	2660.539518
614.553945	2666.644356
614.902496	2660.166473
615.250994	2662.795435
615.599439	2660.594971
615.947830	2658.812923
616.296169	2660.705877
616.644454	2660.315187
616.992686	2662.041782
617.340864	2661.164622
617.688990	2660.080773
618.037063	2663.211330
618.385082	2661.250321
618.733048	2662.487924
619.080961	2662.886176
619.428821	2662.303922
619.776628	2660.446257
620.124382	2658.911226
620.472083	2656.441060
620.819731	2662.767708
621.167326	2655.984836
621.514868	2655.158087
621.862357	2651.954433
622.209793	2653.696152
622.557176	2651.094917
622.904506	2646.961171
623.251783	2641.186529
623.599007	2642.161992
623.946179	2637.418266
624.293297	2641.168885
624.640363	2638.854995
624.987376	2639.734677
625.334336	2633.939870
625.681243	2630.297637
626.028097	2630.721093
626.374899	2628.878552
626.721647	2629.619601
627.068343	2627.172121
627.414987	2627.030969
627.761577	2627.144395
628.108115	2626.521812
628.454600	2625.687501
628.801032	2623.640793
629.147412	2622.617439
629.493739	2621.183230
629.840014	2624.238170
630.186236	2621.193313
630.532405	2619.738940
630.878521	2620.061574
631.224585	2619.000411
631.570597	2617.094855
631.916556	2617.172992
632.262462	2619.086110
632.608316	2617.808178
632.954117	2614.720471
633.299866	2615.806840
633.645562	2612.653598
633.991206	2613.455142
634.336797	2607.620006
634.682336	2610.163268
635.027823	2605.906014
635.373257	2606.997423
635.718639	2606.805860
636.063968	2601.923502
636.409245	2601.714294
636.754470	2602.210848
637.099642	2599.508789
637.444762	2597.825044
637.789829	2593.565269
638.134845	2594.412183
638.479808	2594.860846
638.824719	2594.076946
639.169577	2592.017635
639.514383	2589.953282
639.859137	2589.423961
640.203839	2590.928746
640.548489	2586.648806
640.893086	2587.475555
641.237632	2583.457756
641.582125	2587.321800
641.926566	2579.487847
642.270955	2585.194433
642.615292	2587.490679
642.959576	2585.151583
643.303809	2582.149576
643.647990	2584.145873
643.992118	2585.098651
644.336195	2585.181830
644.680219	2584.801223
645.024192	2585.670822
645.368112	2584.155955
645.711981	2586.132088
646.055797	2589.923035
646.399562	2588.624938
646.743274	2595.932091
647.086935	2594.689446
647.430544	2591.631987
647.774101	2594.364292
648.117606	2595.763212
648.461059	2595.692636
648.804460	2593.542584
649.147810	2595.687595
649.491108	2590.313725
649.834354	2588.554362
650.177548	2585.706110
650.520690	2581.370718
650.863781	2582.598239
651.206820	2579.939030
651.549807	2581.345512
651.892742	2574.277814
652.235626	2574.240006
652.578458	2575.769996
652.921238	2574.822259
653.263967	2575.500294
653.606644	2573.526682
653.949269	2572.110118
654.291843	2568.659448
654.634365	2571.217834
654.976836	2567.275652
655.319255	2569.213975
655.661622	2569.234140
656.003938	2568.999726
656.346203	2565.765826
656.688416	2566.829510
657.030577	2564.802966
657.372687	2564.593758
657.714746	2568.775395
658.056753	2569.244222
658.398708	2561.992523
658.740612	2561.218705
659.082465	2563.199879
659.424266	2563.242729
659.766016	2559.240053
660.107715	2563.789694
660.449362	2565.987637
660.790958	2567.177349
661.132503	2565.256670
661.473996	2565.100394
661.815438	2562.347924
662.156829	2564.671896
662.498168	2565.927143
662.839456	2564.374468
663.180693	2563.998902
663.521879	2566.592575
663.863013	2567.308419
664.204097	2565.372616
664.545129	2566.791701
664.886110	2565.914540
665.227040	2563.361196
665.567918	2567.540312
665.908746	2564.742472
666.249522	2570.232288
666.590248	2569.380333
666.930922	2569.259346
667.271545	2568.979562
667.612118	2569.405539
667.952639	2567.305899
668.293109	2567.880590
668.633528	2566.416135
668.973896	2569.919737
669.314213	2566.784139
669.654480	2567.197514
669.994695	2565.160888
670.334859	2566.335477
670.674973	2560.480176
671.015035	2564.782801
671.355047	2563.441854
671.695008	2563.005794
672.034918	2562.627708
672.374777	2561.997564
672.714585	2562.216854
673.054342	2563.978737
673.394049	2563.298181
673.733705	2562.589899
674.073310	2561.672409
674.412864	2562.705846
674.752368	2559.335834
675.091820	2560.437327
675.431223	2560.817934
675.770574	2558.415824
676.109875	2554.090514
676.449125	2555.529763
676.788324	2553.417520
677.127473	2553.036913
677.466571	2549.392158
677.805619	2551.121274
678.144616	2551.189330
678.483562	2553.208312
678.822458	2551.685883
679.161303	2549.729916
679.500098	2550.176058
679.838842	2551.925338
680.177535	2548.184802
680.516179	2551.065822
680.854771	2550.803682
681.193314	2554.917263
681.531805	2560.893551
681.870247	2564.114848
682.208638	2566.791701
682.546978	2566.390929
682.885268	2567.310940
683.223508	2565.178532
683.561697	2565.034859
683.899836	2562.065619
684.237925	2560.646534
684.575963	2563.023438
684.913951	2558.493962
685.251889	2556.482541
685.589776	2557.914229
685.927614	2559.373643
686.265401	2560.023952
686.603137	2559.028324
686.940824	2563.267934
687.278460	2565.072668
687.616046	2566.937894
687.953582	2568.551064
688.291068	2567.825137
688.628504	2570.144068
688.965889	2564.956721
689.303224	2568.883780
689.640510	2567.169787
689.977745	2564.896227
690.314930	2559.867676
690.652065	2557.306770
690.989150	2553.581357
691.326185	2548.819988
691.663170	2544.008206
692.000105	2544.018288
692.336990	2538.374717
692.673825	2540.489481
693.010610	2537.058976
693.347345	2531.034797
693.684030	2528.000022
694.020665	2527.327028
694.357251	2522.358971
694.693786	2528.846936
695.030272	2525.214785
695.366707	2526.192768
695.703093	2522.704290
696.039429	2525.345855
696.375716	2522.210257
696.711952	2523.662109
697.048139	2521.312932
697.384276	2521.307890
697.720363	2521.239835
698.056400	2520.337468
698.392388	2518.704134
698.728326	2522.409382
699.064214	2518.681449
699.400053	2518.494927
699.735842	2517.597601
700.071581	2516.291942
700.407270	2514.802281
700.742910	2511.523011
701.078501	2511.747342
701.414042	2510.784482
701.749533	2508.689882
702.084974	2505.150992
702.420366	2505.503873
702.755709	2509.614934
703.091002	2505.778616
703.426246	2504.919099
703.761440	2505.856754
704.096584	2502.907679
704.431679	2502.564880
704.766725	2505.352638
705.101721	2503.162257
705.436668	2504.120076
705.771565	2501.670076
706.106413	2505.105622
706.441212	2502.617813
706.775961	2505.057731
707.110661	2503.666373
707.445311	2506.749038
707.779913	2507.643843
708.114465	2506.623009
708.448967	2507.739625
708.783421	2513.942765
709.117825	2511.422188
709.452180	2515.956706
709.786485	2514.222549
710.120742	2516.874196
710.454949	2520.080369
710.789107	2520.133302
711.123216	2519.374608
711.457275	2522.656399
711.791286	2523.788138
712.125247	2525.179497
712.459159	2525.343334
712.793023	2531.523789
713.126837	2526.351565
713.460602	2528.030269
713.794318	2525.234949
714.127985	2523.168076
714.461602	2518.739423
714.795171	2520.029958
715.128691	2516.110461
715.462162	2514.933351
715.795584	2511.948988
716.128957	2509.332629
716.462281	2508.694923
716.795556	2507.878257
717.128782	2507.054028
717.461960	2503.000940
717.795088	2504.878770
718.128167	2501.055055
718.461198	2498.113542
718.794180	2497.594303
719.127113	2492.391832
719.459997	2495.116576
719.792833	2491.378560
720.125619	2492.772439
720.458357	2492.686739
720.791046	2490.062819
721.123686	2490.614825
721.456278	2490.060298
721.788821	2489.387304
722.121315	2490.246821
722.453761	2487.295225
722.786158	2490.219095
723.118506	2485.954278
723.450805	2486.949906
723.783056	2487.050729
724.115259	2490.135916
724.447412	2487.133908
724.779518	2487.927890
725.111574	2490.289671
725.443582	2493.626915
725.775542	2492.101966
726.107453	2493.233705
726.439315	2494.178921
726.771129	2498.458861
727.102895	2496.132368
727.434612	2498.922647
727.766281	2499.772081
728.097901	2499.162102
728.429473	2495.396360
728.760996	2500.916423
729.092471	2496.707060
729.423897	2499.988851
729.755276	2499.532626
730.086606	2499.726711
730.417887	2502.123779
730.749120	2504.835920
731.080305	2506.439007
731.411442	2505.874398
731.742530	2509.514111
732.073570	2512.868999
732.404562	2509.801457
732.735506	2511.482682
733.066401	2510.106447
733.397249	2507.384223
733.728048	2501.715446
734.058798	2499.293172
734.389501	2499.429283
734.720156	2495.799652
735.050762	2491.713797
735.381320	2491.988540
735.711831	2487.736326
736.042293	2486.211377
736.372707	2488.489979
736.703073	2486.775987
737.033391	2486.178610
737.363661	2485.969402
737.693883	2488.522746
738.024056	2490.808910
738.354182	2488.956286
738.684260	2491.302943
739.014290	2492.729589
739.344272	2493.881493
739.674207	2498.410970
740.004093	2497.198572
740.333931	2496.283603
740.663722	2497.133037
740.993464	2496.724704
741.323159	2494.599857
741.652806	2493.062305
741.982405	2495.187152
742.311956	2491.315546
742.641460	2491.388642
742.970915	2488.663899
743.300323	2487.151553
743.629683	2487.199443
743.958996	2486.264309
744.288260	2481.444966
744.617477	2480.882878
744.946647	2478.248875
745.275768	2477.326344
745.604842	2474.019347
745.933869	2477.301138
746.262847	2474.384830
746.591778	2477.283494
746.920662	2477.061683
747.249498	2478.793319
747.578286	2477.785089
747.907027	2477.759883
748.235720	2479.012610
748.564365	2481.321458
748.892963	2481.011427
749.221514	2481.039153
749.550017	2479.332723
749.878473	2481.457569
750.206881	2478.911787
750.535242	2477.878350
750.863555	2479.496560
751.191821	2477.243165
751.520039	2474.193267
751.848210	2477.212918
752.176334	2477.490181
752.504411	2479.859523
752.832440	2477.044039
753.160421	2479.456231
753.488356	2476.786940
753.816243	2476.403812
754.144082	2477.215438
754.471875	2475.188894
754.799620	2473.938688
755.127318	2476.605459
755.454969	2473.726960
755.782572	2476.842393
756.110129	2474.722588
756.437638	2471.551702
756.765100	2473.268215
757.092515	2473.994141
757.419882	2475.282156
757.747203	2473.106898
758.074477	2474.359625
758.401703	2476.023205
758.728882	2474.536065
759.056014	2476.607979
759.383099	2478.211066
759.710138	2476.476909
760.037129	2477.936323
760.364073	2480.202322
760.690970	2476.902887
761.017820	2478.881540
761.344623	2477.018833
761.671379	2481.034112
761.998088	2480.691314
762.324751	2492.361585
762.651366	2511.654081
762.977935	2539.062834
763.304456	2547.196736
763.630931	2557.142933
763.957359	2550.864175
764.283740	2538.006713
764.610074	2525.285361
764.936362	2515.898732
765.262602	2504.921620
765.588796	2495.204796
765.914943	2486.309680
766.241044	2480.076293
766.567097	2476.804584
766.893104	2473.568163
767.219064	2469.401650
767.544978	2467.735548
767.870845	2465.388891
768.196665	2464.909982
768.522438	2463.720269
768.848165	2461.668520
769.173846	2458.611060
769.499479	2459.536112
769.825066	2456.327417
770.150607	2457.965792
770.476101	2457.433951
770.801548	2457.454115
771.126949	2455.903960
771.452303	2453.282560
771.777611	2454.857921
772.102872	2455.198199
772.428087	2452.405400
772.753256	2451.855914
773.078378	2450.668722
773.403453	2453.189299
773.728482	2452.375153
774.053465	2450.028496
774.378401	2450.078907
774.703291	2444.203442
775.028135	2445.461210
775.352932	2447.238217
775.677683	2446.771910
776.002388	2449.199226
776.327046	2445.995573
776.651658	2444.299224
776.976224	2446.479523
777.300743	2443.548092
777.625216	2447.051694
777.949643	2442.633123
778.274024	2447.439863
778.598359	2443.006168
778.922647	2442.544903
779.246889	2443.149841
779.571086	2438.698502
779.895236	2443.011209
780.219339	2441.539192
780.543397	2446.040943
780.867409	2445.988011
781.191374	2443.966508
781.515294	2440.931733
781.839167	2448.231324
782.162995	2447.041612
782.486776	2446.696293
782.810511	2441.947526
783.134201	2444.841148
783.457844	2442.113884
783.781441	2442.910386
784.104993	2445.506581
784.428498	2443.117074
784.751958	2443.548092
785.075372	2443.094388
785.398739	2441.783688
785.722061	2441.599686
786.045337	2439.951229
786.368568	2444.773093
786.691752	2442.975921
787.014891	2445.935079
787.337983	2448.692590
787.661030	2451.011521
787.984031	2456.093004
788.306987	2455.684670
788.629897	2458.911009
788.952760	2460.229270
789.275579	2456.634928
789.598351	2456.244238
789.921078	2448.904318
790.243759	2450.013372
790.566395	2447.848197
790.888984	2447.868361
791.211529	2445.993052
791.534027	2445.383072
791.856480	2442.824687
792.178888	2443.732094
792.501249	2442.834769
792.823566	2441.982814
793.145836	2440.510797
793.468062	2440.901487
793.790241	2441.728236
794.112375	2442.983483
794.434464	2442.633123
794.756507	2444.087496
795.078505	2446.214863
795.400457	2444.858792
795.722364	2442.131528
796.044226	2446.151848
796.366042	2447.795264
796.687812	2443.669080
797.009538	2451.445060
797.331218	2450.940944
797.652852	2448.652261
797.974442	2449.927672
798.295986	2447.704524
798.617484	2445.640171
798.938938	2447.583536
799.260346	2448.163269
799.581709	2442.965839
799.903026	2442.035746
800.224299	2441.113215
800.545526	2442.723864
800.866708	2443.565736
801.187845	2437.415529
801.508936	2440.656991
801.829983	2442.257557
802.150984	2439.641198
802.471940	2440.329316
802.792851	2437.856630
803.113717	2438.706064
803.434538	2436.145158
803.755314	2440.649429
804.076045	2436.036773
804.396731	2439.152206
804.717372	2437.385282
805.037967	2438.678338
805.358518	2442.217228
805.679024	2440.278904
805.999485	2438.592638
806.319901	2438.879984
806.640272	2441.594645
806.960598	2440.939295
807.280879	2437.823862
807.601115	2440.644388
807.921306	2439.966353
808.241453	2441.604728
808.561554	2439.550457
808.881611	2442.562547
809.201623	2439.608431
809.521590	2444.566405
809.841513	2439.172371
810.161390	2437.239088
810.481223	2436.999633
810.801011	2436.349325
811.120755	2439.376537
811.440453	2437.138265
811.760107	2437.319747
812.079716	2436.097267
812.399281	2431.877821
812.718801	2434.085847
813.038276	2433.899324
813.357707	2436.046855
813.677093	2435.719180
813.996434	2437.763368
814.315731	2438.721188
814.634983	2436.245981
814.954191	2438.648091
815.273354	2440.694799
815.592473	2435.784715
815.911547	2437.912082
816.230577	2441.093050
816.549562	2441.072886
816.868502	2441.690427
817.187399	2442.943154
817.506250	2443.764862
817.825058	2446.517332
818.143821	2446.169492
818.462539	2447.911211
818.781213	2452.372632
819.099843	2455.493106
819.418429	2463.553911
819.736970	2469.880559
820.055466	2474.364666
820.373919	2487.970740
820.692327	2505.655108
821.010691	2537.956301
821.329011	2605.396857
821.647286	2707.742362
821.965517	2816.041471
822.283704	2876.822663
822.601847	2902.416601
822.919945	2855.551514
823.237999	2801.525468
823.556010	2751.083683
823.873976	2698.723738
824.191897	2654.051553
824.509775	2621.853704
824.827609	2587.157962
825.145398	2571.653894
825.463144	2558.453633
825.780845	2560.394477
826.098502	2573.289748
826.416116	2601.321084
826.733685	2625.997532
827.051210	2631.913326
827.368692	2618.861779
827.686129	2589.522264
828.003522	2561.977399
828.320872	2535.289531
828.638177	2516.022241
828.955439	2500.487925
829.272656	2486.100472
829.589830	2473.134624
829.906960	2472.199490
830.224046	2461.829837
830.541088	2458.890844
830.858086	2454.353806
831.175041	2450.489761
831.491952	2451.719803
831.808819	2450.333485
832.125642	2455.364557
832.442421	2463.357306
832.759157	2474.818370
833.075849	2494.320073
833.392497	2519.082221
833.709101	2530.147554
834.025662	2529.913140
834.342179	2518.341171
834.658653	2504.583862
834.975083	2487.375884
835.291469	2487.572489
835.607811	2468.698409
835.924110	2465.247739
836.240366	2457.650720
836.556578	2446.197219
836.872746	2446.166972
837.188871	2440.596497
837.504952	2437.844027
837.820990	2436.682041
838.136984	2436.256063
838.452935	2435.767071
838.768842	2433.685075
839.084706	2440.205807
839.400526	2447.558330
839.716303	2459.740278
840.032037	2468.438789
840.347727	2465.451906
840.663373	2459.934363
840.978977	2451.349278
841.294537	2442.907866
841.610054	2440.846034
841.925527	2437.942329
842.240957	2435.459561
842.556344	2429.500917
842.871687	2429.228695
843.186987	2428.018818
843.502244	2426.960176
843.817458	2421.603950
844.132629	2421.997160
844.447756	2421.704773
844.762840	2413.812846
845.077881	2419.234607
845.392879	2415.851993
845.707833	2419.746284
846.022745	2416.983732
846.337613	2419.027920
846.652438	2419.201840
846.967221	2419.806778
847.281960	2419.161511
847.596656	2417.008938
847.911309	2419.799217
848.225919	2415.836870
848.540485	2419.232087
848.855009	2418.818712
849.169490	2417.518094
849.483928	2418.077662
849.798323	2418.450708
850.112675	2416.124215
850.426984	2417.087076
850.741251	2417.250913
851.055474	2417.936510
851.369654	2417.281160
851.683792	2415.415933
851.997887	2418.120512
852.311938	2415.841911
852.625947	2418.478434
852.939914	2416.167065
853.253837	2418.019689
853.567718	2418.831315
853.881555	2416.214956
854.195350	2417.568506
854.509103	2418.785945
854.822812	2417.790317
855.136479	2419.766449
855.450103	2416.618248
855.763685	2418.924576
856.077224	2417.694535
856.390720	2418.009607
856.704173	2417.646644
857.017584	2420.144536
857.330953	2417.886099
857.644278	2422.486152
857.957561	2418.637231
858.270802	2419.716037
858.584000	2417.076993
858.897155	2418.596901
859.210268	2418.959864
859.523339	2416.731674
859.836367	2417.558424
860.149352	2418.574216
860.462295	2420.212591
860.775195	2414.357291
861.088054	2415.380645
861.400869	2414.581622
861.713642	2413.369225
862.026373	2416.719072
862.339062	2415.196643
862.651708	2420.182344
862.964312	2416.043557
863.276873	2417.182858
863.589392	2419.922725
863.901869	2420.681418
864.214303	2419.363157
864.526696	2418.574216
864.839045	2420.278126
865.151353	2421.089752
865.463619	2422.395411
865.775842	2422.022365
866.088023	2420.625966
866.400162	2419.887437
866.712258	2419.194278
867.024313	2420.714186
867.336325	2420.845256
867.648296	2419.653023
867.960224	2418.939700
868.272110	2420.237797
868.583954	2421.266192
868.895755	2419.942889
869.207515	2420.772159
869.519233	2422.413055
869.830909	2419.869793
870.142542	2422.879362
870.454134	2418.470873
870.765684	2423.786769
871.077191	2425.362130
871.388657	2423.874989
871.700081	2423.101172
872.011463	2423.995977
872.322803	2424.820206
872.634101	2425.006728
872.945357	2424.547983
873.256571	2427.756678
873.567744	2422.894485
873.878874	2427.539908
874.189963	2428.762388
874.501010	2425.369692
874.812015	2427.008067
875.122979	2427.923036
875.433900	2427.471853
875.744780	2429.377409
876.055618	2428.076791
876.366415	2430.383119
876.677169	2430.201637
876.987882	2424.467325
877.298554	2427.124013
877.609183	2427.829775
877.919771	2428.578386
878.230317	2430.466298
878.540822	2432.815476
878.851285	2437.730601
879.161707	2446.877774
879.472087	2453.035544
879.782425	2465.666155
880.092722	2488.578199
880.402977	2527.669827
880.713191	2569.574418
881.023363	2613.341716
881.333494	2639.361631
881.643583	2649.365801
881.953631	2645.776499
882.263637	2633.191259
882.573602	2613.127467
882.883526	2597.522575
883.193408	2579.792837
883.503248	2563.096535
883.813048	2547.405944
884.122806	2530.238294
884.432522	2515.593742
884.742197	2500.006495
885.051831	2487.617859
885.361424	2478.170737
885.670975	2470.959366
885.980485	2462.354117
886.289954	2453.635441
886.599382	2453.703497
886.908768	2444.042125
887.218113	2445.398196
887.527417	2443.386775
887.836680	2439.439552
888.145901	2438.300251
888.455082	2433.858995
888.764221	2434.998295
889.073319	2430.713315
889.382376	2430.126020
889.691392	2431.081319
890.000366	2431.582914
890.309300	2431.275403
890.618193	2430.816658
890.927044	2429.841195
891.235855	2429.130392
891.544625	2429.828592
891.853353	2431.451844
892.162041	2431.003181
892.470687	2433.732966
892.779293	2434.063161
893.087858	2440.735128
893.396381	2444.621858
893.704864	2454.353806
894.013306	2464.090794
894.321707	2482.191057
894.630068	2490.445947
894.938387	2490.778663
895.246665	2487.622900
895.554903	2483.196767
895.863100	2474.788123
896.171256	2468.106073
896.479371	2462.220526
896.787446	2460.362861
897.095480	2455.752726
897.403473	2452.019751
897.711425	2446.867692
898.019336	2445.930038
898.327207	2439.237906
898.635038	2441.549275
898.942827	2439.129521
899.250576	2435.898141
899.558284	2430.521751
899.865952	2428.654003
900.173579	2428.706935
900.481165	2427.607964
900.788711	2427.204672
901.096216	2423.113775
901.403681	2426.990423
901.711105	2425.520926
902.018489	2426.234249
902.325832	2428.147367
902.633135	2429.967224
902.940397	2431.330856
903.247619	2441.788730
903.554800	2461.729014
903.861941	2482.518732
904.169041	2501.584376
904.476101	2507.525376
904.783121	2502.950529
905.090100	2493.820999
905.397039	2483.947899
905.703938	2472.091105
906.010796	2468.751341
906.317614	2461.638273
906.624391	2455.324228
906.931129	2449.539504
907.237826	2443.664039
907.544483	2440.178081
907.851099	2436.452668
908.157675	2431.224992
908.464211	2425.455391
908.770707	2420.530184
909.077163	2419.811819
909.383578	2415.584812
909.689954	2417.132446
909.996289	2413.533062
910.302584	2418.581778
910.608839	2417.898702
910.915054	2417.160172
911.221229	2419.504309
911.527363	2419.068249
911.833458	2414.480799
912.139513	2419.108578
912.445527	2420.260482
912.751502	2417.344175
913.057436	2420.885585
913.363331	2422.879362
913.669186	2423.176790
913.975000	2424.001018
914.280775	2432.843202
914.586510	2441.657660
914.892205	2450.577981
915.197859	2461.532409
915.503475	2479.771303
915.809050	2487.648106
916.114585	2503.321053
916.420081	2501.586897
916.725536	2503.152175
917.030952	2496.286123
917.336328	2492.336379
917.641665	2485.543424
917.946961	2478.629482
918.252218	2474.520942
918.557435	2469.870477
918.862612	2462.772533
919.167750	2457.600309
919.472848	2450.767025
919.777906	2445.103288
920.082925	2443.091868
920.387904	2439.121959
920.692843	2434.963007
920.997743	2433.347317
921.302603	2430.476380
921.607423	2426.650145
921.912204	2426.211564
922.216946	2425.599064
922.521647	2422.125709
922.826310	2423.476738
923.130932	2420.688980
923.435516	2417.472724
923.740059	2419.544638
924.044564	2415.731005
924.349028	2418.110430
924.653454	2411.917373
924.957840	2412.595408
925.262186	2413.553227
925.566493	2413.107085
925.870761	2407.642474
926.174989	2411.675397
926.479178	2409.525345
926.783328	2412.424008
927.087438	2414.838721
927.391509	2411.544327
927.695541	2410.024419
927.999533	2409.434604
928.303486	2410.563823
928.607400	2409.583318
928.911275	2411.851837
929.215110	2410.843607
929.518906	2410.067269
929.822663	2408.012999
930.126381	2408.622978
930.430060	2409.858061
930.733699	2406.326733
931.037299	2410.672208
931.340861	2407.886970
931.644383	2409.545510
931.947866	2408.789337
932.251309	2408.375962
932.554714	2411.186405
932.858080	2408.020561
933.161407	2408.151631
933.464694	2410.016857
933.767943	2405.323543
934.071153	2409.744635
934.374323	2407.750859
934.677455	2408.849830
934.980548	2405.908317
935.283602	2407.990314
935.586617	2407.965108
935.889593	2407.224058
936.192530	2409.520304
936.495428	2407.556774
936.798287	2408.726322
937.101108	2409.190108
937.403890	2411.388051
937.706632	2411.710685
938.009336	2410.972156
938.312002	2411.262022
938.614628	2415.703279
938.917216	2415.206725
939.219765	2411.887126
939.522275	2416.272929
939.824747	2417.618918
940.127179	2416.164545
940.429573	2409.399316
940.731929	2412.171951
941.034246	2409.316137
941.336524	2412.744122
941.638763	2414.531211
941.940964	2414.730336
942.243126	2414.387538
942.545250	2412.822260
942.847335	2413.258319
943.149381	2412.630696
943.451389	2412.222362
943.753359	2412.058525
944.055290	2410.614234
944.357182	2412.756725
944.659036	2409.336302
944.960851	2410.755387
945.262628	2407.725653
945.564367	2411.078020
945.866067	2411.304872
946.167729	2410.291600
946.469352	2411.519121
946.770937	2410.047104
947.072484	2409.900911
947.373992	2408.973339
947.675462	2412.481982
947.976893	2413.948958
948.278286	2411.355284
948.579641	2408.970818
948.880958	2409.031312
949.182236	2407.690365
949.483476	2409.248082
949.784678	2410.621796
950.085841	2409.807650
950.386967	2409.429563
950.688054	2408.885118
950.989103	2408.209604
951.290114	2412.020716
951.591087	2410.488205
951.892021	2412.197157
952.192917	2411.685479
952.493776	2407.735735
952.794596	2413.880902
953.095378	2411.725809
953.396122	2410.561302
953.696828	2412.693710
953.997496	2411.919893
954.298126	2406.984603
954.598718	2410.009296
954.899272	2410.329409
955.199788	2411.156158
955.500266	2411.322516
955.800706	2406.354459
956.101108	2400.642832
956.401472	2408.101219
956.701798	2404.736249
957.002087	2403.884294
957.302337	2406.553585
957.602550	2408.018040
957.902724	2405.910838
958.202861	2405.689027
958.502960	2405.179870
958.803022	2403.901938
959.103045	2401.913203
959.403031	2405.255488
959.702979	2403.511248
960.002889	2402.626526
960.302762	2402.646691
960.602596	2403.448234
960.902393	2403.186094
961.202153	2401.462019
961.501875	2402.117369
961.801559	2403.816238
962.101205	2403.105436
962.400814	2400.136196
962.700385	2401.371279
962.999918	2400.516803
963.299414	2402.215672
963.598873	2401.157030
963.898293	2400.945301
964.197677	2401.772050
964.497022	2401.787174
964.796331	2402.606361
965.095601	2400.794067
965.394835	2401.078892
965.694030	2403.481002
965.993189	2399.367420
966.292309	2401.517472
966.591393	2402.752555
966.890439	2401.426731
967.189447	2402.162740
967.488419	2402.331618
967.787353	2402.003943
968.086249	2399.775753
968.385108	2403.627195
968.683930	2400.809190
968.982714	2400.930178
969.281462	2401.272976
969.580172	2402.208110
969.878844	2403.387740
970.177480	2402.671896
970.476078	2403.203738
970.774639	2403.223903
971.073162	2401.202400
971.371649	2398.049158
971.670098	2397.522358
971.968510	2400.524365
972.266885	2395.931874
972.565223	2405.366393
972.863524	2402.099725
973.161788	2403.841444
973.460014	2402.036711
973.758204	2402.402195
974.056356	2401.406567
974.354471	2401.693912
974.652550	2401.502349
974.950591	2404.025446
975.248595	2401.489746
975.546563	2403.743142
975.844493	2400.415980
976.142386	2400.967986
976.440243	2403.034859
976.738062	2402.697102
977.035845	2403.060065
977.333590	2401.104098
977.631299	2402.162740
977.928971	2402.903789
978.226606	2402.639129
978.524204	2402.460168
978.821765	2402.160219
979.119290	2400.844478
979.416777	2400.332801
979.714228	2403.607030
980.011642	2400.358007
980.309020	2403.546537
980.606360	2404.413615
980.903664	2405.240364
981.200931	2405.036197
981.498162	2405.041239
981.795356	2406.432597
982.092513	2409.185067
982.389633	2407.952505
982.686717	2411.398134
982.983764	2412.734039
983.280775	2410.868813
983.577749	2412.096333
983.874686	2411.985428
984.171587	2411.133473
984.468451	2408.749007
984.765279	2409.099368
985.062070	2411.486354
985.358824	2409.527866
985.655543	2407.876888
985.952224	2408.864954
986.248869	2407.050138
986.545478	2401.567884
986.842050	2401.749365
987.138586	2396.473798
987.435086	2400.620147
987.731549	2395.952038
988.027975	2404.552247
988.324366	2401.174674
988.620719	2401.630898
988.917037	2404.320354
989.213318	2400.925137
989.509563	2400.239540
989.805772	2398.200393
990.101944	2398.467574
990.398080	2399.672410
990.694180	2400.176525
990.990244	2400.889848
991.286271	2399.929509
991.582262	2401.232647
991.878217	2398.028994
992.174136	2400.630229
992.470019	2400.214334
992.765865	2400.937739
993.061676	2396.269631
993.357450	2398.573438
993.653188	2402.240878
993.948890	2404.262380
994.244556	2399.947153
994.540186	2402.011505
994.835780	2403.959911
995.131337	2401.668707
995.426859	2401.071330
995.722345	2407.274470
996.017795	2407.256826
996.313208	2405.447052
996.608586	2406.341856
996.903928	2405.101733
997.199234	2407.211455
997.494504	2408.640623
997.789738	2403.556619
998.084936	2402.934036
998.380099	2404.708523
998.675225	2402.624005
998.970316	2403.788512
999.265371	2403.874212
999.560390	2400.970507
999.855373	2402.555950
1000.150320	2401.734242
1000.445232	2402.041752
1000.740108	2402.792884
1001.034948	2399.531257
1001.329752	2401.540157
1001.624521	2402.727349
1001.919254	2391.677140
1002.213951	2397.691236
1002.508613	2394.086811
1002.803239	2400.400857
1003.097829	2397.703839
1003.392384	2399.485887
1003.686903	2400.642832
1003.981386	2396.695608
1004.275834	2397.716442
1004.570246	2401.875394
1004.864623	2397.577810
1005.158964	2400.536968
1005.453270	2397.902965
1005.747540	2398.800290
1006.041775	2397.507234
1006.335974	2399.546381
1006.630138	2396.723335
1006.924266	2398.311298
1007.218359	2398.979251
1007.512416	2398.218037
1007.806438	2398.633932
1008.100425	2400.390774
1008.394376	2398.969169
1008.688292	2397.726524
1008.982172	2401.640980
1009.276017	2398.054199
1009.569827	2395.705022
1009.863602	2399.836247
1010.157341	2396.987995
1010.451045	2398.676782
1010.744714	2398.727193
1011.038347	2396.718294
1011.331945	2400.582338
1011.625508	2399.001936
1011.919036	2396.756102
1012.212528	2398.593603
1012.505986	2397.880280
1012.799408	2397.229971
1013.092795	2398.762482
1013.386147	2399.682492
1013.679464	2398.018911
1013.972745	2398.180228
1014.265992	2398.586041
1014.559204	2399.437996
1014.852380	2398.369272
1015.145521	2400.360527
1015.438628	2398.218037
1015.731699	2399.823644
1016.024736	2399.604354
1016.317737	2400.128634
1016.610703	2399.521175
1016.903635	2397.459343
1017.196531	2394.225443
1017.489393	2396.158726
1017.782219	2395.682337
1018.075011	2398.593603
1018.367768	2396.551936
1018.660490	2398.104611
1018.953177	2398.104611
1019.245829	2398.104611
