Dividing Wavelength (nm)	Counts (n)	Blue Motor Position (mm): 0.000000	Red Motor Position (mm): 29.000000	
326.493990	1987.038844
326.888308	1987.038844
327.282561	1987.038844
327.676750	1964.227623
328.070874	1965.056893
328.464933	1971.295321
328.858929	1983.850314
329.252859	1994.587972
329.646726	2009.547596
330.040528	2023.002436
330.434265	2041.349715
330.827938	2062.888045
331.221547	2081.961250
331.615091	2101.649477
332.008571	2120.906684
332.401986	2145.005920
332.795338	2164.638694
333.188625	2182.499502
333.581847	2202.666638
333.975006	2221.500389
334.368100	2240.545868
334.761129	2253.675553
335.154095	2270.089550
335.546996	2290.294495
335.939833	2320.024700
336.332606	2332.975424
336.725315	2343.975222
337.117960	2350.148114
337.510540	2360.553056
337.903056	2371.872967
338.295508	2375.553009
338.687896	2384.538866
339.080220	2391.694784
339.472480	2394.220402
339.864676	2399.647204
340.256807	2403.538975
340.648875	2400.678120
341.040879	2405.174829
341.432818	2409.968967
341.824694	2408.738925
342.216506	2408.678431
342.608253	2407.213976
342.999937	2408.625499
343.391557	2405.873029
343.783113	2404.249777
344.174605	2404.133831
344.566033	2403.508728
344.957397	2400.342883
345.348697	2399.133006
345.739934	2396.103273
346.131106	2393.527243
346.522215	2393.328118
346.913260	2392.145967
347.304241	2392.909702
347.695159	2389.063302
348.086012	2385.942827
348.476802	2387.021634
348.867528	2385.849566
349.258191	2383.452497
349.648789	2382.789586
350.039324	2379.568288
350.429796	2382.383773
350.820203	2379.142311
351.210548	2381.055429
351.600828	2377.657691
351.991045	2380.344626
352.381198	2378.572660
352.771288	2381.612476
353.161314	2381.889740
353.551276	2379.182640
353.941175	2379.948895
354.331010	2381.264637
354.720782	2378.008051
355.110490	2383.878475
355.500135	2378.885212
355.889717	2382.411499
356.279235	2380.952085
356.668689	2384.145656
357.058080	2382.580378
357.447408	2382.960985
357.836672	2379.107023
358.225873	2382.905532
358.615010	2377.871940
359.004084	2385.297560
359.393095	2385.622714
359.782043	2388.009700
360.170927	2386.822509
360.559748	2387.992056
360.948505	2390.174876
361.337199	2389.212016
361.725830	2393.139074
362.114398	2393.106307
362.502903	2394.069167
362.891344	2393.665875
363.279722	2396.645197
363.668037	2397.338356
364.056289	2397.678633
364.444478	2400.574776
364.832603	2398.825496
365.220665	2399.889179
365.608665	2399.062430
365.996601	2402.843296
366.384474	2402.495456
366.772284	2405.061403
367.160031	2403.695251
367.547715	2404.630385
367.935336	2405.305899
368.322893	2407.024933
368.710388	2407.677762
369.097820	2410.609193
369.485189	2408.559964
369.872495	2415.539442
370.259738	2412.504667
370.646918	2417.649164
371.034035	2417.578588
371.421090	2421.414906
371.808081	2425.440268
372.195010	2430.796494
372.581875	2433.228850
372.968678	2439.426949
373.355418	2447.071859
373.742096	2456.793724
374.128710	2471.526496
374.515262	2479.617548
374.901751	2496.288644
375.288177	2514.411592
375.674540	2532.998326
376.060841	2554.103117
376.447079	2580.034812
376.833254	2606.158071
377.219367	2631.131947
377.605417	2665.101763
377.991404	2693.430527
378.377329	2733.890827
378.763191	2764.992226
379.148991	2812.777323
379.534727	2865.243132
379.920402	2913.093764
380.306013	2960.173100
380.691563	3025.327493
381.077049	3083.429312
381.462474	3139.139103
381.847835	3212.714743
382.233134	3286.512194
382.618371	3350.529807
383.003545	3435.571552
383.388657	3514.573994
383.773706	3608.881380
384.158693	3684.453317
384.543618	3775.534364
384.928480	3854.539328
385.313280	3962.591419
385.698017	4066.119075
386.082692	4186.035522
386.467305	4250.973145
386.851856	4381.786047
387.236344	4536.831774
387.620770	4602.969192
388.005133	4721.277511
388.389435	4875.327611
388.773674	4957.281649
389.157851	5086.955249
389.541965	5223.089088
389.926018	5250.800311
390.310008	5429.088279
390.693936	5555.154933
391.077802	5675.124313
391.461606	5811.001053
391.845348	5922.720584
392.229027	6044.784563
392.612645	6269.758656
392.996200	6382.004987
393.379694	6565.182874
393.763125	6788.314426
394.146494	6884.706328
394.529801	7027.691095
394.913047	7269.971470
395.296230	7267.705471
395.679351	7320.841753
396.062410	7591.425686
396.445408	7482.493913
396.828343	7642.023747
397.211217	7785.986498
397.594028	7657.656365
397.976778	7864.958694
398.359466	8031.775516
398.742092	8005.811053
399.124656	8161.154208
399.507158	8341.995520
399.889598	8369.147175
400.271977	8577.170388
400.654294	8612.289587
401.036549	8806.081623
401.418742	8835.126231
401.800874	9139.506059
402.182944	9218.130415
402.564952	9588.251930
402.946898	9408.166791
403.328783	9477.061720
403.710606	9665.467284
404.092367	9929.830433
404.474067	10286.701275
404.855705	10075.330735
405.237282	10028.125371
405.618797	10461.087389
406.000250	10708.129134
406.381642	11083.062430
406.762972	11031.917404
407.144240	10821.993676
407.525447	11086.850858
407.906593	11016.602379
408.287677	11280.564756
408.668700	11436.270875
409.049661	11414.934191
409.430560	11577.138357
409.811399	11542.084694
410.192176	11710.860004
410.572891	11779.301229
410.953545	12264.308120
411.334138	11744.756722
411.714669	12348.908764
412.095139	11647.696867
412.475547	12150.073053
412.855894	12005.265909
413.236180	12329.212976
413.616405	12017.740244
413.996568	12293.466154
414.376670	12269.576126
414.756711	12141.709779
415.136691	12420.964497
415.516609	12604.437291
415.896466	12670.524297
416.276262	12967.294503
416.655997	13406.200043
417.035670	13444.411989
417.415283	14094.814096
417.794834	14186.923539
418.174324	13929.716308
418.553753	13832.064117
418.933121	14330.223378
419.312428	14131.571669
419.691674	14044.891550
420.070859	14502.151930
420.449983	14159.469415
420.829045	14709.479464
421.208047	14450.838025
421.586988	14910.979424
421.965867	15168.083312
422.344686	15171.128169
422.723444	15730.481997
423.102141	14413.220935
423.480777	15610.096722
423.859352	15110.377224
424.237866	16223.922738
424.616319	15917.544092
424.994712	16589.275322
425.373044	16370.511930
425.751314	17050.810600
426.129524	16169.400138
426.507673	17267.723889
426.885762	16967.056870
427.263789	17168.496337
427.641756	17329.911562
428.019662	17393.261222
428.397508	17437.946010
428.775292	17737.430878
429.153016	17697.441925
429.530679	17783.713711
429.908282	17795.328530
430.285824	17523.988424
430.663305	18226.936998
431.040726	17830.755238
431.418086	17650.980130
431.795385	18307.131674
432.172624	18725.131548
432.549802	18281.467160
432.926920	18472.297518
433.303977	18350.097428
433.680974	18608.559906
434.057910	18890.499038
434.434786	18916.791176
434.811601	18831.474688
435.188355	19880.697600
435.565050	19523.531850
435.941683	19474.935127
436.318257	20358.316680
436.694770	20178.947385
437.071222	20759.675705
437.447614	19828.483849
437.823946	19850.470842
438.200218	20009.801550
438.576429	19778.803278
438.952580	20066.544778
439.328670	20026.092039
439.704700	20441.803229
440.080670	20011.782723
440.456580	20599.046900
440.832429	20771.494690
441.208218	19764.914899
441.583947	20205.849502
441.959616	20316.931328
442.335224	20555.075435
442.710773	20680.660660
443.086261	21221.095037
443.461689	20580.566030
443.837057	20704.449865
444.212365	21351.658401
444.587612	21348.953822
444.962800	20930.472518
445.337927	21349.243689
445.712995	20076.039791
446.088002	21924.638468
446.462949	22123.333026
446.837837	22298.450108
447.212664	22248.920772
447.587431	25090.016777
447.962139	28014.929526
448.336786	30416.305846
448.711374	28866.919814
449.085901	25175.683625
449.460369	25112.858245
449.834776	25016.844429
450.209124	27505.994799
450.583412	27036.166822
450.957640	27580.203104
451.331808	26225.309829
451.705917	24856.792835
452.079965	24875.755135
452.453954	25254.988536
452.827883	25128.795853
453.201752	24927.318577
453.575562	25088.007877
453.949311	26220.162811
454.323001	26258.427689
454.696632	26026.121237
455.070202	27573.495849
455.443713	27724.929590
455.817164	28310.333580
456.190556	28835.488220
456.563888	28277.717315
456.937160	28707.319404
457.310373	27042.425414
457.683526	27496.598088
458.056619	27471.712432
458.429653	27403.603923
458.802628	27981.708322
459.175542	28099.499923
459.548398	29384.069102
459.921194	30960.042179
460.293930	31625.829888
460.666607	33632.950169
461.039224	35401.732257
461.411782	35781.936080
461.784280	34593.040439
462.156719	34108.625884
462.529099	33546.476736
462.901419	32266.167332
463.273680	31192.527592
463.645882	31262.665165
464.018024	31234.449827
464.390106	32064.516137
464.762130	34736.262141
465.134094	38768.867625
465.505999	44014.682235
465.877845	48596.100494
466.249631	49757.010170
466.621358	48042.347388
466.993026	45936.274299
467.364634	43850.963202
467.736184	41871.009700
468.107674	40600.913673
468.479105	39819.582718
468.850477	39107.562587
469.221790	37645.350708
469.593043	35915.163694
469.964238	35016.532651
470.335373	34908.432668
470.706449	36587.716632
471.077467	39086.165410
471.448425	43554.256010
471.819324	46354.193515
472.190164	44506.204817
472.560945	40958.371810
472.931667	37851.846452
473.302330	36715.116672
473.672934	35881.617336
474.043479	36318.229150
474.413965	35495.157441
474.784393	35102.501968
475.154761	35920.169560
475.525070	35917.618736
475.895321	35399.756125
476.265513	35928.767248
476.635645	36821.227919
477.005719	36578.806392
477.375734	36959.789073
477.745691	37564.898934
478.115588	38789.034761
478.485427	40609.100507
478.855207	43734.996499
479.224928	46182.625405
479.594591	47706.770380
479.964194	46642.098852
480.333739	46694.915021
480.703226	46614.377547
481.072653	47088.472861
481.442022	47434.041436
481.811333	47569.144359
482.180584	46173.710125
482.549777	45562.235807
482.918912	44913.913176
483.287988	44482.516435
483.657005	43545.600349
484.025964	42784.643217
484.394864	42669.513346
484.763706	42124.448668
485.132489	41137.937710
485.501213	40830.472696
485.869879	40821.212097
486.238487	40265.813054
486.607036	40273.823447
486.975527	39590.522770
487.343959	39598.810427
487.712333	39491.045681
488.080648	39225.041637
488.448905	39421.996997
488.817104	39060.039630
489.185244	39699.676353
489.553326	40924.800246
489.921350	43095.752986
490.289315	45566.959368
490.657222	45892.083545
491.025070	45939.419979
491.392861	44804.689016
491.760593	43375.617682
492.128267	41605.426592
492.495883	40023.205004
492.863440	38562.210564
493.230939	37155.958014
493.598380	35979.458570
493.965763	35450.918795
494.333088	34507.912995
494.700354	33854.932337
495.067563	33366.139540
495.434713	32991.365039
495.801805	32760.228136
496.168839	32216.181771
496.535815	31675.707065
496.902733	31416.785841
497.269593	30825.642497
497.636395	30486.009880
498.003139	30507.139877
498.369825	29823.536730
498.736453	29747.180893
499.103023	29111.808986
499.469535	28730.949813
499.835989	28494.035747
500.202385	27948.905534
500.568723	27681.721860
500.935003	27480.330284
501.301226	27040.557667
501.667390	27142.832596
502.033497	27002.948139
502.399546	26333.850912
502.765537	25591.667037
503.131470	25520.589288
503.497345	25418.367291
503.863163	24305.305728
504.228923	24355.543347
504.594625	24273.743064
504.960269	23549.946797
505.325856	23624.301296
505.691385	22948.542185
506.056856	22714.002502
506.422270	22624.567392
506.787625	22080.301737
507.152924	21859.935258
507.518164	21619.595728
507.883347	20878.185670
508.248472	20705.546316
508.613540	20616.315372
508.978550	20454.295208
509.343503	20008.740387
509.708398	19785.742426
510.073236	19718.417817
510.438016	19418.007897
510.802738	18854.633749
511.167403	18821.770467
511.532010	18607.619731
511.896561	18427.176670
512.261053	18465.267629
512.625488	17951.881562
512.989866	17589.914113
513.354186	17228.019761
513.718449	16920.252278
514.082655	16865.427209
514.446803	16464.325282
514.810894	16356.605907
515.174927	16048.160388
515.538904	15724.838425
515.902822	15676.322360
516.266684	15209.645105
516.630488	15063.698660
516.994235	14747.850207
517.357925	14655.080373
517.721558	14438.749338
518.085133	14264.978244
518.448651	14048.198547
518.812112	13720.213516
519.175516	13490.493176
519.538863	13338.865351
519.902152	13077.042943
520.265385	12935.920882
520.628560	12714.304198
520.991678	12413.536356
521.354739	12231.177657
521.717743	12072.366187
522.080690	11825.344608
522.443580	11724.700492
522.806413	11517.866991
523.169189	11290.324430
523.531908	11118.295055
523.894569	10879.666996
524.257174	10707.597292
524.619722	10563.730323
524.982213	10365.098779
525.344647	10151.046346
525.707025	9965.955341
526.069345	9845.887659
526.431608	9651.725098
526.793815	9528.179020
527.155964	9276.688458
527.518057	9118.623079
527.880093	8919.500023
528.242072	8837.732507
528.603995	8627.977657
528.965860	8467.293399
529.327669	8329.397677
529.689421	8164.559508
530.051117	8009.274325
530.412755	7885.244297
530.774337	7748.896209
531.135862	7579.009324
531.497331	7470.465720
531.858743	7323.758061
532.220098	7228.969245
532.581396	7073.910914
532.942638	6920.503562
533.303824	6830.831517
533.664953	6710.078238
534.026025	6573.914153
534.387040	6504.575602
534.747999	6387.341049
535.108902	6297.260671
535.469748	6156.856974
535.830537	6063.691410
536.191270	5981.951621
536.551947	5859.464185
536.912567	5788.651097
537.273131	5713.527823
537.633638	5584.670889
537.994089	5524.605541
538.354483	5414.630249
538.714821	5373.335638
539.075103	5318.011495
539.435328	5223.580601
539.795497	5139.610101
540.155609	5068.066046
540.515665	5023.875291
540.875665	4922.704375
541.235609	4870.210840
541.595496	4803.526457
541.955328	4775.706849
542.315102	4681.495246
542.674821	4612.597796
543.034483	4555.186615
543.394090	4491.400896
543.753640	4435.582720
544.113134	4426.869085
544.472571	4331.646730
544.831953	4333.022965
545.191278	4252.361983
545.550548	4193.443498
545.909761	4164.023324
546.268918	4123.116881
546.628019	4093.421964
546.987064	4031.554404
547.346053	3969.046617
547.704986	3958.916418
548.063863	3906.480856
548.422684	3876.133110
548.781449	3835.335052
549.140158	3812.276814
549.498811	3777.210548
549.857408	3727.179617
550.215949	3720.497567
550.574434	3685.673277
550.932864	3655.844769
551.291237	3642.170639
551.649555	3614.356073
552.007817	3593.757918
552.366022	3561.005542
552.724173	3542.920403
553.082267	3527.761653
553.440305	3511.113242
553.798288	3477.806339
554.156215	3462.748412
554.514086	3452.958492
554.871902	3427.861107
555.229661	3410.937954
555.587365	3388.439284
555.945014	3377.242881
556.302606	3360.044985
556.660143	3348.951926
557.017625	3340.868436
557.375050	3322.528718
557.732421	3311.521359
558.089735	3303.054741
558.446994	3288.440436
558.804197	3283.512708
559.161345	3273.435441
559.518437	3251.045157
559.875474	3242.157602
560.232455	3234.008577
560.589381	3228.654872
560.946251	3214.514435
561.303065	3211.391440
561.659825	3206.670400
562.016528	3190.921835
562.373177	3175.977335
562.729770	3172.204031
563.086307	3158.976043
563.442789	3156.586536
563.799216	3149.158396
564.155587	3142.436017
564.511904	3133.535860
564.868164	3131.058133
565.224370	3127.284830
565.580520	3118.886267
565.936615	3112.942747
566.292654	3103.258690
566.648638	3098.202413
567.004567	3094.237546
567.360441	3086.723706
567.716260	3078.448652
568.072023	3077.185843
568.427732	3070.866756
568.783385	3057.038871
569.138982	3057.815209
569.494525	3050.871020
569.850013	3044.897252
570.205445	3039.997251
570.560823	3034.714122
570.916145	3029.965355
571.271412	3022.728778
571.626625	3018.645444
571.981782	3015.008251
572.336884	3006.203876
572.691931	3003.451406
573.046923	2995.688029
573.401860	2989.752070
573.756743	2986.059425
574.111570	2983.133035
574.466342	2976.322437
574.821059	2976.138434
575.175722	2964.097638
575.530330	2958.549849
575.884882	2955.051288
576.239380	2948.951492
576.593823	2949.498457
576.948211	2942.211469
577.302544	2936.237702
577.656823	2927.602205
578.011047	2932.184614
578.365216	2924.423758
578.719330	2919.589291
579.073389	2913.759197
579.427394	2913.285328
579.781344	2907.424987
580.135239	2902.691343
580.489080	2899.505334
580.842866	2891.527708
581.196597	2892.057029
581.550273	2889.685167
581.903895	2884.424723
582.257463	2885.929507
582.610975	2878.806357
582.964434	2880.651419
583.317837	2869.170191
583.671186	2865.069212
584.024481	2867.047865
584.377721	2860.403624
584.730906	2859.055116
585.084037	2857.870445
585.437113	2851.314424
585.790135	2849.557582
586.143103	2842.487364
586.496016	2845.234792
586.848874	2835.356652
587.201679	2835.404542
587.554428	2827.936073
587.907124	2830.388594
588.259765	2820.351657
588.612352	2823.966164
588.964884	2820.034064
589.317362	2817.238745
589.669786	2813.614155
590.022155	2808.762044
590.374470	2809.762713
590.726731	2806.372537
591.078937	2798.830971
591.431090	2798.591517
591.783188	2791.077677
592.135232	2785.993673
592.487222	2785.504681
592.839157	2787.821091
593.191038	2781.824639
593.542866	2775.835748
593.894639	2769.572114
594.246358	2770.033380
594.598022	2764.619181
594.949633	2762.627925
595.301190	2757.286822
595.652692	2757.916967
596.004141	2757.990063
596.355535	2745.656881
596.706876	2746.909607
597.058162	2742.647312
597.409395	2742.390213
597.760573	2742.024729
598.111698	2734.205900
598.462768	2735.135992
598.813785	2730.641804
599.164748	2728.403532
599.515657	2727.541494
599.866511	2724.231977
600.217312	2724.839436
600.568060	2717.675956
600.918753	2719.193343
601.269392	2717.076059
601.619978	2711.208156
601.970510	2713.149000
602.320988	2711.213197
602.671412	2713.080944
603.021783	2704.732794
603.372100	2704.228678
603.722363	2702.381095
604.072572	2702.986034
604.422728	2701.753472
604.772830	2695.532688
605.122878	2691.451874
605.472872	2692.767615
605.822813	2690.279806
606.172701	2693.377595
606.522534	2692.611339
606.872314	2692.611339
607.222041	2690.552028
607.571714	2690.552028
607.921333	2685.069773
608.270899	2687.096317
608.620411	2687.406348
608.969870	2682.574402
609.319276	2682.105575
609.668627	2682.070287
610.017926	2686.390555
610.367171	2685.747808
610.716362	2683.806964
611.065500	2681.730009
611.414585	2682.077848
611.763616	2682.571881
612.112594	2680.477282
612.461518	2682.213959
612.810389	2682.211439
613.159207	2679.819411
613.507971	2677.497960
613.856682	2680.129442
614.205340	2676.484688
614.553945	2681.624144
614.902496	2676.956036
615.250994	2681.407375
615.599439	2678.722960
615.947830	2679.174144
616.296169	2676.640964
616.644454	2678.410409
616.992686	2677.568536
617.340864	2675.635254
617.688990	2676.877898
618.037063	2675.347908
618.385082	2678.659946
618.733048	2680.449556
619.080961	2675.778927
619.428821	2676.383865
619.776628	2675.468896
620.124382	2673.707012
620.472083	2675.453772
620.819731	2672.076199
621.167326	2668.950684
621.514868	2670.581497
621.862357	2667.675272
622.209793	2666.238543
622.557176	2664.353151
622.904506	2661.368788
623.251783	2653.237407
623.599007	2655.337048
623.946179	2649.108702
624.293297	2649.454021
624.640363	2650.868065
624.987376	2650.348826
625.334336	2646.716675
625.681243	2646.421767
626.028097	2644.095275
626.374899	2643.986890
626.721647	2641.975469
627.068343	2640.130407
627.414987	2640.430356
627.761577	2637.602268
628.108115	2637.372896
628.454600	2635.137144
628.801032	2633.980199
629.147412	2636.263842
629.493739	2633.770992
629.840014	2633.720580
630.186236	2633.254273
630.532405	2631.280662
630.878521	2627.424179
631.224585	2632.024232
631.570597	2627.288068
631.916556	2627.824951
632.262462	2628.984416
632.608316	2627.726648
632.954117	2627.867800
633.299866	2627.635907
633.645562	2627.835033
633.991206	2621.679784
634.336797	2618.944958
634.682336	2620.258179
635.027823	2616.386572
635.373257	2616.759618
635.718639	2615.199381
636.063968	2612.759462
636.409245	2610.947167
636.754470	2609.351642
637.099642	2609.180243
637.444762	2606.889039
637.789829	2607.027670
638.134845	2606.296703
638.479808	2601.245467
638.824719	2602.934253
639.169577	2601.230343
639.514383	2599.528954
639.859137	2599.007195
640.203839	2599.576845
640.548489	2597.794797
640.893086	2596.423603
641.237632	2591.815989
641.582125	2595.606936
641.926566	2591.097624
642.270955	2594.656679
642.615292	2594.011411
642.959576	2591.689960
643.303809	2592.763726
643.647990	2595.556525
643.992118	2594.389498
644.336195	2592.957810
644.680219	2590.885896
645.024192	2597.005857
645.368112	2594.949066
645.711981	2594.535691
646.055797	2600.103646
646.399562	2597.520054
646.743274	2601.346290
647.086935	2604.524737
647.430544	2603.982813
647.774101	2607.924996
648.117606	2604.320571
648.461059	2605.840479
648.804460	2605.638832
649.147810	2602.031887
649.491108	2601.812597
649.834354	2597.628439
650.177548	2594.265989
650.520690	2590.021338
650.863781	2590.429671
651.206820	2593.020824
651.549807	2588.140987
651.892742	2589.965885
652.235626	2586.542942
652.578458	2583.823239
652.921238	2581.206880
653.263967	2582.704103
653.606644	2579.031623
653.949269	2578.671180
654.291843	2579.250913
654.634365	2580.334761
654.976836	2577.098340
655.319255	2576.130438
655.661622	2577.584811
656.003938	2578.114132
656.346203	2574.958370
656.688416	2576.387537
657.030577	2575.066755
657.372687	2575.167578
657.714746	2574.731518
658.056753	2575.404512
658.398708	2571.023750
658.740612	2572.289079
659.082465	2568.805642
659.424266	2570.055848
659.766016	2567.333625
660.107715	2573.314954
660.449362	2574.328226
660.790958	2572.231106
661.132503	2573.708164
661.473996	2570.822103
661.815438	2572.480643
662.156829	2575.417115
662.498168	2575.374265
662.839456	2572.546178
663.180693	2573.990469
663.521879	2573.531724
663.863013	2571.338822
664.204097	2572.704974
664.545129	2574.852506
664.886110	2575.361662
665.227040	2574.353432
665.567918	2577.058011
665.908746	2575.611200
666.249522	2576.717733
666.590248	2575.429718
666.930922	2574.789492
667.271545	2576.563978
667.612118	2577.302507
667.952639	2575.079358
668.293109	2572.195818
668.633528	2571.880746
668.973896	2576.702609
669.314213	2571.716908
669.654480	2575.490212
669.994695	2574.764286
670.334859	2573.720767
670.674973	2569.521486
671.015035	2573.602300
671.355047	2572.488205
671.695008	2571.169943
672.034918	2571.699264
672.374777	2572.097515
672.714585	2569.108111
673.054342	2574.817218
673.394049	2567.724314
673.733705	2572.037022
674.073310	2572.793195
674.412864	2569.904613
674.752368	2569.866805
675.091820	2568.440158
675.431223	2570.416291
675.770574	2566.388409
676.109875	2563.852708
676.449125	2562.705846
676.788324	2560.553273
677.127473	2561.551422
677.466571	2557.248797
677.805619	2559.895402
678.144616	2559.998746
678.483562	2560.530588
678.822458	2558.020093
679.161303	2559.776935
679.500098	2556.790052
679.838842	2557.228632
680.177535	2558.864487
680.516179	2559.885320
680.854771	2558.115875
681.193314	2564.273645
681.531805	2567.290775
681.870247	2568.606516
682.208638	2571.560632
682.546978	2575.820407
682.885268	2574.479461
683.223508	2574.219841
683.561697	2574.240006
683.899836	2571.318657
684.237925	2567.900755
684.575963	2569.866805
684.913951	2567.860426
685.251889	2568.712381
685.589776	2566.804304
685.927614	2566.612740
686.265401	2567.313460
686.603137	2567.883111
686.940824	2572.520972
687.278460	2572.783112
687.616046	2575.167578
687.953582	2575.984245
688.291068	2575.853175
688.628504	2577.259657
688.965889	2575.933833
689.303224	2574.602969
689.640510	2573.456106
689.977745	2569.037535
690.314930	2566.688357
690.652065	2566.655590
690.989150	2558.987995
691.326185	2558.763663
691.663170	2552.126984
692.000105	2549.636654
692.336990	2548.807385
692.673825	2545.646581
693.010610	2543.693134
693.347345	2540.658359
693.684030	2534.664428
694.020665	2536.859850
694.357251	2527.574045
694.693786	2536.335570
695.030272	2531.833820
695.366707	2531.329704
695.703093	2528.068078
696.039429	2528.143695
696.375716	2532.005219
696.711952	2529.398942
697.048139	2526.875845
697.384276	2526.328880
697.720363	2525.003056
698.056400	2527.745444
698.392388	2524.713190
698.728326	2526.081863
699.064214	2526.031452
699.400053	2524.519105
699.735842	2521.035668
700.071581	2521.118847
700.407270	2520.516429
700.742910	2522.454753
701.078501	2515.976870
701.414042	2515.245903
701.749533	2516.985101
702.084974	2511.636437
702.420366	2514.850172
702.755709	2512.662312
703.091002	2511.250788
703.426246	2514.235152
703.761440	2512.511077
704.096584	2509.632578
704.431679	2508.747856
704.766725	2512.178361
705.101721	2507.172495
705.436668	2509.257012
705.771565	2509.241889
706.106413	2511.306241
706.441212	2510.766838
706.775961	2511.964112
707.110661	2511.734739
707.445311	2515.659278
707.779913	2512.364883
708.114465	2513.622651
708.448967	2512.581653
708.783421	2518.820081
709.117825	2518.358815
709.452180	2520.879392
709.786485	2524.294774
710.120742	2526.502799
710.454949	2525.842408
710.789107	2527.619415
711.123216	2524.781245
711.457275	2531.238963
711.791286	2530.787780
712.125247	2533.971269
712.459159	2531.712832
712.793023	2538.654501
713.126837	2535.128214
713.460602	2534.792977
713.794318	2533.212575
714.127985	2532.342976
714.461602	2525.290402
714.795171	2527.279137
715.128691	2523.402490
715.462162	2519.470390
715.795584	2518.583147
716.128957	2514.454442
716.462281	2515.104751
716.795556	2510.706344
717.128782	2511.311282
717.461960	2511.228103
717.795088	2506.912876
718.128167	2506.307937
718.461198	2502.900117
718.794180	2506.559995
719.127113	2500.450116
719.459997	2501.521362
719.792833	2498.839468
720.125619	2498.776453
720.458357	2496.180259
720.791046	2495.915598
721.123686	2495.439209
721.456278	2496.220588
721.788821	2495.320742
722.121315	2492.013745
722.453761	2493.841164
722.786158	2495.287975
723.118506	2493.914260
723.450805	2492.149857
723.783056	2492.659013
724.115259	2494.355361
724.447412	2493.972234
724.779518	2497.322080
725.111574	2496.200424
725.443582	2498.761330
725.775542	2496.011380
726.107453	2499.469612
726.439315	2499.237719
726.771129	2505.269459
727.102895	2502.088491
727.434612	2503.689058
727.766281	2504.805673
728.097901	2503.724346
728.429473	2502.307782
728.760996	2504.752741
729.092471	2503.401712
729.423897	2508.127794
729.755276	2504.687206
730.086606	2507.764831
730.417887	2508.387413
730.749120	2513.118536
731.080305	2510.245078
731.411442	2514.832528
731.742530	2516.395286
732.073570	2516.125584
732.404562	2516.034843
732.735506	2517.884947
733.066401	2517.053157
733.397249	2511.878412
733.728048	2506.933040
734.058798	2504.785509
734.389501	2501.710405
734.720156	2502.065806
735.050762	2497.654797
735.381320	2493.982316
735.711831	2493.505927
736.042293	2493.342089
736.372707	2494.529281
736.703073	2490.992912
737.033391	2490.753457
737.363661	2491.179434
737.693883	2490.322438
738.024056	2497.974910
738.354182	2496.243273
738.684260	2495.368633
739.014290	2496.470125
739.344272	2498.272338
739.674207	2500.046824
740.004093	2502.194356
740.333931	2502.554798
740.663722	2502.290138
740.993464	2501.433141
741.323159	2502.421208
741.652806	2499.908192
741.982405	2498.600013
742.311956	2496.986844
742.641460	2498.874756
742.970915	2494.917450
743.300323	2492.147336
743.629683	2493.447954
743.958996	2491.123982
744.288260	2490.312356
744.617477	2488.623569
744.946647	2483.136273
745.275768	2484.247848
745.604842	2480.426653
745.933869	2479.541931
746.262847	2479.867085
746.591778	2483.295070
746.920662	2481.694503
747.249498	2484.121819
747.578286	2484.726758
747.907027	2483.514360
748.235720	2486.105513
748.564365	2484.827581
748.892963	2486.476038
749.221514	2488.560555
749.550017	2484.724237
749.878473	2484.336068
750.206881	2484.474700
750.535242	2483.358084
750.863555	2483.118629
751.191821	2480.114102
751.520039	2482.385142
751.848210	2482.601911
752.176334	2484.328506
752.504411	2481.104688
752.832440	2481.528145
753.160421	2483.756335
753.488356	2479.753659
753.816243	2480.504791
754.144082	2477.470017
754.471875	2479.632672
754.799620	2477.490181
755.127318	2479.456231
755.454969	2479.947744
755.782572	2480.227528
756.110129	2477.638895
756.437638	2480.620738
756.765100	2475.471199
757.092515	2480.421612
757.419882	2477.301138
757.747203	2477.006230
758.074477	2479.337764
758.401703	2480.585450
758.728882	2481.628968
759.056014	2482.402786
759.383099	2480.056128
759.710138	2482.485965
760.037129	2484.784731
760.364073	2486.511326
760.690970	2484.204998
761.017820	2483.257261
761.344623	2484.230204
761.671379	2486.589464
761.998088	2488.409320
762.324751	2499.978768
762.651366	2515.553413
762.977935	2542.798329
763.304456	2552.691594
763.630931	2564.492935
763.957359	2556.885834
764.283740	2545.969215
764.610074	2533.031094
764.936362	2520.922242
765.262602	2506.577639
765.588796	2499.194869
765.914943	2490.521564
766.241044	2487.078456
766.567097	2481.371870
766.893104	2477.883391
767.219064	2476.096302
767.544978	2470.520786
767.870845	2469.343677
768.196665	2467.337297
768.522438	2466.649180
768.848165	2466.439972
769.173846	2465.270424
769.499479	2463.460650
769.825066	2463.972327
770.150607	2462.089456
770.476101	2459.163066
770.801548	2462.497790
771.126949	2457.822119
771.452303	2457.101234
771.777611	2455.379680
772.102872	2456.513940
772.428087	2459.160546
772.753256	2455.994701
773.078378	2455.972016
773.403453	2454.421861
773.728482	2454.615946
774.053465	2454.179886
774.378401	2453.249793
774.703291	2451.127467
775.028135	2450.676284
775.352932	2451.566048
775.677683	2451.321552
776.002388	2451.613938
776.327046	2450.711572
776.651658	2449.902467
776.976224	2447.512960
777.300743	2448.201077
777.625216	2448.269133
777.949643	2449.433639
778.274024	2448.238886
778.598359	2443.785027
778.922647	2444.803340
779.246889	2446.469441
779.571086	2442.209666
779.895236	2446.920624
780.219339	2447.270984
780.543397	2446.774431
780.867409	2448.183433
781.191374	2449.121088
781.515294	2446.439194
781.839167	2449.400872
782.162995	2446.371138
782.486776	2448.034719
782.810511	2446.993721
783.134201	2446.698813
783.457844	2449.065635
783.781441	2446.277877
784.104993	2447.276026
784.428498	2448.064966
784.751958	2445.337702
785.075372	2445.045315
785.398739	2445.254523
785.722061	2446.716457
786.045337	2444.795778
786.368568	2447.036571
786.691752	2448.803495
787.014891	2449.824329
787.337983	2450.802313
787.661030	2453.622838
787.984031	2459.122737
788.306987	2458.570731
788.629897	2461.184569
788.952760	2463.775722
789.275579	2460.977882
789.598351	2460.130968
789.921078	2456.208950
790.243759	2454.003445
790.566395	2450.956068
790.888984	2450.041098
791.211529	2448.274174
791.534027	2450.724175
791.856480	2444.402568
792.178888	2447.901129
792.501249	2445.713268
792.823566	2444.115222
793.145836	2443.651436
793.468062	2445.370469
793.790241	2445.347784
794.112375	2446.353494
794.434464	2447.364246
794.756507	2444.576488
795.078505	2445.965326
795.400457	2450.126798
795.722364	2447.933896
796.044226	2450.091510
796.366042	2448.929524
796.687812	2451.558486
797.009538	2453.423713
797.331218	2452.997735
797.652852	2451.175358
797.974442	2452.821295
798.295986	2451.470266
798.617484	2450.832560
798.938938	2449.252158
799.260346	2448.896757
799.581709	2447.646550
799.903026	2448.231324
800.224299	2447.112188
800.545526	2448.387600
800.866708	2445.153700
801.187845	2444.455500
801.508936	2441.403081
801.829983	2446.159410
802.150984	2442.010540
802.471940	2441.758483
802.792851	2439.510128
803.113717	2443.747218
803.434538	2440.631785
803.755314	2443.810232
804.076045	2440.286466
804.396731	2442.413833
804.717372	2444.621858
805.037967	2441.887032
805.358518	2442.323092
805.679024	2441.450972
805.999485	2440.533482
806.319901	2446.822322
806.640272	2443.129677
806.960598	2445.924996
807.280879	2441.904676
807.601115	2444.929368
807.921306	2445.027671
808.241453	2441.763524
808.561554	2443.006168
808.881611	2445.536827
809.201623	2443.568257
809.521590	2441.755962
809.841513	2443.754780
810.161390	2444.528597
810.481223	2443.500201
810.801011	2442.408792
811.120755	2441.272011
811.440453	2442.986004
811.760107	2443.336364
812.079716	2440.520879
812.399281	2435.114242
812.718801	2440.054573
813.038276	2437.849068
813.357707	2440.072217
813.677093	2438.950560
813.996434	2440.939295
814.315731	2440.198246
814.634983	2440.301589
814.954191	2441.415684
815.273354	2441.002310
815.592473	2442.865016
815.911547	2446.290480
816.230577	2442.948195
816.549562	2444.747887
816.868502	2446.172013
817.187399	2446.953392
817.506250	2444.773093
817.825058	2451.225770
818.143821	2450.232662
818.462539	2454.578137
818.781213	2456.105607
819.099843	2460.909826
819.418429	2469.482308
819.736970	2474.384830
820.055466	2481.316417
820.373919	2491.728920
820.692327	2514.391427
821.010691	2546.498536
821.329011	2618.476131
821.647286	2724.587378
821.965517	2840.314626
822.283704	2906.656211
822.601847	2931.020108
822.919945	2881.755432
823.237999	2826.958089
823.556010	2771.704522
823.873976	2715.490616
824.191897	2671.138544
824.509775	2632.324180
824.827609	2600.607761
825.145398	2575.366704
825.463144	2569.909655
825.780845	2570.494428
826.098502	2586.600915
826.416116	2612.111674
826.733685	2638.313071
827.051210	2643.455048
827.368692	2628.321504
827.686129	2601.331167
828.003522	2572.208421
828.320872	2541.490150
828.638177	2523.273940
828.955439	2505.929851
829.272656	2493.427789
829.589830	2480.386324
829.906960	2478.969760
830.224046	2467.203707
830.541088	2463.057358
830.858086	2459.601647
831.175041	2457.398663
831.491952	2455.649382
831.808819	2455.273816
832.125642	2459.896554
832.442421	2465.552729
832.759157	2480.431694
833.075849	2502.693430
833.392497	2524.042716
833.709101	2542.037115
834.025662	2540.297917
834.342179	2527.309384
834.658653	2510.938237
834.975083	2496.661689
835.291469	2489.505771
835.607811	2476.970942
835.924110	2468.227061
836.240366	2461.272789
836.556578	2457.045782
836.872746	2452.143260
837.188871	2447.928855
837.504952	2443.157403
837.820990	2441.445931
838.136984	2440.382248
838.452935	2437.319747
838.768842	2438.716146
839.084706	2441.377876
839.400526	2450.487241
839.716303	2466.341669
840.032037	2471.342494
840.347727	2473.449696
840.663373	2464.385702
840.978977	2455.785493
841.294537	2448.811057
841.610054	2444.747887
841.925527	2438.325457
842.240957	2439.227823
842.556344	2437.181115
842.871687	2432.949066
843.186987	2428.901020
843.502244	2427.978489
843.817458	2427.670978
844.132629	2426.821544
844.447756	2425.062181
844.762840	2418.967426
845.077881	2422.108065
845.392879	2420.933476
845.707833	2419.952972
846.022745	2418.193609
846.337613	2422.602098
846.652438	2422.672674
846.967221	2424.432037
847.281960	2419.199319
847.596656	2420.832653
847.911309	2421.523291
848.225919	2419.121181
848.540485	2421.102355
848.855009	2421.656882
849.169490	2420.101686
849.483928	2420.409196
849.798323	2419.469021
850.112675	2420.154618
850.426984	2420.537746
850.741251	2416.280491
851.055474	2418.980029
851.369654	2419.131264
851.683792	2421.369536
851.997887	2420.585637
852.311938	2420.772159
852.625947	2422.599577
852.939914	2417.916346
853.253837	2421.649320
853.567718	2417.830646
853.881555	2418.521284
854.195350	2420.429361
854.509103	2419.920204
854.822812	2419.113620
855.136479	2419.892478
855.450103	2422.095462
855.763685	2420.336099
856.077224	2419.569844
856.390720	2421.006573
856.704173	2419.794175
857.017584	2421.097314
857.330953	2421.863569
857.644278	2422.932294
857.957561	2420.802406
858.270802	2424.674012
858.584000	2419.393404
858.897155	2421.475400
859.210268	2418.637231
859.523339	2418.644792
859.836367	2421.641758
860.149352	2419.864752
860.462295	2422.581933
860.775195	2415.811664
861.088054	2415.050450
861.400869	2415.451221
861.713642	2416.434246
862.026373	2420.023548
862.339062	2421.631676
862.651708	2422.609660
862.964312	2421.931625
863.276873	2418.700245
863.589392	2421.389701
863.901869	2421.482962
864.214303	2422.491193
864.526696	2425.851122
864.839045	2423.759043
865.151353	2421.500606
865.463619	2423.827098
865.775842	2424.348858
866.088023	2422.871800
866.400162	2422.806265
866.712258	2423.690987
867.024313	2425.256266
867.336325	2425.470515
867.648296	2423.754002
867.960224	2420.061357
868.272110	2425.180648
868.583954	2422.660071
868.895755	2425.835998
869.207515	2423.549835
869.519233	2423.610329
869.830909	2424.565627
870.142542	2422.176121
870.454134	2426.660227
870.765684	2425.722572
871.077191	2426.997984
871.388657	2423.877510
871.700081	2426.622418
872.011463	2426.153591
872.322803	2425.180648
872.634101	2428.162491
872.945357	2426.246852
873.256571	2429.374888
873.567744	2429.692481
873.878874	2429.422779
874.189963	2428.250711
874.501010	2427.842378
874.812015	2429.410176
875.122979	2428.936308
875.433900	2430.093253
875.744780	2430.488983
876.055618	2430.851946
876.366415	2434.189190
876.677169	2428.767429
876.987882	2431.708942
877.298554	2428.475042
877.609183	2431.976124
877.919771	2432.202976
878.230317	2430.340269
878.540822	2438.801846
878.851285	2439.593307
879.161707	2448.551438
879.472087	2457.524691
879.782425	2470.737556
880.092722	2498.209323
880.402977	2535.213913
880.713191	2579.518094
881.023363	2627.167080
881.333494	2652.337561
881.643583	2667.206444
881.953631	2658.523057
882.263637	2647.646767
882.573602	2630.423665
882.883526	2607.607403
883.193408	2590.621235
883.503248	2571.762279
883.813048	2556.893395
884.122806	2539.110725
884.432522	2525.182017
884.742197	2506.839779
885.051831	2497.982472
885.361424	2485.248517
885.670975	2475.473720
885.980485	2468.453913
886.289954	2465.088943
886.599382	2455.485545
886.908768	2451.646706
887.218113	2445.423402
887.527417	2445.113371
887.836680	2438.804367
888.145901	2440.898966
888.455082	2437.158430
888.764221	2433.526278
889.073319	2434.552153
889.382376	2433.685075
889.691392	2432.069385
890.000366	2432.765064
890.309300	2435.373861
890.618193	2433.687595
890.927044	2433.274221
891.235855	2433.606937
891.544625	2432.059303
891.853353	2434.431166
892.162041	2436.588779
892.470687	2437.256732
892.779293	2443.278391
893.087858	2441.511466
893.396381	2448.029678
893.704864	2459.931842
894.013306	2470.598924
894.321707	2488.547952
894.630068	2492.631287
894.938387	2499.830054
895.246665	2492.951400
895.554903	2489.508292
895.863100	2480.000676
896.171256	2476.945737
896.479371	2467.090281
896.787446	2464.889817
897.095480	2461.771863
897.403473	2456.841615
897.711425	2451.497992
898.019336	2449.988166
898.327207	2443.961467
898.635038	2440.152875
898.942827	2439.522731
899.250576	2437.009716
899.558284	2434.655497
899.865952	2436.472833
900.173579	2433.647266
900.481165	2428.835485
900.788711	2430.330187
901.096216	2429.702563
901.403681	2427.136616
901.711105	2426.844229
902.018489	2429.828592
902.325832	2429.939498
902.633135	2431.663572
902.940397	2438.587597
903.247619	2445.398196
903.554800	2468.242184
903.861941	2490.521564
904.169041	2507.570746
904.476101	2513.763804
904.783121	2508.067300
905.090100	2499.812410
905.397039	2493.251349
905.703938	2480.121663
906.010796	2471.844089
906.317614	2466.170270
906.624391	2460.425875
906.931129	2453.529577
907.237826	2447.533124
907.544483	2442.486929
907.851099	2436.664397
908.157675	2432.906217
908.464211	2428.260793
908.770707	2422.617222
909.077163	2422.460946
909.383578	2418.765780
909.689954	2419.378280
909.996289	2416.439287
910.302584	2420.943558
910.608839	2418.307035
910.915054	2420.489855
911.221229	2419.138825
911.527363	2417.684452
911.833458	2421.190575
912.139513	2418.075142
912.445527	2423.305339
912.751502	2418.947262
913.057436	2422.017324
913.363331	2424.744588
913.669186	2427.098807
913.975000	2430.708273
914.280775	2439.376538
914.586510	2446.489606
914.892205	2456.607201
915.197859	2468.592545
915.503475	2485.432519
915.809050	2499.434324
916.114585	2507.795078
916.420081	2510.008144
916.725536	2508.636950
917.030952	2503.830210
917.336328	2497.596823
917.641665	2493.629435
917.946961	2486.372694
918.252218	2479.877168
918.557435	2474.707464
918.862612	2466.142544
919.167750	2464.509210
919.472848	2457.849846
919.777906	2452.198712
920.082925	2447.669236
920.387904	2444.430294
920.692843	2436.581218
920.997743	2436.220775
921.302603	2433.372523
921.607423	2431.154416
921.912204	2430.615012
922.216946	2428.046544
922.521647	2423.663261
922.826310	2425.901533
923.130932	2422.586975
923.435516	2420.941038
923.740059	2421.203178
924.044564	2421.054464
924.349028	2419.940369
924.653454	2412.171951
924.957840	2413.780079
925.262186	2414.195974
925.566493	2413.674215
925.870761	2409.900911
926.174989	2415.443660
926.479178	2414.047260
926.783328	2413.797723
927.087438	2413.633885
927.391509	2413.573392
927.695541	2410.926786
927.999533	2412.597928
928.303486	2410.405026
928.607400	2411.486354
928.911275	2411.982908
929.215110	2412.499626
929.518906	2409.792526
929.822663	2413.069276
930.126381	2408.577608
930.430060	2412.902918
930.733699	2409.681621
931.037299	2414.372414
931.340861	2411.559451
931.644383	2410.170613
931.947866	2411.040212
932.251309	2410.387382
932.554714	2412.184554
932.858080	2415.526839
933.161407	2411.496436
933.464694	2411.103226
933.767943	2409.606003
934.071153	2412.076169
934.374323	2408.454100
934.677455	2410.692372
934.980548	2409.386713
935.283602	2409.979049
935.586617	2409.479975
935.889593	2411.428381
936.192530	2412.141704
936.495428	2411.645150
936.798287	2410.795716
937.101108	2410.528535
937.403890	2411.788823
937.706632	2416.141859
938.009336	2415.108423
938.312002	2417.586150
938.614628	2415.025244
938.917216	2421.021696
939.219765	2417.593712
939.522275	2417.066911
939.824747	2419.370718
940.127179	2413.510377
940.429573	2410.354615
940.731929	2414.551375
941.034246	2411.715726
941.336524	2416.822415
941.638763	2416.797209
941.940964	2417.175296
942.243126	2416.696386
942.545250	2415.020203
942.847335	2417.056829
943.149381	2415.683114
943.451389	2414.760583
943.753359	2412.267733
944.055290	2414.937024
944.357182	2414.130439
944.659036	2414.589184
944.960851	2412.303021
945.262628	2412.502146
945.564367	2412.106416
945.866067	2412.093813
946.167729	2413.407033
946.469352	2410.868813
946.770937	2413.023906
947.072484	2411.579615
947.373992	2410.684810
947.675462	2412.605490
947.976893	2412.887795
948.278286	2414.140521
948.579641	2412.615572
948.880958	2412.131622
949.182236	2410.843607
949.483476	2410.107598
949.784678	2409.752197
950.085841	2411.267064
950.386967	2412.015675
950.688054	2411.753535
950.989103	2412.156827
951.290114	2411.599780
951.591087	2411.226734
951.892021	2413.522980
952.192917	2414.120357
952.493776	2414.498443
952.794596	2414.775707
953.095378	2413.827970
953.396122	2413.661612
953.696828	2414.972312
953.997496	2412.678587
954.298126	2413.467527
954.598718	2415.068094
954.899272	2411.196488
955.199788	2410.190777
955.500266	2411.642630
955.800706	2407.962587
956.101108	2407.017371
956.401472	2409.454769
956.701798	2406.898904
957.002087	2406.881260
957.302337	2407.776065
957.602550	2406.790519
957.902724	2406.719943
958.202861	2407.098029
958.502960	2406.097360
958.803022	2406.167937
959.103045	2404.852195
959.403031	2407.985272
959.702979	2403.662483
960.002889	2403.536454
960.302762	2405.502504
960.602596	2403.849006
960.902393	2403.317164
961.202153	2407.710530
961.501875	2403.823800
961.801559	2402.407236
962.101205	2405.348749
962.400814	2406.377144
962.700385	2405.232802
962.999918	2403.168450
963.299414	2402.901269
963.598873	2401.958573
963.898293	2404.610220
964.197677	2403.070148
964.497022	2403.380178
964.796331	2404.133831
965.095601	2401.890517
965.394835	2403.841444
965.694030	2402.646691
965.993189	2403.201218
966.292309	2401.121742
966.591393	2404.590055
966.890439	2405.252967
967.189447	2402.155178
967.488419	2403.382699
967.787353	2402.437483
968.086249	2403.481002
968.385108	2406.235992
968.683930	2405.358831
968.982714	2404.365724
969.281462	2403.206259
969.580172	2402.671896
969.878844	2404.864798
970.177480	2403.266753
970.476078	2403.118038
970.774639	2405.802453
971.073162	2402.366907
971.371649	2403.261711
971.670098	2400.526885
971.968510	2404.108625
972.266885	2399.024622
972.565223	2405.310940
972.863524	2408.000396
973.161788	2401.885476
973.460014	2404.872360
973.758204	2407.821435
974.056356	2404.743811
974.354471	2405.787329
974.652550	2406.772875
974.950591	2408.078534
975.248595	2404.784140
975.546563	2403.927144
975.844493	2401.232647
976.142386	2404.065775
976.440243	2404.574932
976.738062	2405.154665
977.035845	2404.441341
977.333590	2404.272463
977.631299	2404.038049
977.928971	2403.256670
978.226606	2404.219531
978.524204	2405.207597
978.821765	2401.824983
979.119290	2404.842113
979.416777	2405.149623
979.714228	2403.785991
980.011642	2403.808677
980.309020	2406.770354
980.606360	2404.680796
980.903664	2406.246074
981.200931	2407.125756
981.498162	2405.086609
981.795356	2408.890160
982.092513	2408.655746
982.389633	2408.491908
982.686717	2412.053484
982.983764	2413.228072
983.280775	2413.124729
983.577749	2414.180851
983.874686	2415.811664
984.171587	2413.752352
984.468451	2415.776376
984.765279	2414.049781
985.062070	2409.404357
985.358824	2409.041394
985.655543	2412.315624
985.952224	2406.271280
986.248869	2407.881929
986.545478	2402.311454
986.842050	2403.009654
987.138586	2400.262225
987.435086	2401.905641
987.731549	2400.075702
988.027975	2401.487225
988.324366	2403.357493
988.620719	2402.329098
988.917037	2402.576114
989.213318	2402.676938
989.509563	2403.002092
989.805772	2401.187277
990.101944	2404.176681
990.398080	2401.608213
990.694180	2400.998233
990.990244	2401.396484
991.286271	2401.638460
991.582262	2400.166443
991.878217	2401.686351
992.174136	2402.583676
992.470019	2402.566032
992.765865	2402.901269
993.061676	2402.092164
993.357450	2401.797256
993.653188	2401.779612
993.948890	2405.449572
994.244556	2402.341701
994.540186	2404.272463
994.835780	2404.494273
995.131337	2403.294479
995.426859	2406.011661
995.722345	2407.282032
996.017795	2404.940416
996.313208	2408.237330
996.608586	2408.222207
996.903928	2409.754718
997.199234	2407.486198
997.494504	2406.064593
997.789738	2407.518966
998.084936	2405.426887
998.380099	2407.637433
998.675225	2406.372103
998.970316	2408.386044
999.265371	2408.239851
999.560390	2403.791032
999.855373	2405.747000
1000.150320	2403.619633
1000.445232	2403.430590
1000.740108	2402.835734
1001.034948	2402.308933
1001.329752	2402.757596
1001.624521	2399.932029
1001.919254	2394.270813
1002.213951	2399.695095
1002.508613	2399.894221
1002.803239	2403.014695
1003.097829	2396.083108
1003.392384	2400.768861
1003.686903	2397.487070
1003.981386	2401.096536
1004.275834	2400.539488
1004.570246	2401.204921
1004.864623	2399.059910
1005.158964	2400.494118
1005.453270	2399.049827
1005.747540	2403.186094
1006.041775	2401.706515
1006.335974	2401.129303
1006.630138	2399.233829
1006.924266	2399.233829
1007.218359	2397.913047
1007.512416	2400.935219
1007.806438	2399.959756
1008.100425	2400.451268
1008.394376	2397.711401
1008.688292	2400.373130
1008.982172	2397.892883
1009.276017	2402.308933
1009.569827	2398.129817
1009.863602	2399.808521
1010.157341	2400.771381
1010.451045	2399.546381
1010.744714	2401.456978
1011.038347	2398.775084
1011.331945	2399.821124
1011.625508	2398.076885
1011.919036	2398.724673
1012.212528	2399.284241
1012.505986	2400.801628
1012.799408	2398.074364
1013.092795	2399.624519
1013.386147	2402.470250
1013.679464	2400.375651
1013.972745	2401.819941
1014.265992	2400.577297
1014.559204	2397.494631
1014.852380	2398.326422
1015.145521	2399.367420
1015.438628	2399.763151
1015.731699	2399.261556
1016.024736	2398.873387
1016.317737	2399.861453
1016.610703	2402.931516
1016.903635	2396.473798
1017.196531	2394.588406
1017.489393	2397.088818
1017.782219	2395.962121
1018.075011	2398.482697
1018.367768	2401.903120
1018.660490	2400.645352
1018.953177	2400.645352
1019.245829	2400.645352
