Dividing Wavelength (nm)	Counts (n)	Blue Motor Position (mm): 0.000000	Red Motor Position (mm): 21.400000	
326.493990	1986.370891
326.888308	1986.370891
327.282561	1986.370891
327.676750	1960.406428
328.070874	1962.858950
328.464933	1966.985134
328.858929	1976.802781
329.252859	1990.940697
329.646726	2005.302944
330.040528	2018.220901
330.434265	2038.950126
330.827938	2059.197920
331.221547	2078.969326
331.615091	2095.806779
332.008571	2118.993567
332.401986	2138.107101
332.795338	2162.707932
333.188625	2180.049501
333.581847	2199.921730
333.975006	2216.822198
334.368100	2235.222410
334.761129	2252.329565
335.154095	2266.447317
335.546996	2283.206633
335.939833	2303.643470
336.332606	2315.868268
336.725315	2328.945021
337.117960	2337.761999
337.510540	2337.061279
337.903056	2351.852024
338.295508	2358.337469
338.687896	2364.810310
339.080220	2372.440097
339.472480	2377.483771
339.864676	2383.011396
340.256807	2382.895450
340.648875	2385.295039
341.040879	2387.908877
341.432818	2388.675133
341.824694	2388.047509
342.216506	2390.636142
342.608253	2386.152035
342.999937	2388.687736
343.391557	2388.458363
343.783113	2387.641696
344.174605	2383.152549
344.566033	2378.749101
344.957397	2382.129194
345.348697	2379.152393
345.739934	2377.453524
346.131106	2375.578215
346.522215	2374.418750
346.913260	2373.095447
347.304241	2371.013450
347.695159	2369.972452
348.086012	2367.567822
348.476802	2370.690816
348.867528	2366.584797
349.258191	2362.498941
349.648789	2364.475074
350.039324	2361.581451
350.429796	2361.241173
350.820203	2360.565659
351.210548	2363.078674
351.600828	2357.722448
351.991045	2359.935515
352.381198	2359.111286
352.771288	2361.639425
353.161314	2358.221522
353.551276	2362.448530
353.941175	2360.059023
354.331010	2360.424507
354.720782	2359.943076
355.110490	2363.368540
355.500135	2360.275793
355.889717	2362.135978
356.279235	2360.973992
356.668689	2364.918695
357.058080	2363.565145
357.447408	2360.817717
357.836672	2360.250587
358.225873	2360.187572
358.615010	2359.232274
359.004084	2368.805425
359.393095	2365.432893
359.782043	2365.319467
360.170927	2368.495394
360.559748	2368.767616
360.948505	2369.352390
361.337199	2369.019674
361.725830	2371.373893
362.114398	2375.114429
362.502903	2374.028060
362.891344	2375.805067
363.279722	2375.154758
363.668037	2376.533514
364.056289	2374.416229
364.444478	2378.068545
364.832603	2375.447145
365.220665	2373.531507
365.608665	2379.180119
365.996601	2377.650129
366.384474	2381.577188
366.772284	2381.940151
367.160031	2381.967877
367.547715	2382.217415
367.935336	2381.246993
368.322893	2384.674977
368.710388	2381.302445
369.097820	2390.225288
369.485189	2385.816798
369.872495	2388.680174
370.259738	2391.296533
370.646918	2392.687891
371.034035	2393.577655
371.421090	2398.641494
371.808081	2399.695095
372.195010	2402.840775
372.581875	2408.953174
372.968678	2418.362488
373.355418	2423.955648
373.742096	2433.241453
374.128710	2440.898966
374.515262	2456.508899
374.901751	2467.604478
375.288177	2486.239104
375.674540	2505.818945
376.060841	2525.436595
376.447079	2549.046839
376.833254	2574.895356
377.219367	2601.152206
377.605417	2633.650004
377.991404	2661.167142
378.377329	2699.787422
378.763191	2736.013153
379.148991	2782.737088
379.534727	2830.771722
379.920402	2875.302755
380.306013	2922.321597
380.691563	2985.192347
381.077049	3041.128990
381.462474	3098.404059
381.847835	3165.529543
382.233134	3237.968403
382.618371	3296.382774
383.003545	3383.408213
383.388657	3459.418730
383.773706	3552.102864
384.158693	3625.242445
384.543618	3715.894994
384.928480	3793.790903
385.313280	3893.477200
385.698017	4001.050382
386.082692	4121.236531
386.467305	4181.725336
386.851856	4307.892813
387.236344	4461.101041
387.620770	4524.549003
388.005133	4642.388495
388.389435	4784.622130
388.773674	4873.318711
389.157851	5003.778732
389.541965	5132.683556
389.926018	5157.523842
390.310008	5329.366694
390.693936	5453.492504
391.077802	5566.525256
391.461606	5697.965781
391.845348	5809.831505
392.229027	5931.298107
392.612645	6150.197610
392.996200	6266.156751
393.379694	6436.762000
393.763125	6659.162585
394.146494	6743.735502
394.529801	6880.814557
394.913047	7123.135261
395.296230	7113.700742
395.679351	7172.735174
396.062410	7424.893689
396.445408	7321.393760
396.828343	7471.650391
397.211217	7602.717871
397.594028	7490.166549
397.976778	7692.488218
398.359466	7850.825819
398.742092	7825.115934
399.124656	7973.063717
399.507158	8155.808065
399.889598	8182.493413
400.271977	8384.936069
400.654294	8417.532170
401.036549	8602.860108
401.418742	8630.737689
401.800874	8928.400180
402.182944	9004.640070
402.564952	9369.604485
402.946898	9199.422693
403.328783	9248.742822
403.710606	9438.839692
404.092367	9700.876348
404.474067	10049.222600
404.855705	9843.848513
405.237282	9802.185897
405.618797	10223.517973
406.000250	10467.391352
406.381642	10822.424694
406.762972	10769.001066
407.144240	10569.434388
407.525447	10818.094343
407.906593	10755.233675
408.287677	11011.896462
408.668700	11165.318938
409.049661	11137.811882
409.430560	11305.074846
409.811399	11269.373394
410.192176	11428.096644
410.572891	11499.199598
410.953545	11971.006228
411.334138	11458.754421
411.714669	12041.839480
412.095139	11367.075997
412.475547	11854.333763
412.855894	11711.124665
413.236180	12025.730473
413.616405	11724.697971
413.996568	11985.925522
414.376670	11959.111625
414.756711	11842.265241
415.136691	12105.473965
415.516609	12281.354782
415.896466	12345.337107
416.276262	12625.872277
416.655997	13082.247935
417.035670	13104.686110
417.415283	13745.865427
417.794834	13825.732427
418.174324	13579.356115
418.553753	13482.082011
418.933121	13956.016007
419.312428	13768.666566
419.691674	13676.426053
420.070859	14121.300318
420.449983	13784.062250
420.829045	14319.241224
421.208047	14062.081884
421.586988	14516.972922
421.965867	14760.889151
422.344686	14745.034722
422.723444	15295.178362
423.102141	14017.006407
423.480777	15169.252859
423.859352	14686.048181
424.237866	15749.310706
424.616319	15454.100737
424.994712	16079.728094
425.373044	15868.105497
425.751314	16512.430493
426.129524	15653.765717
426.507673	16683.149168
426.885762	16380.029628
427.263789	16543.025256
427.641756	16686.209148
428.019662	16727.362608
428.397508	16737.003815
428.775292	16988.542268
429.153016	16916.209272
429.530679	16961.390613
429.908282	16944.384281
430.285824	16640.211140
430.663305	17251.133451
431.040726	16833.539390
431.418086	16628.855941
431.795385	17160.596849
432.172624	17494.641347
432.549802	17014.642842
432.926920	17126.863968
433.303977	16942.332531
433.680974	17096.841376
434.057910	17295.906459
434.434786	17214.022997
434.811601	17040.637552
435.188355	17896.146565
435.565050	17473.012276
435.941683	17315.854305
436.318257	17995.858068
436.694770	17702.062142
437.071222	18097.752390
437.447614	17154.169378
437.823946	17056.431487
438.200218	17053.807566
438.576429	16735.350316
438.952580	16822.337946
439.328670	16652.650187
439.704700	16849.519848
440.080670	16362.776279
440.456580	16671.302457
440.832429	16648.670196
441.208218	15714.539347
441.583947	15895.191616
441.959616	15820.116232
442.335224	15831.010166
442.710773	15753.774648
443.086261	15967.829602
443.461689	15344.213665
443.837057	15247.257153
444.212365	15511.156516
444.587612	15323.764225
444.962800	14852.338202
445.337927	14948.805722
445.712995	13947.604842
446.088002	14932.865594
446.462949	14865.351941
446.837837	14770.222847
447.212664	14530.301733
447.587431	15985.899618
447.962139	17527.166871
448.336786	18730.144975
448.711374	17530.657870
449.085901	15185.664336
449.460369	14869.089957
449.834776	14566.187187
450.209124	15616.148627
450.583412	15166.306305
450.957640	15183.161403
451.331808	14259.984981
451.705917	13336.042304
452.079965	13096.007764
452.453954	13016.904498
452.827883	12722.836351
453.201752	12397.034139
453.575562	12239.014131
453.949311	12472.086838
454.323001	12259.571956
454.696632	11942.501023
455.070202	12310.792600
455.443713	12138.299439
455.817164	12098.769231
456.190556	12053.991182
456.563888	11621.379523
456.937160	11527.321675
457.310373	10738.527291
457.683526	10632.242124
458.056619	10401.609336
458.429653	10160.929528
458.802628	10115.523855
459.175542	9931.499054
459.548398	10075.817207
459.921194	10294.376432
460.293930	10285.567015
460.666607	10597.107803
461.039224	10819.334467
461.411782	10663.096506
461.784280	10105.043296
462.156719	9726.097241
462.529099	9346.763017
462.901419	8831.962907
463.273680	8379.569761
463.645882	8184.814864
464.018024	7972.728481
464.390106	7940.018954
464.762130	8254.682736
465.134094	8827.309922
465.505999	9588.682949
465.877845	10173.993678
466.249631	10076.664121
466.621358	9473.611051
466.993026	8832.353596
467.364634	8256.474866
467.736184	7736.005978
468.107674	7353.422731
468.479105	7062.502783
468.850477	6788.574045
469.221790	6440.777279
469.593043	6083.898875
469.964238	5831.674825
470.335373	5669.374877
470.706449	5682.441547
471.077467	5781.530467
471.448425	6049.868566
471.819324	6168.958264
472.190164	5871.315938
472.560945	5443.258962
472.931667	5074.312036
473.302330	4861.008213
473.672934	4691.267522
474.043479	4616.045945
474.413965	4469.118996
474.784393	4350.069627
475.154761	4307.487001
475.525070	4222.828383
475.895321	4117.604379
476.265513	4063.676636
476.635645	4034.753016
477.005719	3949.670942
477.375734	3900.401225
477.745691	3857.193495
478.115588	3839.098273
478.485427	3850.009851
478.855207	3911.123759
479.224928	3938.093932
479.594591	3924.203032
479.964194	3827.269206
480.333739	3758.787651
480.703226	3699.886810
481.072653	3668.009073
481.442022	3627.962147
481.811333	3583.400868
482.180584	3506.762727
482.549777	3454.788430
482.918912	3399.973444
483.287988	3353.793954
483.657005	3303.528609
484.025964	3259.940273
484.394864	3230.230232
484.763706	3192.779500
485.132489	3149.549086
485.501213	3125.255765
485.869879	3104.458485
486.238487	3078.451172
486.607036	3061.548183
486.975527	3039.155378
487.343959	3020.495547
487.712333	3008.890811
488.080648	2992.252483
488.448905	2983.836276
488.817104	2969.214410
489.185244	2968.377578
489.553326	2976.350163
489.921350	2996.124089
490.289315	3024.974612
490.657222	3018.239631
491.025070	3012.850637
491.392861	2992.781804
491.760593	2965.398256
492.128267	2939.637960
492.495883	2911.402457
492.863440	2888.445043
493.230939	2867.614995
493.598380	2848.350226
493.965763	2834.313133
494.333088	2824.460197
494.700354	2809.568629
495.067563	2804.156950
495.434713	2794.440126
495.801805	2792.257307
496.168839	2783.558796
496.535815	2778.210132
496.902733	2771.346601
497.269593	2765.365272
497.636395	2759.845208
498.003139	2762.748913
498.369825	2751.305493
498.736453	2753.626945
499.103023	2744.787282
499.469535	2742.307034
499.835989	2737.714543
500.202385	2735.304871
500.568723	2730.808162
500.935003	2732.139027
501.301226	2727.516288
501.667390	2729.389077
502.033497	2733.348903
502.399546	2723.465721
502.765537	2717.953220
503.131470	2719.263920
503.497345	2720.594784
503.863163	2714.757128
504.228923	2717.570092
504.594625	2721.272819
504.960269	2711.278732
505.325856	2717.247458
505.691385	2715.281408
506.056856	2717.280226
506.422270	2719.011862
506.787625	2716.125801
507.152924	2719.813405
507.518164	2721.103941
507.883347	2715.283929
508.248472	2718.578323
508.613540	2720.262068
508.978550	2723.957234
509.343503	2725.837584
509.708398	2728.022924
510.073236	2734.165570
510.438016	2732.887638
510.802738	2730.447719
511.167403	2737.391909
511.532010	2737.858216
511.896561	2744.036150
512.261053	2753.085021
512.625488	2746.554206
512.989866	2744.550347
513.354186	2743.814339
513.718449	2743.721077
514.082655	2756.691966
514.446803	2754.481420
514.810894	2763.684047
515.174927	2761.687750
515.538904	2761.135743
515.902822	2766.534819
516.266684	2765.128337
516.630488	2769.887187
516.994235	2765.831578
517.357925	2773.037908
517.721558	2776.049997
518.085133	2778.416819
518.448651	2780.738270
518.812112	2778.129473
519.175516	2781.048301
519.538863	2783.120215
519.902152	2782.568209
520.265385	2787.208591
520.628560	2787.596760
520.991678	2788.826802
521.354739	2789.819909
521.717743	2796.398615
522.080690	2793.709159
522.443580	2798.611681
522.806413	2801.732155
523.169189	2798.536064
523.531908	2798.425158
523.894569	2798.669654
524.257174	2801.427166
524.619722	2803.521765
524.982213	2805.056796
525.344647	2803.284831
525.707025	2805.253401
526.069345	2807.284986
526.431608	2805.818011
526.793815	2809.543423
527.155964	2806.329688
527.518057	2806.740542
527.880093	2809.896304
528.242072	2810.508804
528.603995	2809.656849
528.965860	2806.412867
529.327669	2808.366314
529.689421	2805.160140
530.051117	2807.814307
530.412755	2807.963022
530.774337	2811.249854
531.135862	2809.528300
531.497331	2808.290697
531.858743	2803.907413
532.220098	2808.394040
532.581396	2801.989254
532.942638	2802.306847
533.303824	2808.399081
533.664953	2806.186015
534.026025	2802.508493
534.387040	2807.642908
534.747999	2806.178453
535.108902	2807.658032
535.469748	2802.085036
535.830537	2804.787095
536.191270	2805.341622
536.551947	2804.648463
536.912567	2804.716518
537.273131	2807.206848
537.633638	2799.025056
537.994089	2803.703247
538.354483	2798.435241
538.714821	2803.259625
539.075103	2808.562919
539.435328	2805.644091
539.795497	2802.894141
540.155609	2805.785243
540.515665	2806.617033
540.875665	2801.593524
541.235609	2801.666620
541.595496	2803.080664
541.955328	2808.557878
542.315102	2804.020839
542.674821	2799.723256
543.034483	2799.279634
543.394090	2798.049592
543.753640	2799.009932
544.113134	2804.345994
544.472571	2796.184366
544.831953	2802.810962
545.191278	2798.077319
545.550548	2794.510702
545.909761	2799.438430
546.268918	2799.912299
546.628019	2803.506642
546.987064	2797.663944
547.346053	2792.476597
547.704986	2796.159160
548.063863	2788.201698
548.422684	2794.084725
548.781449	2790.329065
549.140158	2794.225877
549.498811	2790.487862
549.857408	2786.273457
550.215949	2791.155815
550.574434	2784.869496
550.932864	2782.331275
551.291237	2786.580967
551.649555	2785.250103
552.007817	2784.819084
552.366022	2782.469907
552.724173	2780.332457
553.082267	2781.554937
553.440305	2783.387397
553.798288	2775.402209
554.156215	2776.067641
554.514086	2778.575615
554.871902	2775.669390
555.229661	2771.550767
555.587365	2765.725714
555.945014	2767.260745
556.302606	2764.840992
556.660143	2760.124992
557.017625	2760.188007
557.375050	2755.905546
557.732421	2755.582912
558.089735	2754.955289
558.446994	2750.803899
558.804197	2751.880185
559.161345	2746.478589
559.518437	2738.417784
559.875474	2737.051631
560.232455	2737.228071
560.589381	2734.853688
560.946251	2733.956362
561.303065	2732.159191
561.659825	2729.099211
562.016528	2724.615104
562.373177	2718.520349
562.729770	2717.484392
563.086307	2711.929041
563.442789	2713.012889
563.799216	2708.904348
564.155587	2705.844368
564.511904	2700.803214
564.868164	2699.104345
565.224370	2699.409335
565.580520	2692.757533
565.936615	2690.126050
566.292654	2687.222346
566.648638	2684.290915
567.004567	2682.662622
567.360441	2679.277487
567.716260	2676.572908
568.072023	2672.693740
568.427732	2667.839109
568.783385	2662.112358
569.138982	2663.218892
569.494525	2659.342244
569.850013	2655.957110
570.205445	2654.785041
570.560823	2652.922335
570.916145	2648.312200
571.271412	2648.246665
571.626625	2642.598052
571.981782	2642.472023
572.336884	2637.491363
572.691931	2638.635705
573.046923	2634.141516
573.401860	2630.191772
573.756743	2625.871503
574.111570	2628.066926
574.466342	2623.444188
574.821059	2623.000566
575.175722	2620.729527
575.530330	2615.617797
575.884882	2615.146449
576.239380	2612.910697
576.593823	2613.694596
576.948211	2609.611262
577.302544	2606.712598
577.656823	2602.480550
578.011047	2603.806373
578.365216	2600.315374
578.719330	2599.624736
579.073389	2599.642380
579.427394	2597.520054
579.781344	2593.585434
580.135239	2593.756833
580.489080	2590.568303
580.842866	2588.670309
581.196597	2587.851121
581.550273	2587.291553
581.903895	2589.131574
582.257463	2588.529156
582.610975	2584.380287
582.964434	2585.524629
583.317837	2583.104875
583.671186	2581.010275
584.024481	2582.225193
584.377721	2578.668659
584.730906	2580.339802
585.084037	2582.021027
585.437113	2581.295101
585.790135	2576.994996
586.143103	2573.922413
586.496016	2577.363001
586.848874	2570.595252
587.201679	2575.059193
587.554428	2570.620457
587.907124	2571.752196
588.259765	2568.331773
588.612352	2571.124573
588.964884	2566.816907
589.317362	2569.304716
589.669786	2567.542833
590.022155	2567.391598
590.374470	2570.955694
590.726731	2568.167936
591.078937	2564.429920
591.431090	2567.074006
591.783188	2564.553429
592.135232	2561.143088
592.487222	2563.068809
592.839157	2562.884807
593.191038	2562.423541
593.542866	2558.534291
593.894639	2561.634601
594.246358	2560.875907
594.598022	2558.861966
594.949633	2558.882131
595.301190	2557.384908
595.652692	2555.186965
596.004141	2557.475649
596.355535	2554.408107
596.706876	2553.883827
597.058162	2553.440205
597.409395	2552.253013
597.760573	2555.214691
598.111698	2550.952396
598.462768	2551.176727
598.813785	2550.927190
599.164748	2548.182282
599.515657	2548.857796
599.866511	2548.671273
600.217312	2551.088507
600.568060	2547.017775
600.918753	2550.602035
601.269392	2550.357539
601.619978	2547.390820
601.970510	2548.726726
602.320988	2545.858310
602.671412	2548.212528
603.021783	2542.770603
603.372100	2548.101623
603.722363	2541.941333
604.072572	2549.858465
604.422728	2547.912580
604.772830	2542.362269
605.122878	2539.624923
605.472872	2542.763041
605.822813	2540.063503
606.172701	2543.521735
606.522534	2540.300438
606.872314	2545.452497
607.222041	2545.676828
607.571714	2544.978628
607.921333	2540.764224
608.270899	2544.013247
608.620411	2544.386293
608.969870	2544.139276
609.319276	2540.867567
609.668627	2546.130532
610.017926	2545.749925
610.367171	2547.184133
610.716362	2543.335212
611.065500	2546.548948
611.414585	2543.388144
611.763616	2544.124153
612.112594	2545.432332
612.461518	2544.328319
612.810389	2541.477547
613.159207	2542.216076
613.507971	2542.037115
613.856682	2543.851930
614.205340	2544.605583
614.553945	2544.245140
614.902496	2540.784388
615.250994	2545.742363
615.599439	2543.196580
615.947830	2542.400078
616.296169	2545.477703
616.644454	2543.788916
616.992686	2543.735984
617.340864	2546.493495
617.688990	2542.357228
618.037063	2542.566436
618.385082	2544.146838
618.733048	2546.652291
619.080961	2545.964174
619.428821	2544.701365
619.776628	2543.925027
620.124382	2544.025850
620.472083	2544.038453
620.819731	2546.281767
621.167326	2545.603731
621.514868	2542.405119
621.862357	2539.571991
622.209793	2540.776827
622.557176	2538.354552
622.904506	2537.149716
623.251783	2531.848943
623.599007	2534.482946
623.946179	2529.219981
624.293297	2531.312060
624.640363	2534.172915
624.987376	2531.715353
625.334336	2530.447502
625.681243	2529.353572
626.028097	2531.014632
626.374899	2528.859539
626.721647	2528.249559
627.068343	2527.246370
627.414987	2527.170752
627.761577	2524.531708
628.108115	2525.101359
628.454600	2523.498272
628.801032	2523.243693
629.147412	2522.265710
629.493739	2523.248735
629.840014	2520.947448
630.186236	2521.355781
630.532405	2522.358971
630.878521	2520.108096
631.224585	2520.481141
631.570597	2520.279495
631.916556	2520.206398
632.262462	2522.303518
632.608316	2518.535256
632.954117	2519.127591
633.299866	2520.476100
633.645562	2515.848321
633.991206	2518.217663
634.336797	2512.364883
634.682336	2516.818743
635.027823	2513.967970
635.373257	2515.850841
635.718639	2509.201559
636.063968	2512.054852
636.409245	2511.147445
636.754470	2511.465038
637.099642	2508.843637
637.444762	2507.119563
637.789829	2507.684172
638.134845	2506.922958
638.479808	2505.254336
638.824719	2507.149810
639.169577	2504.094871
639.514383	2505.677793
639.859137	2501.377689
640.203839	2505.690396
640.548489	2502.080930
640.893086	2501.942298
641.237632	2498.763850
641.582125	2500.082112
641.926566	2495.159425
642.270955	2500.762668
642.615292	2500.790394
642.959576	2498.403408
643.303809	2498.466422
643.647990	2501.317195
643.992118	2500.503048
644.336195	2499.192348
644.680219	2498.698315
645.024192	2504.409943
645.368112	2500.034221
645.711981	2504.178050
646.055797	2501.596979
646.399562	2503.457165
646.743274	2503.537823
647.086935	2508.871364
647.430544	2506.890190
647.774101	2508.304234
648.117606	2503.817607
648.461059	2507.222907
648.804460	2508.084944
649.147810	2503.565549
649.491108	2500.505569
649.834354	2500.394664
650.177548	2501.337359
650.520690	2500.001454
650.863781	2497.778305
651.206820	2498.998264
651.549807	2497.122955
651.892742	2494.307470
652.235626	2493.135402
652.578458	2495.366113
652.921238	2493.889055
653.263967	2492.013745
653.606644	2491.055926
653.949269	2492.285968
654.291843	2491.479383
654.634365	2490.647593
654.976836	2492.225474
655.319255	2490.332521
655.661622	2488.265648
656.003938	2489.795638
656.346203	2487.317911
656.688416	2488.600884
657.030577	2489.001656
657.372687	2488.114413
657.714746	2488.242962
658.056753	2489.987202
658.398708	2482.133084
658.740612	2487.965699
659.082465	2484.013434
659.424266	2485.140132
659.766016	2482.148207
660.107715	2488.426964
660.449362	2485.601398
660.790958	2487.091059
661.132503	2489.926708
661.473996	2486.065184
661.815438	2485.999649
662.156829	2486.962509
662.498168	2488.343785
662.839456	2487.726244
663.180693	2486.586943
663.521879	2487.799341
663.863013	2488.147180
664.204097	2486.551655
664.545129	2487.408651
664.886110	2489.367140
665.227040	2487.975781
665.567918	2489.525936
665.908746	2489.354537
666.249522	2486.594505
666.590248	2487.693477
666.930922	2486.687766
667.271545	2489.588950
667.612118	2487.363281
667.952639	2488.598364
668.293109	2486.617190
668.633528	2486.173569
668.973896	2488.127016
669.314213	2486.460914
669.654480	2490.420741
669.994695	2484.225163
670.334859	2487.181799
670.674973	2486.249186
671.015035	2483.771459
671.355047	2487.338075
671.695008	2483.484113
672.034918	2484.630976
672.374777	2484.154587
672.714585	2485.795482
673.054342	2487.522077
673.394049	2485.921511
673.733705	2485.556027
674.073310	2485.543424
674.412864	2484.905718
674.752368	2481.981849
675.091820	2484.570482
675.431223	2483.201808
675.770574	2478.384986
676.109875	2480.066211
676.449125	2483.058136
676.788324	2474.258802
677.127473	2477.810294
677.466571	2474.984728
677.805619	2475.756024
678.144616	2476.373566
678.483562	2478.422795
678.822458	2477.530510
679.161303	2479.625110
679.500098	2477.976653
679.838842	2478.410192
680.177535	2474.775520
680.516179	2475.375417
680.854771	2475.577063
681.193314	2480.663587
681.531805	2482.503609
681.870247	2482.962354
682.208638	2484.104175
682.546978	2485.046871
682.885268	2488.353868
683.223508	2485.588795
683.561697	2483.179123
683.899836	2485.054432
684.237925	2483.718527
684.575963	2483.340440
684.913951	2483.451346
685.251889	2484.446973
685.589776	2478.090078
685.927614	2480.847590
686.265401	2480.509832
686.603137	2482.556541
686.940824	2482.765749
687.278460	2484.757004
687.616046	2484.104175
687.953582	2487.023003
688.291068	2485.137612
688.628504	2485.964361
688.965889	2481.820532
689.303224	2484.104175
689.640510	2484.288177
689.977745	2482.654843
690.314930	2478.591673
690.652065	2481.369349
690.989150	2476.993627
691.326185	2476.313072
691.663170	2471.954994
692.000105	2474.016826
692.336990	2472.872484
692.673825	2470.379634
693.010610	2467.354941
693.347345	2462.606174
693.684030	2463.011987
694.020665	2463.778243
694.357251	2460.635083
694.693786	2465.116669
695.030272	2462.225567
695.366707	2463.574076
695.703093	2461.895372
696.039429	2458.933694
696.375716	2462.865794
696.711952	2462.225567
697.048139	2459.465536
697.384276	2459.616770
697.720363	2460.725824
698.056400	2458.384208
698.392388	2461.328242
698.728326	2458.621142
699.064214	2459.374795
699.400053	2457.454115
699.735842	2457.912860
700.071581	2457.202057
700.407270	2454.782304
700.742910	2456.914712
701.078501	2455.503189
701.414042	2454.691563
701.749533	2454.099227
702.084974	2453.320369
702.420366	2452.647375
702.755709	2453.388425
703.091002	2450.565378
703.426246	2453.050667
703.761440	2454.590740
704.096584	2450.779628
704.431679	2452.382714
704.766725	2452.070163
705.101721	2451.450101
705.436668	2453.572427
705.771565	2451.349278
706.106413	2451.218208
706.441212	2451.147632
706.775961	2452.665019
707.110661	2453.572427
707.445311	2454.376491
707.779913	2448.997580
708.114465	2452.012190
708.448967	2453.847170
708.783421	2457.275154
709.117825	2453.401028
709.452180	2456.660133
709.786485	2453.022941
710.120742	2458.505196
710.454949	2458.301029
710.789107	2458.066615
711.123216	2459.672223
711.457275	2462.328911
711.791286	2461.134157
712.125247	2462.069292
712.459159	2462.482666
712.793023	2465.769498
713.126837	2462.800259
713.460602	2464.105918
713.794318	2465.376288
714.127985	2461.963427
714.461602	2458.827830
714.795171	2460.317491
715.128691	2455.825822
715.462162	2454.247941
715.795584	2454.391614
716.128957	2452.173507
716.462281	2452.100410
716.795556	2452.647375
717.128782	2452.019751
717.461960	2450.129319
717.795088	2450.830039
718.128167	2450.507405
718.461198	2448.133022
718.794180	2448.196036
719.127113	2445.718309
719.459997	2448.465738
719.792833	2447.417178
720.125619	2445.209152
720.458357	2442.872578
720.791046	2444.082455
721.123686	2442.872578
721.456278	2446.371138
721.788821	2442.328133
722.121315	2443.570778
722.453761	2442.486929
722.786158	2443.590942
723.118506	2442.718823
723.450805	2441.372834
723.783056	2444.268977
724.115259	2445.988011
724.447412	2443.414502
724.779518	2445.216714
725.111574	2444.306786
725.443582	2446.502208
725.775542	2444.425253
726.107453	2443.621189
726.439315	2444.243772
726.771129	2450.600667
727.102895	2447.926334
727.434612	2450.585543
727.766281	2444.770572
728.097901	2448.874071
728.429473	2446.640840
728.760996	2447.787703
729.092471	2444.667228
729.423897	2447.306273
729.755276	2450.159566
730.086606	2445.375511
730.417887	2449.431119
730.749120	2450.918259
731.080305	2452.357509
731.411442	2453.431274
731.742530	2453.050667
732.073570	2455.692232
732.404562	2453.511933
732.735506	2455.982098
733.066401	2451.548403
733.397249	2455.001594
733.728048	2448.816098
734.058798	2449.325255
734.389501	2446.250151
734.720156	2441.410643
735.050762	2443.177568
735.381320	2443.790068
735.711831	2442.986004
736.042293	2442.224789
736.372707	2443.701848
736.703073	2439.817638
737.033391	2441.539192
737.363661	2443.016251
737.693883	2444.382403
738.024056	2442.779316
738.354182	2442.781837
738.684260	2442.426436
739.014290	2443.109512
739.344272	2444.790737
739.674207	2445.972887
740.004093	2446.913062
740.333931	2446.285439
740.663722	2446.257713
740.993464	2446.716457
741.323159	2449.552107
741.652806	2444.692434
741.982405	2445.574636
742.311956	2446.182095
742.641460	2445.105809
742.970915	2444.180757
743.300323	2441.990376
743.629683	2438.055755
743.958996	2444.236210
744.288260	2438.643050
744.617477	2440.599017
744.946647	2434.945363
745.275768	2435.925868
745.604842	2433.296906
745.933869	2435.023501
746.262847	2431.759354
746.591778	2437.687751
746.920662	2435.509972
747.249498	2436.694644
747.578286	2437.687751
747.907027	2437.395364
748.235720	2436.319078
748.564365	2438.426280
748.892963	2437.561722
749.221514	2438.423759
749.550017	2438.378389
749.878473	2438.769078
750.206881	2435.701536
750.535242	2436.019129
750.863555	2436.477874
751.191821	2436.737493
751.520039	2437.665066
751.848210	2438.998451
752.176334	2436.419901
752.504411	2436.051897
752.832440	2437.365117
753.160421	2441.261929
753.488356	2432.636515
753.816243	2437.377720
754.144082	2433.029725
754.471875	2435.729263
754.799620	2437.317226
755.127318	2435.487287
755.454969	2436.871084
755.782572	2432.974272
756.110129	2435.325970
756.437638	2434.647935
756.765100	2436.094746
757.092515	2434.234561
757.419882	2433.047369
757.747203	2433.894283
758.074477	2435.696495
758.401703	2435.721701
758.728882	2436.740014
759.056014	2437.050045
759.383099	2434.327822
759.710138	2436.303954
760.037129	2437.080292
760.364073	2436.956784
760.690970	2435.353697
761.017820	2437.798656
761.344623	2437.342432
761.671379	2440.646908
761.998088	2437.448296
762.324751	2444.594132
762.651366	2451.465224
762.977935	2466.442493
763.304456	2470.493060
763.630931	2476.391210
763.957359	2473.926085
764.283740	2466.210599
764.610074	2459.969651
764.936362	2452.901953
765.262602	2449.547065
765.588796	2445.930037
765.914943	2441.040118
766.241044	2438.302772
766.567097	2438.146496
766.893104	2434.658017
767.219064	2431.615681
767.544978	2430.201638
767.870845	2428.911102
768.196665	2430.005033
768.522438	2430.367996
768.848165	2428.908582
769.173846	2427.600402
769.499479	2428.825402
769.825066	2427.517223
770.150607	2426.249373
770.476101	2427.565114
770.801548	2424.999167
771.126949	2425.523447
771.452303	2424.177459
771.777611	2423.925401
772.102872	2424.086718
772.428087	2423.063364
772.753256	2424.235432
773.078378	2422.168559
773.403453	2422.261820
773.728482	2422.259300
774.053465	2423.771646
774.378401	2423.547314
774.703291	2424.704259
775.028135	2420.439443
775.352932	2417.492889
775.677683	2420.716707
776.002388	2422.292067
776.327046	2419.395924
776.651658	2420.273085
776.976224	2418.478434
777.300743	2421.034299
777.625216	2420.096645
777.949643	2418.884247
778.274024	2422.052612
778.598359	2415.529359
778.922647	2417.601273
779.246889	2419.632858
779.571086	2413.094482
779.895236	2421.692170
780.219339	2419.771490
780.543397	2418.039854
780.867409	2421.094793
781.191374	2420.126892
781.515294	2418.140677
781.839167	2419.380801
782.162995	2418.972467
782.486776	2420.903229
782.810511	2419.446336
783.134201	2419.912642
783.457844	2418.647313
783.781441	2420.177303
784.104993	2416.741757
784.428498	2421.961872
784.751958	2419.854669
785.075372	2420.411717
785.398739	2417.742426
785.722061	2418.075142
786.045337	2418.012127
786.368568	2417.626479
786.691752	2419.290060
787.014891	2422.972623
787.337983	2423.012952
787.661030	2425.808272
787.984031	2424.132088
788.306987	2428.865732
788.629897	2428.439754
788.952760	2428.308684
789.275579	2426.604774
789.598351	2425.591502
789.921078	2423.494382
790.243759	2421.102355
790.566395	2419.821902
790.888984	2420.590678
791.211529	2420.298291
791.534027	2420.386511
791.856480	2418.372570
792.178888	2420.192427
792.501249	2421.815678
792.823566	2417.288722
793.145836	2418.675039
793.468062	2417.979360
793.790241	2417.692014
794.112375	2420.172262
794.434464	2418.980029
794.756507	2420.414237
795.078505	2418.251582
795.400457	2417.399627
795.722364	2415.579771
796.044226	2421.334248
796.366042	2420.305852
796.687812	2421.548497
797.009538	2421.039340
797.331218	2425.125196
797.652852	2421.520771
797.974442	2420.152097
798.295986	2425.004208
798.617484	2420.923394
798.938938	2420.736871
799.260346	2420.202509
799.581709	2420.376429
799.903026	2418.533887
800.224299	2420.419278
800.545526	2418.508681
800.866708	2418.206212
801.187845	2420.389032
801.508936	2415.476427
801.829983	2417.419792
802.150984	2417.727302
802.471940	2417.699576
802.792851	2414.294277
803.113717	2417.215625
803.434538	2415.804102
803.755314	2416.633372
804.076045	2415.909966
804.396731	2418.090265
804.717372	2413.646488
805.037967	2415.776376
805.358518	2415.554565
805.679024	2420.210071
805.999485	2418.417940
806.319901	2418.606984
806.640272	2415.960378
806.960598	2418.075142
807.280879	2416.456932
807.601115	2419.342992
807.921306	2416.406520
808.241453	2419.627817
808.561554	2418.848959
808.881611	2417.697055
809.201623	2416.179668
809.521590	2415.746129
809.841513	2415.564647
810.161390	2415.839390
810.481223	2420.716707
810.801011	2416.406520
811.120755	2417.601273
811.440453	2416.252765
811.760107	2417.921387
812.079716	2413.515418
812.399281	2411.577095
812.718801	2415.499112
813.038276	2411.083062
813.357707	2414.800913
813.677093	2415.675553
813.996434	2416.159503
814.315731	2417.563465
814.634983	2415.731005
814.954191	2415.060532
815.273354	2415.705800
815.592473	2416.628331
815.911547	2419.017838
816.230577	2417.545821
816.549562	2419.408527
816.868502	2420.051274
817.187399	2421.621594
817.506250	2419.627817
817.825058	2418.836356
818.143821	2420.331058
818.462539	2422.559248
818.781213	2423.320462
819.099843	2424.439599
819.418429	2430.312543
819.736970	2433.458223
820.055466	2438.388471
820.373919	2442.461724
820.692327	2448.362394
821.010691	2466.147585
821.329011	2503.658811
821.647286	2558.435988
821.965517	2617.598970
822.283704	2650.787406
822.601847	2662.334169
822.919945	2637.985396
823.237999	2607.677979
823.556010	2578.658577
823.873976	2549.855945
824.191897	2528.105886
824.509775	2509.267094
824.827609	2497.155722
825.145398	2483.700883
825.463144	2478.783237
825.780845	2479.635192
826.098502	2487.310349
826.416116	2498.975579
826.733685	2511.754904
827.051210	2514.522497
827.368692	2508.483195
827.686129	2494.183962
828.003522	2478.137969
828.320872	2462.097018
828.638177	2454.981429
828.955439	2447.918773
829.272656	2441.443411
829.589830	2433.087698
829.906960	2431.817327
830.224046	2428.603592
830.541088	2425.573858
830.858086	2426.110741
831.175041	2424.454722
831.491952	2426.241811
831.808819	2424.810123
832.125642	2425.936821
832.442421	2429.170722
832.759157	2437.370158
833.075849	2447.923814
833.392497	2460.463684
833.709101	2465.600620
834.025662	2465.169601
834.342179	2456.453446
834.658653	2449.489092
834.975083	2440.737649
835.291469	2447.245779
835.607811	2430.075609
835.924110	2425.720052
836.240366	2426.166194
836.556578	2422.360123
836.872746	2422.022365
837.188871	2416.890471
837.504952	2415.985584
837.820990	2416.633372
838.136984	2416.260327
838.452935	2416.756880
838.768842	2414.652198
839.084706	2416.683783
839.400526	2423.075967
839.716303	2429.253901
840.032037	2430.267172
840.347727	2431.426638
840.663373	2427.451688
840.978977	2423.862387
841.294537	2419.227046
841.610054	2417.797878
841.925527	2419.363157
842.240957	2414.775707
842.556344	2415.191602
842.871687	2415.247055
843.186987	2407.889491
843.502244	2410.168092
843.817458	2410.984759
844.132629	2409.232958
844.447756	2405.988976
844.762840	2402.805487
845.077881	2407.317320
845.392879	2404.539644
845.707833	2406.838410
846.022745	2404.373286
846.337613	2406.866136
846.652438	2406.286404
846.967221	2405.736918
847.281960	2409.265726
847.596656	2408.373441
847.911309	2406.387227
848.225919	2405.870508
848.540485	2408.431415
848.855009	2407.713050
849.169490	2405.522669
849.483928	2405.764644
849.798323	2405.469737
850.112675	2405.497463
850.426984	2405.016033
850.741251	2408.106260
851.055474	2405.303379
851.369654	2404.554767
851.683792	2406.498132
851.997887	2405.058883
852.311938	2405.762124
852.625947	2405.089130
852.939914	2407.438307
853.253837	2404.290107
853.567718	2404.854716
853.881555	2407.400499
854.195350	2408.012999
854.509103	2405.840262
854.822812	2405.658780
855.136479	2407.188770
855.450103	2405.711712
855.763685	2404.337998
856.077224	2404.675755
856.390720	2406.742628
856.704173	2406.561147
857.017584	2404.625343
857.330953	2404.819428
857.644278	2406.813204
857.957561	2410.475602
858.270802	2406.876219
858.584000	2406.208266
858.897155	2407.143400
859.210268	2407.012330
859.523339	2407.813873
859.836367	2406.682134
860.149352	2404.282545
860.462295	2409.573236
860.775195	2402.132493
861.088054	2403.538975
861.400869	2405.499984
861.713642	2402.419839
862.026373	2407.269429
862.339062	2406.014181
862.651708	2404.443862
862.964312	2406.694737
863.276873	2406.886301
863.589392	2404.862278
863.901869	2409.908473
864.214303	2406.644326
864.526696	2406.495612
864.839045	2406.291445
865.151353	2408.547361
865.463619	2408.688513
865.775842	2409.832855
866.088023	2406.702299
866.400162	2409.512742
866.712258	2405.192473
867.024313	2406.367062
867.336325	2410.221024
867.648296	2408.252454
867.960224	2407.899573
868.272110	2408.315468
868.583954	2407.791188
868.895755	2407.765982
869.207515	2407.730694
869.519233	2408.000396
869.830909	2405.230282
870.142542	2407.549213
870.454134	2408.451579
870.765684	2407.934861
871.077191	2408.890160
871.388657	2409.666497
871.700081	2408.126425
872.011463	2410.410067
872.322803	2409.076682
872.634101	2410.450397
872.945357	2407.826476
873.256571	2411.388051
873.567744	2409.910993
873.878874	2410.379821
874.189963	2410.959553
874.501010	2412.786972
874.812015	2410.800757
875.122979	2410.432753
875.433900	2410.747825
875.744780	2409.805129
876.055618	2411.854358
876.366415	2413.061714
876.677169	2409.837897
876.987882	2407.660118
877.298554	2407.551733
877.609183	2411.554409
877.919771	2408.098698
878.230317	2412.872671
878.540822	2416.401479
878.851285	2415.970460
879.161707	2419.088414
879.472087	2422.919691
879.782425	2431.809766
880.092722	2443.500201
880.402977	2462.452419
880.713191	2485.976964
881.023363	2508.679800
881.333494	2521.300329
881.643583	2528.257121
881.953631	2525.222346
882.263637	2516.541479
882.573602	2508.460510
882.883526	2499.605723
883.193408	2490.743375
883.503248	2481.238279
883.813048	2475.609831
884.122806	2464.116000
884.432522	2457.262551
884.742197	2447.263423
885.051831	2444.699996
885.361424	2436.341763
885.670975	2435.545261
885.980485	2428.212902
886.289954	2428.550660
886.599382	2424.774835
886.908768	2423.910278
887.218113	2418.836356
887.527417	2417.767632
887.836680	2415.395769
888.145901	2415.103382
888.455082	2416.270409
888.764221	2412.098854
889.073319	2412.297980
889.382376	2412.701272
889.691392	2413.369225
890.000366	2411.977866
890.309300	2409.837897
890.618193	2414.374935
890.927044	2411.400654
891.235855	2410.382341
891.544625	2413.230593
891.853353	2415.562127
892.162041	2413.054153
892.470687	2414.306879
892.779293	2416.151942
893.087858	2416.867786
893.396381	2416.353588
893.704864	2424.822726
894.013306	2427.930598
894.321707	2439.999120
894.630068	2443.709409
894.938387	2444.301745
895.246665	2442.454162
895.554903	2439.726898
895.863100	2437.773451
896.171256	2431.509817
896.479371	2430.506627
896.787446	2430.216761
897.095480	2424.250555
897.403473	2424.575710
897.711425	2422.564289
898.019336	2417.949113
898.327207	2417.051788
898.635038	2418.390214
898.942827	2414.511046
899.250576	2412.618093
899.558284	2413.275963
899.865952	2415.345357
900.173579	2411.824111
900.481165	2412.923083
900.788711	2410.561302
901.096216	2410.374779
901.403681	2410.223545
901.711105	2410.495767
902.018489	2409.056518
902.325832	2412.958371
902.633135	2410.639440
902.940397	2415.236972
903.247619	2419.426171
903.554800	2427.497058
903.861941	2439.293358
904.169041	2449.015224
904.476101	2452.128136
904.783121	2447.591098
905.090100	2446.459359
905.397039	2441.425767
905.703938	2433.803542
906.010796	2430.574683
906.317614	2429.621905
906.624391	2421.813158
906.931129	2421.041861
907.237826	2418.367529
907.544483	2417.495409
907.851099	2416.691345
908.157675	2412.688669
908.464211	2410.639440
908.770707	2403.105436
909.077163	2404.905128
909.383578	2404.789181
909.689954	2404.640467
909.996289	2400.728532
910.302584	2407.539130
910.608839	2404.408574
910.915054	2407.103071
911.221229	2407.080385
911.527363	2406.888822
911.833458	2404.327915
912.139513	2405.310940
912.445527	2405.976373
912.751502	2408.557443
913.057436	2408.040725
913.363331	2407.960067
913.669186	2409.510222
913.975000	2412.169430
914.280775	2416.666139
914.586510	2417.964237
914.892205	2424.192582
915.197859	2427.481935
915.503475	2437.866712
915.809050	2444.334512
916.114585	2450.618311
916.420081	2450.346088
916.725536	2450.502364
917.030952	2447.341561
917.336328	2444.415171
917.641665	2440.495674
917.946961	2438.743873
918.252218	2438.839655
918.557435	2431.658531
918.862612	2428.611153
919.167750	2423.927922
919.472848	2423.328024
919.777906	2421.243507
920.082925	2420.648651
920.387904	2418.987591
920.692843	2414.319482
920.997743	2413.578433
921.302603	2414.072466
921.607423	2406.803122
921.912204	2412.093813
922.216946	2408.063410
922.521647	2408.544841
922.826310	2405.419325
923.130932	2407.778585
923.435516	2405.676424
923.740059	2402.644170
924.044564	2407.254305
924.349028	2405.648698
924.653454	2397.847512
924.957840	2400.743655
925.262186	2399.851371
925.566493	2402.568553
925.870761	2398.873387
926.174989	2402.288769
926.479178	2402.893707
926.783328	2403.130641
927.087438	2400.174005
927.391509	2403.105436
927.695541	2401.890518
927.999533	2400.058058
928.303486	2401.998902
928.607400	2400.690723
928.911275	2401.484705
929.215110	2399.470764
929.518906	2402.674417
929.822663	2402.787843
930.126381	2402.145096
930.430060	2401.129303
930.733699	2400.088305
931.037299	2401.799777
931.340861	2399.611916
931.644383	2400.549571
931.947866	2400.461350
932.251309	2401.900600
932.554714	2401.988820
932.858080	2400.463871
933.161407	2401.472102
933.464694	2399.954714
933.767943	2403.851526
934.071153	2399.780795
934.374323	2400.612585
934.677455	2400.214334
934.980548	2399.319529
935.283602	2400.244581
935.586617	2399.977400
935.889593	2402.419839
936.192530	2398.916237
936.495428	2400.181566
936.798287	2401.043604
937.101108	2401.104097
937.403890	2401.275497
937.706632	2401.083933
938.009336	2402.513100
938.312002	2403.947308
938.614628	2402.596279
938.917216	2402.992010
939.219765	2405.212638
939.522275	2403.901938
939.824747	2404.106105
940.127179	2401.245250
940.429573	2399.281720
940.731929	2402.621485
941.034246	2398.719632
941.336524	2406.120046
941.638763	2402.782802
941.940964	2404.191804
942.243126	2400.869684
942.545250	2403.899417
942.847335	2403.745662
943.149381	2402.717267
943.451389	2399.382543
943.753359	2400.340363
944.055290	2402.135013
944.357182	2401.005795
944.659036	2401.517472
944.960851	2399.468243
945.262628	2400.017729
945.564367	2402.361865
945.866067	2401.227606
946.167729	2399.831206
946.469352	2401.242729
946.770937	2400.778943
947.072484	2399.914385
947.373992	2398.906154
947.675462	2401.262894
947.976893	2402.455127
948.278286	2401.832544
948.579641	2400.574776
948.880958	2400.529406
949.182236	2399.984961
949.483476	2399.183418
949.784678	2403.811197
950.085841	2401.772050
950.386967	2401.749365
950.688054	2401.038562
950.989103	2399.327091
951.290114	2400.287431
951.591087	2400.380692
951.892021	2400.511762
952.192917	2402.374468
952.493776	2402.886145
952.794596	2403.581825
953.095378	2401.303223
953.396122	2402.442524
953.696828	2400.978069
953.997496	2403.332288
954.298126	2401.761968
954.598718	2402.876063
954.899272	2401.109139
955.199788	2398.023953
955.500266	2403.944788
955.800706	2402.535785
956.101108	2395.757954
956.401472	2397.401370
956.701798	2396.309960
957.002087	2397.421535
957.302337	2398.560835
957.602550	2400.168963
957.902724	2398.303737
958.202861	2400.055537
958.502960	2397.265259
958.803022	2400.375651
959.103045	2398.127296
959.403031	2398.596123
959.702979	2398.104611
960.002889	2399.337173
960.302762	2397.852553
960.602596	2397.106463
960.902393	2399.780795
961.202153	2395.856256
961.501875	2397.179559
961.801559	2397.565207
962.101205	2397.310629
962.400814	2399.311967
962.700385	2397.499673
962.999918	2396.609909
963.299414	2394.094373
963.598873	2398.086967
963.898293	2400.022770
964.197677	2399.380023
964.497022	2396.236863
964.796331	2395.493293
965.095601	2396.231822
965.394835	2397.648387
965.694030	2395.558828
965.993189	2396.867008
966.292309	2394.142264
966.591393	2397.053530
966.890439	2396.773746
967.189447	2396.544374
967.488419	2397.416493
967.787353	2398.233160
968.086249	2394.016235
968.385108	2397.812224
968.683930	2395.095042
968.982714	2397.103942
969.281462	2396.226781
969.580172	2398.071843
969.878844	2396.544374
970.177480	2396.612429
970.476078	2397.345917
970.774639	2397.706360
971.073162	2396.378016
971.371649	2395.604199
971.670098	2395.578993
971.968510	2396.367933
972.266885	2392.259393
972.565223	2395.309291
972.863524	2396.148643
973.161788	2398.447409
973.460014	2398.578479
973.758204	2395.347100
974.056356	2397.199724
974.354471	2397.519837
974.652550	2396.637635
974.950591	2397.252656
975.248595	2395.584034
975.546563	2397.983623
975.844493	2396.088149
976.142386	2397.363561
976.440243	2397.078736
976.738062	2397.887841
977.035845	2399.120403
977.333590	2396.940104
977.631299	2396.340207
977.928971	2396.884652
978.226606	2397.149312
978.524204	2396.902296
978.821765	2396.390619
979.119290	2398.255846
979.416777	2398.003788
979.714228	2396.370454
980.011642	2395.911709
980.309020	2397.260218
980.606360	2396.138561
980.903664	2397.280382
981.200931	2397.325753
981.498162	2398.996895
981.795356	2399.337173
982.092513	2400.753737
982.389633	2402.750034
982.686717	2400.032852
982.983764	2401.028480
983.280775	2405.714233
983.577749	2403.115518
983.874686	2400.605023
984.171587	2401.651063
984.468451	2403.503687
984.765279	2399.969838
985.062070	2401.446896
985.358824	2398.732235
985.655543	2397.398849
985.952224	2399.601834
986.248869	2399.095198
986.545478	2392.415669
986.842050	2395.594116
987.138586	2394.830382
987.435086	2394.938766
987.731549	2389.466594
988.027975	2397.119065
988.324366	2394.719476
988.620719	2397.023283
988.917037	2392.513971
989.213318	2394.674106
989.509563	2396.889693
989.805772	2394.074208
990.101944	2394.565721
990.398080	2395.682337
990.694180	2398.616288
990.990244	2392.874414
991.286271	2395.097563
991.582262	2393.678478
991.878217	2394.848026
992.174136	2396.574621
992.470019	2397.068654
992.765865	2398.379354
993.061676	2395.896586
993.357450	2392.219064
993.653188	2397.073695
993.948890	2397.918088
994.244556	2396.829199
994.540186	2396.892213
994.835780	2395.715104
995.131337	2396.488921
995.426859	2397.151833
995.722345	2399.024622
996.017795	2398.709549
996.313208	2401.497307
996.608586	2396.214178
996.903928	2398.124776
997.199234	2398.212996
997.494504	2399.082595
997.789738	2399.069992
998.084936	2397.151833
998.380099	2398.049158
998.675225	2398.656617
998.970316	2395.841133
999.265371	2397.262738
999.560390	2396.955228
999.855373	2397.976062
1000.150320	2395.818448
1000.445232	2396.110835
1000.740108	2394.671585
1001.034948	2394.593447
1001.329752	2394.653941
1001.624521	2395.160577
1001.919254	2392.458519
1002.213951	2391.798127
1002.508613	2392.095556
1002.803239	2392.340052
1003.097829	2389.443909
1003.392384	2396.201575
1003.686903	2395.710063
1003.981386	2396.030176
1004.275834	2393.910371
1004.570246	2393.643190
1004.864623	2395.384908
1005.158964	2396.554456
1005.453270	2393.570093
1005.747540	2393.993550
1006.041775	2395.629404
1006.335974	2393.068498
1006.630138	2395.417676
1006.924266	2393.406256
1007.218359	2393.865001
1007.512416	2394.457336
1007.806438	2395.087480
1008.100425	2396.816596
1008.394376	2394.066647
1008.688292	2396.309960
1008.982172	2394.114538
1009.276017	2392.418189
1009.569827	2396.312481
1009.863602	2394.969013
1010.157341	2393.769219
1010.451045	2395.921791
1010.744714	2392.887017
1011.038347	2393.126472
1011.331945	2394.427089
1011.625508	2395.054713
1011.919036	2394.157388
1012.212528	2396.584703
1012.505986	2392.645041
1012.799408	2394.515309
1013.092795	2393.744013
1013.386147	2393.827192
1013.679464	2395.722666
1013.972745	2394.827861
1014.265992	2395.720145
1014.559204	2394.732079
1014.852380	2394.848026
1015.145521	2395.382388
1015.438628	2394.381719
1015.731699	2394.159908
1016.024736	2392.629918
1016.317737	2393.320556
1016.610703	2397.527399
1016.903635	2392.599671
1017.196531	2390.217726
1017.489393	2392.866852
1017.782219	2391.354506
1018.075011	2396.362892
1018.367768	2392.776111
1018.660490	2393.101266
1018.953177	2393.101266
1019.245829	2393.101266
