Dividing Wavelength (nm)	Counts (n)	Blue Motor Position (mm): 0.000000	Red Motor Position (mm): 21.600000	
326.493990	1983.941055
326.888308	1983.941055
327.282561	1983.941055
327.676750	1960.691253
328.070874	1961.263424
328.464933	1967.602675
328.858929	1978.073152
329.252859	1989.851808
329.646726	2004.377893
330.040528	2020.436488
330.434265	2038.027595
330.827938	2056.037117
331.221547	2077.583008
331.615091	2098.097984
332.008571	2119.018772
332.401986	2139.201032
332.795338	2159.053096
333.188625	2179.457166
333.581847	2198.530371
333.975006	2213.379090
334.368100	2236.265928
334.761129	2250.174472
335.154095	2267.120311
335.546996	2282.778134
335.939833	2301.720270
336.332606	2316.203505
336.725315	2329.459219
337.117960	2334.069354
337.510540	2340.401043
337.903056	2352.716582
338.295508	2357.349403
338.687896	2368.069416
339.080220	2371.139479
339.472480	2378.509646
339.864676	2380.422764
340.256807	2384.395193
340.648875	2389.585061
341.040879	2388.231511
341.432818	2386.620863
341.824694	2391.367109
342.216506	2388.317211
342.608253	2390.880638
342.999937	2388.866697
343.391557	2389.418703
343.783113	2387.598846
344.174605	2385.622714
344.566033	2381.284801
344.957397	2380.833618
345.348697	2381.728423
345.739934	2379.273381
346.131106	2375.694162
346.522215	2375.852958
346.913260	2371.389016
347.304241	2371.502442
347.695159	2370.756351
348.086012	2369.743079
348.476802	2368.059334
348.867528	2367.066227
349.258191	2365.828623
349.648789	2366.816690
350.039324	2362.947604
350.429796	2363.189579
350.820203	2364.931298
351.210548	2363.151771
351.600828	2362.718232
351.991045	2361.682274
352.381198	2364.044055
352.771288	2361.752851
353.161314	2359.368385
353.551276	2360.757223
353.941175	2361.047089
354.331010	2361.518437
354.720782	2363.184538
355.110490	2359.781759
355.500135	2362.995495
355.889717	2363.658407
356.279235	2361.145392
356.668689	2361.873838
357.058080	2362.440968
357.447408	2360.469877
357.836672	2359.968282
358.225873	2361.677233
358.615010	2363.081195
359.004084	2367.484642
359.393095	2370.935312
359.782043	2370.045549
360.170927	2368.145034
360.559748	2370.358100
360.948505	2370.562267
361.337199	2373.655015
361.725830	2372.220807
362.114398	2374.912783
362.502903	2376.052083
362.891344	2375.011085
363.279722	2375.127032
363.668037	2373.415560
364.056289	2378.265150
364.444478	2379.021323
364.832603	2378.691128
365.220665	2379.326313
365.608665	2379.306148
365.996601	2379.747249
366.384474	2379.878319
366.772284	2382.729092
367.160031	2382.676160
367.547715	2384.843856
367.935336	2386.641027
368.322893	2385.441233
368.710388	2387.823178
369.097820	2389.242263
369.485189	2387.770246
369.872495	2388.554145
370.259738	2387.987015
370.646918	2395.561349
371.034035	2393.154198
371.421090	2395.573952
371.808081	2400.781464
372.195010	2405.346228
372.581875	2410.500808
372.968678	2421.606470
373.355418	2425.130237
373.742096	2433.962338
374.128710	2445.884667
374.515262	2455.624176
374.901751	2471.806280
375.288177	2488.232880
375.674540	2508.946981
376.060841	2527.493386
376.447079	2551.091027
376.833254	2574.474419
377.219367	2600.993409
377.605417	2638.862557
377.991404	2663.619663
378.377329	2701.771116
378.763191	2737.104563
379.148991	2780.526542
379.534727	2830.963286
379.920402	2872.010881
380.306013	2925.873089
380.691563	2989.270640
381.077049	3041.917930
381.462474	3097.476487
381.847835	3172.783764
382.233134	3242.278590
382.618371	3302.777477
383.003545	3384.297976
383.388657	3465.309318
383.773706	3556.682752
384.158693	3630.394504
384.543618	3722.067887
384.928480	3801.166111
385.313280	3905.676792
385.698017	4008.347452
386.082692	4130.524857
386.467305	4185.576777
386.851856	4316.014112
387.236344	4469.991115
387.620770	4530.472359
388.005133	4649.766223
388.389435	4800.479079
388.773674	4885.306575
389.157851	5012.746944
389.541965	5144.079084
389.926018	5171.475235
390.310008	5343.486966
390.693936	5467.872396
391.077802	5583.894552
391.461606	5715.904727
391.845348	5831.016954
392.229027	5949.920129
392.612645	6175.279871
392.996200	6287.974865
393.379694	6464.072451
393.763125	6688.381112
394.146494	6772.500326
394.529801	6908.876140
394.913047	7148.572923
395.296230	7147.811709
395.679351	7202.941768
396.062410	7458.553473
396.445408	7356.654110
396.828343	7502.643405
397.211217	7640.491236
397.594028	7525.588217
397.976778	7725.220430
398.359466	7889.297384
398.742092	7867.930454
399.124656	8015.358998
399.507158	8198.254580
399.889598	8216.453146
400.271977	8423.440402
400.654294	8456.608674
401.036549	8653.589240
401.418742	8679.886419
401.800874	8974.655287
402.182944	9055.407010
402.564952	9417.329088
402.946898	9238.421059
403.328783	9293.256210
403.710606	9490.766097
404.092367	9745.891332
404.474067	10104.750909
404.855705	9890.101099
405.237282	9850.606179
405.618797	10273.995047
406.000250	10512.988589
406.381642	10880.155988
406.762972	10824.254633
407.144240	10626.321289
407.525447	10871.333969
407.906593	10811.102263
408.287677	11066.756818
408.668700	11219.788605
409.049661	11202.008455
409.430560	11357.419667
409.811399	11331.024185
410.192176	11489.770120
410.572891	11560.033722
410.953545	12029.213911
411.334138	11514.270127
411.714669	12106.116713
412.095139	11427.930286
412.475547	11928.330340
412.855894	11772.979622
413.236180	12090.819331
413.616405	11781.852053
413.996568	12053.018239
414.376670	12024.863395
414.756711	11907.946434
415.136691	12171.923935
415.516609	12351.706604
415.896466	12410.806572
416.276262	12702.074358
416.655997	13145.111123
417.035670	13182.077904
417.415283	13814.480572
417.794834	13910.096137
418.174324	13652.853618
418.553753	13541.968398
418.933121	14033.745558
419.312428	13835.542513
419.691674	13749.348864
420.070859	14196.191700
420.449983	13862.351369
420.829045	14403.846909
421.208047	14145.913752
421.586988	14592.701135
421.965867	14834.217775
422.344686	14843.301934
422.723444	15392.797786
423.102141	14101.170991
423.480777	15260.217960
423.859352	14764.657413
424.237866	15850.113618
424.616319	15547.112546
424.994712	16191.750094
425.373044	15974.176415
425.751314	16626.950385
426.129524	15761.520381
426.507673	16815.623129
426.885762	16502.678381
427.263789	16675.794125
427.641756	16828.684759
428.019662	16860.892691
428.397508	16886.347997
428.775292	17143.280485
429.153016	17084.409891
429.530679	17126.783309
429.908282	17113.540198
430.285824	16829.602249
430.663305	17457.198177
431.040726	17036.639917
431.418086	16829.622414
431.795385	17393.112508
432.172624	17751.044514
432.549802	17264.278260
432.926920	17386.937095
433.303977	17203.827264
433.680974	17384.272845
434.057910	17585.518227
434.434786	17537.818829
434.811601	17374.314046
435.188355	18269.698586
435.565050	17832.421340
435.941683	17694.913786
436.318257	18405.509791
436.694770	18126.789436
437.071222	18539.531387
437.447614	17585.099811
437.823946	17488.602044
438.200218	17508.469232
438.576429	17189.207917
438.952580	17298.847973
439.328670	17126.163248
439.704700	17345.380343
440.080670	16851.662338
440.456580	17199.708641
440.832429	17198.060184
441.208218	16231.824747
441.583947	16441.410718
441.959616	16367.709048
442.335224	16394.906073
442.710773	16335.889285
443.086261	16572.251345
443.461689	15932.208809
443.837057	15859.306162
444.212365	16147.014895
444.587612	15965.830784
444.962800	15480.465972
445.337927	15599.086842
445.712995	14558.355754
446.088002	15613.549912
446.462949	15565.343879
446.837837	15470.257635
447.212664	15241.505197
447.587431	16813.644477
447.962139	18482.329414
448.336786	19746.340768
448.711374	18536.675573
449.085901	16009.250243
449.460369	15709.190683
449.834776	15405.738428
450.209124	16547.675720
450.583412	16071.712659
450.957640	16119.840555
451.331808	15138.809331
451.705917	14159.870187
452.079965	13921.884875
452.453954	13867.044683
452.827883	13573.420157
453.201752	13247.640631
453.575562	13086.048965
453.949311	13358.760264
454.323001	13146.293274
454.696632	12794.783698
455.070202	13228.131365
455.443713	13044.023386
455.817164	13031.579297
456.190556	12993.763082
456.563888	12518.541070
456.937160	12422.098756
457.310373	11561.856099
457.683526	11469.141718
458.056619	11231.511808
458.429653	10968.482045
458.802628	10934.068608
459.175542	10750.908365
459.548398	10921.160733
459.921194	11182.504231
460.293930	11173.578868
460.666607	11540.726103
461.039224	11799.730505
461.411782	11636.863427
461.784280	11043.812007
462.156719	10635.324790
462.529099	10223.258354
462.901419	9649.955653
463.273680	9163.665789
463.645882	8949.434394
464.018024	8731.825427
464.390106	8698.571455
464.762130	9067.273886
465.134094	9726.039268
465.505999	10607.250604
465.877845	11284.247319
466.249631	11197.811695
466.621358	10521.523262
466.993026	9807.348038
467.364634	9162.977671
467.736184	8584.858148
468.107674	8160.607243
468.479105	7826.356058
468.850477	7515.838625
469.221790	7126.732124
469.593043	6713.276851
469.964238	6426.016781
470.335373	6248.782415
470.706449	6269.274705
471.077467	6387.940946
471.448425	6717.539146
471.819324	6867.579008
472.190164	6523.822727
472.560945	6022.800091
472.931667	5583.282051
473.302330	5344.306153
473.672934	5143.264938
474.043479	5055.339653
474.413965	4885.596441
474.784393	4744.857508
475.154761	4697.974777
475.525070	4597.302935
475.895321	4476.262311
476.265513	4411.889297
476.635645	4377.158267
477.005719	4279.236374
477.375734	4216.436200
477.745691	4165.558355
478.115588	4145.280314
478.485427	4157.058970
478.855207	4226.536152
479.224928	4269.706073
479.594591	4250.705964
479.964194	4120.326602
480.333739	4042.271897
480.703226	3967.435968
481.072653	3926.421140
481.442022	3881.045714
481.811333	3830.430009
482.180584	3728.394535
482.549777	3657.901560
482.918912	3591.413782
483.287988	3536.921429
483.657005	3471.333497
484.025964	3413.201432
484.394864	3372.637787
484.763706	3327.098524
485.132489	3278.516924
485.501213	3243.138107
485.869879	3215.996534
486.238487	3185.109385
486.607036	3160.301867
486.975527	3127.864562
487.343959	3110.437293
487.712333	3092.110179
488.080648	3073.523444
488.448905	3059.262020
488.817104	3038.986499
489.185244	3038.174874
489.553326	3043.213507
489.921350	3067.968093
490.289315	3092.420210
490.657222	3088.702359
491.025070	3079.252716
491.392861	3055.660116
491.760593	3026.572658
492.128267	2993.177534
492.495883	2961.362813
492.863440	2937.780295
493.230939	2908.463465
493.598380	2890.272461
493.965763	2875.156561
494.333088	2857.517564
494.700354	2846.553054
495.067563	2839.185408
495.434713	2828.775425
495.801805	2824.770228
496.168839	2816.001141
496.535815	2807.002682
496.902733	2800.678554
497.269593	2793.777215
497.636395	2786.827984
498.003139	2785.827315
498.369825	2777.522014
498.736453	2775.596293
499.103023	2768.866353
499.469535	2762.764036
499.835989	2760.619025
500.202385	2754.483941
500.568723	2753.470669
500.935003	2751.519742
501.301226	2750.198960
501.667390	2749.762900
502.033497	2751.887747
502.399546	2746.511356
502.765537	2736.608009
503.131470	2738.417784
503.497345	2740.030953
503.863163	2730.525857
504.228923	2731.337483
504.594625	2735.834192
504.960269	2729.295816
505.325856	2730.936711
505.691385	2728.277503
506.056856	2727.299519
506.422270	2732.655745
506.787625	2730.959397
507.152924	2734.233626
507.518164	2735.085581
507.883347	2728.232132
508.248472	2730.803121
508.613540	2733.215313
508.978550	2737.951477
509.343503	2735.672875
509.708398	2738.810994
510.073236	2745.341808
510.438016	2746.171078
510.802738	2741.780233
511.167403	2748.583270
511.532010	2751.565113
511.896561	2754.836822
512.261053	2760.966865
512.625488	2757.407810
512.989866	2755.988725
513.354186	2756.394538
513.718449	2755.802203
514.082655	2766.121445
514.446803	2763.051382
514.810894	2769.872063
515.174927	2772.914399
515.538904	2770.880294
515.902822	2775.679472
516.266684	2773.131169
516.630488	2779.525873
516.994235	2775.911365
517.357925	2780.428239
517.721558	2788.055505
518.085133	2790.162707
518.448651	2789.847635
518.812112	2788.902419
519.175516	2790.858387
519.538863	2793.293264
519.902152	2793.550363
520.265385	2796.743934
520.628560	2797.926084
520.991678	2795.881896
521.354739	2800.607978
521.717743	2803.025211
522.080690	2802.321970
522.443580	2807.446303
522.806413	2807.650470
523.169189	2806.735501
523.531908	2809.324133
523.894569	2808.820018
524.257174	2810.750780
524.619722	2812.802529
524.982213	2814.738332
525.344647	2812.855461
525.707025	2811.935451
526.069345	2816.785041
526.431608	2816.258240
526.793815	2816.512818
527.155964	2814.788744
527.518057	2815.350832
527.880093	2812.590801
528.242072	2821.057419
528.603995	2816.538024
528.965860	2813.641881
529.327669	2817.664722
529.689421	2817.185812
530.051117	2818.269661
530.412755	2818.355360
530.774337	2816.984166
531.135862	2814.045174
531.497331	2815.083651
531.858743	2811.794298
532.220098	2816.343940
532.581396	2811.743887
532.942638	2810.649957
533.303824	2814.589618
533.664953	2814.415698
534.026025	2809.999648
534.387040	2815.771769
534.747999	2818.236893
535.108902	2816.694300
535.469748	2811.194401
535.830537	2812.827735
536.191270	2813.253712
536.551947	2809.069555
536.912567	2813.873774
537.273131	2813.735143
537.633638	2808.399081
537.994089	2810.171047
538.354483	2805.608803
538.714821	2812.031233
539.075103	2811.411171
539.435328	2810.276911
539.795497	2809.281283
540.155609	2809.359421
540.515665	2813.324289
540.875665	2809.172898
541.235609	2809.828248
541.595496	2810.685245
541.955328	2814.193888
542.315102	2808.313382
542.674821	2809.949236
543.034483	2804.519913
543.394090	2806.596869
543.753640	2804.429173
544.113134	2812.316058
544.472571	2804.219965
544.831953	2812.709268
545.191278	2806.412867
545.550548	2801.540592
545.909761	2807.622744
546.268918	2811.028043
546.628019	2809.553506
546.987064	2806.687610
547.346053	2798.178142
547.704986	2804.356076
548.063863	2800.053451
548.422684	2802.652166
548.781449	2797.207720
549.140158	2802.503452
549.498811	2800.086219
549.857408	2793.499951
550.215949	2797.308543
550.574434	2796.786783
550.932864	2793.152112
551.291237	2794.873666
551.649555	2797.406845
552.007817	2796.466670
552.366022	2787.034671
552.724173	2789.429219
553.082267	2793.116823
553.440305	2795.619756
553.798288	2786.412089
554.156215	2786.878396
554.514086	2785.048457
554.871902	2781.801954
555.229661	2780.156017
555.587365	2776.864143
555.945014	2776.566715
556.302606	2772.359872
556.660143	2774.761982
557.017625	2771.460027
557.375050	2768.379882
557.732421	2767.409459
558.089735	2765.529109
558.446994	2763.547936
558.804197	2762.244797
559.161345	2759.078953
559.518437	2748.724423
559.875474	2749.825915
560.232455	2747.862385
560.589381	2746.957498
560.946251	2745.137642
561.303065	2744.086561
561.659825	2742.647312
562.016528	2735.347721
562.373177	2730.737586
562.729770	2730.840929
563.086307	2725.875393
563.442789	2723.798437
563.799216	2721.928169
564.155587	2716.513970
564.511904	2712.997765
564.868164	2712.367621
565.224370	2710.661191
565.580520	2708.301931
565.936615	2702.101311
566.292654	2697.211392
566.648638	2694.544622
567.004567	2693.859025
567.360441	2693.042358
567.716260	2686.357788
568.072023	2685.972140
568.427732	2677.616427
568.783385	2676.464523
569.138982	2673.510407
569.494525	2671.816580
569.850013	2664.648059
570.205445	2666.956907
570.560823	2663.720487
570.916145	2661.421720
571.271412	2660.305105
571.626625	2652.831594
571.981782	2651.989722
572.336884	2647.833290
572.691931	2648.120636
573.046923	2642.587970
573.401860	2643.875984
573.756743	2637.977834
574.111570	2634.764099
574.466342	2634.663276
574.821059	2633.791156
575.175722	2628.255969
575.530330	2627.262862
575.884882	2623.086266
576.239380	2620.941255
576.593823	2620.132150
576.948211	2617.099896
577.302544	2615.590070
577.656823	2613.006479
578.011047	2613.999586
578.365216	2611.181581
578.719330	2607.032712
579.073389	2604.620519
579.427394	2607.093205
579.781344	2603.851743
580.135239	2601.043821
580.489080	2601.726897
580.842866	2595.004518
581.196597	2595.443099
581.550273	2595.488469
581.903895	2595.634663
582.257463	2597.976279
582.610975	2592.592326
582.964434	2591.737851
583.317837	2590.321287
583.671186	2589.204671
584.024481	2589.015628
584.377721	2584.788620
584.730906	2588.125864
585.084037	2587.828436
585.437113	2582.459607
585.790135	2583.450194
586.143103	2581.365677
586.496016	2578.817373
586.848874	2576.480799
587.201679	2581.010275
587.554428	2576.624472
587.907124	2575.603638
588.259765	2572.024419
588.612352	2577.768813
588.964884	2572.450396
589.317362	2575.896025
589.669786	2575.863257
590.022155	2572.649522
590.374470	2572.100036
590.726731	2571.921075
591.078937	2571.147258
591.431090	2569.889490
591.783188	2571.416960
592.135232	2566.413614
592.487222	2563.547718
592.839157	2568.470405
593.191038	2568.054510
593.542866	2566.509396
593.894639	2561.813562
594.246358	2563.938408
594.598022	2564.871021
594.949633	2560.122254
595.301190	2561.833726
595.652692	2563.351113
596.004141	2561.866494
596.355535	2558.320042
596.706876	2557.561348
597.058162	2555.653272
597.409395	2557.412634
597.760573	2558.458674
598.111698	2552.699155
598.462768	2554.781152
598.813785	2554.972716
599.164748	2555.675957
599.515657	2553.041954
599.866511	2551.378373
600.217312	2553.425082
600.568060	2552.862993
600.918753	2555.106306
601.269392	2551.915256
601.619978	2556.679146
601.970510	2549.470296
602.320988	2552.512633
602.671412	2553.719989
603.021783	2550.528939
603.372100	2552.515153
603.722363	2551.534649
604.072572	2550.864175
604.422728	2551.582540
604.772830	2544.958464
605.122878	2545.495347
605.472872	2546.906870
605.822813	2545.470141
606.172701	2550.813764
606.522534	2547.428629
606.872314	2550.755791
607.222041	2548.656150
607.571714	2550.551624
607.921333	2547.892415
608.270899	2549.525749
608.620411	2546.753114
608.969870	2547.600028
609.319276	2548.267981
609.668627	2548.383928
610.017926	2547.957950
610.367171	2549.135060
610.716362	2549.593805
611.065500	2547.100954
611.414585	2545.860830
611.763616	2548.764535
612.112594	2546.947199
612.461518	2549.853424
612.810389	2547.521890
613.159207	2547.952909
613.507971	2547.282436
613.856682	2548.933413
614.205340	2548.764535
614.553945	2547.468958
614.902496	2547.264792
615.250994	2550.801161
615.599439	2549.029195
615.947830	2546.833773
616.296169	2548.850234
616.644454	2550.123126
616.992686	2547.363094
617.340864	2546.652291
617.688990	2546.478372
618.037063	2548.036088
618.385082	2548.353681
618.733048	2551.600184
619.080961	2550.342416
619.428821	2548.935934
619.776628	2547.937786
620.124382	2548.207487
620.472083	2549.167827
620.819731	2547.131201
621.167326	2548.661191
621.514868	2545.792775
621.862357	2543.846889
622.209793	2545.893598
622.557176	2543.131045
622.904506	2540.514687
623.251783	2536.625436
623.599007	2540.350849
623.946179	2535.070240
624.293297	2534.682072
624.640363	2534.031763
624.987376	2536.653163
625.334336	2533.996475
625.681243	2534.593851
626.028097	2533.373892
626.374899	2532.055630
626.721647	2530.742410
627.068343	2531.730476
627.414987	2531.286854
627.761577	2530.046731
628.108115	2528.678057
628.454600	2529.605630
628.801032	2529.116638
629.147412	2526.769981
629.493739	2528.685619
629.840014	2520.067767
630.186236	2526.737213
630.532405	2525.718900
630.878521	2525.655886
631.224585	2524.788807
631.570597	2520.813857
631.916556	2523.145391
632.262462	2522.666481
632.608316	2524.151101
632.954117	2523.616739
633.299866	2523.049609
633.645562	2522.968951
633.991206	2520.723117
634.336797	2518.731861
634.682336	2516.881757
635.027823	2518.638599
635.373257	2516.947292
635.718639	2515.805471
636.063968	2516.702796
636.409245	2514.469565
636.754470	2513.965450
637.099642	2514.217507
637.444762	2512.062414
637.789829	2510.335819
638.134845	2512.886643
638.479808	2510.608041
638.824719	2509.493946
639.169577	2505.332474
639.514383	2509.062928
639.859137	2506.769203
640.203839	2506.991013
640.548489	2506.675941
640.893086	2504.243585
641.237632	2500.319046
641.582125	2504.505725
641.926566	2496.820486
642.270955	2503.439521
642.615292	2505.254336
642.959576	2508.997393
643.303809	2502.027998
643.647990	2502.252329
643.992118	2504.533451
644.336195	2502.741321
644.680219	2502.020436
645.024192	2501.755775
645.368112	2502.650580
645.711981	2502.338028
646.055797	2504.835920
646.399562	2507.570746
646.743274	2506.983452
647.086935	2512.402692
647.430544	2505.753410
647.774101	2506.890190
648.117606	2509.040243
648.461059	2511.195336
648.804460	2511.918741
649.147810	2506.484378
649.491108	2505.950015
649.834354	2505.367762
650.177548	2503.258039
650.520690	2500.132524
650.863781	2501.153357
651.206820	2503.061434
651.549807	2498.463902
651.892742	2499.220075
652.235626	2501.475991
652.578458	2500.412308
652.921238	2493.516009
653.263967	2497.347286
653.606644	2497.286792
653.949269	2496.722183
654.291843	2495.071205
654.634365	2496.354179
654.976836	2492.686739
655.319255	2493.957110
655.661622	2493.465598
656.003938	2494.864518
656.346203	2488.845380
656.688416	2491.202120
657.030577	2493.810917
657.372687	2492.636328
657.714746	2489.367140
658.056753	2490.395535
658.398708	2485.288846
658.740612	2488.963847
659.082465	2486.644917
659.424266	2488.709269
659.766016	2485.866058
660.107715	2489.178096
660.449362	2492.787562
660.790958	2488.535349
661.132503	2490.481235
661.473996	2491.413848
661.815438	2489.883858
662.156829	2489.195740
662.498168	2490.544249
662.839456	2488.434526
663.180693	2488.172386
663.521879	2491.544918
663.863013	2487.925370
664.204097	2489.442757
664.545129	2488.086687
664.886110	2492.285968
665.227040	2489.946872
665.567918	2492.454846
665.908746	2489.823364
666.249522	2489.593992
666.590248	2489.195740
666.930922	2489.541059
667.271545	2493.654641
667.612118	2491.335710
667.952639	2487.270020
668.293109	2490.861842
668.633528	2490.140957
668.973896	2491.270175
669.314213	2491.416369
669.654480	2487.965699
669.994695	2489.339413
670.334859	2487.358240
670.674973	2488.777325
671.015035	2489.672129
671.355047	2486.619711
671.695008	2487.678353
672.034918	2485.944196
672.374777	2488.560555
672.714585	2488.868065
673.054342	2489.359578
673.394049	2487.086018
673.733705	2490.264465
674.073310	2489.747747
674.412864	2488.706748
674.752368	2485.649289
675.091820	2486.269351
675.431223	2486.108034
675.770574	2483.852117
676.109875	2481.079483
676.449125	2483.189206
676.788324	2479.990593
677.127473	2481.465131
677.466571	2476.870119
677.805619	2481.306335
678.144616	2481.412199
678.483562	2479.582260
678.822458	2479.241982
679.161303	2480.605614
679.500098	2478.667291
679.838842	2479.642754
680.177535	2479.254585
680.516179	2479.781386
680.854771	2480.598052
681.193314	2483.468990
681.531805	2484.033599
681.870247	2489.168014
682.208638	2489.314208
682.546978	2488.933600
682.885268	2490.151039
683.223508	2486.551655
683.561697	2489.233549
683.899836	2484.341109
684.237925	2485.611480
684.575963	2484.439412
684.913951	2484.323465
685.251889	2482.536376
685.589776	2481.525625
685.927614	2482.536376
686.265401	2484.615852
686.603137	2485.107365
686.940824	2486.954948
687.278460	2487.771614
687.616046	2489.568786
687.953582	2488.505102
688.291068	2487.489310
688.628504	2487.113744
688.965889	2486.597026
689.303224	2486.886892
689.640510	2488.603405
689.977745	2487.335555
690.314930	2484.043681
690.652065	2482.990080
690.989150	2480.023361
691.326185	2478.460603
691.663170	2475.940026
692.000105	2476.623103
692.336990	2472.370889
692.673825	2471.919706
693.010610	2471.168574
693.347345	2468.176649
693.684030	2467.642287
694.020665	2469.613378
694.357251	2463.095166
694.693786	2465.063737
695.030272	2463.248922
695.366707	2465.782101
695.703093	2461.736575
696.039429	2462.966617
696.375716	2464.214303
696.711952	2463.301854
697.048139	2464.657924
697.384276	2464.209261
697.720363	2464.080712
698.056400	2461.366051
698.392388	2462.686833
698.728326	2461.749178
699.064214	2458.482511
699.400053	2457.927984
699.735842	2459.205916
700.071581	2459.793211
700.407270	2456.292129
700.742910	2458.359002
701.078501	2458.800103
701.414042	2453.330451
701.749533	2457.446553
702.084974	2454.575616
702.420366	2454.726851
702.755709	2456.423199
703.091002	2455.863631
703.426246	2453.942952
703.761440	2451.790379
704.096584	2449.852055
704.431679	2454.041254
704.766725	2454.310956
705.101721	2454.172324
705.436668	2453.786676
705.771565	2451.538321
706.106413	2452.538990
706.441212	2452.541511
706.775961	2454.951182
707.110661	2451.893722
707.445311	2454.734413
707.779913	2454.636110
708.114465	2453.958075
708.448967	2454.482355
708.783421	2459.727676
709.117825	2459.432768
709.452180	2458.232973
709.786485	2458.616101
710.120742	2461.625670
710.454949	2462.001236
710.789107	2461.058540
711.123216	2459.064764
711.457275	2463.150619
711.791286	2463.342183
712.125247	2462.593572
712.459159	2465.411577
712.793023	2467.667493
713.126837	2465.144395
713.460602	2466.596248
713.794318	2463.637090
714.127985	2465.411577
714.461602	2461.161884
714.795171	2459.831019
715.128691	2460.922429
715.462162	2457.615432
715.795584	2455.909002
716.128957	2457.920422
716.462281	2454.704166
716.795556	2453.635441
717.128782	2452.876747
717.461960	2451.820626
717.795088	2450.910697
718.128167	2451.616459
718.461198	2450.837601
718.794180	2449.587395
719.127113	2447.949020
719.459997	2448.685028
719.792833	2444.412650
720.125619	2448.301900
720.458357	2447.228135
720.791046	2445.912393
721.123686	2445.632609
721.456278	2443.558175
721.788821	2443.568257
722.121315	2445.322578
722.453761	2446.287959
722.786158	2443.369131
723.118506	2445.579677
723.450805	2443.182609
723.783056	2445.914914
724.115259	2445.720830
724.447412	2441.761003
724.779518	2444.344595
725.111574	2445.032712
725.443582	2443.769903
725.775542	2443.522887
726.107453	2445.294852
726.439315	2446.797116
726.771129	2453.993363
727.102895	2448.561520
727.434612	2451.175358
727.766281	2448.604370
728.097901	2447.477672
728.429473	2447.356684
728.760996	2447.238217
729.092471	2445.851900
729.423897	2450.976233
729.755276	2449.146294
730.086606	2449.337857
730.417887	2452.097889
730.749120	2451.936572
731.080305	2453.650565
731.411442	2453.080914
731.742530	2454.492437
732.073570	2456.390432
732.404562	2456.203909
732.735506	2455.997222
733.066401	2452.959927
733.397249	2451.225770
733.728048	2452.407920
734.058798	2451.613938
734.389501	2449.153855
734.720156	2445.793926
735.050762	2445.378031
735.381320	2444.647064
735.711831	2443.142279
736.042293	2447.112188
736.372707	2442.063473
736.703073	2442.459203
737.033391	2442.461724
737.363661	2442.935592
737.693883	2443.323761
738.024056	2447.291149
738.354182	2442.381065
738.684260	2448.468258
739.014290	2447.565892
739.344272	2447.951540
739.674207	2446.842486
740.004093	2450.240224
740.333931	2449.105964
740.663722	2448.551438
740.993464	2444.954574
741.323159	2448.049843
741.652806	2446.497167
741.982405	2447.505398
742.311956	2446.245110
742.641460	2445.695624
742.970915	2443.653957
743.300323	2440.886363
743.629683	2439.240426
743.958996	2443.328802
744.288260	2441.569439
744.617477	2438.592638
744.946647	2434.577359
745.275768	2439.807556
745.604842	2434.161464
745.933869	2434.864705
746.262847	2434.108532
746.591778	2437.231527
746.920662	2439.633636
747.249498	2437.748245
747.578286	2437.912082
747.907027	2440.180602
748.235720	2439.119439
748.564365	2437.491146
748.892963	2436.775302
749.221514	2438.385951
749.550017	2441.511466
749.878473	2440.346960
750.206881	2438.587597
750.535242	2438.597679
750.863555	2436.946701
751.191821	2436.508121
751.520039	2440.662032
751.848210	2442.154213
752.176334	2437.569284
752.504411	2439.210179
752.832440	2437.105498
753.160421	2436.671958
753.488356	2438.479212
753.816243	2436.727411
754.144082	2436.949222
754.471875	2437.115580
754.799620	2437.433173
755.127318	2436.397216
755.454969	2434.463933
755.782572	2435.812442
756.110129	2437.627257
756.437638	2436.981989
756.765100	2434.995775
757.092515	2433.100301
757.419882	2435.472164
757.747203	2438.844696
758.074477	2434.990734
758.401703	2437.420570
758.728882	2438.403595
759.056014	2438.149017
759.383099	2439.220262
759.710138	2438.345622
760.037129	2438.388471
760.364073	2437.418049
760.690970	2440.916610
761.017820	2438.869902
761.344623	2439.394182
761.671379	2441.161106
761.998088	2437.619695
762.324751	2446.555141
762.651366	2455.369598
762.977935	2467.183542
763.304456	2471.027422
763.630931	2480.149390
763.957359	2473.361476
764.283740	2471.148410
764.610074	2460.801441
764.936362	2457.857407
765.262602	2451.266099
765.588796	2447.250820
765.914943	2442.688576
766.241044	2441.755962
766.567097	2438.436362
766.893104	2435.636001
767.219064	2433.543922
767.544978	2431.986206
767.870845	2432.583583
768.196665	2433.075095
768.522438	2433.430497
768.848165	2428.901020
769.173846	2428.989240
769.499479	2429.369847
769.825066	2428.885896
770.150607	2428.774991
770.476101	2425.972109
770.801548	2427.802048
771.126949	2425.140319
771.452303	2426.574527
771.777611	2423.998498
772.102872	2426.330031
772.428087	2422.158477
772.753256	2424.119485
773.078378	2423.549835
773.403453	2424.081677
773.728482	2422.554207
774.053465	2421.361974
774.378401	2424.472366
774.703291	2424.363981
775.028135	2421.903898
775.352932	2421.553538
775.677683	2422.307191
776.002388	2419.721079
776.327046	2420.694021
776.651658	2423.945566
776.976224	2419.920204
777.300743	2421.727458
777.625216	2421.135122
777.949643	2420.187385
778.274024	2423.217119
778.598359	2416.555234
778.922647	2417.744946
779.246889	2417.288722
779.571086	2414.556417
779.895236	2420.751995
780.219339	2421.167890
780.543397	2418.748136
780.867409	2420.860379
781.191374	2422.859197
781.515294	2419.721079
781.839167	2420.731830
782.162995	2419.791655
782.486776	2422.879362
782.810511	2417.011458
783.134201	2421.377098
783.457844	2420.799886
783.781441	2421.452715
784.104993	2419.035482
784.428498	2419.340472
784.751958	2418.501119
785.075372	2420.429361
785.398739	2419.958013
785.722061	2419.489186
786.045337	2421.243507
786.368568	2420.263003
786.691752	2422.302149
787.014891	2421.520771
787.337983	2422.372726
787.661030	2426.083015
787.984031	2425.321801
788.306987	2425.936821
788.629897	2429.165680
788.952760	2427.731472
789.275579	2426.476225
789.598351	2425.770463
789.921078	2425.152922
790.243759	2423.335586
790.566395	2423.713672
790.888984	2424.285843
791.211529	2419.302663
791.534027	2420.517581
791.856480	2420.699062
792.178888	2421.551018
792.501249	2420.462128
792.823566	2420.444484
793.145836	2418.879206
793.468062	2419.509350
793.790241	2419.582447
794.112375	2417.873496
794.434464	2420.754515
794.756507	2419.673188
795.078505	2421.971954
795.400457	2423.116296
795.722364	2420.472211
796.044226	2422.657551
796.366042	2421.795513
796.687812	2418.944741
797.009538	2422.660071
797.331218	2424.744588
797.652852	2424.966399
797.974442	2423.343148
798.295986	2422.037489
798.617484	2422.067736
798.938938	2422.644948
799.260346	2421.044382
799.581709	2421.119999
799.903026	2421.853487
800.224299	2418.725451
800.545526	2417.818043
800.866708	2416.552713
801.187845	2418.395255
801.508936	2419.416089
801.829983	2418.296953
802.150984	2417.928948
802.471940	2418.848959
802.792851	2419.252251
803.113717	2417.949113
803.434538	2420.247879
803.755314	2416.870306
804.076045	2414.765624
804.396731	2418.211253
804.717372	2416.459452
805.037967	2417.981881
805.358518	2415.589853
805.679024	2417.455080
805.999485	2418.748136
806.319901	2421.276275
806.640272	2416.396438
806.960598	2417.828125
807.280879	2417.641603
807.601115	2419.547159
807.921306	2418.017169
808.241453	2420.583116
808.561554	2417.933990
808.881611	2419.078332
809.201623	2420.053795
809.521590	2420.023548
809.841513	2421.409865
810.161390	2415.851993
810.481223	2416.837539
810.801011	2414.115316
811.120755	2417.013979
811.440453	2416.104051
811.760107	2415.037847
812.079716	2412.509708
812.399281	2414.647157
812.718801	2413.470048
813.038276	2411.677918
813.357707	2418.231418
813.677093	2415.483989
813.996434	2417.039185
814.315731	2417.959195
814.634983	2416.058680
814.954191	2416.772004
815.273354	2416.247724
815.592473	2416.925759
815.911547	2419.645461
816.230577	2417.233269
816.549562	2421.132602
816.868502	2417.881057
817.187399	2422.140833
817.506250	2420.842735
817.825058	2420.615883
818.143821	2423.597726
818.462539	2423.043199
818.781213	2423.983374
819.099843	2426.602254
819.418429	2430.456216
819.736970	2432.649118
820.055466	2438.194387
820.373919	2443.588422
820.692327	2455.225925
821.010691	2470.485498
821.329011	2503.880622
821.647286	2562.312636
821.965517	2621.878910
822.283704	2656.367964
822.601847	2664.300219
822.919945	2645.945378
823.237999	2611.773917
823.556010	2582.333578
823.873976	2556.086811
824.191897	2530.142512
824.509775	2513.809174
824.827609	2497.919457
825.145398	2483.771459
825.463144	2481.480254
825.780845	2480.605614
826.098502	2489.659527
826.416116	2501.775940
826.733685	2513.902435
827.051210	2518.068949
827.368692	2509.607372
827.686129	2496.507934
828.003522	2480.351036
828.320872	2465.214972
828.638177	2457.741461
828.955439	2448.828701
829.272656	2444.165634
829.589830	2433.874118
829.906960	2436.293872
830.224046	2429.866401
830.541088	2427.393715
830.858086	2426.428334
831.175041	2425.208375
831.491952	2422.833991
831.808819	2425.024372
832.125642	2424.111924
832.442421	2430.678027
832.759157	2437.612134
833.075849	2448.528752
833.392497	2461.116513
833.709101	2467.649849
834.025662	2467.541464
834.342179	2459.667182
834.658653	2452.715431
834.975083	2445.675459
835.291469	2446.129163
835.607811	2435.078954
835.924110	2430.662903
836.240366	2425.518406
836.556578	2420.512540
836.872746	2422.266861
837.188871	2419.211922
837.504952	2417.094637
837.820990	2416.411561
838.136984	2416.703948
838.452935	2417.286201
838.768842	2414.947106
839.084706	2417.891140
839.400526	2421.190575
839.716303	2430.415887
840.032037	2434.143820
840.347727	2432.351690
840.663373	2429.289189
840.978977	2424.439599
841.294537	2419.731161
841.610054	2414.901736
841.925527	2416.686304
842.240957	2415.042888
842.556344	2415.153793
842.871687	2413.512898
843.186987	2411.403175
843.502244	2407.702968
843.817458	2412.189595
844.132629	2411.587177
844.447756	2408.476785
844.762840	2402.137534
845.077881	2409.820252
845.392879	2405.028636
845.707833	2405.399161
846.022745	2402.858419
846.337613	2409.094326
846.652438	2410.117681
846.967221	2405.714233
847.281960	2405.351270
847.596656	2407.284552
847.911309	2406.984603
848.225919	2409.043915
848.540485	2407.191291
848.855009	2407.987793
849.169490	2406.929151
849.483928	2406.062072
849.798323	2408.736404
850.112675	2410.084913
850.426984	2407.765982
850.741251	2405.565519
851.055474	2404.708523
851.369654	2406.654408
851.683792	2404.685837
851.997887	2407.274470
852.311938	2405.285735
852.625947	2406.838410
852.939914	2405.648698
853.253837	2409.210273
853.567718	2406.939233
853.881555	2405.227761
854.195350	2405.938564
854.509103	2406.440159
854.822812	2408.350756
855.136479	2405.938564
855.450103	2408.020561
855.763685	2406.102402
856.077224	2405.837741
856.390720	2406.944274
856.704173	2405.782288
857.017584	2409.127094
857.330953	2405.583163
857.644278	2407.161044
857.957561	2409.951322
858.270802	2406.321692
858.584000	2404.753893
858.897155	2408.048287
859.210268	2408.696075
859.523339	2405.724315
859.836367	2409.553071
860.149352	2408.801939
860.462295	2406.646846
860.775195	2402.455127
861.088054	2403.793553
861.400869	2405.346228
861.713642	2402.223234
862.026373	2409.666497
862.339062	2406.992165
862.651708	2405.048800
862.964312	2406.495612
863.276873	2404.365724
863.589392	2407.390416
863.901869	2408.368400
864.214303	2406.722463
864.526696	2409.406878
864.839045	2408.580129
865.151353	2408.696075
865.463619	2406.195663
865.775842	2407.395458
866.088023	2407.685324
866.400162	2408.055849
866.712258	2408.559964
867.024313	2409.913514
867.336325	2405.013512
867.648296	2409.449728
867.960224	2409.784964
868.272110	2408.164233
868.583954	2408.769172
868.895755	2405.890673
869.207515	2410.309244
869.519233	2409.442166
869.830909	2409.515263
870.142542	2409.328740
870.454134	2405.469737
870.765684	2409.164903
871.077191	2408.927968
871.388657	2409.313617
871.700081	2408.658267
872.011463	2410.213462
872.322803	2410.261353
872.634101	2409.348905
872.945357	2407.319840
873.256571	2412.534914
873.567744	2413.568350
873.878874	2413.528021
874.189963	2411.493916
874.501010	2412.824780
874.812015	2409.154820
875.122979	2413.870820
875.433900	2412.030798
875.744780	2411.514080
876.055618	2412.950809
876.366415	2416.192271
876.677169	2413.331416
876.987882	2411.892167
877.298554	2408.149110
877.609183	2412.360994
877.919771	2410.092475
878.230317	2414.745460
878.540822	2415.567168
878.851285	2418.654875
879.161707	2422.269382
879.472087	2425.863725
879.782425	2430.859508
880.092722	2444.057249
880.402977	2465.214972
880.713191	2486.017293
881.023363	2514.267919
881.333494	2526.870804
881.643583	2531.412883
881.953631	2528.766277
882.263637	2518.310924
882.573602	2511.286077
882.883526	2501.478512
883.193408	2493.639517
883.503248	2483.597539
883.813048	2471.677731
884.122806	2466.840744
884.432522	2458.477469
884.742197	2450.741819
885.051831	2445.567074
885.361424	2437.821342
885.670975	2433.271700
885.980485	2429.344641
886.289954	2425.483117
886.599382	2424.205185
886.908768	2423.570000
887.218113	2423.423806
887.527417	2418.969947
887.836680	2417.452559
888.145901	2413.071797
888.455082	2412.272774
888.764221	2417.334092
889.073319	2414.188412
889.382376	2412.068607
889.691392	2411.914852
890.000366	2414.521128
890.309300	2413.681776
890.618193	2411.841755
890.927044	2414.304359
891.235855	2411.803947
891.544625	2412.847465
891.853353	2413.033988
892.162041	2415.607497
892.470687	2416.227559
892.779293	2416.240162
893.087858	2415.627662
893.396381	2416.192271
893.704864	2425.634352
894.013306	2430.756164
894.321707	2440.273863
894.630068	2442.370983
894.938387	2445.930038
895.246665	2445.098247
895.554903	2441.524069
895.863100	2434.189190
896.171256	2434.758841
896.479371	2430.279775
896.787446	2424.663930
897.095480	2426.887079
897.403473	2425.931780
897.711425	2421.084711
898.019336	2420.557910
898.327207	2416.978691
898.635038	2418.110430
898.942827	2415.148752
899.250576	2413.838052
899.558284	2412.544996
899.865952	2415.161355
900.173579	2410.538617
900.481165	2412.300500
900.788711	2411.693041
901.096216	2414.339647
901.403681	2411.879564
901.711105	2408.093657
902.018489	2413.170099
902.325832	2412.681107
902.633135	2411.990469
902.940397	2413.880902
903.247619	2419.756367
903.554800	2430.746082
903.861941	2439.361414
904.169041	2449.579833
904.476101	2452.455811
904.783121	2450.668722
905.090100	2445.841817
905.397039	2441.113215
905.703938	2434.423604
906.010796	2435.613316
906.317614	2431.459405
906.624391	2423.461615
906.931129	2421.792993
907.237826	2420.860379
907.544483	2417.732343
907.851099	2416.764442
908.157675	2411.393093
908.464211	2411.914852
908.770707	2406.062072
909.077163	2405.114335
909.383578	2403.954870
909.689954	2406.258677
909.996289	2399.969838
910.302584	2406.987124
910.608839	2406.987124
910.915054	2403.118038
911.221229	2406.341856
911.527363	2406.626682
911.833458	2402.399674
912.139513	2406.046949
912.445527	2407.037536
912.751502	2410.437794
913.057436	2404.756413
913.363331	2409.059038
913.669186	2410.485685
913.975000	2411.992990
914.280775	2413.434760
914.586510	2418.128074
914.892205	2422.511357
915.197859	2427.471853
915.503475	2439.142124
915.809050	2446.711416
916.114585	2451.805502
916.420081	2451.145111
916.725536	2452.967488
917.030952	2447.835594
917.336328	2447.069338
917.641665	2443.051539
917.946961	2440.977104
918.252218	2438.035591
918.557435	2433.775816
918.862612	2430.040321
919.167750	2426.819023
919.472848	2424.444640
919.777906	2423.822057
920.082925	2421.664443
920.387904	2416.555234
920.692843	2416.272929
920.997743	2413.270922
921.302603	2413.971643
921.607423	2413.086920
921.912204	2411.277146
922.216946	2409.411919
922.521647	2410.183216
922.826310	2407.065262
923.130932	2403.833882
923.435516	2402.704664
923.740059	2406.024264
924.044564	2407.521486
924.349028	2406.112484
924.653454	2400.494118
924.957840	2403.894376
925.262186	2398.979251
925.566493	2402.233316
925.870761	2399.064951
926.174989	2402.160219
926.479178	2402.566032
926.783328	2401.341032
927.087438	2400.990672
927.391509	2400.927657
927.695541	2401.459499
927.999533	2403.080230
928.303486	2399.558984
928.607400	2402.656773
928.911275	2403.176012
929.215110	2400.622667
929.518906	2401.613254
929.822663	2400.806669
930.126381	2399.798439
930.430060	2397.161915
930.733699	2398.659138
931.037299	2400.113511
931.340861	2402.003943
931.644383	2400.529406
931.947866	2401.706515
932.251309	2401.837585
932.554714	2403.400343
932.858080	2403.773388
933.161407	2403.259191
933.464694	2400.418501
933.767943	2399.932029
934.071153	2401.499828
934.374323	2397.973541
934.677455	2402.399674
934.980548	2400.489077
935.283602	2401.567884
935.586617	2397.487070
935.889593	2400.728532
936.192530	2401.882956
936.495428	2403.506207
936.798287	2401.295661
937.101108	2403.511248
937.403890	2403.208779
937.706632	2402.792884
938.009336	2403.922102
938.312002	2403.168450
938.614628	2404.620302
938.917216	2404.474109
939.219765	2403.629716
939.522275	2405.457134
939.824747	2408.743966
940.127179	2401.966135
940.429573	2400.184087
940.731929	2402.860940
941.034246	2401.857750
941.336524	2406.488050
941.638763	2403.881773
941.940964	2402.850857
942.243126	2405.232802
942.545250	2403.412946
942.847335	2405.116856
943.149381	2403.279355
943.451389	2401.991341
943.753359	2402.860940
944.055290	2400.466392
944.357182	2401.303223
944.659036	2401.260373
944.960851	2402.008985
945.262628	2400.806669
945.564367	2401.703995
945.866067	2402.616444
946.167729	2401.933367
946.469352	2401.393964
946.770937	2400.698285
947.072484	2400.728532
947.373992	2400.869684
947.675462	2400.559653
947.976893	2401.845147
948.278286	2402.732390
948.579641	2402.200548
948.880958	2402.462688
949.182236	2399.317008
949.483476	2402.949160
949.784678	2400.282389
950.085841	2400.032852
950.386967	2403.458316
950.688054	2402.099725
950.989103	2397.388767
951.290114	2399.440517
951.591087	2401.580487
951.892021	2402.762637
952.192917	2402.034190
952.493776	2402.818090
952.794596	2402.949160
953.095378	2400.226937
953.396122	2400.640311
953.696828	2403.743142
953.997496	2402.306413
954.298126	2401.179715
954.598718	2402.192987
954.899272	2401.547719
955.199788	2400.962945
955.500266	2401.502349
955.800706	2402.162740
956.101108	2397.827348
956.401472	2400.504200
956.701798	2398.686864
957.002087	2397.562687
957.302337	2395.886503
957.602550	2401.083933
957.902724	2396.604868
958.202861	2400.017729
958.502960	2397.734086
958.803022	2396.793911
959.103045	2398.679302
959.403031	2398.535630
959.702979	2399.632081
960.002889	2400.970507
960.302762	2398.008829
960.602596	2399.904303
960.902393	2398.515465
961.202153	2397.131668
961.501875	2397.358520
961.801559	2395.702501
962.101205	2397.149312
962.400814	2397.270300
962.700385	2399.226268
962.999918	2395.944477
963.299414	2398.210475
963.598873	2398.149981
963.898293	2397.794580
964.197677	2399.213665
964.497022	2398.152502
964.796331	2396.703170
965.095601	2396.183931
965.394835	2395.286606
965.694030	2396.067985
965.993189	2396.100752
966.292309	2393.827192
966.591393	2397.171998
966.890439	2395.669734
967.189447	2399.901782
967.488419	2395.722666
967.787353	2400.032852
968.086249	2395.999929
968.385108	2399.231309
968.683930	2397.736607
968.982714	2397.111504
969.281462	2397.915568
969.580172	2393.922974
969.878844	2396.819117
970.177480	2397.136709
970.476078	2397.744168
970.774639	2400.708367
971.073162	2395.014384
971.371649	2396.546894
971.670098	2393.025648
971.968510	2393.169321
972.266885	2392.571945
972.565223	2398.563356
972.863524	2396.385578
973.161788	2398.757440
973.460014	2395.120248
973.758204	2398.606206
974.056356	2397.726524
974.354471	2399.440517
974.652550	2398.938922
974.950591	2399.180897
975.248595	2395.977244
975.546563	2398.260887
975.844493	2398.046638
976.142386	2396.047820
976.440243	2396.478839
976.738062	2397.242574
977.035845	2397.512275
977.333590	2397.363561
977.631299	2396.690567
977.928971	2397.595454
978.226606	2398.359189
978.524204	2396.700650
978.821765	2395.805845
979.119290	2396.919940
979.416777	2394.593447
979.714228	2396.292316
980.011642	2397.371123
980.309020	2397.509755
980.606360	2396.466236
980.903664	2400.093346
981.200931	2396.181411
981.498162	2401.386402
981.795356	2398.092008
982.092513	2401.572925
982.389633	2398.510424
982.686717	2404.166598
982.983764	2403.619633
983.280775	2400.226937
983.577749	2403.024777
983.874686	2404.522000
984.171587	2401.835065
984.468451	2402.142575
984.765279	2402.555950
985.062070	2401.913203
985.358824	2400.163922
985.655543	2399.828686
985.952224	2401.711557
986.248869	2399.758109
986.545478	2393.653272
986.842050	2395.568911
987.138586	2393.320556
987.435086	2393.524723
987.731549	2392.927346
988.027975	2395.833571
988.324366	2394.759805
988.620719	2394.117058
988.917037	2394.903478
989.213318	2398.263407
989.509563	2394.941287
989.805772	2392.952552
990.101944	2396.224261
990.398080	2395.853736
990.694180	2397.300547
990.990244	2400.133675
991.286271	2396.090670
991.582262	2395.669734
991.878217	2396.662841
992.174136	2398.041597
992.470019	2393.383570
992.765865	2396.592265
993.061676	2394.850546
993.357450	2396.017573
993.653188	2396.998078
993.948890	2396.758623
994.244556	2396.892213
994.540186	2397.756771
994.835780	2398.021432
995.131337	2399.422873
995.426859	2398.820455
995.722345	2400.053017
996.017795	2398.129817
996.313208	2400.128634
996.608586	2400.161402
996.903928	2398.177708
997.199234	2398.210475
997.494504	2398.507903
997.789738	2398.233160
998.084936	2397.413973
998.380099	2400.710888
998.675225	2399.478325
998.970316	2397.449261
999.265371	2397.865156
999.560390	2397.386247
999.855373	2398.119734
1000.150320	2398.260887
1000.445232	2395.624363
1000.740108	2395.639487
1001.034948	2396.299878
1001.329752	2396.052861
1001.624521	2395.304250
1001.919254	2391.861142
1002.213951	2393.852398
1002.508613	2392.060267
1002.803239	2396.955228
1003.097829	2392.135885
1003.392384	2397.877759
1003.686903	2395.498334
1003.981386	2396.609909
1004.275834	2394.860628
1004.570246	2397.834909
1004.864623	2394.210320
1005.158964	2395.062275
1005.453270	2394.346431
1005.747540	2394.777449
1006.041775	2391.745195
1006.335974	2393.524723
1006.630138	2394.515309
1006.924266	2394.999260
1007.218359	2394.669065
1007.512416	2396.554456
1007.806438	2396.322563
1008.100425	2395.498334
1008.394376	2395.054713
1008.688292	2396.078067
1008.982172	2394.681668
1009.276017	2393.673437
1009.569827	2395.170659
1009.863602	2394.381719
1010.157341	2393.993550
1010.451045	2395.200906
1010.744714	2393.577655
1011.038347	2396.647718
1011.331945	2396.362892
1011.625508	2394.033879
1011.919036	2393.948180
1012.212528	2394.238046
1012.505986	2396.519168
1012.799408	2395.450443
1013.092795	2396.262069
1013.386147	2394.812738
1013.679464	2392.592109
1013.972745	2396.183931
1014.265992	2394.883314
1014.559204	2395.901627
1014.852380	2395.261400
1015.145521	2395.236194
1015.438628	2394.810217
1015.731699	2395.218550
1016.024736	2393.993550
1016.317737	2392.876934
1016.610703	2394.036400
1016.903635	2393.575134
1017.196531	2387.286295
1017.489393	2394.943808
1017.782219	2390.805020
1018.075011	2394.142264
1018.367768	2392.458519
1018.660490	2394.515309
1018.953177	2394.515309
1019.245829	2394.515309
