Dividing Wavelength (nm)	Counts (n)	Blue Motor Position (mm): 0.000000	Red Motor Position (mm): 18.400000	
326.493990	1980.641620
326.888308	1980.641620
327.282561	1980.641620
327.676750	1957.724534
328.070874	1961.432303
328.464933	1964.499845
328.858929	1973.069807
329.252859	1985.846611
329.646726	2001.237254
330.040528	2016.191837
330.434265	2034.279497
330.827938	2053.387990
331.221547	2072.393140
331.615091	2095.690833
332.008571	2114.421240
332.401986	2137.030815
332.795338	2157.986892
333.188625	2177.488595
333.581847	2196.173632
333.975006	2214.412527
334.368100	2231.086143
334.761129	2247.850500
335.154095	2261.975813
335.546996	2278.064656
335.939833	2296.648869
336.332606	2309.120684
336.725315	2323.014104
337.117960	2329.532316
337.510540	2335.425425
337.903056	2346.873885
338.295508	2349.548217
338.687896	2359.844774
339.080220	2365.286699
339.472480	2371.106712
339.864676	2375.605941
340.256807	2376.989738
340.648875	2381.743546
341.040879	2379.868237
341.432818	2381.534338
341.824694	2381.115923
342.216506	2384.027189
342.608253	2384.485934
342.999937	2383.008876
343.391557	2381.763711
343.783113	2380.906715
344.174605	2380.296735
344.566033	2376.097454
344.957397	2379.091899
345.348697	2374.033101
345.739934	2369.806094
346.131106	2367.966073
346.522215	2369.952287
346.913260	2366.249560
347.304241	2367.124200
347.695159	2365.826103
348.086012	2361.218488
348.476802	2361.314270
348.867528	2358.924763
349.258191	2356.386542
349.648789	2358.077849
350.039324	2354.549042
350.429796	2355.411079
350.820203	2353.321521
351.210548	2356.242869
351.600828	2354.080214
351.991045	2353.039216
352.381198	2353.371932
352.771288	2356.951152
353.161314	2354.233970
353.551276	2354.753208
353.941175	2353.066943
354.331010	2355.060719
354.720782	2353.629031
355.110490	2354.196161
355.500135	2354.559124
355.889717	2354.370081
356.279235	2355.854701
356.668689	2355.680781
357.058080	2357.039372
357.447408	2355.837057
357.836672	2355.280009
358.225873	2356.472242
358.615010	2353.508043
359.004084	2360.285875
359.393095	2360.225381
359.782043	2362.335104
360.170927	2361.125227
360.559748	2363.701257
360.948505	2362.438448
361.337199	2365.195959
361.725830	2362.269569
362.114398	2363.897862
362.502903	2368.326515
362.891344	2367.799715
363.279722	2367.129241
363.668037	2370.360621
364.056289	2369.763244
364.444478	2370.768954
364.832603	2371.615868
365.220665	2371.391537
365.608665	2372.450179
365.996601	2370.907586
366.384474	2370.509335
366.772284	2372.813142
367.160031	2380.145500
367.547715	2373.995293
367.935336	2374.517052
368.322893	2376.747763
368.710388	2376.775489
369.097820	2379.911087
369.485189	2377.088041
369.872495	2382.098947
370.259738	2383.724720
370.646918	2384.785883
371.034035	2387.717313
371.421090	2388.942314
371.808081	2393.307953
372.195010	2396.158726
372.581875	2402.500497
372.968678	2409.348905
373.355418	2413.694379
373.742096	2425.999836
374.128710	2437.879315
374.515262	2447.225614
374.901751	2461.202213
375.288177	2481.099647
375.674540	2497.722852
376.060841	2514.444359
376.447079	2538.841023
376.833254	2565.614592
377.219367	2590.797676
377.605417	2626.577265
377.991404	2653.696152
378.377329	2692.273582
378.763191	2725.507389
379.148991	2771.797784
379.534727	2817.644557
379.920402	2865.749768
380.306013	2914.565781
380.691563	2979.374855
381.077049	3030.537526
381.462474	3083.099116
381.847835	3158.517298
382.233134	3231.417424
382.618371	3286.940693
383.003545	3373.290617
383.388657	3453.069397
383.773706	3540.727501
384.158693	3615.409674
384.543618	3705.734548
384.928480	3781.530817
385.313280	3887.185840
385.698017	3986.917507
386.082692	4108.096763
386.467305	4169.530784
386.851856	4300.182369
387.236344	4449.677786
387.620770	4515.248074
388.005133	4628.860558
388.389435	4773.440851
388.773674	4863.450652
389.157851	4989.129138
389.541965	5118.573366
389.926018	5140.920801
390.310008	5322.576260
390.693936	5440.372902
391.077802	5555.374224
391.461606	5687.752403
391.845348	5803.746833
392.229027	5921.964411
392.612645	6141.826774
392.996200	6255.136789
393.379694	6420.118631
393.763125	6644.187837
394.146494	6735.518421
394.529801	6871.344750
394.913047	7113.436081
395.296230	7108.100020
395.679351	7161.475757
396.062410	7410.959940
396.445408	7308.518653
396.828343	7458.860984
397.211217	7588.574913
397.594028	7481.407544
397.976778	7676.079262
398.359466	7842.775096
398.742092	7813.561610
399.124656	7962.232798
399.507158	8148.596694
399.889598	8166.260897
400.271977	8368.701033
400.654294	8395.605671
401.036549	8592.442564
401.418742	8621.668653
401.800874	8912.858303
402.182944	8996.049944
402.564952	9354.062608
402.946898	9175.396554
403.328783	9232.159946
403.710606	9423.620448
404.092367	9674.450620
404.474067	10026.406337
404.855705	9820.598711
405.237282	9779.251167
405.618797	10202.498882
406.000250	10440.559811
406.381642	10799.008535
406.762972	10747.926523
407.144240	10545.032683
407.525447	10786.756010
407.906593	10726.299973
408.287677	10989.881743
408.668700	11135.278702
409.049661	11107.706111
409.430560	11265.947930
409.811399	11234.168496
410.192176	11390.562733
410.572891	11460.365069
410.953545	11925.424115
411.334138	11414.331773
411.714669	11989.076244
412.095139	11308.860752
412.475547	11794.964094
412.855894	11640.450208
413.236180	11942.359871
413.616405	11641.299643
413.996568	11895.207438
414.376670	11852.403001
414.756711	11720.216386
415.136691	11970.885240
415.516609	12115.838578
415.896466	12166.998727
416.276262	12422.446596
416.655997	12824.909634
417.035670	12833.393896
417.415283	13426.641921
417.794834	13476.816526
418.174324	13186.022607
418.553753	13039.516594
418.933121	13467.175319
419.312428	13233.888363
419.691674	13091.059872
420.070859	13452.424903
420.449983	13074.101430
420.829045	13514.088297
421.208047	13203.507849
421.586988	13529.123538
421.965867	13676.690714
422.344686	13592.455554
422.723444	13978.058453
423.102141	12736.044174
423.480777	13666.149661
423.859352	13139.999393
424.237866	13970.277432
424.616319	13602.782357
424.994712	14020.686449
425.373044	13729.214496
425.751314	14129.862718
426.129524	13301.825473
426.507673	14004.748842
426.885762	13635.035660
427.263789	13625.283548
427.641756	13594.046038
428.019662	13482.013955
428.397508	13357.268083
428.775292	13393.526582
429.153016	13190.607537
429.530679	13068.430132
429.908282	12906.520873
430.285824	12534.879450
430.663305	12822.177328
431.040726	12378.336500
431.418086	12081.531005
431.795385	12287.804938
432.172624	12350.809279
432.549802	11891.862633
432.926920	11807.309880
433.303977	11554.795963
433.680974	11502.158755
434.057910	11464.851696
434.434786	11274.800196
434.811601	11032.847497
435.188355	11350.614109
435.565050	10981.757923
435.941683	10754.071689
436.318257	10960.801847
436.694770	10669.161014
437.071222	10719.864940
437.447614	10101.930384
437.823946	9906.189942
438.200218	9766.852449
438.576429	9473.568201
438.952580	9384.932113
439.328670	9172.018981
439.704700	9127.954255
440.080670	8787.764590
440.456580	8800.617012
440.832429	8658.378336
441.208218	8150.126684
441.583947	8096.622398
441.959616	7948.515819
442.335224	7838.729570
442.710773	7693.713218
443.086261	7659.488825
443.461689	7318.550549
443.837057	7173.975298
444.212365	7161.291755
444.587612	6994.847978
444.962800	6737.149235
445.337927	6662.809859
445.712995	6245.999698
446.088002	6463.457431
446.462949	6349.093814
446.837837	6224.461368
447.212664	6062.443724
447.587431	6392.694754
447.962139	6727.371917
448.336786	6952.968592
448.711374	6554.200720
449.085901	5838.072049
449.460369	5653.676724
449.834776	5488.694882
450.209124	5658.037322
450.583412	5475.368592
450.957640	5403.133898
451.331808	5118.099498
451.705917	4835.356302
452.079965	4715.616295
452.453954	4631.681084
452.827883	4513.264380
453.201752	4389.070514
453.575562	4299.905105
453.949311	4288.151655
454.323001	4195.003735
454.696632	4088.819391
455.070202	4102.049899
455.443713	4024.005276
455.817164	3967.614929
456.190556	3914.924789
456.563888	3810.426711
456.937160	3748.448245
457.310373	3598.985595
457.683526	3550.257802
458.056619	3481.085609
458.429653	3419.984304
458.802628	3382.253788
459.175542	3328.555418
459.548398	3324.731702
459.921194	3326.125581
460.293930	3309.557829
460.666607	3323.368070
461.039224	3327.002742
461.411782	3285.662760
461.784280	3208.812890
462.156719	3146.733601
462.529099	3092.079932
462.901419	3024.604088
463.273680	2971.435038
463.645882	2943.718774
464.018024	2914.901018
464.390106	2902.930798
464.762130	2926.465425
465.134094	2971.389668
465.505999	3027.258255
465.877845	3069.634194
466.249631	3057.974005
466.621358	3004.416787
466.993026	2952.066925
467.364634	2912.098137
467.736184	2868.557691
468.107674	2839.056858
468.479105	2817.669763
468.850477	2794.304015
469.221790	2773.526900
469.593043	2742.710326
469.964238	2724.597460
470.335373	2714.951212
470.706449	2725.099055
471.077467	2738.047259
471.448425	2768.599172
471.819324	2784.178858
472.190164	2766.844850
472.560945	2731.992833
472.931667	2699.701722
473.302330	2687.083714
473.672934	2676.643484
474.043479	2672.653411
474.413965	2662.891217
474.784393	2650.784886
475.154761	2655.561379
475.525070	2649.695997
475.895321	2643.505460
476.265513	2644.425470
476.635645	2650.429484
477.005719	2645.216931
477.375734	2646.842703
477.745691	2647.026706
478.115588	2653.272695
478.485427	2661.005825
478.855207	2676.588032
479.224928	2694.022862
479.594591	2699.295909
479.964194	2689.085052
480.333739	2691.262831
480.703226	2688.752336
481.072653	2687.607994
481.442022	2687.807120
481.811333	2690.431040
482.180584	2678.034843
482.549777	2670.576456
482.918912	2667.166115
483.287988	2667.559325
483.657005	2656.836791
484.025964	2653.895278
484.394864	2651.097437
484.763706	2648.977632
485.132489	2639.268370
485.501213	2640.034625
485.869879	2637.627474
486.238487	2636.185704
486.607036	2636.420118
486.975527	2634.567494
487.343959	2630.970631
487.712333	2633.783594
488.080648	2630.211937
488.448905	2634.040693
488.817104	2630.350569
489.185244	2637.279635
489.553326	2642.963536
489.921350	2657.494662
490.289315	2676.575429
490.657222	2676.852692
491.025070	2678.233968
491.392861	2672.960922
491.760593	2663.617143
492.128267	2656.378046
492.495883	2646.588125
492.863440	2640.495891
493.230939	2634.333080
493.598380	2627.698922
493.965763	2621.457973
494.333088	2616.981429
494.700354	2617.745163
495.067563	2615.264916
495.434713	2611.108484
495.801805	2614.962447
496.168839	2617.362036
496.535815	2613.792899
496.902733	2612.673763
497.269593	2611.857096
497.636395	2611.544544
498.003139	2613.497991
498.369825	2611.509256
498.736453	2616.215173
499.103023	2610.858947
499.469535	2613.041767
499.835989	2612.298197
500.202385	2612.993876
500.568723	2612.293156
500.935003	2616.946141
501.301226	2614.806171
501.667390	2617.800616
502.033497	2624.901081
502.399546	2620.169958
502.765537	2616.865482
503.131470	2622.259517
503.497345	2621.757922
503.863163	2616.530245
504.228923	2623.991153
504.594625	2628.500465
504.960269	2622.796400
505.325856	2629.516258
505.691385	2629.612040
506.056856	2631.172277
506.422270	2632.964407
506.787625	2632.634211
507.152924	2636.843575
507.518164	2640.879018
507.883347	2634.154119
508.248472	2641.199132
508.613540	2645.700882
508.978550	2652.584578
509.343503	2650.182468
509.708398	2657.477018
510.073236	2661.411638
510.438016	2664.637977
510.802738	2660.995743
511.167403	2666.856084
511.532010	2668.544871
511.896561	2672.464368
512.261053	2683.227231
512.625488	2678.947292
512.989866	2676.141890
513.354186	2681.470389
513.718449	2681.881243
514.082655	2689.140505
514.446803	2688.301153
514.810894	2695.719211
515.174927	2697.854139
515.538904	2696.160312
515.902822	2702.076106
516.266684	2702.053420
516.630488	2704.833617
516.994235	2704.332022
517.357925	2709.126159
517.721558	2714.328630
518.085133	2716.163610
518.448651	2717.834752
518.812112	2717.766697
519.175516	2717.428940
519.538863	2719.883982
519.902152	2721.582850
520.265385	2726.082080
520.628560	2726.949159
520.991678	2724.494117
521.354739	2729.016032
521.717743	2731.468553
522.080690	2729.580641
522.443580	2734.210941
522.806413	2737.074316
523.169189	2736.245046
523.531908	2742.241499
523.894569	2739.741087
524.257174	2739.766292
524.619722	2742.511201
524.982213	2744.154617
525.344647	2742.377610
525.707025	2743.584966
526.069345	2743.537075
526.431608	2745.364494
526.793815	2749.788106
527.155964	2747.191912
527.518057	2745.934144
527.880093	2744.711664
528.242072	2746.619741
528.603995	2744.542786
528.965860	2746.786099
529.327669	2746.687797
529.689421	2743.907600
530.051117	2745.679566
530.412755	2746.534041
530.774337	2750.554362
531.135862	2748.714340
531.497331	2745.916500
531.858743	2745.558578
532.220098	2749.755339
532.581396	2743.907600
532.942638	2742.793505
533.303824	2743.738722
533.664953	2748.084196
534.026025	2743.605131
534.387040	2748.701737
534.747999	2747.325502
535.108902	2746.960019
535.469748	2742.296952
535.830537	2746.375245
536.191270	2743.479102
536.551947	2743.315265
536.912567	2744.648650
537.273131	2744.210069
537.633638	2739.579770
537.994089	2746.004720
538.354483	2737.480129
538.714821	2741.659246
539.075103	2743.476582
539.435328	2737.908627
539.795497	2740.845099
540.155609	2737.026425
540.515665	2738.851323
540.875665	2738.337125
541.235609	2737.318812
541.595496	2735.962742
541.955328	2737.724625
542.315102	2730.971999
542.674821	2729.565517
543.034483	2726.777759
543.394090	2724.186606
543.753640	2724.897409
544.113134	2725.830022
544.472571	2718.553117
544.831953	2724.509240
545.191278	2721.406410
545.550548	2714.459700
545.909761	2714.711758
546.268918	2713.562375
546.628019	2711.714792
546.987064	2708.599359
547.346053	2701.740869
547.704986	2699.066537
548.063863	2697.478573
548.422684	2695.409180
548.781449	2689.992460
549.140158	2691.618232
549.498811	2688.664116
549.857408	2682.098013
550.215949	2680.704134
550.574434	2674.548885
550.932864	2672.056034
551.291237	2669.522855
551.649555	2668.968328
552.007817	2665.343738
552.366022	2660.673109
552.724173	2659.032213
553.082267	2657.008190
553.440305	2654.595998
553.798288	2650.424443
554.156215	2646.888074
554.514086	2648.881850
554.871902	2640.523617
555.229661	2638.912968
555.587365	2635.656383
555.945014	2633.256794
556.302606	2629.581793
556.660143	2626.869652
557.017625	2623.338324
557.375050	2622.403190
557.732421	2620.543004
558.089735	2615.012858
558.446994	2611.388268
558.804197	2615.053187
559.161345	2606.684872
559.518437	2604.058431
559.875474	2602.740169
560.232455	2597.714139
560.589381	2596.899992
560.946251	2595.480907
561.303065	2596.574838
561.659825	2593.650969
562.016528	2585.862386
562.373177	2580.014647
562.729770	2583.727457
563.086307	2581.090934
563.442789	2580.216294
563.799216	2575.850654
564.155587	2575.540623
564.511904	2571.669017
564.868164	2572.342011
565.224370	2572.097515
565.580520	2566.174160
565.936615	2569.029973
566.292654	2565.937225
566.648638	2562.055537
567.004567	2562.998233
567.360441	2561.954714
567.716260	2558.040258
568.072023	2557.798283
568.427732	2554.766028
568.783385	2551.741336
569.138982	2552.169834
569.494525	2555.030689
569.850013	2548.595656
570.205445	2549.760163
570.560823	2551.290153
570.916145	2550.211346
571.271412	2547.184133
571.626625	2547.685728
571.981782	2542.914276
572.336884	2547.877292
572.691931	2544.708927
573.046923	2547.365615
573.401860	2545.434853
573.756743	2542.848741
574.111570	2539.692978
574.466342	2538.336908
574.821059	2542.105171
575.175722	2538.140303
575.530330	2537.961342
575.884882	2538.389840
576.239380	2537.142155
576.593823	2536.151568
576.948211	2534.104859
577.302544	2534.755168
577.656823	2532.781557
578.011047	2534.379602
578.365216	2535.544109
578.719330	2534.321629
579.073389	2529.887934
579.427394	2531.112935
579.781344	2531.397760
580.135239	2529.537574
580.489080	2529.098994
580.842866	2526.293592
581.196597	2531.125538
581.550273	2530.835671
581.903895	2528.491535
582.257463	2529.756864
582.610975	2526.175124
582.964434	2525.698735
583.317837	2525.645803
583.671186	2527.417769
584.024481	2525.557583
584.377721	2526.727131
584.730906	2523.006759
585.084037	2527.742923
585.437113	2522.273271
585.790135	2521.713703
586.143103	2521.320493
586.496016	2521.431399
586.848874	2520.113137
587.201679	2518.031140
587.554428	2515.349247
587.907124	2518.542818
588.259765	2514.519977
588.612352	2522.525329
588.964884	2519.704803
589.317362	2518.436953
589.669786	2515.939062
590.022155	2516.874196
590.374470	2516.541479
590.726731	2517.804288
591.078937	2516.324710
591.431090	2517.262364
591.783188	2513.161386
592.135232	2513.093330
592.487222	2514.159534
592.839157	2514.918228
593.191038	2511.943947
593.542866	2511.908659
593.894639	2509.854389
594.246358	2512.541324
594.598022	2507.563184
594.949633	2508.778103
595.301190	2507.865654
595.652692	2510.250119
596.004141	2509.458658
596.355535	2509.161230
596.706876	2508.021929
597.058162	2505.483708
597.409395	2502.527072
597.760573	2507.951353
598.111698	2505.156033
598.462768	2507.066631
598.813785	2506.733915
599.164748	2502.474140
599.515657	2504.031856
599.866511	2500.956752
600.217312	2504.004130
600.568060	2503.767196
600.918753	2506.244923
601.269392	2504.609068
601.619978	2501.528923
601.970510	2501.659993
602.320988	2501.788543
602.671412	2501.690240
603.021783	2503.056393
603.372100	2501.823831
603.722363	2498.521875
604.072572	2500.114880
604.422728	2504.818276
604.772830	2495.741679
605.122878	2496.903665
605.472872	2496.833088
605.822813	2495.179590
606.172701	2501.352483
606.522534	2500.808038
606.872314	2501.854078
607.222041	2500.185456
607.571714	2498.950373
607.921333	2495.978613
608.270899	2496.704539
608.620411	2496.994405
608.969870	2499.076402
609.319276	2498.305105
609.668627	2499.749396
610.017926	2497.642194
610.367171	2500.593789
610.716362	2500.503048
611.065500	2498.915085
611.414585	2500.747544
611.763616	2498.821824
612.112594	2496.646566
612.461518	2503.076558
612.810389	2503.643687
613.159207	2498.053048
613.507971	2500.742503
613.856682	2501.186125
614.205340	2497.984992
614.553945	2500.881135
614.902496	2497.344766
615.250994	2499.467091
615.599439	2500.596310
615.947830	2503.454644
616.296169	2499.131855
616.644454	2502.088491
616.992686	2500.399705
617.340864	2501.055055
617.688990	2500.868532
618.037063	2501.107987
618.385082	2502.950529
618.733048	2501.428100
619.080961	2499.966166
619.428821	2498.010198
619.776628	2501.319715
620.124382	2500.689571
620.472083	2501.140754
620.819731	2500.583707
621.167326	2498.305105
621.514868	2500.848368
621.862357	2495.524909
622.209793	2499.487256
622.557176	2497.070023
622.904506	2492.961482
623.251783	2490.372850
623.599007	2492.704383
623.946179	2488.910915
624.293297	2489.467963
624.640363	2490.466111
624.987376	2488.568117
625.334336	2490.945021
625.681243	2491.834784
626.028097	2490.103148
626.374899	2487.103662
626.721647	2487.106182
627.068343	2488.101810
627.414987	2486.733137
627.761577	2487.751450
628.108115	2487.784217
628.454600	2485.248517
628.801032	2487.501913
629.147412	2481.845738
629.493739	2485.089721
629.840014	2483.990749
630.186236	2486.208857
630.532405	2486.193733
630.878521	2484.814978
631.224585	2484.114257
631.570597	2482.120481
631.916556	2484.041161
632.262462	2479.617548
632.608316	2484.633496
632.954117	2480.237610
633.299866	2482.982518
633.645562	2480.149390
633.991206	2479.158803
634.336797	2477.454893
634.682336	2479.698207
635.027823	2478.067393
635.373257	2479.516725
635.718639	2473.159830
636.063968	2477.049080
636.409245	2474.604121
636.754470	2477.676704
637.099642	2472.522124
637.444762	2475.410705
637.789829	2474.836014
638.134845	2474.783082
638.479808	2473.787454
638.824719	2472.083544
639.169577	2473.013637
639.514383	2473.878194
639.859137	2468.950467
640.203839	2471.009778
640.548489	2469.860395
640.893086	2467.627164
641.237632	2462.530557
641.582125	2467.609520
641.926566	2464.436113
642.270955	2469.436938
642.615292	2468.045579
642.959576	2468.053141
643.303809	2467.181022
643.647990	2470.054479
643.992118	2469.885601
644.336195	2468.784108
644.680219	2466.051803
645.024192	2471.944912
645.368112	2468.927781
645.711981	2470.309058
646.055797	2471.158492
646.399562	2473.069089
646.743274	2469.131948
647.086935	2474.198308
647.430544	2473.328709
647.774101	2474.432721
648.117606	2472.307875
648.461059	2473.152268
648.804460	2475.458596
649.147810	2471.523976
649.491108	2469.600775
649.834354	2471.637402
650.177548	2467.566670
650.520690	2468.806794
650.863781	2468.353090
651.206820	2467.854016
651.549807	2466.235805
651.892742	2467.110445
652.235626	2464.211782
652.578458	2467.899386
652.921238	2462.565845
653.263967	2463.896710
653.606644	2465.144395
653.949269	2464.940229
654.291843	2460.246914
654.634365	2462.724642
654.976836	2461.809672
655.319255	2462.172635
655.661622	2464.040383
656.003938	2459.957048
656.346203	2460.241873
656.688416	2461.839919
657.030577	2461.335804
657.372687	2460.491410
657.714746	2462.815382
658.056753	2458.064095
658.398708	2453.345575
658.740612	2459.977213
659.082465	2458.888323
659.424266	2457.953189
659.766016	2455.901440
660.107715	2463.017028
660.449362	2460.367902
660.790958	2461.703808
661.132503	2459.198354
661.473996	2460.400670
661.815438	2458.626183
662.156829	2459.972172
662.498168	2461.045937
662.839456	2457.204578
663.180693	2459.609208
663.521879	2459.662141
663.863013	2456.771039
664.204097	2459.364712
664.545129	2462.338993
664.886110	2460.433437
665.227040	2462.510392
665.567918	2459.740278
665.908746	2461.436627
666.249522	2460.693057
666.590248	2460.705659
666.930922	2459.321863
667.271545	2462.328911
667.612118	2460.158694
667.952639	2459.044599
668.293109	2459.952007
668.633528	2459.984774
668.973896	2462.459981
669.314213	2460.085598
669.654480	2459.082408
669.994695	2457.325566
670.334859	2459.160546
670.674973	2457.950669
671.015035	2460.181379
671.355047	2459.513427
671.695008	2458.028807
672.034918	2459.205916
672.374777	2458.709362
672.714585	2457.007973
673.054342	2459.561318
673.394049	2462.311267
673.733705	2459.132819
674.073310	2460.236832
674.412864	2458.089301
674.752368	2459.899075
675.091820	2459.031996
675.431223	2458.908488
675.770574	2456.743312
676.109875	2450.794751
676.449125	2454.328600
676.788324	2451.011521
677.127473	2453.504371
677.466571	2450.149483
677.805619	2456.113168
678.144616	2453.365739
678.483562	2457.680967
678.822458	2451.795420
679.161303	2454.303394
679.500098	2454.651234
679.838842	2453.658126
680.177535	2452.367591
680.516179	2453.214505
680.854771	2456.093004
681.193314	2454.716769
681.531805	2455.283898
681.870247	2456.944959
682.208638	2458.122068
682.546978	2460.763633
682.885268	2456.995370
683.223508	2458.454784
683.561697	2457.053343
683.899836	2460.045268
684.237925	2455.178034
684.575963	2458.003601
684.913951	2454.789865
685.251889	2458.817747
685.589776	2456.919753
685.927614	2455.641820
686.265401	2455.684670
686.603137	2458.449743
686.940824	2459.518468
687.278460	2458.290947
687.616046	2458.621142
687.953582	2459.584003
688.291068	2460.743468
688.628504	2459.911678
688.965889	2458.850515
689.303224	2458.091821
689.640510	2458.200206
689.977745	2455.762808
690.314930	2454.910853
690.652065	2456.125771
690.989150	2453.675770
691.326185	2452.304577
691.663170	2449.925152
692.000105	2449.625203
692.336990	2449.206788
692.673825	2447.858279
693.010610	2448.140583
693.347345	2443.109512
693.684030	2441.826538
694.020665	2443.585901
694.357251	2440.548606
694.693786	2442.978442
695.030272	2444.999945
695.366707	2442.827207
695.703093	2442.607917
696.039429	2444.415171
696.375716	2442.023143
696.711952	2442.802002
697.048139	2441.085489
697.384276	2441.524069
697.720363	2442.081117
698.056400	2438.998451
698.392388	2439.177412
698.728326	2438.522062
699.064214	2438.552309
699.400053	2438.499377
699.735842	2439.699171
700.071581	2438.703543
700.407270	2439.220262
700.742910	2437.753286
701.078501	2435.837647
701.414042	2439.356373
701.749533	2433.985023
702.084974	2439.805036
702.420366	2436.397216
702.755709	2436.540888
703.091002	2432.767585
703.426246	2434.100970
703.761440	2436.341763
704.096584	2434.542071
704.431679	2436.200611
704.766725	2436.263625
705.101721	2434.121135
705.436668	2432.896134
705.771565	2432.666762
706.106413	2434.766402
706.441212	2434.713470
706.775961	2436.492997
707.110661	2435.096598
707.445311	2434.075764
707.779913	2433.133068
708.114465	2436.797987
708.448967	2438.151537
708.783421	2438.562391
709.117825	2438.070879
709.452180	2438.975766
709.786485	2438.406115
710.120742	2441.748400
710.454949	2439.454675
710.789107	2443.273349
711.123216	2438.761517
711.457275	2440.089861
711.791286	2439.421908
712.125247	2443.737136
712.459159	2444.962136
712.793023	2445.506581
713.126837	2440.929213
713.460602	2443.447269
713.794318	2443.762341
714.127985	2444.364759
714.461602	2440.596497
714.795171	2440.934254
715.128691	2440.147834
715.462162	2441.624892
715.795584	2437.748245
716.128957	2437.004675
716.462281	2435.368820
716.795556	2435.273038
717.128782	2435.134407
717.461960	2435.343614
717.795088	2431.782039
718.128167	2433.317071
718.461198	2432.631474
718.794180	2432.533171
719.127113	2430.299940
719.459997	2433.919488
719.792833	2428.780032
720.125619	2430.400763
720.458357	2428.112079
720.791046	2429.924374
721.123686	2430.002512
721.456278	2426.103179
721.788821	2427.877666
722.121315	2431.298088
722.453761	2428.674168
722.786158	2428.076791
723.118506	2428.439754
723.450805	2426.894641
723.783056	2426.468663
724.115259	2431.333377
724.447412	2429.523602
724.779518	2429.518561
725.111574	2429.359765
725.443582	2430.010074
725.775542	2430.052923
726.107453	2430.617533
726.439315	2429.274065
726.771129	2433.362441
727.102895	2432.384457
727.434612	2433.052410
727.766281	2435.194900
728.097901	2429.538726
728.429473	2431.716504
728.760996	2431.214909
729.092471	2430.304981
729.423897	2431.504776
729.755276	2432.583583
730.086606	2432.787749
730.417887	2433.586772
730.749120	2436.056938
731.080305	2433.107863
731.411442	2437.433173
731.742530	2436.104829
732.073570	2436.742535
732.404562	2437.874274
732.735506	2436.921496
733.066401	2434.353028
733.397249	2436.785384
733.728048	2433.995106
734.058798	2433.186001
734.389501	2432.268511
734.720156	2429.667275
735.050762	2431.477049
735.381320	2429.339600
735.711831	2428.903540
736.042293	2430.277255
736.372707	2426.831626
736.703073	2430.032759
737.033391	2427.948242
737.363661	2428.618715
737.693883	2429.876483
738.024056	2429.866401
738.354182	2428.981678
738.684260	2431.862698
739.014290	2428.638880
739.344272	2429.760537
739.674207	2433.513676
740.004093	2433.813624
740.333931	2431.459405
740.663722	2433.964859
740.993464	2433.034766
741.323159	2429.500917
741.652806	2430.930084
741.982405	2430.463777
742.311956	2425.646955
742.641460	2427.965886
742.970915	2429.102666
743.300323	2425.067222
743.629683	2426.602254
743.958996	2428.127203
744.288260	2424.613518
744.617477	2422.276944
744.946647	2423.141502
745.275768	2425.316759
745.604842	2421.356933
745.933869	2422.667633
746.262847	2419.877354
746.591778	2425.699887
746.920662	2424.711821
747.249498	2423.068405
747.578286	2424.300967
747.907027	2422.110586
748.235720	2425.785587
748.564365	2425.709969
748.892963	2424.648807
749.221514	2425.203333
749.550017	2424.928591
749.878473	2424.376584
750.206881	2426.433375
750.535242	2421.992118
750.863555	2423.859866
751.191821	2424.711821
751.520039	2425.193251
751.848210	2423.494382
752.176334	2424.719383
752.504411	2421.883734
752.832440	2422.372726
753.160421	2422.390370
753.488356	2424.795000
753.816243	2422.700401
754.144082	2423.955648
754.471875	2423.005390
754.799620	2420.341141
755.127318	2425.682243
755.454969	2423.348189
755.782572	2424.701739
756.110129	2423.874989
756.437638	2425.614188
756.765100	2423.020514
757.092515	2423.847263
757.419882	2423.322983
757.747203	2423.108734
758.074477	2424.973961
758.401703	2423.259969
758.728882	2423.413724
759.056014	2423.451532
759.383099	2423.900195
759.710138	2422.609660
760.037129	2426.435896
760.364073	2423.020514
760.690970	2424.888261
761.017820	2424.684095
761.344623	2427.933118
761.671379	2423.096131
761.998088	2422.738209
762.324751	2430.529312
762.651366	2434.715991
762.977935	2445.977928
763.304456	2448.289297
763.630931	2455.679629
763.957359	2451.339196
764.283740	2448.324586
764.610074	2442.451641
764.936362	2440.762855
765.262602	2434.678182
765.588796	2431.224992
765.914943	2428.371699
766.241044	2426.957655
766.567097	2421.891295
766.893104	2420.784762
767.219064	2420.298291
767.544978	2421.803075
767.870845	2418.906932
768.196665	2421.011614
768.522438	2418.682601
768.848165	2421.213260
769.173846	2414.732857
769.499479	2417.485327
769.825066	2416.240162
770.150607	2416.265368
770.476101	2415.665470
770.801548	2416.782086
771.126949	2417.528177
771.452303	2414.662281
771.777611	2415.095820
772.102872	2413.089441
772.428087	2414.742939
772.753256	2414.909297
773.078378	2414.712692
773.403453	2414.352250
773.728482	2415.073135
774.053465	2412.373597
774.378401	2412.686148
774.703291	2413.318813
775.028135	2409.865623
775.352932	2413.439801
775.677683	2410.906621
776.002388	2411.972825
776.327046	2411.640109
776.651658	2413.737229
776.976224	2412.300500
777.300743	2410.629358
777.625216	2413.507857
777.949643	2411.040212
778.274024	2416.207394
778.598359	2409.333781
778.922647	2406.175498
779.246889	2411.317475
779.571086	2406.470406
779.895236	2412.348391
780.219339	2409.358987
780.543397	2410.687331
780.867409	2410.717578
781.191374	2412.469379
781.515294	2411.262023
781.839167	2413.427198
782.162995	2410.379821
782.486776	2415.163876
782.810511	2410.440314
783.134201	2408.915365
783.457844	2410.498288
783.781441	2409.467372
784.104993	2411.491395
784.428498	2410.314286
784.751958	2412.860068
785.075372	2409.721950
785.398739	2409.658936
785.722061	2410.236148
786.045337	2413.412075
786.368568	2414.374935
786.691752	2410.977197
787.014891	2415.415933
787.337983	2414.332085
787.661030	2413.918711
787.984031	2415.667991
788.306987	2416.668660
788.629897	2416.088927
788.952760	2416.207394
789.275579	2418.440626
789.598351	2417.263516
789.921078	2415.269740
790.243759	2414.231262
790.566395	2412.532393
790.888984	2411.314955
791.211529	2410.962074
791.534027	2411.665315
791.856480	2409.726991
792.178888	2412.035840
792.501249	2409.313617
792.823566	2411.105747
793.145836	2406.813204
793.468062	2411.423339
793.790241	2409.873185
794.112375	2412.734039
794.434464	2411.534245
794.756507	2415.451221
795.078505	2410.503329
795.400457	2414.145562
795.722364	2409.401837
796.044226	2413.880902
796.366042	2411.433422
796.687812	2411.188926
797.009538	2413.911149
797.331218	2412.721437
797.652852	2411.751014
797.974442	2412.623134
798.295986	2411.624986
798.617484	2412.156827
798.938938	2412.786972
799.260346	2412.867630
799.581709	2412.108936
799.903026	2413.485171
800.224299	2410.140366
800.545526	2412.164389
800.866708	2410.289080
801.187845	2410.843607
801.508936	2409.651374
801.829983	2410.223545
802.150984	2409.255643
802.471940	2410.659605
802.792851	2412.358473
803.113717	2412.297980
803.434538	2408.007958
803.755314	2407.803791
804.076045	2407.322361
804.396731	2410.848648
804.717372	2413.076838
805.037967	2411.115829
805.358518	2409.850499
805.679024	2410.152969
805.999485	2409.356466
806.319901	2411.020047
806.640272	2407.713050
806.960598	2414.760583
807.280879	2410.720098
807.601115	2411.123391
807.921306	2411.052815
808.241453	2409.437125
808.561554	2411.009965
808.881611	2411.713206
809.201623	2408.139028
809.521590	2411.239337
809.841513	2409.810170
810.161390	2412.129101
810.481223	2410.100037
810.801011	2407.949984
811.120755	2409.379152
811.440453	2408.065931
811.760107	2409.842938
812.079716	2409.371590
812.399281	2403.334808
812.718801	2407.226579
813.038276	2406.425035
813.357707	2407.100550
813.677093	2408.350756
813.996434	2410.009296
814.315731	2409.840417
814.634983	2410.122722
814.954191	2408.055849
815.273354	2410.586508
815.592473	2411.665315
815.911547	2411.173802
816.230577	2411.826632
816.549562	2411.524162
816.868502	2411.836714
817.187399	2412.517270
817.506250	2412.126580
817.825058	2412.217321
818.143821	2411.287228
818.462539	2414.206056
818.781213	2416.585481
819.099843	2416.419123
819.418429	2417.830646
819.736970	2421.810637
820.055466	2422.564289
820.373919	2428.560742
820.692327	2436.626588
821.010691	2449.617642
821.329011	2476.897846
821.647286	2520.680267
821.965517	2560.565876
822.283704	2589.807089
822.601847	2595.831268
822.919945	2579.787796
823.237999	2554.619835
823.556010	2532.620240
823.873976	2512.226252
824.191897	2494.867038
824.509775	2479.483958
824.827609	2469.532720
825.145398	2458.918570
825.463144	2457.338169
825.780845	2456.682819
826.098502	2463.712708
826.416116	2470.377113
826.733685	2482.357415
827.051210	2483.650471
827.368692	2481.702065
827.686129	2468.491722
828.003522	2457.373457
828.320872	2445.743515
828.638177	2440.097423
828.955439	2429.929415
829.272656	2425.331883
829.589830	2419.227046
829.906960	2422.138312
830.224046	2419.436253
830.541088	2418.296953
830.858086	2417.218146
831.175041	2417.802920
831.491952	2413.712023
831.808819	2415.801582
832.125642	2417.717220
832.442421	2417.813002
832.759157	2426.428334
833.075849	2432.976793
833.392497	2442.078596
833.709101	2449.138732
834.025662	2444.052208
834.342179	2440.999789
834.658653	2433.392688
834.975083	2427.958324
835.291469	2430.209199
835.607811	2421.732499
835.924110	2419.184196
836.240366	2418.049936
836.556578	2413.467527
836.872746	2412.976015
837.188871	2411.443504
837.504952	2412.164389
837.820990	2408.078534
838.136984	2407.433266
838.452935	2408.509552
838.768842	2410.145407
839.084706	2410.518452
839.400526	2412.310583
839.716303	2417.369380
840.032037	2423.978333
840.347727	2422.791141
840.663373	2417.944072
840.978977	2413.044070
841.294537	2413.180182
841.610054	2410.888977
841.925527	2410.233627
842.240957	2407.264388
842.556344	2407.473595
842.871687	2407.188770
843.186987	2406.364542
843.502244	2402.394633
843.817458	2402.208110
844.132629	2401.749365
844.447756	2403.342370
844.762840	2397.287944
845.077881	2398.301216
845.392879	2400.017729
845.707833	2400.728532
846.022745	2400.542009
846.337613	2401.540157
846.652438	2402.800446
846.967221	2402.770199
847.281960	2401.918244
847.596656	2400.158881
847.911309	2399.523696
848.225919	2400.151319
848.540485	2400.534447
848.855009	2402.676938
849.169490	2402.203069
849.483928	2402.661814
849.798323	2399.725342
850.112675	2400.121072
850.426984	2400.771381
850.741251	2400.567215
851.055474	2400.655435
851.369654	2401.837585
851.683792	2401.005795
851.997887	2401.393964
852.311938	2399.349776
852.625947	2404.350601
852.939914	2402.868501
853.253837	2403.576783
853.567718	2401.172153
853.881555	2402.175343
854.195350	2399.700136
854.509103	2404.126269
854.822812	2402.815569
855.136479	2399.566546
855.450103	2399.621998
855.763685	2399.934550
856.077224	2401.852709
856.390720	2402.497977
856.704173	2399.995044
857.017584	2400.068140
857.330953	2401.177194
857.644278	2402.356824
857.957561	2401.721639
858.270802	2401.053686
858.584000	2401.913203
858.897155	2401.068809
859.210268	2404.007802
859.523339	2401.124262
859.836367	2403.261711
860.149352	2401.517472
860.462295	2402.979407
860.775195	2396.647717
861.088054	2398.328942
861.400869	2396.927502
861.713642	2397.209806
862.026373	2401.759448
862.339062	2400.846999
862.651708	2400.000085
862.964312	2399.521175
863.276873	2399.889179
863.589392	2398.339025
863.901869	2404.196845
864.214303	2400.047976
864.526696	2400.751217
864.839045	2404.731208
865.151353	2402.853378
865.463619	2402.175343
865.775842	2402.727349
866.088023	2400.118552
866.400162	2402.066958
866.712258	2403.158368
867.024313	2402.855898
867.336325	2402.558470
867.648296	2403.672565
867.960224	2404.637946
868.272110	2403.296999
868.583954	2401.729201
868.895755	2404.264901
869.207515	2401.915723
869.519233	2403.549057
869.830909	2401.681310
870.142542	2402.981927
870.454134	2399.732904
870.765684	2402.737431
871.077191	2403.836403
871.388657	2404.355642
871.700081	2406.293965
872.011463	2405.994017
872.322803	2402.046793
872.634101	2403.412946
872.945357	2402.319016
873.256571	2403.947308
873.567744	2405.928482
873.878874	2405.119377
874.189963	2401.426731
874.501010	2403.244067
874.812015	2403.428069
875.122979	2404.516959
875.433900	2403.538975
875.744780	2406.157854
876.055618	2402.371948
876.366415	2405.462175
876.677169	2404.249778
876.987882	2403.417987
877.298554	2402.079561
877.609183	2403.715415
877.919771	2404.244736
878.230317	2404.015364
878.540822	2407.768503
878.851285	2411.642630
879.161707	2410.311765
879.472087	2416.035995
879.782425	2418.095307
880.092722	2429.044693
880.402977	2447.107147
880.713191	2463.775722
881.023363	2481.689462
881.333494	2492.197747
881.643583	2495.867708
881.953631	2491.529795
882.263637	2488.154742
882.573602	2480.033443
882.883526	2472.159161
883.193408	2464.355455
883.503248	2459.727676
883.813048	2452.604525
884.122806	2447.722168
884.432522	2439.273194
884.742197	2436.561053
885.051831	2431.514858
885.361424	2426.287182
885.670975	2419.610173
885.980485	2419.940369
886.289954	2416.124215
886.599382	2415.297466
886.908768	2414.435429
887.218113	2412.335788
887.527417	2409.497619
887.836680	2409.752197
888.145901	2409.830335
888.455082	2407.806312
888.764221	2407.256826
889.073319	2407.836558
889.382376	2405.840262
889.691392	2404.048131
890.000366	2405.139541
890.309300	2403.128121
890.618193	2404.494273
890.927044	2406.498132
891.235855	2405.605848
891.544625	2407.380334
891.853353	2406.389747
892.162041	2407.186250
892.470687	2407.360169
892.779293	2405.431928
893.087858	2408.260015
893.396381	2408.953174
893.704864	2412.812177
894.013306	2417.432395
894.321707	2427.665937
894.630068	2430.536874
894.938387	2432.528130
895.246665	2428.533016
895.554903	2427.769281
895.863100	2422.191244
896.171256	2420.999011
896.479371	2421.036820
896.787446	2418.206212
897.095480	2412.640778
897.403473	2412.371076
897.711425	2412.305541
898.019336	2411.347722
898.327207	2408.610376
898.635038	2408.312947
898.942827	2410.243709
899.250576	2410.427712
899.558284	2407.438307
899.865952	2406.072155
900.173579	2405.966290
900.481165	2406.727505
900.788711	2403.705333
901.096216	2403.501166
901.403681	2402.583676
901.711105	2403.448234
902.018489	2403.889335
902.325832	2406.344377
902.633135	2404.048131
902.940397	2410.112639
903.247619	2411.609862
903.554800	2419.227046
903.861941	2428.843047
904.169041	2436.520724
904.476101	2439.845365
904.783121	2433.977462
905.090100	2428.585948
905.397039	2424.865576
905.703938	2423.948086
906.010796	2420.855338
906.317614	2416.288053
906.624391	2415.022723
906.931129	2414.001890
907.237826	2410.866292
907.544483	2409.946281
907.851099	2410.583987
908.157675	2405.860426
908.464211	2404.685837
908.770707	2400.123593
909.077163	2401.726680
909.383578	2395.203427
909.689954	2399.828686
909.996289	2396.153684
910.302584	2400.345404
910.608839	2398.149981
910.915054	2402.066958
911.221229	2400.118552
911.527363	2401.603172
911.833458	2402.185425
912.139513	2402.964283
912.445527	2400.857081
912.751502	2401.744324
913.057436	2402.535785
913.363331	2400.988151
913.669186	2404.592576
913.975000	2403.574263
914.280775	2405.865467
914.586510	2413.613721
914.892205	2412.388720
915.197859	2418.828794
915.503475	2423.600247
915.809050	2433.400250
916.114585	2435.643563
916.420081	2436.225816
916.725536	2433.770774
917.030952	2431.323294
917.336328	2429.992430
917.641665	2429.493355
917.946961	2427.441606
918.252218	2425.052099
918.557435	2422.211409
918.862612	2416.403999
919.167750	2417.117323
919.472848	2414.674884
919.777906	2412.469379
920.082925	2413.890984
920.387904	2407.453431
920.692843	2407.700447
920.997743	2405.933523
921.302603	2404.673234
921.607423	2404.522000
921.912204	2403.695251
922.216946	2403.763306
922.521647	2404.090981
922.826310	2401.154509
923.130932	2403.044942
923.435516	2398.366751
923.740059	2400.849519
924.044564	2399.062430
924.349028	2399.748027
924.653454	2394.931205
924.957840	2396.216699
925.262186	2392.624877
925.566493	2396.194014
925.870761	2396.010012
926.174989	2399.558984
926.479178	2397.287944
926.783328	2398.066802
927.087438	2395.311812
927.391509	2399.090157
927.695541	2394.273334
927.999533	2397.852553
928.303486	2396.924981
928.607400	2395.702501
928.911275	2398.003788
929.215110	2397.247615
929.518906	2395.959600
929.822663	2396.430948
930.126381	2396.924981
930.430060	2398.054199
930.733699	2396.257028
931.037299	2396.766185
931.340861	2396.423386
931.644383	2395.140413
931.947866	2398.339025
932.251309	2398.533109
932.554714	2397.960938
932.858080	2398.578479
933.161407	2395.576472
933.464694	2396.776267
933.767943	2395.231153
934.071153	2392.488766
934.374323	2396.410783
934.677455	2397.018242
934.980548	2396.360372
935.283602	2395.200906
935.586617	2396.236863
935.889593	2396.640156
936.192530	2396.403222
936.495428	2399.886659
936.798287	2395.626884
937.101108	2397.983623
937.403890	2397.247615
937.706632	2399.057389
938.009336	2397.171997
938.312002	2398.291134
938.614628	2396.453633
938.917216	2401.683830
939.219765	2400.892369
939.522275	2399.138047
939.824747	2400.448748
940.127179	2394.154867
940.429573	2395.354662
940.731929	2396.531771
941.034246	2394.101935
941.336524	2401.527554
941.638763	2395.652090
941.940964	2401.635939
942.243126	2398.187790
942.545250	2400.594941
942.847335	2398.896072
943.149381	2398.928840
943.451389	2396.922460
943.753359	2398.396998
944.055290	2398.487739
944.357182	2397.156874
944.659036	2399.190980
944.960851	2396.967831
945.262628	2395.916750
945.564367	2394.290978
945.866067	2396.872049
946.167729	2397.701319
946.469352	2395.495814
946.770937	2398.936401
947.072484	2397.056051
947.373992	2396.725855
947.675462	2396.178890
947.976893	2396.819117
948.278286	2397.696278
948.579641	2396.390619
948.880958	2395.165618
949.182236	2396.894734
949.483476	2398.200393
949.784678	2396.171328
950.085841	2394.283416
950.386967	2398.515465
950.688054	2395.100083
950.989103	2395.699981
951.290114	2396.385578
951.591087	2397.756771
951.892021	2396.166287
952.192917	2394.825340
952.493776	2397.890362
952.794596	2401.318347
953.095378	2395.924312
953.396122	2398.437327
953.696828	2397.512275
953.997496	2397.991185
954.298126	2396.342728
954.598718	2400.037893
954.899272	2396.269631
955.199788	2398.974210
955.500266	2397.814745
955.800706	2394.422048
956.101108	2391.236039
956.401472	2391.813251
956.701798	2391.714948
957.002087	2392.221584
957.302337	2395.820968
957.602550	2394.260731
957.902724	2393.829713
958.202861	2393.141595
958.502960	2392.907181
958.803022	2397.832389
959.103045	2395.125289
959.403031	2395.405073
959.702979	2394.164949
960.002889	2395.997409
960.302762	2392.617315
960.602596	2393.202089
960.902393	2394.580844
961.202153	2394.366595
961.501875	2391.646893
961.801559	2394.038920
962.101205	2393.988509
962.400814	2394.167470
962.700385	2393.761657
962.999918	2394.061606
963.299414	2390.943652
963.598873	2391.672099
963.898293	2393.030690
964.197677	2395.455485
964.497022	2393.373488
964.796331	2392.831564
965.095601	2394.646379
965.394835	2392.093035
965.694030	2393.859959
965.993189	2393.391132
966.292309	2393.406256
966.591393	2393.948180
966.890439	2392.970196
967.189447	2396.640156
967.488419	2393.655793
967.787353	2394.911040
968.086249	2394.449774
968.385108	2394.515309
968.683930	2392.556821
968.982714	2393.776780
969.281462	2391.795607
969.580172	2392.362737
969.878844	2394.227964
970.177480	2394.646379
970.476078	2394.117058
970.774639	2394.336348
971.073162	2394.621174
971.371649	2391.072201
971.670098	2388.964999
971.968510	2390.913405
972.266885	2391.649413
972.565223	2392.471122
972.863524	2390.996584
973.161788	2397.429096
973.460014	2391.445247
973.758204	2393.698643
974.056356	2391.230998
974.354471	2394.250649
974.652550	2396.723335
974.950591	2395.634446
975.248595	2392.319887
975.546563	2392.922305
975.844493	2390.915926
976.142386	2396.330125
976.440243	2392.332490
976.738062	2393.108828
977.035845	2393.433982
977.333590	2393.224774
977.631299	2392.944990
977.928971	2393.675957
978.226606	2393.905330
978.524204	2393.688560
978.821765	2392.488766
979.119290	2391.530946
979.416777	2392.841646
979.714228	2390.482386
980.011642	2392.493807
980.309020	2396.564538
980.606360	2394.051523
980.903664	2393.945659
981.200931	2394.613612
981.498162	2393.733931
981.795356	2393.287788
982.092513	2394.880793
982.389633	2395.258880
982.686717	2395.604199
982.983764	2398.505383
983.280775	2396.418345
983.577749	2399.284241
983.874686	2399.286762
984.171587	2398.084446
984.468451	2398.465053
984.765279	2398.439848
985.062070	2398.709549
985.358824	2398.134858
985.655543	2395.137892
985.952224	2395.198386
986.248869	2392.561862
986.545478	2390.106820
986.842050	2391.001625
987.138586	2388.675133
987.435086	2390.827705
987.731549	2388.418034
988.027975	2389.728734
988.324366	2390.386604
988.620719	2392.864332
988.917037	2391.712428
989.213318	2391.672099
989.509563	2390.797458
989.805772	2393.282747
990.101944	2390.374002
990.398080	2393.433982
990.694180	2391.546070
990.990244	2391.273847
991.286271	2391.145298
991.582262	2393.257542
991.878217	2393.335679
992.174136	2389.658158
992.470019	2392.735782
992.765865	2391.853580
993.061676	2391.604043
993.357450	2391.959444
993.653188	2391.432644
993.948890	2393.701163
994.244556	2392.125803
994.540186	2393.368447
994.835780	2394.152346
995.131337	2393.877603
995.426859	2392.448436
995.722345	2395.536143
996.017795	2391.921636
996.313208	2396.677964
996.608586	2392.408107
996.903928	2394.729558
997.199234	2395.442882
997.494504	2392.670247
997.789738	2396.967831
998.084936	2395.629404
998.380099	2393.670916
998.675225	2394.159908
998.970316	2392.483724
999.265371	2393.328118
999.560390	2393.091183
999.855373	2395.147974
1000.150320	2393.628066
1000.445232	2389.774104
1000.740108	2391.911553
1001.034948	2391.331821
1001.329752	2392.650082
1001.624521	2394.364075
1001.919254	2388.158414
1002.213951	2391.767881
1002.508613	2388.206305
1002.803239	2390.903323
1003.097829	2388.763353
1003.392384	2391.402397
1003.686903	2393.807027
1003.981386	2389.799310
1004.275834	2392.309805
1004.570246	2388.912067
1004.864623	2392.730741
1005.158964	2392.718138
1005.453270	2390.404248
1005.747540	2393.091183
1006.041775	2389.925339
1006.335974	2390.008518
1006.630138	2394.469939
1006.924266	2388.886861
1007.218359	2391.341903
1007.512416	2390.694115
1007.806438	2391.283930
1008.100425	2391.702346
1008.394376	2389.186810
1008.688292	2389.779145
1008.982172	2391.404917
1009.276017	2393.033210
1009.569827	2393.035731
1009.863602	2390.565565
1010.157341	2391.992212
1010.451045	2391.374671
1010.744714	2390.570607
1011.038347	2391.719990
1011.331945	2390.184958
1011.625508	2392.657644
1011.919036	2390.973899
1012.212528	2392.544218
1012.505986	2389.517005
1012.799408	2394.278375
1013.092795	2392.236708
1013.386147	2392.047665
1013.679464	2391.490617
1013.972745	2390.978940
1014.265992	2389.504403
1014.559204	2392.564383
1014.852380	2391.538508
1015.145521	2390.452139
1015.438628	2391.493138
1015.731699	2388.987684
1016.024736	2392.007335
1016.317737	2390.971378
1016.610703	2392.559342
1016.903635	2387.926521
1017.196531	2388.171017
1017.489393	2390.000956
1017.782219	2386.497354
1018.075011	2390.414331
1018.367768	2393.539846
1018.660490	2389.456512
1018.953177	2389.456512
1019.245829	2389.456512
