Dividing Wavelength (nm)	Counts (n)	Blue Motor Position (mm): 0.000000	Red Motor Position (mm): 7.600000	
326.493990	1977.364870
326.888308	1977.364870
327.282561	1977.364870
327.676750	1948.531990
328.070874	1955.438371
328.464933	1960.724021
328.858929	1968.338684
329.252859	1979.479634
329.646726	1998.389002
330.040528	2011.543893
330.434265	2032.734383
330.827938	2049.350026
331.221547	2068.584549
331.615091	2090.069946
332.008571	2111.825046
332.401986	2131.427573
332.795338	2150.273926
333.188625	2170.894766
333.581847	2191.240863
333.975006	2208.607638
334.368100	2227.416183
334.761129	2242.675756
335.154095	2258.207551
335.546996	2273.164654
335.939833	2286.183434
336.332606	2297.347069
336.725315	2309.365180
337.117960	2318.774493
337.510540	2324.854125
337.903056	2334.775116
338.295508	2337.918275
338.687896	2349.008814
339.080220	2357.314115
339.472480	2357.097345
339.864676	2364.442306
340.256807	2367.555219
340.648875	2370.315250
341.040879	2370.597555
341.432818	2369.168388
341.824694	2372.354397
342.216506	2372.840868
342.608253	2372.404809
342.999937	2370.103522
343.391557	2368.737369
343.783113	2368.984386
344.174605	2367.698892
344.566033	2365.488346
344.957397	2364.759899
345.348697	2363.887779
345.739934	2361.352079
346.131106	2359.252438
346.522215	2356.852849
346.913260	2355.355626
347.304241	2355.083404
347.695159	2351.889833
348.086012	2350.702641
348.476802	2350.541324
348.867528	2346.568895
349.258191	2346.490757
349.648789	2346.153000
350.039324	2345.341374
350.429796	2345.076714
350.820203	2343.183760
351.210548	2343.057732
351.600828	2342.253668
351.991045	2343.360201
352.381198	2341.310972
352.771288	2343.894563
353.161314	2341.719305
353.551276	2342.125118
353.941175	2343.062773
354.331010	2343.246775
354.720782	2340.302741
355.110490	2343.947495
355.500135	2343.166116
355.889717	2343.546723
356.279235	2342.238544
356.668689	2343.466065
357.058080	2345.981601
357.447408	2340.811898
357.836672	2343.524038
358.225873	2343.282063
358.615010	2343.846672
359.004084	2345.117043
359.393095	2349.671725
359.782043	2346.495798
360.170927	2348.809688
360.559748	2347.357836
360.948505	2348.494616
361.337199	2351.877230
361.725830	2348.424040
362.114398	2352.487210
362.502903	2351.970492
362.891344	2353.069463
363.279722	2352.588033
363.668037	2355.169104
364.056289	2351.940245
364.444478	2352.845132
364.832603	2354.153311
365.220665	2354.584330
365.608665	2357.510720
365.996601	2356.346213
366.384474	2354.881758
366.772284	2356.691532
367.160031	2355.554752
367.547715	2358.287057
367.935336	2357.694722
368.322893	2357.639269
368.710388	2358.929804
369.097820	2365.309385
369.485189	2359.474249
369.872495	2361.399970
370.259738	2362.065402
370.646918	2366.332739
371.034035	2364.752337
371.421090	2365.528675
371.808081	2373.229037
372.195010	2375.520242
372.581875	2380.468134
372.968678	2385.811757
373.355418	2391.188148
373.742096	2400.993192
374.128710	2413.066756
374.515262	2422.995308
374.901751	2435.920827
375.288177	2454.797427
375.674540	2471.768472
376.060841	2490.604743
376.447079	2513.579802
376.833254	2539.130890
377.219367	2563.898079
377.605417	2595.198603
377.991404	2626.047944
378.377329	2662.863490
378.763191	2697.307174
379.148991	2740.081364
379.534727	2788.186575
379.920402	2832.483194
380.306013	2881.478168
380.691563	2939.925306
381.077049	2990.818274
381.462474	3043.662170
381.847835	3112.594907
382.233134	3176.196625
382.618371	3231.064543
383.003545	3309.903148
383.388657	3380.469220
383.773706	3456.204995
384.158693	3516.134232
384.543618	3592.580809
384.928480	3654.859224
385.313280	3737.851739
385.698017	3813.859737
386.082692	3903.594796
386.467305	3944.534006
386.851856	4029.180020
387.236344	4135.606340
387.620770	4161.908560
388.005133	4233.031679
388.389435	4320.160461
388.773674	4359.869630
389.157851	4428.179785
389.541965	4492.094054
389.926018	4467.591526
390.310008	4558.569230
390.693936	4605.073874
391.077802	4635.847597
391.461606	4684.313251
391.845348	4711.331315
392.229027	4730.923759
392.612645	4820.772244
392.996200	4832.717258
393.379694	4883.942943
393.763125	4950.304692
394.146494	4937.994194
394.529801	4940.890337
394.913047	5007.166387
395.296230	4929.015899
395.679351	4882.233992
396.062410	4931.251651
396.445408	4797.809788
396.828343	4794.220487
397.211217	4763.824850
397.594028	4632.412051
397.976778	4636.782732
398.359466	4620.865288
398.742092	4527.510681
399.124656	4494.337368
399.507158	4478.427486
399.889598	4400.541659
400.271977	4383.711767
400.654294	4303.194458
401.036549	4279.879122
401.418742	4194.688663
401.800874	4193.635062
402.182944	4126.885143
402.564952	4129.312459
402.946898	4003.258407
403.328783	3927.212601
403.710606	3885.000500
404.092367	3854.020089
404.474067	3839.685568
404.855705	3717.840879
405.237282	3629.701345
405.618797	3618.343626
406.000250	3578.883994
406.381642	3552.362484
406.762972	3472.314002
407.144240	3377.583159
407.525447	3333.092456
407.906593	3263.033020
408.287677	3223.548183
408.668700	3177.708971
409.049661	3116.746298
409.430560	3073.634350
409.811399	3019.499919
410.192176	2981.988693
410.572891	2935.731066
410.953545	2911.989752
411.334138	2847.659587
411.714669	2830.670899
412.095139	2763.633635
412.475547	2747.126377
412.855894	2710.504915
413.236180	2692.177800
413.616405	2657.900474
413.996568	2638.842392
414.376670	2612.323402
414.756711	2588.317428
415.136691	2575.013823
415.516609	2557.006821
415.896466	2543.524255
416.276262	2533.308357
416.655997	2523.856194
417.035670	2506.779285
417.415283	2506.181908
417.794834	2493.435351
418.174324	2486.869248
418.553753	2476.842393
418.933121	2472.522124
419.312428	2465.605661
419.691674	2458.880762
420.070859	2454.096707
420.449983	2451.820626
420.829045	2451.631582
421.208047	2443.588422
421.586988	2441.519028
421.965867	2439.477361
422.344686	2438.252360
422.723444	2435.157092
423.102141	2429.473191
423.480777	2432.288675
423.859352	2428.832964
424.237866	2431.235074
424.616319	2428.389343
424.994712	2428.354055
425.373044	2426.261976
425.751314	2426.201482
426.129524	2417.598753
426.507673	2424.767274
426.885762	2424.164856
427.263789	2422.876841
427.641756	2422.218970
428.019662	2420.439443
428.397508	2420.056315
428.775292	2420.114289
429.153016	2418.281829
429.530679	2418.899371
429.908282	2417.770152
430.285824	2418.780903
430.663305	2415.557086
431.040726	2419.088414
431.418086	2416.368711
431.795385	2417.747467
432.172624	2417.371901
432.549802	2413.631365
432.926920	2413.202867
433.303977	2413.754873
433.680974	2413.338978
434.057910	2415.741088
434.434786	2416.363670
434.811601	2416.066242
435.188355	2418.538928
435.565050	2418.337282
435.941683	2415.400810
436.318257	2415.287384
436.694770	2410.783113
437.071222	2415.284863
437.447614	2409.802608
437.823946	2413.520459
438.200218	2419.511871
438.576429	2415.967940
438.952580	2416.522467
439.328670	2414.437949
439.704700	2413.853176
440.080670	2416.877868
440.456580	2417.397107
440.832429	2413.608680
441.208218	2413.893505
441.583947	2415.365522
441.959616	2416.950965
442.335224	2417.508012
442.710773	2417.049267
443.086261	2417.873496
443.461689	2415.544483
443.837057	2417.649164
444.212365	2417.964237
444.587612	2416.174627
444.962800	2418.022210
445.337927	2417.359298
445.712995	2416.361150
446.088002	2419.779052
446.462949	2420.804927
446.837837	2420.273085
447.212664	2415.995666
447.587431	2425.014290
447.962139	2428.885896
448.336786	2432.560897
448.711374	2429.745413
449.085901	2425.019331
449.460369	2421.775349
449.834776	2425.939342
450.209124	2431.817327
450.583412	2426.937490
450.957640	2430.506627
451.331808	2428.464960
451.705917	2424.242994
452.079965	2426.393046
452.453954	2424.351378
452.827883	2426.675350
453.201752	2424.527819
453.575562	2422.758374
453.949311	2426.226688
454.323001	2422.947417
454.696632	2425.962027
455.070202	2426.897161
455.443713	2429.576534
455.817164	2425.349527
456.190556	2427.464291
456.563888	2426.947573
456.937160	2423.133940
457.310373	2426.826585
457.683526	2426.314908
458.056619	2427.688622
458.429653	2426.047727
458.802628	2428.459919
459.175542	2428.308684
459.548398	2429.130392
459.921194	2428.865732
460.293930	2435.961156
460.666607	2435.194900
461.039224	2438.075920
461.411782	2437.927206
461.784280	2437.191197
462.156719	2437.493667
462.529099	2437.838986
462.901419	2435.136927
463.273680	2433.218768
463.645882	2435.038625
464.018024	2433.357400
464.390106	2435.036104
464.762130	2437.501228
465.134094	2442.713781
465.505999	2450.714092
465.877845	2458.749692
466.249631	2459.662141
466.621358	2458.563169
466.993026	2457.433951
467.364634	2456.513940
467.736184	2450.351129
468.107674	2443.298555
468.479105	2444.289142
468.850477	2442.781837
469.221790	2441.824018
469.593043	2438.990889
469.964238	2438.769078
470.335373	2438.781681
470.706449	2441.403081
471.077467	2442.784357
471.448425	2448.932045
471.819324	2454.782304
472.190164	2452.652416
472.560945	2447.286108
472.931667	2441.478699
473.302330	2438.466609
473.672934	2439.121959
474.043479	2439.701692
474.413965	2436.031732
474.784393	2432.528130
475.154761	2436.314037
475.525070	2433.916968
475.895321	2435.714139
476.265513	2434.040476
476.635645	2441.884512
477.005719	2437.864191
477.375734	2440.465427
477.745691	2437.725560
478.115588	2442.398709
478.485427	2446.398865
478.855207	2449.796603
479.224928	2451.293825
479.594591	2453.300204
479.964194	2451.296346
480.333739	2454.565534
480.703226	2451.545883
481.072653	2452.274330
481.442022	2454.436985
481.811333	2455.820781
482.180584	2455.427571
482.549777	2451.941613
482.918912	2451.911367
483.287988	2452.375153
483.657005	2447.795264
484.025964	2451.684515
484.394864	2448.695110
484.763706	2449.161417
485.132489	2444.442897
485.501213	2446.958433
485.869879	2448.352312
486.238487	2449.448763
486.607036	2445.499019
486.975527	2447.845676
487.343959	2445.350305
487.712333	2445.988011
488.080648	2444.579008
488.448905	2446.653443
488.817104	2447.046653
489.185244	2444.521035
489.553326	2449.443722
489.921350	2453.524536
490.289315	2457.287757
490.657222	2458.968982
491.025070	2458.512758
491.392861	2457.479321
491.760593	2454.767180
492.128267	2452.919597
492.495883	2452.118054
492.863440	2448.216201
493.230939	2449.811726
493.598380	2447.255861
493.965763	2441.745880
494.333088	2442.872578
494.700354	2440.949378
495.067563	2442.703699
495.434713	2439.676486
495.801805	2443.543051
496.168839	2444.979780
496.535815	2445.879626
496.902733	2444.994903
497.269593	2444.624379
497.636395	2446.192177
498.003139	2445.342743
498.369825	2444.982301
498.736453	2446.716457
499.103023	2446.913062
499.469535	2446.366097
499.835989	2447.250820
500.202385	2445.804009
500.568723	2448.571602
500.935003	2452.281891
501.301226	2451.470266
501.667390	2450.658640
502.033497	2455.109979
502.399546	2455.356995
502.765537	2455.964454
503.131470	2458.646348
503.497345	2458.308591
503.863163	2459.082408
504.228923	2460.342696
504.594625	2462.802779
504.960269	2460.420834
505.325856	2462.959055
505.691385	2466.434931
506.056856	2467.639767
506.422270	2468.113635
506.787625	2472.564974
507.152924	2468.121197
507.518164	2473.641260
507.883347	2471.879377
508.248472	2476.098823
508.613540	2477.346508
508.978550	2482.052425
509.343503	2481.336582
509.708398	2486.599546
510.073236	2487.592653
510.438016	2490.163642
510.802738	2487.801861
511.167403	2492.278406
511.532010	2492.293529
511.896561	2495.953407
512.261053	2497.264107
512.625488	2493.982316
512.989866	2496.276041
513.354186	2496.742348
513.718449	2493.009373
514.082655	2502.332987
514.446803	2499.159581
514.810894	2500.976917
515.174927	2502.612771
515.538904	2498.171515
515.902822	2499.489777
516.266684	2498.993223
516.630488	2500.190497
516.994235	2499.812410
517.357925	2500.049345
517.721558	2497.173366
518.085133	2492.487614
518.448651	2496.318891
518.812112	2495.262769
519.175516	2492.948879
519.538863	2491.910402
519.902152	2490.602222
520.265385	2489.074753
520.628560	2489.835967
520.991678	2482.929586
521.354739	2483.461428
521.717743	2482.758187
522.080690	2478.758031
522.443580	2480.245172
522.806413	2476.570171
523.169189	2477.326344
523.531908	2471.365179
523.894569	2472.272587
524.257174	2469.701598
524.619722	2468.161526
524.982213	2467.186063
525.344647	2462.918726
525.707025	2462.268417
526.069345	2460.229270
526.431608	2459.886472
526.793815	2453.726182
527.155964	2456.022428
527.518057	2451.878599
527.880093	2448.904318
528.242072	2450.456994
528.603995	2448.218721
528.965860	2449.027827
529.327669	2446.822322
529.689421	2447.137394
530.051117	2442.965839
530.412755	2441.098092
530.774337	2440.757814
531.135862	2438.597679
531.497331	2437.607093
531.858743	2434.370672
532.220098	2436.498039
532.581396	2431.270362
532.942638	2431.787080
533.303824	2435.545261
533.664953	2435.467123
534.026025	2433.128027
534.387040	2435.580549
534.747999	2434.809252
535.108902	2431.023346
535.469748	2430.892276
535.830537	2432.555856
536.191270	2432.331525
536.551947	2434.080805
536.912567	2431.542584
537.273131	2433.516196
537.633638	2428.104518
537.994089	2430.005033
538.354483	2431.371185
538.714821	2425.256266
539.075103	2428.069229
539.435328	2429.662234
539.795497	2427.033272
540.155609	2432.081988
540.515665	2425.586461
540.875665	2428.074271
541.235609	2426.665268
541.595496	2427.131575
541.955328	2427.607964
542.315102	2427.471853
542.674821	2427.499579
543.034483	2426.415731
543.394090	2425.238622
543.753640	2427.048396
544.113134	2426.950093
544.472571	2428.422110
544.831953	2426.806420
545.191278	2426.468663
545.550548	2424.731986
545.909761	2427.809610
546.268918	2426.219126
546.628019	2424.598395
546.987064	2428.616195
547.346053	2424.306008
547.704986	2425.220978
548.063863	2424.759712
548.422684	2424.464804
548.781449	2423.960689
549.140158	2424.737027
549.498811	2425.215936
549.857408	2424.046389
550.215949	2421.664443
550.574434	2421.659402
550.932864	2420.709145
551.291237	2419.602612
551.649555	2425.568817
552.007817	2424.164856
552.366022	2423.920360
552.724173	2425.520926
553.082267	2424.414393
553.440305	2425.067222
553.798288	2423.091090
554.156215	2424.520257
554.514086	2424.308529
554.871902	2425.490679
555.229661	2424.711821
555.587365	2421.757705
555.945014	2423.454053
556.302606	2424.772315
556.660143	2424.064033
557.017625	2423.754002
557.375050	2423.882551
557.732421	2422.566810
558.089735	2423.023034
558.446994	2422.559248
558.804197	2427.880186
559.161345	2425.001687
559.518437	2423.673343
559.875474	2424.142171
560.232455	2424.404311
560.589381	2423.955648
560.946251	2425.382294
561.303065	2424.580751
561.659825	2425.132757
562.016528	2424.547983
562.373177	2426.123344
562.729770	2422.561769
563.086307	2422.067736
563.442789	2423.630493
563.799216	2421.614032
564.155587	2421.140163
564.511904	2421.838363
564.868164	2424.621080
565.224370	2423.849784
565.580520	2421.992118
565.936615	2422.919691
566.292654	2422.927253
566.648638	2421.392221
567.004567	2422.276944
567.360441	2423.917839
567.716260	2421.944227
568.072023	2421.293919
568.427732	2418.554052
568.783385	2421.694690
569.138982	2418.075142
569.494525	2420.653692
569.850013	2419.932807
570.205445	2420.782242
570.560823	2421.563620
570.916145	2421.407345
571.271412	2422.624783
571.626625	2421.432550
571.981782	2422.163518
572.336884	2420.941038
572.691931	2420.951120
573.046923	2420.290729
573.401860	2422.408014
573.756743	2421.500606
574.111570	2420.978847
574.466342	2422.203847
574.821059	2423.481779
575.175722	2420.376429
575.530330	2422.281985
575.884882	2420.706624
576.239380	2422.733168
576.593823	2421.046902
576.948211	2421.888775
577.302544	2422.130750
577.656823	2419.297622
578.011047	2421.704773
578.365216	2421.787952
578.719330	2420.280647
579.073389	2419.801737
579.427394	2421.876172
579.781344	2417.646644
580.135239	2421.523291
580.489080	2422.609660
580.842866	2420.315935
581.196597	2420.580595
581.550273	2420.620925
581.903895	2420.225194
582.257463	2421.177972
582.610975	2420.147056
582.964434	2419.176634
583.317837	2420.013466
583.671186	2419.867272
584.024481	2420.361305
584.377721	2421.558579
584.730906	2417.926428
585.084037	2421.243507
585.437113	2418.105389
585.790135	2418.793506
586.143103	2418.402817
586.496016	2417.868455
586.848874	2415.940213
587.201679	2415.859555
587.554428	2415.194123
587.907124	2415.481468
588.259765	2414.327044
588.612352	2418.541449
588.964884	2417.369380
589.317362	2417.870975
589.669786	2420.419278
590.022155	2419.494227
590.374470	2420.005904
590.726731	2418.357447
591.078937	2420.061357
591.431090	2420.688980
591.783188	2418.231418
592.135232	2417.200502
592.487222	2416.789648
592.839157	2421.286357
593.191038	2416.749318
593.542866	2416.512384
593.894639	2416.459452
594.246358	2416.532549
594.598022	2415.327713
594.949633	2416.807292
595.301190	2414.952147
595.652692	2418.871644
596.004141	2418.992632
596.355535	2417.949113
596.706876	2417.134967
597.058162	2415.191602
597.409395	2415.708320
597.760573	2419.544638
598.111698	2415.189081
598.462768	2417.349216
598.813785	2414.548855
599.164748	2417.644123
599.515657	2414.687487
599.866511	2417.739905
600.217312	2416.973650
600.568060	2415.655388
600.918753	2416.091448
601.269392	2417.324010
601.619978	2414.700089
601.970510	2414.914338
602.320988	2415.710841
602.671412	2418.266706
603.021783	2413.323854
603.372100	2417.082035
603.722363	2419.726120
604.072572	2416.156983
604.422728	2417.508012
604.772830	2413.558268
605.122878	2412.199677
605.472872	2412.827301
605.822813	2407.818914
606.172701	2416.116654
606.522534	2410.810839
606.872314	2415.675553
607.222041	2415.226890
607.571714	2414.974832
607.921333	2417.197981
608.270899	2415.650347
608.620411	2415.751170
608.969870	2416.388876
609.319276	2415.052970
609.668627	2415.103382
610.017926	2416.376273
610.367171	2415.355439
610.716362	2417.059349
611.065500	2417.329051
611.414585	2414.911818
611.763616	2418.397776
612.112594	2418.365008
612.461518	2415.915007
612.810389	2415.307548
613.159207	2414.664801
613.507971	2414.775707
613.856682	2417.132446
614.205340	2413.119688
614.553945	2418.339803
614.902496	2415.375604
615.250994	2416.048598
615.599439	2413.633885
615.947830	2415.907446
616.296169	2416.376273
616.644454	2418.662436
616.992686	2415.683114
617.340864	2418.002045
617.688990	2415.148752
618.037063	2416.638413
618.385082	2414.117836
618.733048	2414.672363
619.080961	2415.993145
619.428821	2416.676222
619.776628	2417.911304
620.124382	2415.216808
620.472083	2418.498599
620.819731	2417.313928
621.167326	2417.500450
621.514868	2418.196130
621.862357	2416.514905
622.209793	2416.114133
622.557176	2418.647313
622.904506	2415.690676
623.251783	2412.381159
623.599007	2413.782599
623.946179	2409.101888
624.293297	2412.466858
624.640363	2415.320151
624.987376	2416.298135
625.334336	2412.701272
625.681243	2411.816549
626.028097	2412.280336
626.374899	2413.041550
626.721647	2413.699420
627.068343	2413.338978
627.414987	2416.827456
627.761577	2414.233783
628.108115	2411.357804
628.454600	2412.623134
628.801032	2413.689338
629.147412	2417.243352
629.493739	2414.548855
629.840014	2411.682959
630.186236	2409.013668
630.532405	2414.478279
630.878521	2413.288566
631.224585	2414.536252
631.570597	2411.239337
631.916556	2412.429050
632.262462	2412.847465
632.608316	2412.240006
632.954117	2414.029616
633.299866	2415.322672
633.645562	2413.578433
633.991206	2415.108423
634.336797	2410.636919
634.682336	2410.649522
635.027823	2408.386044
635.373257	2413.104564
635.718639	2409.237999
636.063968	2411.778741
636.409245	2410.473082
636.754470	2414.901736
637.099642	2411.693041
637.444762	2412.544996
637.789829	2411.695562
638.134845	2411.435942
638.479808	2408.454100
638.824719	2411.957702
639.169577	2408.948133
639.514383	2412.618093
639.859137	2412.560120
640.203839	2413.621283
640.548489	2411.090623
640.893086	2409.812691
641.237632	2406.573749
641.582125	2405.966290
641.926566	2407.546692
642.270955	2411.748494
642.615292	2407.460993
642.959576	2409.805129
643.303809	2407.211455
643.647990	2410.694893
643.992118	2409.379152
644.336195	2410.989800
644.680219	2409.560633
645.024192	2410.326888
645.368112	2411.808988
645.711981	2411.703123
646.055797	2409.316137
646.399562	2411.002403
646.743274	2409.689182
647.086935	2410.679769
647.430544	2411.589697
647.774101	2411.481313
648.117606	2408.386044
648.461059	2410.024419
648.804460	2413.623803
649.147810	2413.787641
649.491108	2410.147927
649.834354	2410.258833
650.177548	2413.243196
650.520690	2409.611045
650.863781	2408.254974
651.206820	2411.579615
651.549807	2407.400499
651.892742	2411.892167
652.235626	2407.433266
652.578458	2409.258164
652.921238	2409.623648
653.263967	2409.394275
653.606644	2408.242371
653.949269	2411.057856
654.291843	2408.529717
654.634365	2410.299162
654.976836	2406.770354
655.319255	2407.708009
655.661622	2411.340160
656.003938	2408.050808
656.346203	2406.409912
656.688416	2405.787329
657.030577	2409.079203
657.372687	2407.592063
657.714746	2408.350756
658.056753	2408.736404
658.398708	2403.876732
658.740612	2405.860426
659.082465	2403.619633
659.424266	2408.307906
659.766016	2404.577452
660.107715	2407.304717
660.449362	2406.798081
660.790958	2408.043246
661.132503	2405.545354
661.473996	2410.687331
661.815438	2408.877557
662.156829	2409.792526
662.498168	2405.651218
662.839456	2408.456620
663.180693	2406.785478
663.521879	2406.646846
663.863013	2405.747000
664.204097	2408.706157
664.545129	2408.219686
664.886110	2408.580129
665.227040	2408.610376
665.567918	2406.949315
665.908746	2408.300345
666.249522	2410.437794
666.590248	2409.384193
666.930922	2408.154151
667.271545	2405.419325
667.612118	2408.824625
667.952639	2406.079716
668.293109	2408.433935
668.633528	2407.372772
668.973896	2409.492578
669.314213	2403.337329
669.654480	2407.410581
669.994695	2408.396127
670.334859	2407.224058
670.674973	2407.304717
671.015035	2409.144738
671.355047	2407.990314
671.695008	2408.123904
672.034918	2408.446538
672.374777	2407.216497
672.714585	2406.833369
673.054342	2408.330592
673.394049	2406.740107
673.733705	2407.219017
674.073310	2408.557443
674.412864	2406.535941
674.752368	2406.225910
675.091820	2407.302196
675.431223	2408.207083
675.770574	2407.125756
676.109875	2404.448903
676.449125	2405.769685
676.788324	2403.314643
677.127473	2405.232803
677.466571	2401.446896
677.805619	2407.503842
678.144616	2406.455282
678.483562	2408.948133
678.822458	2407.387896
679.161303	2407.415622
679.500098	2407.955026
679.838842	2406.341856
680.177535	2405.583163
680.516179	2406.999727
680.854771	2404.663152
681.193314	2407.713050
681.531805	2406.878739
681.870247	2408.252454
682.208638	2405.074006
682.546978	2406.868657
682.885268	2406.624161
683.223508	2407.067783
683.561697	2405.416805
683.899836	2407.536610
684.237925	2403.541495
684.575963	2409.285890
684.913951	2407.103071
685.251889	2406.888822
685.589776	2406.316651
685.927614	2403.783471
686.265401	2408.239851
686.603137	2405.842782
686.940824	2406.631723
687.278460	2407.672721
687.616046	2406.407391
687.953582	2405.620971
688.291068	2408.164233
688.628504	2408.721281
688.965889	2405.336146
689.303224	2407.760941
689.640510	2407.854202
689.977745	2406.082237
690.314930	2406.682134
690.652065	2404.335477
690.989150	2408.512073
691.326185	2406.319171
691.663170	2404.310271
692.000105	2403.770868
692.336990	2406.263718
692.673825	2405.527710
693.010610	2405.361352
693.347345	2402.787843
693.684030	2401.262894
694.020665	2402.618964
694.357251	2401.454458
694.693786	2403.962432
695.030272	2400.184087
695.366707	2404.627864
695.703093	2402.167781
696.039429	2401.958573
696.375716	2401.119221
696.711952	2404.796743
697.048139	2403.531413
697.384276	2399.498490
697.720363	2401.913203
698.056400	2404.736249
698.392388	2404.075858
698.728326	2402.674417
699.064214	2403.365055
699.400053	2403.428069
699.735842	2405.643657
700.071581	2402.636608
700.407270	2402.752555
700.742910	2401.759447
701.078501	2401.424211
701.414042	2404.660632
701.749533	2404.360683
702.084974	2405.474778
702.420366	2402.946639
702.755709	2401.325908
703.091002	2402.205590
703.426246	2400.733573
703.761440	2401.661145
704.096584	2403.649880
704.431679	2400.002605
704.766725	2400.796587
705.101721	2401.575445
705.436668	2400.405898
705.771565	2402.654252
706.106413	2402.865981
706.441212	2400.461350
706.775961	2403.417987
707.110661	2400.547050
707.445311	2400.252143
707.779913	2402.190466
708.114465	2402.243398
708.448967	2401.880435
708.783421	2402.450086
709.117825	2401.293141
709.452180	2405.293296
709.786485	2401.620816
710.120742	2402.180384
710.454949	2402.989489
710.789107	2401.071330
711.123216	2397.156874
711.457275	2400.418501
711.791286	2401.383882
712.125247	2402.732390
712.459159	2402.324057
712.793023	2405.134500
713.126837	2401.835065
713.460602	2403.188615
713.794318	2400.294992
714.127985	2401.451937
714.461602	2401.368758
714.795171	2404.511918
715.128691	2404.819428
715.462162	2402.369427
715.795584	2401.646022
716.128957	2402.505538
716.462281	2402.893707
716.795556	2400.355486
717.128782	2401.688871
717.461960	2402.906310
717.795088	2400.632750
718.128167	2402.654252
718.461198	2398.200393
718.794180	2402.094684
719.127113	2399.564025
719.459997	2399.770712
719.792833	2399.604354
720.125619	2400.910013
720.458357	2400.501680
720.791046	2399.354817
721.123686	2397.814745
721.456278	2397.724004
721.788821	2399.175856
722.121315	2401.799777
722.453761	2399.619478
722.786158	2400.489077
723.118506	2399.405229
723.450805	2398.737276
723.783056	2399.987482
724.115259	2399.075033
724.447412	2397.935732
724.779518	2400.831875
725.111574	2401.923285
725.443582	2399.702657
725.775542	2399.138047
726.107453	2398.001267
726.439315	2400.794067
726.771129	2404.864798
727.102895	2400.264745
727.434612	2401.908162
727.766281	2403.218862
728.097901	2395.478170
728.429473	2394.880793
728.760996	2397.487070
729.092471	2394.091853
729.423897	2400.126114
729.755276	2399.402708
730.086606	2399.753068
730.417887	2401.036042
730.749120	2402.291289
731.080305	2399.979920
731.411442	2400.216854
731.742530	2399.715260
732.073570	2403.685168
732.404562	2400.985630
732.735506	2400.433624
733.066401	2401.262894
733.397249	2401.036042
733.728048	2402.954201
734.058798	2401.782133
734.389501	2398.429765
734.720156	2398.641494
735.050762	2399.445558
735.381320	2400.957904
735.711831	2397.794580
736.042293	2401.212482
736.372707	2397.129148
736.703073	2399.032183
737.033391	2399.982441
737.363661	2397.482028
737.693883	2398.956566
738.024056	2401.716598
738.354182	2400.778943
738.684260	2398.008829
739.014290	2402.291289
739.344272	2402.069478
739.674207	2400.206772
740.004093	2401.572925
740.333931	2398.628891
740.663722	2400.501680
740.993464	2399.357338
741.323159	2400.849519
741.652806	2398.565877
741.982405	2396.647718
742.311956	2398.875907
742.641460	2399.783315
742.970915	2400.350445
743.300323	2398.674261
743.629683	2400.141237
743.958996	2401.467061
744.288260	2397.260218
744.617477	2398.641494
744.946647	2391.992212
745.275768	2396.574621
745.604842	2395.339538
745.933869	2396.569580
746.262847	2395.042110
746.591778	2398.712070
746.920662	2397.739127
747.249498	2396.536812
747.578286	2400.347924
747.907027	2399.974879
748.235720	2399.133006
748.564365	2399.924468
748.892963	2398.288613
749.221514	2400.428583
749.550017	2396.844322
749.878473	2400.514283
750.206881	2397.781977
750.535242	2398.313819
750.863555	2399.508572
751.191821	2399.536299
751.520039	2398.704508
751.848210	2397.686195
752.176334	2399.067471
752.504411	2397.487070
752.832440	2400.985630
753.160421	2398.016391
753.488356	2398.273490
753.816243	2396.987995
754.144082	2400.436145
754.471875	2397.262738
754.799620	2398.003788
755.127318	2398.598644
755.454969	2398.984292
755.782572	2399.196021
756.110129	2397.943294
756.437638	2399.982441
756.765100	2397.628222
757.092515	2398.724673
757.419882	2397.260218
757.747203	2398.543191
758.074477	2395.170659
758.401703	2396.221740
758.728882	2397.489590
759.056014	2396.067985
759.383099	2399.841288
759.710138	2399.732904
760.037129	2399.188459
760.364073	2398.134858
760.690970	2398.192831
761.017820	2397.875238
761.344623	2396.070505
761.671379	2401.189797
761.998088	2392.251831
762.324751	2398.129817
762.651366	2397.121586
762.977935	2400.715929
763.304456	2398.414642
763.630931	2402.613923
763.957359	2403.652401
764.283740	2399.861453
764.610074	2400.955383
764.936362	2400.317677
765.262602	2401.353635
765.588796	2398.409601
765.914943	2398.868346
766.241044	2397.895403
766.567097	2397.532440
766.893104	2398.676782
767.219064	2397.608057
767.544978	2396.965310
767.870845	2397.973541
768.196665	2396.904816
768.522438	2398.291134
768.848165	2396.844322
769.173846	2397.908006
769.499479	2397.444220
769.825066	2396.166287
770.150607	2397.981103
770.476101	2397.287944
770.801548	2396.980434
771.126949	2393.779301
771.452303	2396.564538
771.777611	2395.878942
772.102872	2395.256359
772.428087	2397.260218
772.753256	2397.325753
773.078378	2394.848026
773.403453	2395.833571
773.728482	2395.440361
774.053465	2395.949518
774.378401	2396.393139
774.703291	2396.123438
775.028135	2396.541853
775.352932	2391.223436
775.677683	2395.420197
776.002388	2395.768036
776.327046	2396.125958
776.651658	2393.741492
776.976224	2396.879611
777.300743	2393.965824
777.625216	2392.541698
777.949643	2392.584548
778.274024	2397.494631
778.598359	2393.996071
778.922647	2391.767881
779.246889	2395.389950
779.571086	2391.205792
779.895236	2395.475649
780.219339	2393.953221
780.543397	2394.517830
780.867409	2394.437172
781.191374	2394.444733
781.515294	2394.603530
781.839167	2398.528068
782.162995	2393.567573
782.486776	2394.127141
782.810511	2395.321894
783.134201	2394.469939
783.457844	2395.054713
783.781441	2395.314332
784.104993	2394.283416
784.428498	2395.851215
784.751958	2393.993550
785.075372	2395.657131
785.398739	2395.052192
785.722061	2394.606050
786.045337	2394.462377
786.368568	2392.151008
786.691752	2394.288458
787.014891	2395.079919
787.337983	2395.369785
787.661030	2395.490773
787.984031	2395.470608
788.306987	2395.120248
788.629897	2395.011863
788.952760	2395.246277
789.275579	2396.075547
789.598351	2395.518499
789.921078	2394.069167
790.243759	2395.425238
790.566395	2394.532953
790.888984	2394.732079
791.211529	2394.774929
791.534027	2394.638818
791.856480	2393.539846
792.178888	2392.922305
792.501249	2393.340721
792.823566	2394.046482
793.145836	2395.551267
793.468062	2394.384239
793.790241	2392.430792
794.112375	2397.928171
794.434464	2393.169321
794.756507	2397.958417
795.078505	2395.110166
795.400457	2391.384753
795.722364	2388.085318
796.044226	2394.243087
796.366042	2389.650596
796.687812	2393.381050
797.009538	2394.616132
797.331218	2396.125958
797.652852	2394.958931
797.974442	2394.903478
798.295986	2394.880793
798.617484	2392.919784
798.938938	2394.338869
799.260346	2395.291647
799.581709	2396.541853
799.903026	2395.881462
800.224299	2396.057903
800.545526	2394.996740
800.866708	2395.977244
801.187845	2393.194527
801.508936	2394.185114
801.829983	2395.896586
802.150984	2393.852398
802.471940	2394.648900
802.792851	2391.334341
803.113717	2391.815772
803.434538	2393.363406
803.755314	2397.227450
804.076045	2394.124620
804.396731	2394.127141
804.717372	2393.237377
805.037967	2391.704866
805.358518	2392.385422
805.679024	2393.784342
805.999485	2391.215874
806.319901	2393.058416
806.640272	2395.120248
806.960598	2392.829043
807.280879	2394.240567
807.601115	2394.812738
807.921306	2392.854249
808.241453	2392.970196
808.561554	2392.682850
808.881611	2395.223592
809.201623	2393.865001
809.521590	2392.566903
809.841513	2396.050341
810.161390	2392.027500
810.481223	2389.703528
810.801011	2395.984806
811.120755	2393.262583
811.440453	2394.550598
811.760107	2393.683519
812.079716	2391.750237
812.399281	2392.398025
812.718801	2390.154711
813.038276	2387.813095
813.357707	2394.217881
813.677093	2392.647562
813.996434	2395.122768
814.315731	2394.258211
814.634983	2392.778632
814.954191	2392.773591
815.273354	2392.697973
815.592473	2393.633107
815.911547	2392.461039
816.230577	2394.938766
816.549562	2394.437172
816.868502	2394.633777
817.187399	2395.306771
817.506250	2394.185114
817.825058	2392.229146
818.143821	2392.909702
818.462539	2392.897099
818.781213	2394.147305
819.099843	2395.405073
819.418429	2394.432130
819.736970	2397.703839
820.055466	2397.240053
820.373919	2396.942625
820.692327	2398.981772
821.010691	2397.910527
821.329011	2404.509397
821.647286	2412.141704
821.965517	2420.540266
822.283704	2422.685277
822.601847	2424.968920
822.919945	2421.684608
823.237999	2416.257806
823.556010	2414.316962
823.873976	2412.131622
824.191897	2408.950653
824.509775	2404.176681
824.827609	2402.694582
825.145398	2401.799777
825.463144	2399.344735
825.780845	2398.885990
826.098502	2402.538306
826.416116	2405.479819
826.733685	2403.725498
827.051210	2407.347567
827.368692	2403.193656
827.686129	2403.352452
828.003522	2399.816083
828.320872	2394.936246
828.638177	2398.901113
828.955439	2392.198899
829.272656	2391.848539
829.589830	2393.234856
829.906960	2396.645197
830.224046	2393.912892
830.541088	2393.484393
830.858086	2394.628735
831.175041	2392.609753
831.491952	2393.895248
831.808819	2393.025648
832.125642	2395.150495
832.442421	2396.642676
832.759157	2396.708211
833.075849	2398.064282
833.392497	2398.223078
833.709101	2398.384395
834.025662	2397.542522
834.342179	2398.018911
834.658653	2396.403222
834.975083	2394.553118
835.291469	2398.570918
835.607811	2396.680485
835.924110	2394.084291
836.240366	2396.012532
836.556578	2393.922974
836.872746	2394.598488
837.188871	2392.075391
837.504952	2393.950700
837.820990	2395.243756
838.136984	2393.900289
838.452935	2393.048334
838.768842	2392.279558
839.084706	2394.598488
839.400526	2392.309805
839.716303	2393.456667
840.032037	2394.497665
840.347727	2393.854918
840.663373	2393.199568
840.978977	2396.793911
841.294537	2393.144116
841.610054	2393.660834
841.925527	2393.746533
842.240957	2390.593292
842.556344	2395.284085
842.871687	2391.538508
843.186987	2392.660165
843.502244	2393.655793
843.817458	2391.835936
844.132629	2393.403735
844.447756	2391.762839
844.762840	2387.702190
845.077881	2387.021634
845.392879	2388.579351
845.707833	2390.187479
846.022745	2385.315204
846.337613	2388.057591
846.652438	2390.144629
846.967221	2393.035731
847.281960	2391.541029
847.596656	2391.029352
847.911309	2391.208312
848.225919	2393.897768
848.540485	2392.922305
848.855009	2392.423231
849.169490	2390.121944
849.483928	2391.019269
849.798323	2393.373488
850.112675	2391.367109
850.426984	2391.830895
850.741251	2392.052706
851.055474	2391.359547
851.369654	2391.228477
851.683792	2390.308467
851.997887	2393.988509
852.311938	2391.556152
852.625947	2392.869373
852.939914	2391.722510
853.253837	2390.517674
853.567718	2390.830226
853.881555	2390.875596
854.195350	2392.203940
854.509103	2390.719321
854.822812	2390.487428
855.136479	2391.420041
855.450103	2390.447098
855.763685	2393.055895
856.077224	2389.441388
856.390720	2391.828374
856.704173	2389.509444
857.017584	2391.961965
857.330953	2390.172355
857.644278	2390.021121
857.957561	2394.565721
858.270802	2391.954403
858.584000	2390.454660
858.897155	2392.690412
859.210268	2390.036244
859.523339	2390.454660
859.836367	2393.108828
860.149352	2392.017418
860.462295	2393.532284
860.775195	2390.585730
861.088054	2388.692777
861.400869	2387.692108
861.713642	2385.605070
862.026373	2390.104300
862.339062	2393.000443
862.651708	2391.067160
862.964312	2390.421892
863.276873	2392.244270
863.589392	2390.578168
863.901869	2390.348796
864.214303	2390.290823
864.526696	2388.813764
864.839045	2390.028682
865.151353	2392.004815
865.463619	2390.772253
865.775842	2390.570607
866.088023	2390.033724
866.400162	2391.987171
866.712258	2388.523898
867.024313	2390.005997
867.336325	2388.017262
867.648296	2390.099259
867.960224	2389.428785
868.272110	2391.379712
868.583954	2390.615977
868.895755	2389.224618
869.207515	2389.471635
869.519233	2392.468601
869.830909	2392.753426
870.142542	2391.528426
870.454134	2391.639331
870.765684	2391.273848
871.077191	2390.568086
871.388657	2393.045813
871.700081	2388.682694
872.011463	2391.180586
872.322803	2392.151008
872.634101	2392.413148
872.945357	2390.358878
873.256571	2392.718138
873.567744	2388.901985
873.878874	2390.084135
874.189963	2389.267468
874.501010	2393.406256
874.812015	2389.353168
875.122979	2389.259907
875.433900	2391.631769
875.744780	2390.870555
876.055618	2389.998436
876.366415	2390.195041
876.677169	2392.546739
876.987882	2390.540360
877.298554	2388.017262
877.609183	2387.639176
877.919771	2386.787221
878.230317	2388.836450
878.540822	2392.491286
878.851285	2390.149670
879.161707	2392.135885
879.472087	2390.701677
879.782425	2392.067829
880.092722	2393.461708
880.402977	2398.976731
880.713191	2401.744324
881.023363	2401.421690
881.333494	2405.373955
881.643583	2403.203738
881.953631	2402.445044
882.263637	2406.460323
882.573602	2403.566701
882.883526	2398.714591
883.193408	2399.100239
883.503248	2400.080743
883.813048	2398.770043
884.122806	2397.703839
884.432522	2396.330125
884.742197	2394.409445
885.051831	2395.392470
885.361424	2392.478683
885.670975	2395.531102
885.980485	2393.098745
886.289954	2394.719476
886.599382	2389.136398
886.908768	2391.578837
887.218113	2391.057078
887.527417	2389.993394
887.836680	2392.244270
888.145901	2391.089845
888.455082	2392.019938
888.764221	2391.785525
889.073319	2389.978271
889.382376	2393.887686
889.691392	2391.830895
890.000366	2391.286450
890.309300	2392.019938
890.618193	2392.859290
890.927044	2393.262583
891.235855	2391.951883
891.544625	2391.538508
891.853353	2389.842160
892.162041	2390.489948
892.470687	2389.116234
892.779293	2390.621018
893.087858	2388.864176
893.396381	2387.205636
893.704864	2388.778476
894.013306	2389.075904
894.321707	2394.522871
894.630068	2394.240567
894.938387	2394.888355
895.246665	2392.652603
895.554903	2392.415669
895.863100	2395.604199
896.171256	2392.685371
896.479371	2394.169990
896.787446	2391.198230
897.095480	2393.839795
897.403473	2391.402397
897.711425	2391.926677
898.019336	2391.556152
898.327207	2393.015566
898.635038	2392.574465
898.942827	2392.687891
899.250576	2390.835267
899.558284	2390.406769
899.865952	2390.043806
900.173579	2391.392315
900.481165	2390.361399
900.788711	2389.043137
901.096216	2387.765204
901.403681	2390.290823
901.711105	2391.054557
902.018489	2390.419372
902.325832	2391.135216
902.633135	2390.031203
902.940397	2391.334341
903.247619	2391.689743
903.554800	2395.001781
903.861941	2391.110010
904.169041	2396.554456
904.476101	2391.299053
904.783121	2393.146636
905.090100	2392.365257
905.397039	2393.789383
905.703938	2390.084135
906.010796	2391.576317
906.317614	2390.767212
906.624391	2389.857283
906.931129	2390.139588
907.237826	2392.783673
907.544483	2389.887530
907.851099	2392.398025
908.157675	2390.626059
908.464211	2389.748898
908.770707	2385.773949
909.077163	2389.443909
909.383578	2382.988711
909.689954	2387.785369
909.996289	2384.954761
910.302584	2389.612787
910.608839	2390.018600
910.915054	2390.061450
911.221229	2388.082797
911.527363	2388.276882
911.833458	2390.399207
912.139513	2388.044988
912.445527	2390.326111
912.751502	2390.250493
913.057436	2389.867366
913.363331	2389.617828
913.669186	2390.162273
913.975000	2390.676471
914.280775	2389.612787
914.586510	2390.903323
914.892205	2387.959289
915.197859	2393.663354
915.503475	2391.785525
915.809050	2395.246277
916.114585	2393.363406
916.420081	2396.393139
916.725536	2395.624363
917.030952	2393.978427
917.336328	2394.205278
917.641665	2392.884496
917.946961	2394.933725
918.252218	2397.015722
918.557435	2390.736965
918.862612	2391.248642
919.167750	2392.161091
919.472848	2390.714279
919.777906	2388.970040
920.082925	2390.573127
920.387904	2392.821482
920.692843	2388.067674
920.997743	2388.357540
921.302603	2389.910215
921.607423	2388.150853
921.912204	2392.836605
922.216946	2389.113713
922.521647	2391.006666
922.826310	2390.905843
923.130932	2392.798797
923.435516	2388.660009
923.740059	2387.566079
924.044564	2387.883672
924.349028	2386.691439
924.653454	2385.355533
924.957840	2386.010883
925.262186	2384.420399
925.566493	2386.225132
925.870761	2383.523073
926.174989	2390.684032
926.479178	2388.342417
926.783328	2389.491800
927.087438	2391.049516
927.391509	2390.137067
927.695541	2388.697818
927.999533	2389.474156
928.303486	2388.188661
928.607400	2387.417365
928.911275	2389.945503
929.215110	2385.683208
929.518906	2389.774104
929.822663	2389.017931
930.126381	2389.106151
930.430060	2387.765204
930.733699	2387.530791
931.037299	2389.096069
931.340861	2387.679505
931.644383	2389.131357
931.947866	2388.370143
932.251309	2389.222098
932.554714	2388.778476
932.858080	2386.429299
933.161407	2386.381408
933.464694	2387.177910
933.767943	2387.926521
934.071153	2390.530277
934.374323	2387.921480
934.677455	2388.838970
934.980548	2385.809237
935.283602	2390.852911
935.586617	2387.215719
935.889593	2388.806203
936.192530	2388.934752
936.495428	2389.774104
936.798287	2389.088507
937.101108	2387.729916
937.403890	2389.476676
937.706632	2387.671943
938.009336	2390.323590
938.312002	2388.874258
938.614628	2390.298384
938.917216	2389.365771
939.219765	2389.905174
939.522275	2389.481717
939.824747	2390.502551
940.127179	2386.560369
940.429573	2386.583054
940.731929	2387.339227
941.034246	2383.228166
941.336524	2391.291492
941.638763	2386.741850
941.940964	2389.333003
942.243126	2387.676984
942.545250	2387.482900
942.847335	2387.931563
943.149381	2387.850904
943.451389	2387.576161
943.753359	2388.720503
944.055290	2389.466594
944.357182	2391.104969
944.659036	2387.896274
944.960851	2388.753271
945.262628	2390.137067
945.564367	2389.491800
945.866067	2389.867366
946.167729	2388.604557
946.469352	2389.640514
946.770937	2388.823847
947.072484	2386.472148
947.373992	2387.588764
947.675462	2387.792931
947.976893	2387.611449
948.278286	2388.339896
948.579641	2388.231511
948.880958	2386.880482
949.182236	2387.324103
949.483476	2385.862169
949.784678	2386.454504
950.085841	2389.247304
950.386967	2387.351830
950.688054	2387.069525
950.989103	2386.401572
951.290114	2386.711603
951.591087	2389.973230
951.892021	2388.150853
952.192917	2386.696480
952.493776	2386.225132
952.794596	2389.078425
953.095378	2389.085987
953.396122	2388.544063
953.696828	2390.575648
953.997496	2388.957437
954.298126	2387.256048
954.598718	2388.720503
954.899272	2388.352499
955.199788	2386.366284
955.500266	2387.303939
955.800706	2385.577344
956.101108	2386.693959
956.401472	2387.170348
956.701798	2382.426623
957.002087	2382.421581
957.302337	2389.053219
957.602550	2387.019114
957.902724	2386.764535
958.202861	2388.725544
958.502960	2389.169166
958.803022	2387.591285
959.103045	2385.194216
959.403031	2389.673281
959.702979	2386.870400
960.002889	2389.658158
960.302762	2390.409290
960.602596	2388.894423
960.902393	2386.923332
961.202153	2387.354350
961.501875	2386.668753
961.801559	2385.713455
962.101205	2387.152704
962.400814	2389.055740
962.700385	2387.666902
962.999918	2387.503064
963.299414	2384.904350
963.598873	2388.324773
963.898293	2388.138250
964.197677	2385.872251
964.497022	2387.039278
964.796331	2387.278733
965.095601	2386.399052
965.394835	2387.934083
965.694030	2385.441232
965.993189	2388.786038
966.292309	2385.821840
966.591393	2384.306973
966.890439	2387.424927
967.189447	2385.068187
967.488419	2388.299567
967.787353	2388.987684
968.086249	2386.847714
968.385108	2389.254865
968.683930	2387.218239
968.982714	2385.315204
969.281462	2385.093393
969.580172	2384.412837
969.878844	2387.417365
970.177480	2388.682694
970.476078	2386.613301
970.774639	2387.329145
971.073162	2386.305790
971.371649	2385.814278
971.670098	2385.607591
971.968510	2384.690101
972.266885	2381.463762
972.565223	2388.193703
972.863524	2386.280585
973.161788	2388.518857
973.460014	2387.737478
973.758204	2387.987015
974.056356	2385.322765
974.354471	2385.181613
974.652550	2386.794782
974.950591	2388.470966
975.248595	2385.922663
975.546563	2386.119268
975.844493	2388.062633
976.142386	2382.834956
976.440243	2387.092210
976.738062	2387.732437
977.035845	2386.595657
977.333590	2385.738661
977.631299	2388.349978
977.928971	2386.479710
978.226606	2387.135060
978.524204	2387.432488
978.821765	2387.263610
979.119290	2385.862169
979.416777	2385.884854
979.714228	2385.854607
980.011642	2383.863351
980.309020	2387.276213
980.606360	2385.363095
980.903664	2385.605070
981.200931	2386.635986
981.498162	2387.593805
981.795356	2385.226983
982.092513	2388.347458
982.389633	2386.124309
982.686717	2387.593805
982.983764	2388.337375
983.280775	2390.789897
983.577749	2387.722355
983.874686	2387.029196
984.171587	2386.681356
984.468451	2388.549104
984.765279	2384.894267
985.062070	2387.273692
985.358824	2389.141439
985.655543	2387.361912
985.952224	2386.083980
986.248869	2387.034237
986.545478	2382.598022
986.842050	2387.455173
987.138586	2384.120450
987.435086	2386.247817
987.731549	2382.787065
988.027975	2386.177241
988.324366	2385.080790
988.620719	2387.639176
988.917037	2385.521891
989.213318	2387.230842
989.509563	2386.784700
989.805772	2387.014073
990.101944	2384.473331
990.398080	2387.029196
990.694180	2388.665050
990.990244	2387.233363
991.286271	2384.241438
991.582262	2385.728578
991.878217	2387.266130
992.174136	2388.375184
992.470019	2384.853938
992.765865	2386.633465
993.061676	2386.406613
993.357450	2384.889226
993.653188	2384.490975
993.948890	2387.651778
994.244556	2388.125647
994.540186	2385.781510
994.835780	2386.822509
995.131337	2386.580533
995.426859	2386.991387
995.722345	2388.743188
996.017795	2384.014586
996.313208	2385.872251
996.608586	2386.225132
996.903928	2388.476007
997.199234	2385.350492
997.494504	2384.564072
997.789738	2387.067005
998.084936	2384.337220
998.380099	2385.128681
998.675225	2386.371325
998.970316	2389.514485
999.265371	2387.276213
999.560390	2386.273023
999.855373	2387.732437
1000.150320	2388.060112
1000.445232	2387.878630
1000.740108	2384.682539
1001.034948	2388.105482
1001.329752	2385.990718
1001.624521	2386.555328
1001.919254	2382.106509
1002.213951	2384.037271
1002.508613	2381.567106
1002.803239	2385.418547
1003.097829	2384.453166
1003.392384	2387.248486
1003.686903	2385.632796
1003.981386	2388.148332
1004.275834	2386.227652
1004.570246	2388.821326
1004.864623	2385.902498
1005.158964	2383.397045
1005.453270	2386.240255
1005.747540	2385.766387
1006.041775	2383.787734
1006.335974	2385.990718
1006.630138	2383.545759
1006.924266	2386.212529
1007.218359	2385.554658
1007.512416	2386.729247
1007.806438	2386.353681
1008.100425	2387.548435
1008.394376	2386.699000
1008.688292	2387.800492
1008.982172	2384.659854
1009.276017	2382.560213
1009.569827	2383.807899
1009.863602	2385.776469
1010.157341	2383.570964
1010.451045	2389.461553
1010.744714	2387.613970
1011.038347	2386.267982
1011.331945	2388.375184
1011.625508	2384.191026
1011.919036	2386.330996
1012.212528	2387.561038
1012.505986	2385.930224
1012.799408	2387.457694
1013.092795	2386.847714
1013.386147	2384.329658
1013.679464	2387.124978
1013.972745	2385.859648
1014.265992	2385.257230
1014.559204	2383.228166
1014.852380	2384.001983
1015.145521	2385.347971
1015.438628	2385.680687
1015.731699	2386.653630
1016.024736	2383.301263
1016.317737	2384.821171
1016.610703	2385.854607
1016.903635	2382.290511
1017.196531	2381.226828
1017.489393	2383.639020
1017.782219	2383.631458
1018.075011	2382.484596
1018.367768	2385.027858
1018.660490	2385.068187
1018.953177	2385.068187
1019.245829	2385.068187
