Dividing Wavelength (nm)	Counts (n)	Blue Motor Position (mm): 0.000000	Red Motor Position (mm): 44.000000	
326.493990	1994.799700
326.888308	1994.799700
327.282561	1994.799700
327.676750	1971.191977
328.070874	1975.179530
328.464933	1982.549697
328.858929	1989.866931
329.252859	2002.847902
329.646726	2015.917094
330.040528	2030.420493
330.434265	2052.856149
330.827938	2071.190825
331.221547	2091.063054
331.615091	2109.322113
332.008571	2130.583179
332.401986	2152.103865
332.795338	2171.527431
333.188625	2193.174145
333.581847	2212.065869
333.975006	2230.103118
334.368100	2247.167424
334.761129	2265.499580
335.154095	2279.052722
335.546996	2315.346509
335.939833	2382.366129
336.332606	2399.992523
336.725315	2411.877043
337.117960	2419.864752
337.510540	2426.511513
337.903056	2436.034252
338.295508	2441.894594
338.687896	2450.527570
339.080220	2456.765998
339.472480	2462.349076
339.864676	2467.561629
340.256807	2466.187914
340.648875	2472.068420
341.040879	2472.113791
341.432818	2471.927268
341.824694	2474.052114
342.216506	2474.256281
342.608253	2473.686631
342.999937	2471.110601
343.391557	2471.639922
343.783113	2471.632360
344.174605	2470.349387
344.566033	2467.985086
344.957397	2468.398460
345.348697	2467.420476
345.739934	2463.624488
346.131106	2463.402677
346.522215	2461.958386
346.913260	2457.975875
347.304241	2461.988633
347.695159	2455.795576
348.086012	2453.920266
348.476802	2453.453960
348.867528	2451.402210
349.258191	2453.287602
349.648789	2449.955399
350.039324	2448.112857
350.429796	2448.354832
350.820203	2448.034719
351.210548	2447.812908
351.600828	2447.079421
351.991045	2445.821653
352.381198	2444.271498
352.771288	2447.959102
353.161314	2445.720830
353.551276	2448.178392
353.941175	2448.674946
354.331010	2447.283587
354.720782	2446.965995
355.110490	2450.013372
355.500135	2448.601849
355.889717	2445.546910
356.279235	2449.368104
356.668689	2452.917077
357.058080	2450.893053
357.447408	2446.691252
357.836672	2447.054215
358.225873	2450.192333
358.615010	2449.917590
359.004084	2453.542180
359.393095	2454.210133
359.782043	2457.852366
360.170927	2456.846656
360.559748	2455.253652
360.948505	2457.590226
361.337199	2460.816565
361.725830	2459.417645
362.114398	2461.151802
362.502903	2461.837398
362.891344	2460.955197
363.279722	2462.984261
363.668037	2465.671196
364.056289	2463.206072
364.444478	2465.025928
364.832603	2468.219499
365.220665	2465.683799
365.608665	2468.932823
365.996601	2470.840899
366.384474	2471.133286
366.772284	2471.763430
367.160031	2472.428863
367.547715	2472.857361
367.935336	2470.961887
368.322893	2475.514049
368.710388	2475.430870
369.097820	2481.533187
369.485189	2476.118987
369.872495	2482.256592
370.259738	2482.657364
370.646918	2484.504947
371.034035	2486.465956
371.421090	2491.665906
371.808081	2495.318222
372.195010	2498.358038
372.581875	2504.740138
372.968678	2512.616941
373.355418	2518.144566
373.742096	2531.901875
374.128710	2542.405119
374.515262	2553.606563
374.901751	2570.832186
375.288177	2589.159301
375.674540	2607.804008
376.060841	2627.570372
376.447079	2654.419558
376.833254	2678.954853
377.219367	2705.403267
377.605417	2738.707650
377.991404	2767.119593
378.377329	2809.203145
378.763191	2842.726818
379.148991	2895.358985
379.534727	2949.085082
379.920402	2992.020590
380.306013	3044.690565
380.691563	3111.833693
381.077049	3170.943742
381.462474	3226.356106
381.847835	3305.630770
382.233134	3377.774723
382.618371	3441.232768
383.003545	3529.021941
383.388657	3614.343470
383.773706	3710.145558
384.158693	3785.533493
384.543618	3878.507493
384.928480	3961.018579
385.313280	4070.182245
385.698017	4176.290972
386.082692	4304.903409
386.467305	4367.413717
386.851856	4499.171834
387.236344	4658.893232
387.620770	4724.481164
388.005133	4845.819217
388.389435	4999.483668
388.773674	5088.633954
389.157851	5223.295776
389.541965	5357.513976
389.926018	5384.065734
390.310008	5566.381583
390.693936	5696.027457
391.077802	5817.055479
391.461606	5955.026818
391.845348	6068.477986
392.229027	6193.654877
392.612645	6424.655669
392.996200	6543.445419
393.379694	6727.550878
393.763125	6956.494880
394.146494	7052.924591
394.529801	7192.231836
394.913047	7443.999662
395.296230	7444.327337
395.679351	7498.928075
396.062410	7773.441587
396.445408	7665.197931
396.828343	7824.863877
397.211217	7965.451575
397.594028	7838.999272
397.976778	8050.957106
398.359466	8225.257521
398.742092	8196.311215
399.124656	8347.928958
399.507158	8536.382413
399.889598	8561.787308
400.271977	8779.234958
400.654294	8815.480854
401.036549	9018.286473
401.418742	9043.719095
401.800874	9357.357002
402.182944	9437.939846
402.564952	9815.509666
402.946898	9636.541143
403.328783	9695.212612
403.710606	9894.113857
404.092367	10157.075566
404.474067	10533.377536
404.855705	10314.455347
405.237282	10266.445919
405.618797	10706.823475
406.000250	10959.365118
406.381642	11339.694970
406.762972	11282.999633
407.144240	11086.848337
407.525447	11352.605365
407.906593	11276.259610
408.287677	11547.622401
408.668700	11705.685260
409.049661	11674.384735
409.430560	11837.176196
409.811399	11811.030252
410.192176	11979.296405
410.572891	12052.665358
410.953545	12559.818038
411.334138	12012.434430
411.714669	12648.953200
412.095139	11924.574680
412.475547	12451.544136
412.855894	12284.588682
413.236180	12627.223306
413.616405	12295.124694
413.996568	12584.635638
414.376670	12558.729149
414.756711	12432.037391
415.136691	12726.360117
415.516609	12915.479004
415.896466	12985.316628
416.276262	13272.576698
416.655997	13724.750554
417.035670	13757.064350
417.415283	14431.119552
417.794834	14525.661351
418.174324	14258.409621
418.553753	14154.070339
418.933121	14668.820038
419.312428	14470.551457
419.691674	14381.088620
420.070859	14846.843345
420.449983	14499.374254
420.829045	15060.704214
421.208047	14801.588907
421.586988	15264.167704
421.965867	15532.518406
422.344686	15525.455749
422.723444	16109.501148
423.102141	14760.195992
423.480777	15983.071531
423.859352	15473.496576
424.237866	16618.443438
424.616319	16317.224413
424.994712	16988.663256
425.373044	16773.685771
425.751314	17472.704766
426.129524	16564.941672
426.507673	17703.067853
426.885762	17379.047689
427.263789	17601.788551
427.641756	17760.862161
428.019662	17828.756421
428.397508	17869.040281
428.775292	18189.463581
429.153016	18136.486096
429.530679	18231.020333
429.908282	18253.181245
430.285824	17968.424109
430.663305	18697.420325
431.040726	18278.661758
431.418086	18096.282894
431.795385	18770.484288
432.172624	19181.411424
432.549802	18737.920955
432.926920	18921.950797
433.303977	18818.352565
433.680974	19070.639630
434.057910	19363.603765
434.434786	19391.370440
434.811601	19303.394744
435.188355	20362.720128
435.565050	20012.254071
435.941683	19952.274423
436.318257	20855.049295
436.694770	20656.783235
437.071222	21258.966706
437.447614	20324.452729
437.823946	20358.472956
438.200218	20505.576346
438.576429	20285.814805
438.952580	20558.468132
439.328670	20516.792913
439.704700	20938.099784
440.080670	20511.126656
440.456580	21106.761668
440.832429	21290.410903
441.208218	20249.090000
441.583947	20704.775019
441.959616	20813.333747
442.335224	21063.551418
442.710773	21199.917150
443.086261	21750.340574
443.461689	21098.322777
443.837057	21212.298224
444.212365	21884.800750
444.587612	21878.935367
444.962800	21435.361720
445.337927	21877.065099
445.712995	20581.796071
446.088002	22483.410043
446.462949	22674.661337
446.837837	22861.988094
447.212664	22825.202794
447.587431	25750.052529
447.962139	28734.939886
448.336786	31128.192387
448.711374	29544.203875
449.085901	25780.188547
449.460369	25739.529121
449.834776	25653.947972
450.209124	28216.530310
450.583412	27722.058653
450.957640	28255.349715
451.331808	26876.379889
451.705917	25466.984179
452.079965	25514.464287
452.453954	25888.848097
452.827883	25769.082885
453.201752	25559.005401
453.575562	25720.337448
453.949311	26898.825627
454.323001	26949.189274
454.696632	26696.932456
455.070202	28292.293811
455.443713	28417.581607
455.817164	29026.545430
456.190556	29571.753781
456.563888	28994.037550
456.937160	29449.404977
457.310373	27741.908196
457.683526	28220.492657
458.056619	28205.656541
458.429653	28130.553431
458.802628	28723.773730
459.175542	28834.361522
459.548398	30155.794139
459.921194	31757.882913
460.293930	32427.786725
460.666607	34499.821943
461.039224	36283.828316
461.411782	36675.399941
461.784280	35465.429757
462.156719	34994.742263
462.529099	34431.872230
462.901419	33136.882986
463.273680	32042.534186
463.645882	32136.397950
464.018024	32112.044136
464.390106	32968.284117
464.762130	35701.229728
465.134094	39825.057411
465.505999	45176.191807
465.877845	49789.903698
466.249631	50973.848926
466.621358	49290.227050
466.993026	47177.161880
467.364634	45100.634994
467.736184	43113.039102
468.107674	41828.797598
468.479105	41018.648887
468.850477	40326.765645
469.221790	38856.379535
469.593043	37083.602332
469.964238	36198.998300
470.335373	36121.735055
470.706449	37889.667709
471.077467	40502.790134
471.448425	45115.420698
471.819324	47930.141386
472.190164	46037.417489
472.560945	42457.149699
472.931667	39322.164507
473.302330	38207.951039
473.672934	37374.345839
474.043479	37895.452433
474.413965	37061.259939
474.784393	36690.278907
475.154761	37598.515869
475.525070	37631.167422
475.895321	37167.650970
476.265513	37772.228989
476.635645	38768.713870
477.005719	38576.313192
477.375734	39049.042353
477.745691	39739.241849
478.115588	41125.874229
478.485427	43124.686688
478.855207	46504.301432
479.224928	49121.015680
479.594591	50768.537853
479.964194	49773.421646
480.333739	49934.060534
480.703226	49976.386062
481.072653	50631.191617
481.442022	51082.621903
481.811333	51353.745239
482.180584	50065.090205
482.549777	49539.207118
482.918912	49023.232419
483.287988	48714.305470
483.657005	47884.327380
484.025964	47246.505472
484.394864	47266.423071
484.763706	46842.366250
485.132489	45960.706251
485.501213	45791.719213
485.869879	45940.534074
486.238487	45515.542120
486.607036	45715.116359
486.975527	45190.070104
487.343959	45376.577673
487.712333	45445.371779
488.080648	45386.029836
488.448905	45831.834194
488.817104	45646.281924
489.185244	46609.164994
489.553326	48305.309097
489.921350	51022.178468
490.289315	53855.977403
490.657222	54434.848058
491.025070	54704.965684
491.392861	53815.449047
491.760593	52610.298205
492.128267	50968.906075
492.495883	49465.528134
492.863440	48060.561077
493.230939	46701.292081
493.598380	45595.946003
493.965763	45257.170382
494.333088	44431.580617
494.700354	43932.105614
495.067563	43660.377340
495.434713	43522.156463
495.801805	43578.851800
496.168839	43201.372720
496.535815	42840.269829
496.902733	42883.971592
497.269593	42465.681852
497.636395	42406.849066
498.003139	42805.208604
498.369825	42241.474014
498.736453	42552.772825
499.103023	42098.950512
499.469535	41952.031124
499.835989	42062.253433
500.202385	41712.714948
500.568723	41728.443348
500.935003	41933.204935
501.301226	41724.319685
501.667390	42350.398225
502.033497	42633.204435
502.399546	42047.606360
502.765537	41342.747188
503.131470	41729.635581
503.497345	42108.001904
503.863163	40750.283062
504.228923	41361.873326
504.594625	41794.215283
504.960269	41059.212531
505.325856	41780.054682
505.691385	41130.741463
506.056856	41273.776642
506.422270	41716.957079
506.787625	41284.194186
507.152924	41473.736530
507.518164	41587.422111
507.883347	40775.957658
508.248472	41048.631149
508.613540	41530.822556
508.978550	41850.101514
509.343503	41585.904723
509.708398	41797.071096
510.073236	42318.777587
510.438016	42329.492560
510.802738	41770.587395
511.167403	42411.502051
511.532010	42640.057884
511.896561	42938.821866
512.261053	43811.170854
512.625488	43340.901777
512.989866	43221.675968
513.354186	43068.596290
513.718449	43052.635997
514.082655	43732.097836
514.446803	43413.501954
514.810894	43933.191983
515.174927	43857.042834
515.538904	43747.700207
515.902822	44451.188185
516.266684	43871.957087
516.630488	44304.238550
516.994235	44145.943799
517.357925	44751.943423
517.721558	44896.480866
518.085133	45219.356687
518.448651	45358.283326
518.812112	45127.635414
519.175516	45232.647689
519.538863	45571.551860
519.902152	45523.139139
520.265385	45998.746798
520.628560	46050.070786
520.991678	45813.844837
521.354739	46064.024699
521.717743	46385.761220
522.080690	46263.354443
522.443580	46817.336922
522.806413	46868.194602
523.169189	46814.448340
523.531908	46995.047677
523.894569	46857.905607
524.257174	47036.241466
524.619722	47321.336360
524.982213	47313.777149
525.344647	47223.560660
525.707025	47251.826410
526.069345	47668.308897
526.431608	47587.388295
526.793815	47909.747398
527.155964	47425.796629
527.518057	47599.529914
527.880093	47384.925474
528.242072	47906.241276
528.603995	47595.708719
528.965860	47598.592259
529.327669	47699.271663
529.689421	47598.594780
530.051117	47542.461532
530.412755	47681.115948
530.774337	47771.002242
531.135862	47543.600833
531.497331	47743.593488
531.858743	47638.218249
532.220098	48005.317593
532.581396	47702.795430
532.942638	47369.212198
533.303824	47666.201694
533.664953	47626.041342
534.026025	47343.535081
534.387040	47827.551385
534.747999	47762.200387
535.108902	47922.940098
535.469748	47430.207639
535.830537	47545.786173
536.191270	47727.963391
536.551947	47395.779078
536.912567	47711.574599
537.273131	47809.708221
537.633638	47296.344839
537.994089	47653.666865
538.354483	47225.607369
538.714821	47814.194848
539.075103	48161.500101
539.435328	47909.419723
539.795497	47781.749982
540.155609	47775.274619
540.515665	48238.291997
540.875665	47701.197384
541.235609	48022.144964
541.595496	47984.306064
541.955328	48677.852886
542.315102	48036.119043
542.674821	47805.082962
543.034483	47872.793220
543.394090	47824.816559
543.753640	47787.312895
544.113134	48796.937543
544.472571	47788.749624
544.831953	49050.346265
545.191278	48251.895551
545.550548	47979.234663
545.909761	48435.975804
546.268918	48649.229215
546.628019	48949.601326
546.987064	48494.128034
547.346053	47767.261705
547.704986	48655.250873
548.063863	48203.097182
548.422684	48395.916275
548.781449	48227.740862
549.140158	48651.313732
549.498811	48494.722891
549.857408	47918.816434
550.215949	48752.671171
550.574434	48694.355103
550.932864	48437.974622
551.291237	49164.556126
551.649555	48765.510990
552.007817	49005.727012
552.366022	48645.458432
552.724173	48826.894600
553.082267	49219.887830
553.440305	49546.083252
553.798288	48834.494139
554.156215	49145.104833
554.514086	49351.530001
554.871902	49117.300349
555.229661	49125.532554
555.587365	48950.922108
555.945014	49030.862205
556.302606	48965.233944
556.660143	49192.426145
557.017625	49292.062030
557.375050	49064.315302
557.732421	49416.124826
558.089735	49397.807793
558.446994	49311.430143
558.804197	49800.585903
559.161345	49747.016082
559.518437	48978.373711
559.875474	49278.748342
560.232455	49440.768507
560.589381	49615.073963
560.946251	49311.228497
561.303065	50012.528614
561.659825	49816.019396
562.016528	49484.926494
562.373177	49207.680676
562.729770	49680.916473
563.086307	49187.266524
563.442789	49646.606380
563.799216	49713.759590
564.155587	49500.743114
564.511904	49513.066214
564.868164	49621.491351
565.224370	49866.884638
565.580520	49598.604513
565.936615	49790.380088
566.292654	49530.977434
566.648638	49767.745307
567.004567	49722.848791
567.360441	49776.002717
567.716260	49623.346496
568.072023	49896.612322
568.427732	49896.773639
568.783385	49449.197316
569.138982	49839.551502
569.494525	49807.124280
569.850013	49570.109391
570.205445	49547.174661
570.560823	49503.803094
570.916145	49404.462117
571.271412	49418.121123
571.626625	49178.053815
571.981782	49238.681252
572.336884	48921.968241
572.691931	49237.625130
573.046923	48842.799440
573.401860	48694.052634
573.756743	48685.316315
574.111570	48798.298655
574.466342	48640.717227
574.821059	48752.177138
575.175722	48267.707130
575.530330	48301.689548
575.884882	48017.686064
576.239380	47984.832864
576.593823	47949.224674
576.948211	47884.397956
577.302544	47382.845998
577.656823	47412.465298
578.011047	47639.307138
578.365216	47355.137296
578.719330	47153.425607
579.073389	47006.465890
579.427394	47079.739062
579.781344	47057.384065
580.135239	46710.653503
580.489080	46788.748538
580.842866	46273.184693
581.196597	46722.411995
581.550273	46674.410128
581.903895	46529.948303
582.257463	46948.301057
582.610975	46326.746953
582.964434	46599.881709
583.317837	46234.211533
583.671186	46076.932574
584.024481	46309.511248
584.377721	45840.605802
584.730906	46120.956970
585.084037	46172.132244
585.437113	45872.037396
585.790135	45911.305464
586.143103	45498.457649
586.496016	45617.043232
586.848874	45648.610937
587.201679	45668.150450
587.554428	45143.399102
587.907124	45329.463049
588.259765	45073.894193
588.612352	45341.224061
588.964884	44715.833638
589.317362	45008.802815
589.669786	44939.050889
590.022155	44711.883894
590.374470	45148.488147
590.726731	44650.263350
591.078937	44149.205425
591.431090	44246.761835
591.783188	43927.480356
592.135232	43588.515692
592.487222	43846.766442
592.839157	43928.097897
593.191038	43591.305970
593.542866	43350.147253
593.894639	42708.176475
594.246358	42988.663754
594.598022	42976.925428
594.949633	42583.395314
595.301190	42527.554453
595.652692	42343.471679
596.004141	42671.708768
596.355535	41675.022241
596.706876	41633.120170
597.058162	41458.660959
597.409395	41940.822119
597.760573	42027.623226
598.111698	41567.590212
598.462768	41590.023346
598.813785	41635.459266
599.164748	41054.380585
599.515657	41451.852881
599.866511	40914.854050
600.217312	41528.007072
600.568060	40462.349998
600.918753	41224.028015
601.269392	41185.874042
601.619978	40801.034878
601.970510	41024.020236
602.320988	41203.003883
602.671412	41507.779442
603.021783	41258.244847
603.372100	40903.587071
603.722363	41002.126505
604.072572	41081.065933
604.422728	41083.233629
604.772830	40903.907184
605.122878	40979.136323
605.472872	40902.402400
605.822813	41183.771881
606.172701	41003.243121
606.522534	41224.506925
606.872314	41502.977743
607.222041	41228.131514
607.571714	41613.174845
607.921333	41033.525332
608.270899	41330.807215
608.620411	41688.648480
608.969870	41467.442649
609.319276	41461.191618
609.668627	41500.195026
610.017926	41980.032213
610.367171	42138.178251
610.716362	42205.782644
611.065500	42130.810604
611.414585	42302.625730
611.763616	42599.572377
612.112594	42503.072090
612.461518	42714.475397
612.810389	42990.050072
613.159207	42839.337216
613.507971	42914.223556
613.856682	43379.053229
614.205340	43243.395779
614.553945	43927.858442
614.902496	43365.540416
615.250994	43815.758304
615.599439	43869.668403
615.947830	44069.129217
616.296169	44102.118528
616.644454	44204.859764
616.992686	44357.697466
617.340864	44841.401219
617.688990	44535.851843
618.037063	45114.924144
618.385082	45060.789714
618.733048	45352.279311
619.080961	45343.974010
619.428821	45330.020097
619.776628	45433.739316
620.124382	45235.470736
620.472083	45362.792638
620.819731	45479.979300
621.167326	45151.399413
621.514868	45108.080778
621.862357	44668.091391
622.209793	44679.302917
622.557176	44344.098954
622.904506	44102.141213
623.251783	43755.440898
623.599007	43505.061910
623.946179	43261.243984
624.293297	43201.256774
624.640363	42592.323198
624.987376	42565.857140
625.334336	42295.784885
625.681243	41927.800818
626.028097	41858.900848
626.374899	41687.904910
626.721647	41640.258444
627.068343	41489.076761
627.414987	41239.945458
627.761577	40994.327840
628.108115	41289.389095
628.454600	40723.184339
628.801032	40867.444518
629.147412	40812.831178
629.493739	40778.079984
629.840014	40390.332074
630.186236	40701.963602
630.532405	40284.208224
630.878521	40454.321961
631.224585	40313.862812
631.570597	39995.977733
631.916556	40136.809927
632.262462	40035.722189
632.608316	40026.207012
632.954117	39896.009131
633.299866	39886.317513
633.645562	39783.404878
633.991206	39275.556519
634.336797	38841.616516
634.682336	38820.534411
635.027823	38556.128412
635.373257	38367.569094
635.718639	38109.935885
636.063968	37950.630383
636.409245	37376.760552
636.754470	37407.471261
637.099642	37155.101017
637.444762	36637.117419
637.789829	36761.795236
638.134845	36394.418628
638.479808	36325.498494
638.824719	36203.784875
639.169577	35798.884439
639.514383	35819.122152
639.859137	35511.107652
640.203839	35728.278039
640.548489	35321.318292
640.893086	35377.345675
641.237632	35103.253100
641.582125	35181.222106
641.926566	35085.712405
642.270955	35037.365219
642.615292	35016.116755
642.959576	34954.617199
643.303809	34930.303714
643.647990	35041.725817
643.992118	34972.036906
644.336195	34932.015186
644.680219	34978.595447
645.024192	35244.254173
645.368112	35683.237850
645.711981	35634.976363
646.055797	36446.014838
646.399562	36307.287325
646.743274	37182.908022
647.086935	37570.981086
647.430544	37423.587830
647.774101	37516.256841
648.117606	37695.444654
648.461059	37978.767583
648.804460	37610.554144
649.147810	36983.963927
649.491108	36747.942145
649.834354	36381.760291
650.177548	35563.966670
650.520690	35110.855160
650.863781	35108.604284
651.206820	34937.983912
651.549807	34492.368597
651.892742	34011.487891
652.235626	33786.085299
652.578458	33627.268788
652.921238	33011.330529
653.263967	33279.608134
653.606644	32959.033599
653.949269	32863.312170
654.291843	32436.205452
654.634365	32795.133085
654.976836	32383.270816
655.319255	32345.956195
655.661622	32315.971412
656.003938	32077.660946
656.346203	31910.708013
656.688416	32077.575246
657.030577	31878.379093
657.372687	31705.336446
657.714746	31920.843253
658.056753	31999.376868
658.398708	31459.146657
658.740612	31479.896046
659.082465	31704.474409
659.424266	31498.424807
659.766016	31569.842834
660.107715	31419.644176
660.449362	31512.048526
660.790958	31462.438531
661.132503	31437.169747
661.473996	31426.784970
661.815438	31499.254077
662.156829	31668.213389
662.498168	31414.098906
662.839456	31406.839645
663.180693	31489.083549
663.521879	31603.300972
663.863013	31524.835412
664.204097	31502.291372
664.545129	31878.638713
664.886110	31781.006686
665.227040	31790.053037
665.567918	31886.699518
665.908746	31884.768756
666.249522	32010.351460
666.590248	31972.802425
666.930922	32049.198591
667.271545	31973.309061
667.612118	32011.735257
667.952639	31786.125978
668.293109	31800.831024
668.633528	31668.500735
668.973896	31574.458010
669.314213	31577.545717
669.654480	31301.005661
669.994695	31305.018419
670.334859	31158.686326
670.674973	31041.320703
671.015035	31151.248104
671.355047	31056.817210
671.695008	30981.328452
672.034918	30835.825628
672.374777	30853.641066
672.714585	30664.474288
673.054342	30822.164101
673.394049	30555.305581
673.733705	30784.405859
674.073310	30460.970469
674.412864	30486.980302
674.752368	30107.257910
675.091820	30350.206237
675.431223	29952.393663
675.770574	29660.218469
676.109875	29510.695325
676.449125	29226.931296
676.788324	29126.508991
677.127473	28622.360838
677.466571	28526.241158
677.805619	28177.781481
678.144616	28144.020873
678.483562	28032.192958
678.822458	27710.529534
679.161303	27598.318490
679.500098	27497.555907
679.838842	27352.910080
680.177535	27438.266897
680.516179	27635.524726
680.854771	27794.593295
681.193314	28461.726992
681.531805	29357.502222
681.870247	29928.899366
682.208638	30512.939724
682.546978	30660.388433
682.885268	30726.631715
683.223508	30245.173797
683.561697	29938.628793
683.899836	29736.556662
684.237925	29261.879095
684.575963	29083.709594
684.913951	28638.341296
685.251889	28720.060921
685.589776	28650.419901
685.927614	28574.207737
686.265401	28632.924576
686.603137	28643.909251
686.940824	28999.522325
687.278460	29244.706404
687.616046	29303.677822
687.953582	29749.767005
688.291068	29577.420037
688.628504	29793.138572
688.965889	29703.219511
689.303224	29366.946823
689.640510	29075.043851
689.977745	28441.811913
690.314930	27765.016845
690.652065	27314.645202
690.989150	26707.728087
691.326185	25954.483921
691.663170	25353.774987
692.000105	24705.631317
692.336990	24109.701397
692.673825	23714.948804
693.010610	23259.341922
693.347345	22757.805088
693.684030	22172.194410
694.020665	21907.637177
694.357251	21341.555929
694.693786	21268.938108
695.030272	21033.163342
695.366707	20561.636497
695.703093	20293.036258
696.039429	20247.698641
696.375716	20002.852319
696.711952	19924.263252
697.048139	19764.768706
697.384276	19587.494010
697.720363	19651.720831
698.056400	19456.834864
698.392388	19270.912069
698.728326	19203.829435
699.064214	19017.876393
699.400053	18947.537173
699.735842	18641.438312
700.071581	18392.859016
700.407270	18141.401221
700.742910	17951.967262
701.078501	17728.170278
701.414042	17462.204042
701.749533	17214.418728
702.084974	16909.408756
702.420366	17045.426648
702.755709	16677.757654
703.091002	16422.294662
703.426246	16413.893579
703.761440	16307.318546
704.096584	16072.037814
704.431679	16006.301168
704.766725	15898.622121
705.101721	15830.616956
705.436668	15864.501072
705.771565	15589.412868
706.106413	15826.954558
706.441212	15779.396312
706.775961	15846.625140
707.110661	15862.131729
707.445311	16098.697956
707.779913	15929.002635
708.114465	16080.244812
708.448967	16254.109167
708.783421	16735.473824
709.117825	16901.867189
709.452180	17027.371756
709.786485	17278.756454
710.120742	17851.335749
710.454949	17828.794229
710.789107	18134.252864
711.123216	18627.310478
711.457275	18683.778963
711.791286	19070.367407
712.125247	19110.333675
712.459159	18872.960864
712.793023	19348.742443
713.126837	18514.509620
713.460602	18693.402526
713.794318	18409.885513
714.127985	18098.138038
714.461602	17426.895801
714.795171	17367.576543
715.128691	16617.810773
715.462162	16197.088676
715.795584	15863.717172
716.128957	15649.503422
716.462281	15338.431462
716.795556	15143.338808
717.128782	14753.292132
717.461960	14352.182644
717.795088	14275.272280
718.128167	13970.476557
718.461198	13623.385553
718.794180	13498.344773
719.127113	13230.263773
719.459997	13055.176938
719.792833	12794.904686
720.125619	12742.204464
720.458357	12486.696102
720.791046	12342.234276
721.123686	12211.844832
721.456278	12036.261444
721.788821	11974.759367
722.121315	11776.972216
722.453761	11804.247379
722.786158	11738.707338
723.118506	11719.273690
723.450805	11601.219949
723.783056	11688.426869
724.115259	11603.695156
724.447412	11533.882737
724.779518	11670.848366
725.111574	11667.564054
725.443582	11777.244438
725.775542	11739.559293
726.107453	12037.070549
726.439315	11942.780807
726.771129	12179.493227
727.102895	12401.982032
727.434612	12523.647759
727.766281	12584.479363
728.097901	12743.270668
728.429473	12753.872214
728.760996	12725.538409
729.092471	12766.258329
729.423897	12672.424812
729.755276	12552.397460
730.086606	12612.992129
730.417887	12923.897731
730.749120	13227.685223
731.080305	13315.330724
731.411442	13505.961957
731.742530	13537.360783
732.073570	13579.668667
732.404562	13758.657355
732.735506	13629.550884
733.066401	13425.505141
733.397249	13074.429105
733.728048	12631.679686
734.058798	12078.410531
734.389501	11631.376131
734.720156	11306.894702
735.050762	10948.206524
735.381320	10707.040244
735.711831	10529.261433
736.042293	10281.914699
736.372707	10260.774621
736.703073	10113.605696
737.033391	10203.665909
737.363661	10161.171503
737.693883	10202.766063
738.024056	10295.518253
738.354182	10394.012317
738.684260	10545.168794
739.014290	10667.865438
739.344272	10775.264700
739.674207	10940.445667
740.004093	10990.615231
740.333931	10979.945628
740.663722	10999.734678
740.993464	10989.468368
741.323159	10861.375169
741.652806	10679.334063
741.982405	10530.395693
742.311956	10320.111522
742.641460	10219.991686
742.970915	10017.392754
743.300323	9799.567017
743.629683	9647.072113
743.958996	9463.059916
744.288260	9281.162482
744.617477	9087.930014
744.946647	9016.242286
745.275768	8844.016306
745.604842	8717.213642
745.933869	8604.969831
746.262847	8553.252634
746.591778	8507.637753
746.920662	8424.332686
747.249498	8408.866426
747.578286	8465.307185
747.907027	8530.953090
748.235720	8639.718505
748.564365	8646.347622
748.892963	8575.637878
749.221514	8589.647244
749.550017	8502.183225
749.878473	8462.481618
750.206881	8325.899116
750.535242	8257.329342
750.863555	8195.824744
751.191821	8123.796738
751.520039	8128.575752
751.848210	8056.698980
752.176334	8063.098725
752.504411	7997.409970
752.832440	7900.072851
753.160421	7920.630676
753.488356	7843.541352
753.816243	7781.217567
754.144082	7684.238369
754.471875	7641.378479
754.799620	7599.393230
755.127318	7573.395999
755.454969	7540.278139
755.782572	7498.502097
756.110129	7498.161819
756.437638	7441.894981
756.765100	7427.184894
757.092515	7421.422855
757.419882	7422.484018
757.747203	7412.885661
758.074477	7441.438756
758.401703	7415.539828
758.728882	7488.389542
759.056014	7509.927872
759.383099	7567.807880
759.710138	7614.804037
760.037129	7643.173130
760.364073	7652.915160
760.690970	7633.887325
761.017820	7617.410313
761.344623	7709.434056
761.671379	7858.949638
761.998088	8174.533431
762.324751	8988.067277
762.651366	10499.523667
762.977935	12384.902602
763.304456	13568.915886
763.630931	13780.619142
763.957359	13163.254236
764.283740	12134.226186
764.610074	11145.131637
764.936362	10027.654023
765.262602	9226.065191
765.588796	8440.300541
765.914943	7894.192345
766.241044	7431.331243
766.567097	7087.237205
766.893104	6790.502286
767.219064	6584.742551
767.544978	6372.535180
767.870845	6199.507656
768.196665	6092.126038
768.522438	5979.481456
768.848165	5882.981168
769.173846	5791.862312
769.499479	5716.870108
769.825066	5631.273836
770.150607	5528.459503
770.476101	5484.036856
770.801548	5421.937402
771.126949	5344.003684
771.452303	5288.984531
771.777611	5196.459193
772.102872	5180.307336
772.428087	5111.513230
772.753256	5048.614754
773.078378	4995.486033
773.403453	4916.937295
773.728482	4860.350343
774.053465	4821.147810
774.378401	4778.965955
774.703291	4723.039394
775.028135	4668.884799
775.352932	4645.539216
775.677683	4599.926856
776.002388	4552.053538
776.327046	4545.938619
776.651658	4500.084283
776.976224	4458.167089
777.300743	4448.543526
777.625216	4408.446189
777.949643	4382.549781
778.274024	4385.501377
778.598359	4340.685519
778.922647	4339.392463
779.246889	4317.980162
779.571086	4317.478568
779.895236	4323.558199
780.219339	4314.221982
780.543397	4314.463958
780.867409	4334.618491
781.191374	4323.041481
781.515294	4304.696722
781.839167	4326.988704
782.162995	4309.561435
782.486776	4278.817959
782.810511	4257.362808
783.134201	4217.794791
783.457844	4206.961352
783.781441	4185.612065
784.104993	4155.387827
784.428498	4140.339983
784.751958	4130.797079
785.075372	4115.895428
785.398739	4086.870985
785.722061	4097.109568
786.045337	4093.467335
786.368568	4139.372082
786.691752	4146.981703
787.014891	4262.204836
787.337983	4394.154518
787.661030	4601.141774
787.984031	4792.100682
788.306987	4904.253752
788.629897	4927.785858
788.952760	4877.853229
789.275579	4781.821769
789.598351	4643.681551
789.921078	4514.083568
790.243759	4387.933734
790.566395	4289.961429
790.888984	4198.197306
791.211529	4132.443016
791.534027	4053.861509
791.856480	3995.429495
792.178888	3962.598981
792.501249	3929.108075
792.823566	3882.119480
793.145836	3873.128582
793.468062	3861.627190
793.790241	3844.041125
794.112375	3857.027137
794.434464	3893.719175
794.756507	3910.123090
795.078505	3961.560503
795.400457	4057.463414
795.722364	4163.864528
796.044226	4246.040376
796.366042	4312.971776
796.687812	4287.370276
797.009538	4292.915545
797.331218	4254.973301
797.652852	4219.271849
797.974442	4158.964526
798.295986	4123.154690
798.617484	4062.466759
798.938938	4015.407588
799.260346	3981.384841
799.581709	3920.031478
799.903026	3894.170358
800.224299	3861.559134
800.545526	3812.362514
800.866708	3783.978297
801.187845	3760.786469
801.508936	3728.381932
801.829983	3712.761917
802.150984	3667.162160
802.471940	3652.595746
802.792851	3644.945795
803.113717	3635.309629
803.434538	3624.113226
803.755314	3607.608489
804.076045	3599.492231
804.396731	3588.263061
804.717372	3593.825974
805.037967	3588.931014
805.358518	3605.234105
805.679024	3622.628607
805.999485	3629.983650
806.319901	3636.539671
806.640272	3643.234323
806.960598	3656.225376
807.280879	3652.953668
807.601115	3666.900020
807.921306	3650.302021
808.241453	3645.923778
808.561554	3649.966784
808.881611	3633.436840
809.201623	3632.564721
809.521590	3610.058489
809.841513	3599.073815
810.161390	3603.666306
810.481223	3566.455029
810.801011	3556.823905
811.120755	3543.558108
811.440453	3518.985004
811.760107	3507.039990
812.079716	3489.985767
812.399281	3468.155050
812.718801	3465.079946
813.038276	3446.205866
813.357707	3432.602312
813.677093	3436.713373
813.996434	3413.201432
814.315731	3416.929365
814.634983	3413.650094
814.954191	3414.837286
815.273354	3436.259669
815.592473	3450.629478
815.911547	3477.173674
816.230577	3500.395749
816.549562	3533.185934
816.868502	3549.519273
817.187399	3567.904361
817.506250	3593.740274
817.825058	3601.541460
818.143821	3655.081034
818.462539	3712.716546
818.781213	3802.202068
819.099843	3937.640228
819.418429	4181.889173
819.736970	4412.257301
820.055466	4676.333104
820.373919	5012.905741
820.692327	5562.353701
821.010691	6662.177195
821.329011	9398.959124
821.647286	13942.999748
821.965517	19067.758610
822.283704	21753.246799
822.601847	22095.364705
822.919945	19464.799887
823.237999	16800.706355
823.556010	14374.540161
823.873976	12291.447172
824.191897	10530.645230
824.509775	9239.749403
824.827609	8086.870286
825.145398	7409.704693
825.463144	7072.159113
825.780845	7173.156110
826.098502	7681.006990
826.416116	8628.829612
826.733685	9481.104726
827.051210	9627.235173
827.368692	9019.312348
827.686129	8039.639716
828.003522	7084.809889
828.320872	6260.424959
828.638177	5638.732223
828.955439	5161.624820
829.272656	4764.850724
829.589830	4438.188996
829.906960	4162.057274
830.224046	3961.585709
830.541088	3808.621978
830.858086	3708.320660
831.175041	3626.132208
831.491952	3597.354782
831.808819	3602.728652
832.125642	3685.887526
832.442421	3880.367679
832.759157	4288.882622
833.075849	4948.721770
833.392497	5641.789683
833.709101	6036.128901
834.025662	5928.497746
834.342179	5522.382392
834.658653	5040.254000
834.975083	4639.545284
835.291469	4317.949915
835.607811	4052.202970
835.924110	3862.945452
836.240366	3689.610418
836.556578	3523.895088
836.872746	3396.434554
837.188871	3299.210861
837.504952	3217.317317
837.820990	3159.717093
838.136984	3119.667646
838.452935	3099.495469
838.768842	3109.978548
839.084706	3213.818756
839.400526	3490.623472
839.716303	3815.535920
840.032037	4010.106815
840.347727	3943.767751
840.663373	3725.263978
840.978977	3521.626569
841.294537	3362.638659
841.610054	3245.721698
841.925527	3166.167249
842.240957	3090.489448
842.556344	3025.398069
842.871687	2970.807414
843.186987	2913.917993
843.502244	2874.274359
843.817458	2841.458968
844.132629	2818.304949
844.447756	2801.878349
844.762840	2781.265071
845.077881	2768.619336
845.392879	2754.748602
845.707833	2744.285687
846.022745	2737.424676
846.337613	2734.770509
846.652438	2726.520661
846.967221	2723.742985
847.281960	2713.123794
847.596656	2712.050028
847.911309	2710.494833
848.225919	2703.969059
848.540485	2697.740713
848.855009	2698.814479
849.169490	2692.608819
849.483928	2691.184693
849.798323	2687.847449
850.112675	2684.742098
850.426984	2686.723272
850.741251	2679.920234
851.055474	2678.690193
851.369654	2682.080369
851.683792	2678.372600
851.997887	2680.754545
852.311938	2679.529545
852.625947	2680.177333
852.939914	2677.442507
853.253837	2678.077693
853.567718	2678.289421
853.881555	2675.925120
854.195350	2675.410922
854.509103	2677.586180
854.822812	2674.760613
855.136479	2673.061745
855.450103	2675.030315
855.763685	2670.465550
856.077224	2671.511590
856.390720	2675.534431
856.704173	2678.614576
857.017584	2678.816222
857.330953	2681.394772
857.644278	2681.901408
857.957561	2688.112109
858.270802	2684.908456
858.584000	2679.161541
858.897155	2681.125070
859.210268	2678.092816
859.523339	2672.426559
859.836367	2670.636950
860.149352	2666.810714
860.462295	2671.249450
860.775195	2663.135713
861.088054	2664.290137
861.400869	2660.637821
861.713642	2659.243942
862.026373	2666.982113
862.339062	2666.024294
862.651708	2668.060920
862.964312	2676.189781
863.276873	2676.706499
863.589392	2687.113961
863.901869	2695.157122
864.214303	2702.948225
864.526696	2707.971735
864.839045	2712.725543
865.151353	2719.762994
865.463619	2716.408106
865.775842	2716.677808
866.088023	2719.309290
866.400162	2715.225955
866.712258	2714.709237
867.024313	2716.279557
867.336325	2713.640512
867.648296	2714.016078
867.960224	2712.927189
868.272110	2711.107333
868.583954	2711.742518
868.895755	2716.329968
869.207515	2711.558516
869.519233	2719.914228
869.830909	2721.202243
870.142542	2723.140567
870.454134	2725.572924
870.765684	2731.813872
871.077191	2736.250087
871.388657	2740.131776
871.700081	2745.956829
872.011463	2753.213570
872.322803	2756.707090
872.634101	2766.469284
872.945357	2769.141096
873.256571	2782.658950
873.567744	2787.765639
873.878874	2789.633386
874.189963	2793.492389
874.501010	2798.755354
874.812015	2790.480300
875.122979	2794.510702
875.433900	2796.373409
875.744780	2792.975671
876.055618	2796.663275
876.366415	2793.615898
876.677169	2798.326856
876.987882	2798.846095
877.298554	2804.406487
877.609183	2814.652633
877.919771	2827.792400
878.230317	2846.991635
878.540822	2882.579660
878.851285	2928.456681
879.161707	2994.878924
879.472087	3111.899228
879.782425	3310.906338
880.092722	3723.411354
880.402977	4486.720184
880.713191	5546.176638
881.023363	6630.891794
881.333494	7223.252577
881.643583	7314.210115
881.953631	7005.641088
882.263637	6571.806950
882.573602	6128.903776
882.883526	5733.803343
883.193408	5363.011355
883.503248	5022.806567
883.813048	4712.032035
884.122806	4438.945169
884.432522	4156.307838
884.742197	3907.549581
885.051831	3696.322714
885.361424	3517.361753
885.670975	3375.715412
885.980485	3265.145264
886.289954	3172.446006
886.599382	3100.725511
886.908768	3040.536654
887.218113	2985.842656
887.527417	2942.292128
887.836680	2900.639594
888.145901	2871.912579
888.455082	2844.924762
888.764221	2823.520022
889.073319	2800.166877
889.382376	2791.523819
889.691392	2783.044598
890.000366	2778.741973
890.309300	2778.741973
890.618193	2780.115688
890.927044	2778.610903
891.235855	2780.675256
891.544625	2785.822274
891.853353	2795.339972
892.162041	2814.052735
892.470687	2843.283866
892.779293	2880.417005
893.087858	2934.637135
893.396381	3025.433357
893.704864	3165.355623
894.013306	3341.916996
894.321707	3523.978267
894.630068	3628.093217
894.938387	3630.205461
895.246665	3568.100966
895.554903	3464.684215
895.863100	3362.575644
896.171256	3278.499280
896.479371	3204.530430
896.787446	3135.950573
897.095480	3076.296079
897.403473	3026.819675
897.711425	2984.015237
898.019336	2944.600976
898.327207	2904.581776
898.635038	2874.649925
898.942827	2842.399143
899.250576	2817.871409
899.558284	2791.233952
899.865952	2776.168464
900.173579	2754.282295
900.481165	2740.887949
900.788711	2728.539643
901.096216	2718.618652
901.403681	2710.416695
901.711105	2706.272866
902.018489	2701.183821
902.325832	2712.811243
902.633135	2730.057030
902.940397	2782.406892
903.247619	2915.485792
903.554800	3170.280831
903.861941	3490.099193
904.169041	3719.282649
904.476101	3780.991413
904.783121	3681.877288
905.090100	3548.105229
905.397039	3414.698654
905.703938	3299.331849
906.010796	3196.008359
906.317614	3117.021040
906.624391	3041.660832
906.931129	2980.425936
907.237826	2919.392686
907.544483	2866.279089
907.851099	2810.465954
908.157675	2754.952768
908.464211	2711.792930
908.770707	2677.687003
909.077163	2655.256389
909.383578	2632.399798
909.689954	2620.951337
909.996289	2611.176540
910.302584	2609.089502
910.608839	2601.764706
910.915054	2597.323449
911.221229	2595.221288
911.527363	2595.400249
911.833458	2598.684561
912.139513	2604.146651
912.445527	2609.243258
912.751502	2619.421347
913.057436	2633.481125
913.363331	2649.486789
913.669186	2674.637105
913.975000	2710.578012
914.280775	2769.131013
914.586510	2855.105372
914.892205	2976.158599
915.197859	3135.799338
915.503475	3319.090651
915.809050	3471.704022
916.114585	3553.393400
916.420081	3566.649114
916.725536	3542.338149
917.030952	3466.801500
917.336328	3402.173908
917.641665	3335.257632
917.946961	3267.852363
918.252218	3207.804659
918.557435	3138.798825
918.862612	3078.519228
919.167750	3023.547966
919.472848	2963.046558
919.777906	2911.916655
920.082925	2861.898327
920.387904	2815.993580
920.692843	2781.489402
920.997743	2752.220463
921.302603	2722.238200
921.607423	2701.264480
921.912204	2681.818229
922.216946	2666.914057
922.521647	2651.777993
922.826310	2640.430356
923.130932	2628.197996
923.435516	2617.319186
923.740059	2605.716970
924.044564	2595.692636
924.349028	2588.289702
924.653454	2577.299986
924.957840	2570.436455
925.262186	2562.781463
925.566493	2556.603529
925.870761	2547.035419
926.174989	2547.877292
926.479178	2543.037784
926.783328	2536.753986
927.087438	2534.326670
927.391509	2529.764426
927.695541	2525.963396
927.999533	2521.953158
928.303486	2518.898219
928.607400	2520.705473
928.911275	2516.818743
929.215110	2514.343536
929.518906	2512.001920
929.822663	2513.635254
930.126381	2511.465037
930.430060	2513.549555
930.733699	2511.003772
931.037299	2519.404855
931.340861	2513.584843
931.644383	2517.567354
931.947866	2514.688855
932.251309	2512.397651
932.554714	2511.699451
932.858080	2515.230779
933.161407	2512.707682
933.464694	2507.059069
933.767943	2511.255830
934.071153	2509.143586
934.374323	2508.077382
934.677455	2508.445386
934.980548	2505.345077
935.283602	2502.212000
935.586617	2503.989006
935.889593	2504.407422
936.192530	2501.856598
936.495428	2506.101250
936.798287	2504.898935
937.101108	2513.640295
937.403890	2518.736902
937.706632	2527.170752
938.009336	2539.229192
938.312002	2544.214893
938.614628	2550.251675
938.917216	2555.529763
939.219765	2561.264076
939.522275	2566.005281
939.824747	2563.615774
940.127179	2560.112172
940.429573	2554.415668
940.731929	2558.809034
941.034246	2550.017262
941.336524	2558.609908
941.638763	2551.960626
941.940964	2552.701676
942.243126	2548.146993
942.545250	2544.497198
942.847335	2541.777496
943.149381	2539.824048
943.451389	2532.259797
943.753359	2530.772657
944.055290	2527.097656
944.357182	2521.948117
944.659036	2524.443488
944.960851	2520.087931
945.262628	2519.021727
945.564367	2518.220184
945.866067	2517.159021
946.167729	2520.279495
946.469352	2518.298322
946.770937	2518.094155
947.072484	2513.635254
947.373992	2518.512571
947.675462	2513.733557
947.976893	2509.960253
948.278286	2510.255161
948.579641	2508.853720
948.880958	2507.603514
949.182236	2510.723988
949.483476	2507.807680
949.784678	2507.101919
950.085841	2509.589728
950.386967	2510.978566
950.688054	2510.451766
950.989103	2511.676766
951.290114	2515.019051
951.591087	2516.223887
951.892021	2523.069774
952.192917	2528.020187
952.493776	2530.145033
952.794596	2533.439427
953.095378	2529.401463
953.396122	2528.090763
953.696828	2529.519930
953.997496	2530.369364
954.298126	2523.364681
954.598718	2520.728158
954.899272	2517.547190
955.199788	2515.918897
955.500266	2512.634585
955.800706	2507.449758
956.101108	2498.968017
956.401472	2498.327791
956.701798	2491.282778
957.002087	2491.670947
957.302337	2488.668940
957.602550	2484.865389
957.902724	2481.323979
958.202861	2480.877837
958.502960	2477.903556
958.803022	2474.243678
959.103045	2471.655046
959.403031	2472.156640
959.702979	2470.467854
960.002889	2470.757720
960.302762	2466.215641
960.602596	2464.277317
960.902393	2463.997533
961.202153	2464.020218
961.501875	2460.473766
961.801559	2460.314970
962.101205	2459.213478
962.400814	2459.125258
962.700385	2456.571913
962.999918	2458.928653
963.299414	2457.118878
963.598873	2461.416462
963.898293	2456.050154
964.197677	2455.782973
964.497022	2455.427571
964.796331	2453.476645
965.095601	2453.539659
965.394835	2455.614094
965.694030	2454.323559
965.993189	2454.497478
966.292309	2453.443877
966.591393	2453.776593
966.890439	2455.170472
967.189447	2452.879268
967.488419	2456.004783
967.787353	2454.631069
968.086249	2453.027982
968.385108	2452.680142
968.683930	2451.717282
968.982714	2455.225925
969.281462	2452.206274
969.580172	2456.541666
969.878844	2455.722479
970.177480	2453.383383
970.476078	2455.767849
970.774639	2458.827830
971.073162	2457.920422
971.371649	2454.389094
971.670098	2454.159721
971.968510	2456.019907
972.266885	2456.347582
972.565223	2460.284723
972.863524	2461.371092
973.161788	2457.146605
973.460014	2463.281689
973.758204	2459.715073
974.056356	2460.083077
974.354471	2462.089456
974.652550	2463.195989
974.950591	2459.127778
975.248595	2462.785135
975.546563	2461.983592
975.844493	2460.763633
976.142386	2458.086780
976.440243	2456.531584
976.738062	2455.719958
977.035845	2457.988478
977.333590	2456.518981
977.631299	2455.430092
977.928971	2458.225412
978.226606	2455.772890
978.524204	2454.583178
978.821765	2454.883127
979.119290	2452.405400
979.416777	2453.799279
979.714228	2455.150308
980.011642	2456.849177
980.309020	2460.569548
980.606360	2457.323045
980.903664	2457.721296
981.200931	2464.809159
981.498162	2472.663276
981.795356	2477.419605
982.092513	2489.238590
982.389633	2501.624705
982.686717	2517.970647
982.983764	2526.648993
983.280775	2535.692823
983.577749	2537.230375
983.874686	2533.162164
984.171587	2527.480783
984.468451	2518.953672
984.765279	2515.092148
985.062070	2506.255005
985.358824	2502.958090
985.655543	2495.356030
985.952224	2489.026862
986.248869	2480.842548
986.545478	2468.141361
986.842050	2464.731021
987.138586	2458.984105
987.435086	2452.763322
987.731549	2446.597990
988.027975	2454.452108
988.324366	2444.936930
988.620719	2447.187805
988.917037	2445.010027
989.213318	2447.873402
989.509563	2442.282763
989.805772	2442.186981
990.101944	2441.740839
990.398080	2440.785540
990.694180	2440.977104
990.990244	2442.960798
991.286271	2441.952567
991.582262	2441.337546
991.878217	2443.850562
992.174136	2443.638833
992.470019	2440.102464
992.765865	2443.089347
993.061676	2444.508432
993.357450	2445.667897
993.653188	2442.333174
993.948890	2449.489092
994.244556	2447.959102
994.540186	2452.349947
994.835780	2456.274485
995.131337	2458.308591
995.426859	2463.566514
995.722345	2472.643112
996.017795	2475.670325
996.313208	2480.030923
996.608586	2481.082003
996.903928	2483.393372
997.199234	2482.349853
997.494504	2478.558906
997.789738	2478.929431
998.084936	2475.632516
998.380099	2472.350725
998.675225	2471.221506
998.970316	2464.428552
999.265371	2461.489559
999.560390	2458.210288
999.855373	2453.766511
1000.150320	2449.219390
1000.445232	2451.321552
1000.740108	2444.437856
1001.034948	2444.757969
1001.329752	2438.925354
1001.624521	2439.444593
1001.919254	2434.403439
1002.213951	2437.453337
1002.508613	2435.028542
1002.803239	2433.284303
1003.097829	2431.247677
1003.392384	2433.410332
1003.686903	2436.379572
1003.981386	2435.681372
1004.275834	2434.340425
1004.570246	2431.673654
1004.864623	2433.236412
1005.158964	2433.309509
1005.453270	2434.899993
1005.747540	2432.863367
1006.041775	2431.046031
1006.335974	2435.315888
1006.630138	2431.671134
1006.924266	2431.240115
1007.218359	2434.673141
1007.512416	2430.854467
1007.806438	2432.538212
1008.100425	2430.942687
1008.394376	2433.007040
1008.688292	2431.282965
1008.982172	2429.947059
1009.276017	2431.807245
1009.569827	2431.595517
1009.863602	2433.390167
1010.157341	2429.397573
1010.451045	2432.061823
1010.744714	2429.823551
1011.038347	2430.604930
1011.331945	2431.131730
1011.625508	2430.161308
1011.919036	2427.441606
1012.212528	2432.210537
1012.505986	2428.318767
1012.799408	2428.679209
1013.092795	2430.317584
1013.386147	2430.781370
1013.679464	2430.856987
1013.972745	2431.640887
1014.265992	2427.650814
1014.559204	2429.831113
1014.852380	2426.246852
1015.145521	2429.614343
1015.438628	2426.728283
1015.731699	2429.568973
1016.024736	2429.795825
1016.317737	2426.140988
1016.610703	2429.004363
1016.903635	2426.148550
1017.196531	2424.459763
1017.489393	2425.956986
1017.782219	2424.984043
1018.075011	2431.918150
1018.367768	2427.489497
1018.660490	2428.066709
1018.953177	2428.066709
1019.245829	2428.066709
