Dividing Wavelength (nm)	Counts (n)	Blue Motor Position (mm): 0.000000	Red Motor Position (mm): 16.200000	
326.493990	1980.165231
326.888308	1980.165231
327.282561	1980.165231
327.676750	1959.239401
328.070874	1958.760492
328.464933	1964.696450
328.858929	1972.807667
329.252859	1985.380304
329.646726	2001.756493
330.040528	2017.013545
330.434265	2033.926616
330.827938	2055.487631
331.221547	2075.243913
331.615091	2091.791500
332.008571	2117.070366
332.401986	2135.057203
332.795338	2156.368681
333.188625	2177.473472
333.581847	2195.941739
333.975006	2212.191898
334.368100	2231.260063
334.761129	2248.916704
335.154095	2261.365833
335.546996	2278.241096
335.939833	2294.755916
336.332606	2309.801240
336.725315	2318.751808
337.117960	2326.560556
337.510540	2335.473316
337.903056	2346.185768
338.295508	2346.876406
338.687896	2359.985926
339.080220	2363.550022
339.472480	2370.015302
339.864676	2371.368852
340.256807	2374.854809
340.648875	2380.674822
341.040879	2378.623072
341.432818	2382.439225
341.824694	2380.881509
342.216506	2379.079296
342.608253	2382.955944
342.999937	2381.720861
343.391557	2380.142980
343.783113	2379.170037
344.174605	2374.738863
344.566033	2374.000334
344.957397	2374.948071
345.348697	2371.777185
345.739934	2370.456403
346.131106	2367.051103
346.522215	2367.245188
346.913260	2366.055475
347.304241	2363.073633
347.695159	2361.652028
348.086012	2361.417614
348.476802	2357.379650
348.867528	2357.230936
349.258191	2355.577437
349.648789	2355.413600
350.039324	2356.192458
350.429796	2354.919567
350.820203	2350.571571
351.210548	2351.705831
351.600828	2355.209433
351.991045	2351.294977
352.381198	2352.686335
352.771288	2352.071315
353.161314	2351.272292
353.551276	2351.675584
353.941175	2351.544514
354.331010	2354.254134
354.720782	2354.120544
355.110490	2349.424709
355.500135	2354.309587
355.889717	2353.664319
356.279235	2357.185565
356.668689	2355.201871
357.058080	2354.967458
357.447408	2353.230780
357.836672	2353.097189
358.225873	2353.770183
358.615010	2352.983763
359.004084	2356.706656
359.393095	2358.098014
359.782043	2358.045082
360.170927	2359.070957
360.559748	2361.233612
360.948505	2360.008611
361.337199	2363.280320
361.725830	2362.882069
362.114398	2364.500279
362.502903	2365.064889
362.891344	2366.622605
363.279722	2366.383150
363.668037	2366.330218
364.056289	2369.206197
364.444478	2367.393902
364.832603	2367.393902
365.220665	2367.008253
365.608665	2371.633512
365.996601	2369.475898
366.384474	2371.694006
366.772284	2372.046887
367.160031	2370.980683
367.547715	2374.287680
367.935336	2375.086703
368.322893	2374.504449
368.710388	2375.976466
369.097820	2379.137270
369.485189	2376.538555
369.872495	2378.159286
370.259738	2381.148690
370.646918	2381.723382
371.034035	2386.366284
371.421090	2385.141284
371.808081	2391.077243
372.195010	2393.050854
372.581875	2400.307595
372.968678	2403.962432
373.355418	2414.127918
373.742096	2420.459608
374.128710	2434.121135
374.515262	2444.989862
374.901751	2458.835391
375.288177	2472.615385
375.674540	2493.563900
376.060841	2513.138701
376.447079	2535.992772
376.833254	2562.090825
377.219367	2587.473035
377.605417	2622.113323
377.991404	2647.954278
378.377329	2686.723272
378.763191	2717.232335
379.148991	2763.522730
379.534727	2814.632468
379.920402	2857.300794
380.306013	2908.087899
380.691563	2969.048052
381.077049	3021.483613
381.462474	3080.996955
381.847835	3151.245434
382.233134	3223.714541
382.618371	3282.519601
383.003545	3364.017414
383.388657	3446.790640
383.773706	3534.373126
384.158693	3609.655197
384.543618	3704.355793
384.928480	3777.220630
385.313280	3883.641909
385.698017	3984.006241
386.082692	4102.054940
386.467305	4161.308663
386.851856	4290.026964
387.236344	4441.475829
387.620770	4504.749871
388.005133	4620.913179
388.389435	4768.049337
388.773674	4854.686607
389.157851	4982.500021
389.541965	5112.917192
389.926018	5133.585923
390.310008	5312.453623
390.693936	5429.932672
391.077802	5549.097987
391.461606	5675.441905
391.845348	5787.995747
392.229027	5912.272793
392.612645	6123.522344
392.996200	6245.220839
393.379694	6413.234935
393.763125	6638.387990
394.146494	6722.018211
394.529801	6858.865374
394.913047	7098.347908
395.296230	7098.189111
395.679351	7144.005638
396.062410	7401.011223
396.445408	7297.639843
396.828343	7444.375228
397.211217	7581.224911
397.594028	7457.978782
397.976778	7662.566449
398.359466	7817.793658
398.742092	7796.099053
399.124656	7939.547606
399.507158	8119.720965
399.889598	8148.198443
400.271977	8346.708999
400.654294	8383.408599
401.036549	8570.337104
401.418742	8594.857277
401.800874	8890.203357
402.182944	8966.113052
402.564952	9326.361467
402.946898	9144.534610
403.328783	9200.342703
403.710606	9385.796671
404.092367	9639.601123
404.474067	9984.552158
404.855705	9782.427094
405.237282	9725.789731
405.618797	10126.415268
406.000250	10370.979285
406.381642	10710.143075
406.762972	10643.713270
407.144240	10438.772722
407.525447	10665.569192
407.906593	10586.178581
408.287677	10820.468727
408.668700	10946.333735
409.049661	10890.525642
409.430560	11015.095074
409.811399	10955.327154
410.192176	11069.252189
410.572891	11102.228897
410.953545	11508.997081
411.334138	10968.955913
411.714669	11461.937909
412.095139	10778.828796
412.475547	11178.572131
412.855894	10972.330966
413.236180	11197.534431
413.616405	10844.197438
413.996568	11005.937818
414.376670	10900.953268
414.756711	10703.340038
415.136691	10855.061124
415.516609	10917.919272
415.896466	10880.155988
416.276262	10998.809626
416.655997	11253.251784
417.035670	11168.285657
417.415283	11560.119422
417.794834	11495.078455
418.174324	11181.601865
418.553753	10964.249996
418.933121	11197.388238
419.312428	10909.586244
419.691674	10710.579134
420.070859	10884.403160
420.449983	10497.716413
420.829045	10720.951308
421.208047	10397.737730
421.586988	10530.468790
421.965867	10531.867710
422.344686	10362.633655
422.723444	10528.217915
423.102141	9580.962422
423.480777	10110.346590
423.859352	9668.688581
424.237866	10095.271019
424.616319	9753.513556
424.994712	9922.109905
425.373044	9623.509760
425.751314	9772.304457
426.129524	9162.087908
426.507673	9482.004572
426.885762	9163.602774
427.263789	9046.612717
427.641756	8928.019573
428.019662	8764.993698
428.397508	8598.423893
428.775292	8516.921038
429.153016	8314.740522
429.530679	8152.480903
429.908282	7971.178326
430.285824	7689.715583
430.663305	7736.308448
431.040726	7432.084895
431.418086	7201.512601
431.795385	7215.627831
432.172624	7160.568349
432.549802	6870.603700
432.926920	6750.014259
433.303977	6562.551392
433.680974	6454.032993
434.057910	6366.102667
434.434786	6207.749943
434.811601	6032.370721
435.188355	6094.258446
435.565050	5872.951793
435.941683	5716.499583
436.318257	5726.957457
436.694770	5550.123862
437.071222	5506.858159
437.447614	5213.740269
437.823946	5083.451648
438.200218	4974.199761
438.576429	4820.913396
438.952580	4737.096652
439.328670	4617.386892
439.704700	4552.764341
440.080670	4400.987802
440.456580	4352.643136
440.832429	4264.183489
441.208218	4075.024273
441.583947	4018.525542
441.959616	3937.247018
442.335224	3870.918036
442.710773	3795.278043
443.086261	3752.377824
443.461689	3633.270482
443.837057	3565.290523
444.212365	3534.592416
444.587612	3467.131696
444.962800	3383.322513
445.337927	3343.424301
445.712995	3230.192424
446.088002	3253.386772
446.462949	3209.662325
446.837837	3167.009122
447.212664	3113.126749
447.587431	3158.716424
447.962139	3202.786191
448.336786	3225.587330
448.711374	3142.622540
449.085901	3007.754031
449.460369	2958.877524
449.834776	2922.901329
450.209124	2940.956222
450.583412	2903.422311
450.957640	2885.299363
451.331808	2836.909327
451.705917	2787.044754
452.079965	2767.114552
452.453954	2753.879002
452.827883	2731.960066
453.201752	2710.504915
453.575562	2699.968903
453.949311	2697.486135
454.323001	2685.896522
454.696632	2675.582322
455.070202	2678.024761
455.443713	2670.369768
455.817164	2665.147133
456.190556	2656.919970
456.563888	2646.779689
456.937160	2640.679893
457.310373	2621.576440
457.683526	2620.127109
458.056619	2614.486057
458.429653	2606.914244
458.802628	2608.345932
459.175542	2602.001640
459.548398	2605.779985
459.921194	2614.228959
460.293930	2615.627879
460.666607	2624.800258
461.039224	2629.758233
461.411782	2627.073819
461.784280	2617.972015
462.156719	2605.885849
462.529099	2602.009202
462.901419	2588.972778
463.273680	2576.944585
463.645882	2576.982393
464.018024	2571.401836
464.390106	2575.417115
464.762130	2589.880186
465.134094	2605.865684
465.505999	2633.024901
465.877845	2656.390649
466.249631	2658.230670
466.621358	2647.515697
466.993026	2633.594551
467.364634	2621.286574
467.736184	2606.891559
468.107674	2596.814293
468.479105	2590.759867
468.850477	2586.636203
469.221790	2579.187898
469.593043	2564.140054
469.964238	2559.371122
470.335373	2558.957748
470.706449	2568.538461
471.077467	2578.073803
471.448425	2597.394025
471.819324	2608.154368
472.190164	2598.077102
472.560945	2583.223342
472.931667	2565.128120
473.302330	2559.633262
473.672934	2554.531615
474.043479	2558.892213
474.413965	2552.827705
474.784393	2544.968546
475.154761	2554.463559
475.525070	2550.034906
475.895321	2548.890564
476.265513	2547.451314
476.635645	2556.331307
477.005719	2553.389793
477.375734	2558.171328
477.745691	2562.758778
478.115588	2565.697771
478.485427	2573.675397
478.855207	2588.322469
479.224928	2597.177256
479.594591	2603.692947
479.964194	2600.632967
480.333739	2601.653800
480.703226	2600.600199
481.072653	2603.448451
481.442022	2606.745366
481.811333	2607.962804
482.180584	2601.431990
482.549777	2598.987030
482.918912	2595.554004
483.287988	2592.239446
483.657005	2589.998653
484.025964	2588.894640
484.394864	2587.110072
484.763706	2583.924062
485.132489	2580.765779
485.501213	2580.397775
485.869879	2581.796695
486.238487	2582.031109
486.607036	2580.891808
486.975527	2579.820563
487.343959	2576.420305
487.712333	2583.099834
488.080648	2578.096488
488.448905	2581.010275
488.817104	2579.944071
489.185244	2584.047571
489.553326	2589.368508
489.921350	2604.116404
490.289315	2614.821294
490.657222	2618.259361
491.025070	2618.634927
491.392861	2615.882457
491.760593	2608.701333
492.128267	2603.680344
492.495883	2595.496031
492.863440	2590.205340
493.230939	2585.539752
493.598380	2580.392734
493.965763	2574.068607
494.333088	2572.082392
494.700354	2569.224058
495.067563	2572.636919
495.434713	2569.849161
495.801805	2573.125911
496.168839	2572.319326
496.535815	2569.831517
496.902733	2568.704819
497.269593	2570.572566
497.636395	2565.564180
498.003139	2571.880746
498.369825	2573.057855
498.736453	2571.689182
499.103023	2571.870663
499.469535	2573.188925
499.835989	2570.433935
500.202385	2570.517114
500.568723	2573.372927
500.935003	2573.695561
501.301226	2573.415777
501.667390	2577.642785
502.033497	2583.152766
502.399546	2579.066911
502.765537	2576.853844
503.131470	2580.586818
503.497345	2583.056984
503.863163	2580.879205
504.228923	2582.048753
504.594625	2585.383476
504.960269	2584.710482
505.325856	2590.797676
505.691385	2588.347675
506.056856	2591.964703
506.422270	2596.794128
506.787625	2595.836309
507.152924	2596.945363
507.518164	2603.972731
507.883347	2599.450816
508.248472	2604.323091
508.613540	2606.823504
508.978550	2609.901128
509.343503	2613.707199
509.708398	2617.916563
510.073236	2619.943107
510.438016	2624.001235
510.802738	2622.320011
511.167403	2630.650517
511.532010	2631.328553
511.896561	2635.280817
512.261053	2645.985707
512.625488	2642.318268
512.989866	2637.390540
513.354186	2645.090902
513.718449	2641.786426
514.082655	2649.796820
514.446803	2649.073414
514.810894	2656.388128
515.174927	2659.561535
515.538904	2659.959786
515.902822	2662.929025
516.266684	2662.926505
516.630488	2667.398008
516.994235	2666.846002
517.357925	2670.079902
517.721558	2675.998217
518.085133	2675.592404
518.448651	2677.916376
518.812112	2678.342353
519.175516	2676.716581
519.538863	2682.576922
519.902152	2684.409382
520.265385	2686.204033
520.628560	2688.008766
520.991678	2687.633200
521.354739	2689.407686
521.717743	2687.970957
522.080690	2690.675536
522.443580	2693.770805
522.806413	2694.191741
523.169189	2696.765250
523.531908	2699.313553
523.894569	2696.460260
524.257174	2697.523944
524.619722	2702.953266
524.982213	2700.808255
525.344647	2699.880683
525.707025	2701.130889
526.069345	2705.163812
526.431608	2705.478884
526.793815	2704.437886
527.155964	2704.135417
527.518057	2705.599872
527.880093	2705.367979
528.242072	2706.469471
528.603995	2703.260777
528.965860	2704.823534
529.327669	2705.025181
529.689421	2703.961497
530.051117	2705.352856
530.412755	2702.948225
530.774337	2704.694985
531.135862	2701.393029
531.497331	2699.298430
531.858743	2698.212061
532.220098	2700.130220
532.581396	2692.051771
532.942638	2694.176617
533.303824	2697.604602
533.664953	2695.880527
534.026025	2693.518747
534.387040	2693.087728
534.747999	2691.658561
535.108902	2690.196627
535.469748	2689.994980
535.830537	2687.300484
536.191270	2684.479958
536.551947	2682.760925
536.912567	2681.470389
537.273131	2680.847807
537.633638	2676.489729
537.994089	2676.404030
538.354483	2672.597958
538.714821	2674.687517
539.075103	2673.210459
539.435328	2666.155364
539.795497	2665.358862
540.155609	2662.124961
540.515665	2661.283089
540.875665	2656.514157
541.235609	2657.570279
541.595496	2653.484424
541.955328	2653.161790
542.315102	2643.157620
542.674821	2639.036477
543.034483	2637.970273
543.394090	2636.601599
543.753640	2631.893162
544.113134	2633.624798
544.472571	2625.513582
544.831953	2627.517440
545.191278	2622.768673
545.550548	2615.385903
545.909761	2616.676439
546.268918	2611.910028
546.628019	2613.790378
546.987064	2603.627412
547.346053	2600.862339
547.704986	2600.668255
548.063863	2595.493510
548.422684	2592.199116
548.781449	2590.757346
549.140158	2588.443457
549.498811	2585.113775
549.857408	2578.388875
550.215949	2577.995665
550.574434	2572.173133
550.932864	2568.394788
551.291237	2570.123904
551.649555	2568.851012
552.007817	2568.412432
552.366022	2564.311453
552.724173	2559.151832
553.082267	2558.246945
553.440305	2555.078580
553.798288	2552.202602
554.156215	2551.348126
554.514086	2550.841490
554.871902	2547.988197
555.229661	2545.089534
555.587365	2542.712630
555.945014	2540.144162
556.302606	2538.420087
556.660143	2537.605941
557.017625	2538.551157
557.375050	2533.116793
557.732421	2534.906403
558.089735	2529.426669
558.446994	2532.287523
558.804197	2532.249715
559.161345	2529.018335
559.518437	2527.810979
559.875474	2525.923067
560.232455	2526.464991
560.589381	2524.493900
560.946251	2523.609177
561.303065	2525.439116
561.659825	2523.649506
562.016528	2520.765966
562.373177	2520.685308
562.729770	2518.681449
563.086307	2516.909484
563.442789	2516.425533
563.799216	2517.758918
564.155587	2518.797396
564.511904	2514.956037
564.868164	2516.770852
565.224370	2519.241017
565.580520	2515.034174
565.936615	2512.349760
566.292654	2511.873371
566.648638	2514.104082
567.004567	2512.889163
567.360441	2512.253978
567.716260	2513.347908
568.072023	2510.597959
568.427732	2507.676610
568.783385	2508.972187
569.138982	2506.433966
569.494525	2505.798781
569.850013	2505.816425
570.205445	2508.205932
570.560823	2507.976559
570.916145	2509.224245
571.271412	2508.261384
571.626625	2505.947495
571.981782	2505.214007
572.336884	2505.748369
572.691931	2503.729387
573.046923	2505.937412
573.401860	2504.452792
573.756743	2506.824655
574.111570	2506.418843
574.466342	2506.479336
574.821059	2502.307782
575.175722	2501.816269
575.530330	2500.866012
575.884882	2502.884994
576.239380	2501.239057
576.593823	2501.758296
576.948211	2498.637822
577.302544	2499.618326
577.656823	2497.150681
578.011047	2502.138903
578.365216	2499.474653
578.719330	2498.007677
579.073389	2496.903665
579.427394	2498.700836
579.781344	2495.540032
580.135239	2496.825527
580.489080	2499.988851
580.842866	2494.118427
581.196597	2497.765702
581.550273	2495.749240
581.903895	2496.563387
582.257463	2494.272182
582.610975	2494.337717
582.964434	2494.690598
583.317837	2494.057933
583.671186	2494.279744
584.024481	2496.588593
584.377721	2492.190186
584.730906	2491.305463
585.084037	2493.110196
585.437113	2492.991729
585.790135	2493.861328
586.143103	2491.991060
586.496016	2491.035762
586.848874	2488.573158
587.201679	2493.084991
587.554428	2488.714310
587.907124	2491.018118
588.259765	2483.683239
588.612352	2490.380412
588.964884	2488.447129
589.317362	2491.297902
589.669786	2490.198930
590.022155	2490.677840
590.374470	2488.832777
590.726731	2486.012252
591.078937	2488.008549
591.431090	2488.149701
591.783188	2487.207005
592.135232	2484.041161
592.487222	2483.746253
592.839157	2485.964361
593.191038	2483.620224
593.542866	2487.154073
593.894639	2483.620224
594.246358	2483.176603
594.598022	2485.767756
594.949633	2481.669298
595.301190	2482.599391
595.652692	2484.013434
596.004141	2482.491006
596.355535	2483.017806
596.706876	2480.832466
597.058162	2481.661736
597.409395	2482.198619
597.760573	2480.532517
598.111698	2477.913638
598.462768	2480.628299
598.813785	2479.247023
599.164748	2480.593011
599.515657	2479.299955
599.866511	2475.458596
600.217312	2476.368524
600.568060	2474.740232
600.918753	2480.754328
601.269392	2479.647795
601.619978	2478.049749
601.970510	2480.454380
602.320988	2475.554378
602.671412	2482.460759
603.021783	2476.267701
603.372100	2475.478761
603.722363	2475.584625
604.072572	2475.715695
604.422728	2476.658391
604.772830	2474.750314
605.122878	2472.002885
605.472872	2472.885087
605.822813	2471.579428
606.172701	2475.204018
606.522534	2475.241827
606.872314	2476.665952
607.222041	2474.790643
607.571714	2476.171919
607.921333	2475.307362
608.270899	2474.957001
608.620411	2476.055973
608.969870	2477.033957
609.319276	2472.386013
609.668627	2474.084882
610.017926	2477.076807
610.367171	2475.176292
610.716362	2476.429018
611.065500	2476.335757
611.414585	2474.707464
611.763616	2475.728298
612.112594	2474.072279
612.461518	2475.042701
612.810389	2478.193422
613.159207	2477.492702
613.507971	2475.816518
613.856682	2476.355922
614.205340	2476.368524
614.553945	2475.110757
614.902496	2474.722588
615.250994	2478.122846
615.599439	2476.388689
615.947830	2475.509008
616.296169	2475.115798
616.644454	2479.519246
616.992686	2477.606128
617.340864	2478.226190
617.688990	2474.800726
618.037063	2476.292907
618.385082	2474.021867
618.733048	2477.308700
619.080961	2475.468678
619.428821	2478.392548
619.776628	2476.844913
620.124382	2476.615541
620.472083	2476.436580
620.819731	2474.755355
621.167326	2474.271404
621.514868	2476.373566
621.862357	2473.789974
622.209793	2471.980200
622.557176	2473.633698
622.904506	2470.966928
623.251783	2471.881898
623.599007	2467.533902
623.946179	2466.331587
624.293297	2466.066927
624.640363	2470.810652
624.987376	2469.147072
625.334336	2465.658593
625.681243	2468.882411
626.028097	2467.518779
626.374899	2469.200004
626.721647	2467.506176
627.068343	2468.889973
627.414987	2470.609006
627.761577	2468.343008
628.108115	2465.678758
628.454600	2463.831175
628.801032	2462.361678
629.147412	2465.459468
629.493739	2466.855867
629.840014	2464.960393
630.186236	2468.529530
630.532405	2463.364868
630.878521	2463.947121
631.224585	2463.193469
631.570597	2461.784466
631.916556	2463.059878
632.262462	2466.046762
632.608316	2463.755557
632.954117	2461.277830
633.299866	2462.046606
633.645562	2463.556432
633.991206	2463.811010
634.336797	2463.077522
634.682336	2462.593572
635.027823	2457.801955
635.373257	2463.395115
635.718639	2456.670216
636.063968	2457.418827
636.409245	2457.817078
636.754470	2457.020576
637.099642	2456.569393
637.444762	2457.267593
637.789829	2456.786162
638.134845	2455.019238
638.479808	2451.931531
638.824719	2456.072839
639.169577	2453.874896
639.514383	2456.639969
639.859137	2455.445215
640.203839	2456.075360
640.548489	2451.576130
640.893086	2454.101748
641.237632	2453.073353
641.582125	2449.887343
641.926566	2449.564709
642.270955	2451.513115
642.615292	2450.545214
642.959576	2454.154680
643.303809	2454.467232
643.647990	2450.923300
643.992118	2453.794238
644.336195	2454.056378
644.680219	2452.644854
645.024192	2452.173507
645.368112	2454.137036
645.711981	2454.762139
646.055797	2456.914712
646.399562	2454.631069
646.743274	2455.924125
647.086935	2456.771039
647.430544	2455.639300
647.774101	2458.185083
648.117606	2454.595781
648.461059	2459.526029
648.804460	2458.507716
649.147810	2454.447067
649.491108	2453.383383
649.834354	2454.373970
650.177548	2451.994546
650.520690	2454.348764
650.863781	2451.931531
651.206820	2455.924125
651.549807	2452.765842
651.892742	2450.824998
652.235626	2449.398351
652.578458	2452.423044
652.921238	2445.609924
653.263967	2451.014041
653.606644	2447.286108
653.949269	2451.074535
654.291843	2448.334668
654.634365	2450.416664
654.976836	2449.834411
655.319255	2449.962961
655.661622	2448.838783
656.003938	2450.741819
656.346203	2445.504060
656.688416	2446.958433
657.030577	2447.583536
657.372687	2444.505912
657.714746	2446.071190
658.056753	2446.731581
658.398708	2442.885181
658.740612	2444.367280
659.082465	2440.720005
659.424266	2444.321909
659.766016	2440.767896
660.107715	2447.555810
660.449362	2443.918617
660.790958	2447.770059
661.132503	2448.140583
661.473996	2444.505912
661.815438	2445.315017
662.156829	2445.574636
662.498168	2442.570108
662.839456	2447.984308
663.180693	2444.147990
663.521879	2447.525563
663.863013	2444.140428
664.204097	2448.256530
664.545129	2446.862651
664.886110	2448.231324
665.227040	2444.883998
665.567918	2445.499019
665.908746	2447.880964
666.249522	2447.732250
666.590248	2444.740325
666.930922	2447.898608
667.271545	2446.134204
667.612118	2449.103444
667.952639	2443.573298
668.293109	2448.049843
668.633528	2446.421550
668.973896	2449.221911
669.314213	2444.682352
669.654480	2447.938937
669.994695	2446.779472
670.334859	2446.156889
670.674973	2443.018771
671.015035	2446.875254
671.355047	2443.752259
671.695008	2444.989862
672.034918	2445.330140
672.374777	2445.083124
672.714585	2445.856941
673.054342	2445.052877
673.394049	2444.372321
673.733705	2446.451797
674.073310	2446.756787
674.412864	2447.523042
674.752368	2445.075562
675.091820	2443.969029
675.431223	2446.900460
675.770574	2445.327620
676.109875	2440.543565
676.449125	2440.712443
676.788324	2437.614654
677.127473	2443.704368
677.466571	2436.336722
677.805619	2440.384768
678.144616	2443.734615
678.483562	2440.508277
678.822458	2439.006013
679.161303	2441.546754
679.500098	2437.788574
679.838842	2440.362083
680.177535	2438.839655
680.516179	2443.704368
680.854771	2438.693461
681.193314	2443.064142
681.531805	2445.085644
681.870247	2445.302414
682.208638	2444.500870
682.546978	2447.036571
682.885268	2448.072528
683.223508	2444.526076
683.561697	2445.516663
683.899836	2445.078083
684.237925	2445.090685
684.575963	2442.343257
684.913951	2442.519697
685.251889	2445.526745
685.589776	2443.785027
685.927614	2443.621189
686.265401	2444.014399
686.603137	2446.214863
686.940824	2441.655139
687.278460	2446.471962
687.616046	2445.136056
687.953582	2446.822322
688.291068	2443.290993
688.628504	2445.998093
688.965889	2444.243772
689.303224	2444.682352
689.640510	2444.435335
689.977745	2444.944492
690.314930	2443.167485
690.652065	2440.104984
690.989150	2441.776127
691.326185	2440.790581
691.663170	2439.807556
692.000105	2440.631785
692.336990	2437.259253
692.673825	2438.343101
693.010610	2436.535847
693.347345	2435.509973
693.684030	2433.037287
694.020665	2434.317740
694.357251	2429.931936
694.693786	2438.842175
695.030272	2432.139961
695.366707	2432.427307
695.703093	2433.682554
696.039429	2433.112904
696.375716	2432.540733
696.711952	2435.159612
697.048139	2431.277924
697.384276	2433.758172
697.720363	2430.690629
698.056400	2432.613830
698.392388	2432.117276
698.728326	2432.576021
699.064214	2430.199117
699.400053	2431.751792
699.735842	2432.379416
700.071581	2429.657193
700.407270	2430.801535
700.742910	2430.244487
701.078501	2427.207192
701.414042	2429.039652
701.749533	2426.708118
702.084974	2427.973447
702.420366	2427.628128
702.755709	2427.587799
703.091002	2429.873962
703.426246	2426.055288
703.761440	2426.894641
704.096584	2427.108890
704.431679	2426.327511
704.766725	2427.418921
705.101721	2427.519744
705.436668	2429.372368
705.771565	2424.933632
706.106413	2425.631832
706.441212	2426.372881
706.775961	2428.482604
707.110661	2427.239960
707.445311	2426.642583
707.779913	2426.511513
708.114465	2427.035793
708.448967	2429.417738
708.783421	2430.100814
709.117825	2427.449168
709.452180	2430.078129
709.786485	2429.926895
710.120742	2433.044848
710.454949	2432.825558
710.789107	2429.478232
711.123216	2428.270876
711.457275	2431.688778
711.791286	2428.132244
712.125247	2432.341607
712.459159	2433.765733
712.793023	2433.894283
713.126837	2433.848912
713.460602	2434.002667
713.794318	2431.479570
714.127985	2432.785229
714.461602	2432.427307
714.795171	2432.172729
715.128691	2431.156936
715.462162	2431.224992
715.795584	2428.911102
716.128957	2429.831113
716.462281	2428.217943
716.795556	2426.942532
717.128782	2425.518406
717.461960	2425.168045
717.795088	2425.344486
718.128167	2425.515885
718.461198	2425.818354
718.794180	2424.318611
719.127113	2424.240473
719.459997	2427.313056
719.792833	2422.551687
720.125619	2424.704259
720.458357	2422.450863
720.791046	2420.827612
721.123686	2421.104875
721.456278	2422.561769
721.788821	2421.530853
722.121315	2422.947417
722.453761	2422.607139
722.786158	2423.713673
723.118506	2422.713003
723.450805	2423.378436
723.783056	2419.615214
724.115259	2425.019331
724.447412	2422.160997
724.779518	2421.729978
725.111574	2422.476069
725.443582	2423.189393
725.775542	2425.581420
726.107453	2424.631162
726.439315	2423.771646
726.771129	2427.418921
727.102895	2425.120154
727.434612	2426.433375
727.766281	2424.535381
728.097901	2423.786769
728.429473	2423.126378
728.760996	2426.176276
729.092471	2420.542787
729.423897	2423.270051
729.755276	2427.118972
730.086606	2426.846750
730.417887	2426.103179
730.749120	2428.117120
731.080305	2429.281627
731.411442	2427.746596
731.742530	2429.379929
732.073570	2429.601740
732.404562	2429.949580
732.735506	2428.470001
733.066401	2428.701894
733.397249	2430.715835
733.728048	2425.866245
734.058798	2427.429003
734.389501	2423.927922
734.720156	2424.769794
735.050762	2423.413724
735.381320	2424.626121
735.711831	2422.118147
736.042293	2423.910277
736.372707	2418.924576
736.703073	2423.557397
737.033391	2422.440781
737.363661	2423.002870
737.693883	2421.815678
738.024056	2424.734506
738.354182	2421.709814
738.684260	2425.682243
739.014290	2425.135278
739.344272	2424.116965
739.674207	2424.306008
740.004093	2425.861204
740.333931	2424.953796
740.663722	2425.702408
740.993464	2423.159146
741.323159	2422.972623
741.652806	2422.357602
741.982405	2425.130237
742.311956	2422.947417
742.641460	2420.910791
742.970915	2423.726275
743.300323	2423.053281
743.629683	2420.086562
743.958996	2421.122519
744.288260	2421.137643
744.617477	2418.261665
744.946647	2414.669842
745.275768	2418.327200
745.604842	2416.620769
745.933869	2414.223700
746.262847	2411.998031
746.591778	2420.265523
746.920662	2418.453228
747.249498	2419.496747
747.578286	2419.158990
747.907027	2419.244690
748.235720	2420.036151
748.564365	2418.140677
748.892963	2418.612025
749.221514	2419.234607
749.550017	2420.767118
749.878473	2418.851480
750.206881	2418.647313
750.535242	2417.797878
750.863555	2417.825605
751.191821	2421.424989
751.520039	2420.555390
751.848210	2419.249731
752.176334	2418.160842
752.504411	2418.798548
752.832440	2417.649164
753.160421	2418.879206
753.488356	2417.568506
753.816243	2420.131933
754.144082	2420.086562
754.471875	2416.645975
754.799620	2419.312745
755.127318	2419.325348
755.454969	2420.172262
755.782572	2416.608166
756.110129	2417.704617
756.437638	2415.922569
756.765100	2418.886768
757.092515	2417.129926
757.419882	2419.227046
757.747203	2416.703948
758.074477	2417.160173
758.401703	2420.439443
758.728882	2418.453228
759.056014	2418.480955
759.383099	2417.931469
759.710138	2416.918197
760.037129	2419.837025
760.364073	2419.448856
760.690970	2418.654875
761.017820	2420.663774
761.344623	2420.290729
761.671379	2419.849628
761.998088	2415.884761
762.324751	2422.445822
762.651366	2428.114600
762.977935	2432.787749
763.304456	2434.007709
763.630931	2441.158585
763.957359	2441.012392
764.283740	2437.362597
764.610074	2432.591144
764.936362	2428.187697
765.262602	2425.465473
765.588796	2422.302149
765.914943	2421.709814
766.241044	2421.356933
766.567097	2419.342992
766.893104	2419.877354
767.219064	2415.776376
767.544978	2416.824936
767.870845	2414.705131
768.196665	2412.217321
768.522438	2413.805285
768.848165	2414.581622
769.173846	2413.064235
769.499479	2413.676735
769.825066	2411.720767
770.150607	2409.454769
770.476101	2410.818401
770.801548	2416.777045
771.126949	2413.167579
771.452303	2413.379307
771.777611	2412.693710
772.102872	2408.749007
772.428087	2410.604152
772.753256	2411.345202
773.078378	2412.066087
773.403453	2411.642630
773.728482	2409.167423
774.053465	2411.342681
774.378401	2412.328227
774.703291	2409.432084
775.028135	2410.921745
775.352932	2409.646333
775.677683	2409.424522
776.002388	2411.448545
776.327046	2410.180695
776.651658	2411.156158
776.976224	2408.025602
777.300743	2406.697258
777.625216	2409.333781
777.949643	2410.100037
778.274024	2408.282701
778.598359	2407.171126
778.922647	2406.470406
779.246889	2407.561816
779.571086	2402.752555
779.895236	2411.130952
780.219339	2406.273801
780.543397	2408.446538
780.867409	2409.177505
781.191374	2406.881260
781.515294	2410.110119
781.839167	2412.360994
782.162995	2411.196488
782.486776	2408.743966
782.810511	2410.858730
783.134201	2408.630540
783.457844	2409.217835
783.781441	2409.215314
784.104993	2408.587690
784.428498	2409.525345
784.751958	2409.220355
785.075372	2409.931158
785.398739	2409.053997
785.722061	2411.435942
786.045337	2409.031312
786.368568	2407.670200
786.691752	2406.997206
787.014891	2410.278998
787.337983	2410.294121
787.661030	2410.672208
787.984031	2414.962229
788.306987	2412.809657
788.629897	2413.517939
788.952760	2412.572723
789.275579	2411.521642
789.598351	2413.376787
789.921078	2410.780592
790.243759	2410.876374
790.566395	2411.229255
790.888984	2406.903945
791.211529	2409.180026
791.534027	2409.162382
791.856480	2408.552402
792.178888	2409.795047
792.501249	2411.998031
792.823566	2407.743297
793.145836	2408.353277
793.468062	2407.188770
793.790241	2408.867474
794.112375	2407.486198
794.434464	2406.679614
794.756507	2409.056518
795.078505	2406.732546
795.400457	2404.726167
795.722364	2407.627351
796.044226	2407.201373
796.366042	2407.309758
796.687812	2408.799419
797.009538	2409.663977
797.331218	2410.342012
797.652852	2409.288411
797.974442	2411.264543
798.295986	2409.895870
798.617484	2409.248082
798.938938	2409.394275
799.260346	2409.520304
799.581709	2409.139697
799.903026	2408.817063
800.224299	2406.455282
800.545526	2408.985942
800.866708	2407.035015
801.187845	2407.508883
801.508936	2404.433780
801.829983	2408.353277
802.150984	2404.925292
802.471940	2407.521486
802.792851	2407.002247
803.113717	2407.871847
803.434538	2405.368914
803.755314	2406.810684
804.076045	2407.768503
804.396731	2408.922927
804.717372	2405.386558
805.037967	2406.931671
805.358518	2408.408729
805.679024	2405.699109
805.999485	2405.280693
806.319901	2410.394944
806.640272	2405.847823
806.960598	2409.558112
807.280879	2406.939233
807.601115	2410.329409
807.921306	2407.309758
808.241453	2409.893349
808.561554	2406.591393
808.881611	2407.032494
809.201623	2408.000396
809.521590	2408.388565
809.841513	2409.041394
810.161390	2407.491239
810.481223	2408.945612
810.801011	2405.885632
811.120755	2407.022412
811.440453	2407.241702
811.760107	2405.429407
812.079716	2405.250447
812.399281	2403.551578
812.718801	2403.420508
813.038276	2401.124262
813.357707	2407.231620
813.677093	2406.261198
813.996434	2406.649367
814.315731	2405.958729
814.634983	2405.931002
814.954191	2402.180384
815.273354	2405.668862
815.592473	2407.965108
815.911547	2406.737587
816.230577	2408.529717
816.549562	2407.682803
816.868502	2409.573236
817.187399	2408.501991
817.506250	2409.265726
817.825058	2408.723802
818.143821	2410.054666
818.462539	2410.568864
818.781213	2410.601631
819.099843	2412.829821
819.418429	2412.106416
819.736970	2418.475914
820.055466	2419.539597
820.373919	2422.581933
820.692327	2427.953283
821.010691	2439.101795
821.329011	2460.569548
821.647286	2492.354023
821.965517	2530.742410
822.283704	2553.150339
822.601847	2557.082439
822.919945	2542.163144
823.237999	2522.923580
823.556010	2507.404388
823.873976	2487.827067
824.191897	2476.418936
824.509775	2463.329580
824.827609	2452.826336
825.145398	2450.711572
825.463144	2445.970367
825.780845	2446.262754
826.098502	2448.354833
826.416116	2457.476800
826.733685	2463.480815
827.051210	2466.918882
827.368692	2465.819910
827.686129	2456.403035
828.003522	2445.667898
828.320872	2433.392688
828.638177	2431.484611
828.955439	2424.096800
829.272656	2420.136974
829.589830	2414.455593
829.906960	2416.217477
830.224046	2414.158165
830.541088	2416.202353
830.858086	2411.640109
831.175041	2409.348905
831.491952	2411.032650
831.808819	2410.594070
832.125642	2410.732701
832.442421	2416.272929
832.759157	2420.736871
833.075849	2424.928591
833.392497	2431.320774
833.709101	2438.519541
834.025662	2437.642381
834.342179	2433.546443
834.658653	2427.945721
834.975083	2423.138981
835.291469	2425.962027
835.607811	2416.240162
835.924110	2415.206725
836.240366	2412.764286
836.556578	2410.629358
836.872746	2408.214645
837.188871	2406.994686
837.504952	2408.983421
837.820990	2406.379665
838.136984	2406.087278
838.452935	2403.917061
838.768842	2405.373955
839.084706	2406.094840
839.400526	2409.860582
839.716303	2414.243865
840.032037	2417.051788
840.347727	2417.344175
840.663373	2413.727147
840.978977	2411.234296
841.294537	2408.076013
841.610054	2404.380848
841.925527	2405.734397
842.240957	2406.145251
842.556344	2405.734397
842.871687	2404.537123
843.186987	2403.622154
843.502244	2402.981927
843.817458	2401.797256
844.132629	2401.356155
844.447756	2400.877246
844.762840	2396.685526
845.077881	2399.932029
845.392879	2396.236863
845.707833	2399.304406
846.022745	2396.985475
846.337613	2400.612585
846.652438	2401.920764
846.967221	2400.746176
847.281960	2399.531258
847.596656	2398.321381
847.911309	2403.939747
848.225919	2398.215516
848.540485	2400.244581
848.855009	2400.773902
849.169490	2402.014026
849.483928	2401.860271
849.798323	2400.065620
850.112675	2400.534447
850.426984	2399.891700
850.741251	2399.551422
851.055474	2399.692574
851.369654	2401.169633
851.683792	2400.421021
851.997887	2399.339694
852.311938	2399.133006
852.625947	2403.170971
852.939914	2400.393295
853.253837	2399.175856
853.567718	2399.478325
853.881555	2398.918757
854.195350	2400.499159
854.509103	2400.073182
854.822812	2399.717780
855.136479	2399.352297
855.450103	2399.758109
855.763685	2400.662997
856.077224	2399.213665
856.390720	2398.512944
856.704173	2402.324057
857.017584	2400.846999
857.330953	2399.652245
857.644278	2399.453120
857.957561	2403.133162
858.270802	2402.298851
858.584000	2401.169633
858.897155	2400.088305
859.210268	2401.308264
859.523339	2401.744324
859.836367	2400.446227
860.149352	2400.252143
860.462295	2400.378171
860.775195	2396.057902
861.088054	2396.264590
861.400869	2399.190980
861.713642	2394.303581
862.026373	2400.625188
862.339062	2400.937739
862.651708	2395.609240
862.964312	2399.324570
863.276873	2399.115362
863.589392	2401.189797
863.901869	2403.526372
864.214303	2397.638304
864.526696	2399.516134
864.839045	2400.892369
865.151353	2401.716598
865.463619	2401.436814
865.775842	2401.328429
866.088023	2400.378171
866.400162	2401.146947
866.712258	2399.236350
867.024313	2402.787843
867.336325	2398.283572
867.648296	2401.255332
867.960224	2399.221227
868.272110	2401.905641
868.583954	2401.101577
868.895755	2399.574107
869.207515	2400.771381
869.519233	2400.158881
869.830909	2401.146947
870.142542	2402.369427
870.454134	2402.351783
870.765684	2401.890518
871.077191	2401.378840
871.388657	2404.146434
871.700081	2402.334139
872.011463	2401.363717
872.322803	2401.882956
872.634101	2399.037224
872.945357	2403.201218
873.256571	2402.379509
873.567744	2401.136865
873.878874	2402.911351
874.189963	2402.780281
874.501010	2405.449572
874.812015	2401.386402
875.122979	2403.488563
875.433900	2401.411608
875.744780	2405.235323
876.055618	2401.610733
876.366415	2401.797256
876.677169	2403.168450
876.987882	2402.553429
877.298554	2396.357851
877.609183	2400.912534
877.919771	2400.620147
878.230317	2404.252298
878.540822	2404.837072
878.851285	2404.121228
879.161707	2406.813204
879.472087	2412.348391
879.782425	2416.514905
880.092722	2423.844743
880.402977	2435.978800
880.713191	2449.403393
881.023363	2465.469550
881.333494	2473.444655
881.643583	2474.044553
881.953631	2474.634367
882.263637	2471.733183
882.573602	2465.086422
882.883526	2459.536112
883.193408	2452.780966
883.503248	2446.497167
883.813048	2440.795622
884.122806	2438.038111
884.432522	2429.969744
884.742197	2425.155442
885.051831	2424.195103
885.361424	2419.302663
885.670975	2416.933321
885.980485	2415.090779
886.289954	2411.733370
886.599382	2406.876219
886.908768	2409.507701
887.218113	2408.751528
887.527417	2407.559295
887.836680	2401.288100
888.145901	2405.310940
888.455082	2401.772050
888.764221	2408.980900
889.073319	2404.859757
889.382376	2404.917730
889.691392	2403.465878
890.000366	2404.148954
890.309300	2402.419839
890.618193	2405.661301
890.927044	2405.384037
891.235855	2400.962945
891.544625	2405.041239
891.853353	2404.106105
892.162041	2404.040570
892.470687	2408.265057
892.779293	2402.800446
893.087858	2404.244736
893.396381	2406.218348
893.704864	2407.274470
894.013306	2413.107085
894.321707	2419.040523
894.630068	2422.781059
894.938387	2420.058836
895.246665	2423.862387
895.554903	2418.977508
895.863100	2418.092786
896.171256	2417.807961
896.479371	2412.867630
896.787446	2414.596746
897.095480	2413.727147
897.403473	2411.710685
897.711425	2409.661456
898.019336	2408.839748
898.327207	2406.409912
898.635038	2403.544016
898.942827	2405.651218
899.250576	2404.728687
899.558284	2403.823800
899.865952	2403.206259
900.173579	2400.839437
900.481165	2403.508728
900.788711	2403.012174
901.096216	2401.688871
901.403681	2402.639129
901.711105	2404.237175
902.018489	2402.465209
902.325832	2404.547206
902.633135	2402.639129
902.940397	2402.845816
903.247619	2406.964439
903.554800	2413.555747
903.861941	2421.616552
904.169041	2427.454209
904.476101	2427.239960
904.783121	2426.133426
905.090100	2423.683426
905.397039	2419.378280
905.703938	2417.644123
906.010796	2414.826118
906.317614	2415.799061
906.624391	2411.420819
906.931129	2409.376631
907.237826	2407.193811
907.544483	2406.820766
907.851099	2404.945457
908.157675	2402.228275
908.464211	2399.140568
908.770707	2396.186452
909.077163	2399.924467
909.383578	2396.277193
909.689954	2394.958931
909.996289	2395.306771
910.302584	2399.259035
910.608839	2400.226937
910.915054	2396.899775
911.221229	2402.021587
911.527363	2399.715260
911.833458	2398.333983
912.139513	2400.121073
912.445527	2399.256515
912.751502	2400.506721
913.057436	2395.747872
913.363331	2400.156361
913.669186	2402.543347
913.975000	2403.783471
914.280775	2404.879922
914.586510	2407.171126
914.892205	2409.525345
915.197859	2414.014492
915.503475	2419.216963
915.809050	2424.507654
916.114585	2425.253745
916.420081	2427.892789
916.725536	2424.840370
917.030952	2426.204002
917.336328	2422.960020
917.641665	2422.087900
917.946961	2421.891295
918.252218	2421.152766
918.557435	2415.526839
918.862612	2414.107754
919.167750	2413.220511
919.472848	2409.913514
919.777906	2410.581467
920.082925	2408.368400
920.387904	2404.721125
920.692843	2404.932854
920.997743	2403.329767
921.302603	2402.790363
921.607423	2401.797256
921.912204	2401.968655
922.216946	2402.747514
922.521647	2402.059396
922.826310	2399.465723
923.130932	2400.904972
923.435516	2398.974210
923.740059	2400.665517
924.044564	2399.359858
924.349028	2401.278017
924.653454	2393.234856
924.957840	2393.199568
925.262186	2394.011194
925.566493	2394.134702
925.870761	2395.100083
926.174989	2393.991029
926.479178	2399.430434
926.783328	2396.274672
927.087438	2396.675444
927.391509	2397.015722
927.695541	2395.367264
927.999533	2399.977400
928.303486	2395.546225
928.607400	2394.185114
928.911275	2393.164280
929.215110	2393.368447
929.518906	2395.528581
929.822663	2396.874569
930.126381	2395.279044
930.430060	2397.154353
930.733699	2396.582183
931.037299	2394.931205
931.340861	2397.114024
931.644383	2394.754764
931.947866	2395.155536
932.251309	2394.510268
932.554714	2395.899106
932.858080	2398.036555
933.161407	2395.170659
933.464694	2396.357851
933.767943	2394.979096
934.071153	2395.566390
934.374323	2396.539333
934.677455	2396.231822
934.980548	2395.609240
935.283602	2396.884652
935.586617	2394.520351
935.889593	2398.394477
936.192530	2396.869528
936.495428	2397.971020
936.798287	2394.432130
937.101108	2395.538664
937.403890	2396.579662
937.706632	2395.556308
938.009336	2396.161246
938.312002	2396.365413
938.614628	2396.219219
938.917216	2398.679303
939.219765	2397.754251
939.522275	2398.916237
939.824747	2400.199210
940.127179	2398.258366
940.429573	2394.353993
940.731929	2395.231153
941.034246	2393.393653
941.336524	2397.756771
941.638763	2398.951525
941.940964	2394.681667
942.243126	2394.948849
942.545250	2396.803993
942.847335	2397.920609
943.149381	2397.711401
943.451389	2396.206617
943.753359	2397.940773
944.055290	2395.929353
944.357182	2397.885321
944.659036	2396.143602
944.960851	2395.362223
945.262628	2394.757285
945.564367	2395.987326
945.866067	2395.775598
946.167729	2398.283572
946.469352	2396.667882
946.770937	2394.795093
947.072484	2395.037069
947.373992	2392.876934
947.675462	2395.248797
947.976893	2396.791390
948.278286	2394.104455
948.579641	2393.935577
948.880958	2396.635115
949.182236	2399.059910
949.483476	2396.284754
949.784678	2397.668551
950.085841	2396.874569
950.386967	2397.965979
950.688054	2392.776111
950.989103	2396.967831
951.290114	2395.221071
951.591087	2396.476318
951.892021	2393.628066
952.192917	2392.415669
952.493776	2397.426576
952.794596	2397.393808
953.095378	2396.367933
953.396122	2398.311298
953.696828	2396.226781
953.997496	2398.878428
954.298126	2397.290465
954.598718	2395.803324
954.899272	2396.390619
955.199788	2398.039076
955.500266	2393.741492
955.800706	2391.225957
956.101108	2389.945503
956.401472	2394.598488
956.701798	2391.248642
957.002087	2391.384753
957.302337	2394.706873
957.602550	2396.698129
957.902724	2395.205948
958.202861	2392.798797
958.502960	2393.108827
958.803022	2394.878272
959.103045	2391.425082
959.403031	2393.413817
959.702979	2395.042110
960.002889	2396.219219
960.302762	2393.849877
960.602596	2396.045300
960.902393	2392.801317
961.202153	2393.015566
961.501875	2395.175701
961.801559	2396.647718
962.101205	2391.205792
962.400814	2394.162429
962.700385	2392.760988
962.999918	2396.448592
963.299414	2391.979609
963.598873	2395.649569
963.898293	2393.905330
964.197677	2392.506410
964.497022	2393.852398
964.796331	2393.471791
965.095601	2393.600340
965.394835	2392.607233
965.694030	2391.268806
965.993189	2392.806358
966.292309	2391.394835
966.591393	2392.733262
966.890439	2393.290309
967.189447	2390.812582
967.488419	2392.309805
967.787353	2393.678478
968.086249	2394.510268
968.385108	2395.405073
968.683930	2394.507748
968.982714	2393.474311
969.281462	2394.013715
969.580172	2393.963303
969.878844	2393.706204
970.177480	2391.916595
970.476078	2392.796276
970.774639	2394.979096
971.073162	2393.557490
971.371649	2390.696635
971.670098	2390.505072
971.968510	2391.861142
972.266885	2389.390977
972.565223	2390.658827
972.863524	2396.269631
973.161788	2394.505227
973.460014	2395.153015
973.758204	2394.374157
974.056356	2394.820299
974.354471	2392.934908
974.652550	2394.802655
974.950591	2394.265772
975.248595	2389.887530
975.546563	2395.674775
975.844493	2393.796945
976.142386	2393.116389
976.440243	2393.050854
976.738062	2393.701163
977.035845	2391.677140
977.333590	2395.614281
977.631299	2393.789383
977.928971	2392.846688
978.226606	2393.512120
978.524204	2393.537326
978.821765	2390.696635
979.119290	2392.776111
979.416777	2393.018087
979.714228	2392.554301
980.011642	2394.888355
980.309020	2396.075547
980.606360	2392.095556
980.903664	2394.190155
981.200931	2391.649413
981.498162	2394.180073
981.795356	2395.851215
982.092513	2395.193345
982.389633	2395.122768
982.686717	2395.130330
982.983764	2395.533623
983.280775	2396.877090
983.577749	2395.205948
983.874686	2398.094529
984.171587	2395.553787
984.468451	2396.998078
984.765279	2396.090670
985.062070	2395.541184
985.358824	2394.979096
985.655543	2395.107645
985.952224	2392.198899
986.248869	2392.307284
986.545478	2388.715462
986.842050	2391.934239
987.138586	2391.094887
987.435086	2390.966337
987.731549	2388.765873
988.027975	2392.776111
988.324366	2390.250493
988.620719	2391.362068
988.917037	2391.266286
989.213318	2392.395504
989.509563	2392.881976
989.805772	2391.069681
990.101944	2394.008673
990.398080	2393.156718
990.694180	2392.035062
990.990244	2390.568086
991.286271	2393.597819
991.582262	2392.372819
991.878217	2391.490617
992.174136	2394.583365
992.470019	2393.877603
992.765865	2393.983468
993.061676	2391.185627
993.357450	2391.384753
993.653188	2390.941131
993.948890	2395.589075
994.244556	2391.772922
994.540186	2392.468601
994.835780	2391.926677
995.131337	2395.198386
995.426859	2393.159239
995.722345	2396.224261
996.017795	2394.147305
996.313208	2392.093035
996.608586	2394.351472
996.903928	2397.000598
997.199234	2397.449261
997.494504	2394.883314
997.789738	2393.340721
998.084936	2394.477501
998.380099	2391.977088
998.675225	2394.243087
998.970316	2395.578993
999.265371	2393.542367
999.560390	2394.754764
999.855373	2393.144116
1000.150320	2391.727551
1000.445232	2390.210164
1000.740108	2389.980792
1001.034948	2391.130175
1001.329752	2391.430123
1001.624521	2391.440206
1001.919254	2384.864020
1002.213951	2390.971378
1002.508613	2387.649258
1002.803239	2391.712428
1003.097829	2388.602036
1003.392384	2390.968858
1003.686903	2392.755947
1003.981386	2392.060268
1004.275834	2392.551780
1004.570246	2392.438354
1004.864623	2389.020452
1005.158964	2393.116389
1005.453270	2391.420041
1005.747540	2390.507592
1006.041775	2390.431975
1006.335974	2391.599002
1006.630138	2390.923487
1006.924266	2394.641338
1007.218359	2392.700494
1007.512416	2390.205123
1007.806438	2391.271327
1008.100425	2390.920967
1008.394376	2390.222767
1008.688292	2394.175032
1008.982172	2390.847870
1009.276017	2391.420041
1009.569827	2393.106307
1009.863602	2391.304094
1010.157341	2391.593961
1010.451045	2392.319887
1010.744714	2389.416182
1011.038347	2395.087480
1011.331945	2390.686553
1011.625508	2392.536657
1011.919036	2390.691594
1012.212528	2390.363919
1012.505986	2392.488766
1012.799408	2390.789897
1013.092795	2390.220246
1013.386147	2391.861142
1013.679464	2389.131357
1013.972745	2390.996584
1014.265992	2393.875083
1014.559204	2393.126472
1014.852380	2390.689074
1015.145521	2393.181924
1015.438628	2390.744526
1015.731699	2389.504402
1016.024736	2390.318549
1016.317737	2389.902654
1016.610703	2392.826523
1016.903635	2386.270502
1017.196531	2386.051212
1017.489393	2387.873589
1017.782219	2386.638507
1018.075011	2392.375340
1018.367768	2388.044988
1018.660490	2388.493651
1018.953177	2388.493651
1019.245829	2388.493651
