Dividing Wavelength (nm)	Counts (n)	Blue Motor Position (mm): 0.000000	Red Motor Position (mm): 32.600000	
326.493990	1988.115130
326.888308	1988.115130
327.282561	1988.115130
327.676750	1966.511266
328.070874	1967.083437
328.464933	1975.807153
328.858929	1981.864100
329.252859	1996.397746
329.646726	2009.106495
330.040528	2023.004956
330.434265	2041.344674
330.827938	2063.044321
331.221547	2082.984605
331.615091	2104.301124
332.008571	2125.020266
332.401986	2143.387710
332.795338	2165.868736
333.188625	2187.028979
333.581847	2206.999510
333.975006	2219.582230
334.368100	2239.174674
334.761129	2256.175966
335.154095	2271.982503
335.546996	2293.175514
335.939833	2327.657007
336.332606	2342.697289
336.725315	2354.435616
337.117960	2361.785618
337.510540	2369.410363
337.903056	2381.748587
338.295508	2387.150184
338.687896	2394.366595
339.080220	2400.451268
339.472480	2403.609551
339.864676	2404.635426
340.256807	2410.536096
340.648875	2413.573392
341.040879	2412.313103
341.432818	2418.115471
341.824694	2417.059349
342.216506	2415.783937
342.608253	2418.675039
342.999937	2415.317631
343.391557	2417.833167
343.783113	2415.143711
344.174605	2412.343350
344.566033	2413.243196
344.957397	2410.152969
345.348697	2408.411250
345.739934	2406.823287
346.131106	2401.424211
346.522215	2404.922772
346.913260	2400.731052
347.304241	2404.365724
347.695159	2399.427914
348.086012	2397.950856
348.476802	2394.442213
348.867528	2394.001112
349.258191	2392.645041
349.648789	2393.121430
350.039324	2389.453991
350.429796	2394.227964
350.820203	2389.524567
351.210548	2391.024310
351.600828	2388.042468
351.991045	2389.116234
352.381198	2388.692777
352.771288	2387.122457
353.161314	2390.316028
353.551276	2389.133878
353.941175	2390.036244
354.331010	2389.902654
354.720782	2387.679505
355.110490	2390.852911
355.500135	2390.613456
355.889717	2391.294012
356.279235	2393.403735
356.668689	2393.421379
357.058080	2392.156049
357.447408	2390.371481
357.836672	2390.527757
358.225873	2393.015566
358.615010	2391.115051
359.004084	2395.591596
359.393095	2395.906668
359.782043	2395.992367
360.170927	2395.889024
360.559748	2396.811555
360.948505	2399.168294
361.337199	2401.199879
361.725830	2402.437483
362.114398	2406.891342
362.502903	2405.522669
362.891344	2405.411763
363.279722	2404.431259
363.668037	2407.045097
364.056289	2407.221538
364.444478	2409.485016
364.832603	2406.782957
365.220665	2407.861764
365.608665	2409.308575
365.996601	2411.503998
366.384474	2412.645819
366.772284	2412.174471
367.160031	2412.945768
367.547715	2410.117681
367.935336	2416.958526
368.322893	2417.336613
368.710388	2416.522467
369.097820	2423.421286
369.485189	2418.054977
369.872495	2423.552356
370.259738	2425.349527
370.646918	2428.364137
371.034035	2429.016966
371.421090	2431.600558
371.808081	2432.593665
372.195010	2440.125149
372.581875	2448.271653
372.968678	2450.376335
373.355418	2457.234825
373.742096	2469.837710
374.128710	2480.983701
374.515262	2494.491473
374.901751	2509.098216
375.288177	2525.943231
375.674540	2544.250182
376.060841	2565.662483
376.447079	2592.262131
376.833254	2618.138373
377.219367	2644.526293
377.605417	2679.771520
377.991404	2706.930737
378.377329	2746.594535
378.763191	2780.072838
379.148991	2832.231136
379.534727	2878.811398
379.920402	2928.683533
380.306013	2978.268322
380.691563	3043.095040
381.077049	3101.222064
381.462474	3159.465035
381.847835	3232.362640
382.233134	3304.209165
382.618371	3368.299874
383.003545	3454.014613
383.388657	3535.078888
383.773706	3630.762508
384.158693	3706.168087
384.543618	3800.730051
384.928480	3880.360118
385.313280	3989.422960
385.698017	4091.743260
386.082692	4216.365624
386.467305	4279.276704
386.851856	4408.272269
387.236344	4567.781938
387.620770	4631.930621
388.005133	4753.704733
388.389435	4907.197786
388.773674	4993.434284
389.157851	5128.217094
389.541965	5260.801960
389.926018	5285.551505
390.310008	5469.205781
390.693936	5596.058856
391.077802	5714.087391
391.461606	5847.932546
391.845348	5962.112160
392.229027	6087.087405
392.612645	6317.659700
392.996200	6436.497340
393.379694	6610.086952
393.763125	6837.097671
394.146494	6932.325067
394.529801	7077.656492
394.913047	7319.551218
395.296230	7322.255797
395.679351	7379.248562
396.062410	7651.634707
396.445408	7542.143366
396.828343	7700.473405
397.211217	7837.242430
397.594028	7716.746250
397.976778	7929.697191
398.359466	8095.772964
398.742092	8064.807676
399.124656	8221.758960
399.507158	8411.944051
399.889598	8432.605220
400.271977	8644.767220
400.654294	8676.032457
401.036549	8882.792861
401.418742	8904.616016
401.800874	9213.903407
402.182944	9287.733626
402.564952	9660.136263
402.946898	9485.125046
403.328783	9548.152072
403.710606	9743.358152
404.092367	10007.154171
404.474067	10372.715962
404.855705	10158.734105
405.237282	10116.267425
405.618797	10548.899248
406.000250	10799.963833
406.381642	11171.839670
406.762972	11122.701023
407.144240	10918.131000
407.525447	11174.793786
407.906593	11112.926226
408.287677	11379.300795
408.668700	11530.122036
409.049661	11510.554797
409.430560	11672.320383
409.811399	11638.952986
410.192176	11801.522635
410.572891	11883.885007
410.953545	12374.033875
411.334138	11848.735562
411.714669	12459.804066
412.095139	11750.528844
412.475547	12266.304417
412.855894	12106.328441
413.236180	12439.863782
413.616405	12119.924433
413.996568	12398.269222
414.376670	12375.417672
414.756711	12247.458063
415.136691	12537.437836
415.516609	12720.310732
415.896466	12789.850929
416.276262	13089.466867
416.655997	13526.081202
417.035670	13560.660996
417.415283	14228.145054
417.794834	14314.036233
418.174324	14061.323191
418.553753	13949.913691
418.933121	14457.073932
419.312428	14267.871867
419.691674	14177.113453
420.070859	14642.230472
420.449983	14285.883909
420.829045	14856.320714
421.208047	14588.625362
421.586988	15048.058480
421.965867	15300.859742
422.344686	15300.826975
422.723444	15885.260543
423.102141	14547.330751
423.480777	15755.448311
423.859352	15252.658750
424.237866	16385.196811
424.616319	16069.184521
424.994712	16747.360865
425.373044	16536.151642
425.751314	17228.216366
426.129524	16323.964436
426.507673	17429.643230
426.885762	17128.146942
427.263789	17335.585381
427.641756	17503.760794
428.019662	17563.243889
428.397508	17607.595960
428.775292	17922.511800
429.153016	17867.162451
429.530679	17962.042008
429.908282	17985.090163
430.285824	17684.690326
430.663305	18406.414678
431.040726	18009.675871
431.418086	17823.238878
431.795385	18491.380806
432.172624	18908.750536
432.549802	18464.030026
432.926920	18645.130957
433.303977	18532.632568
433.680974	18794.598648
434.057910	19090.174101
434.434786	19106.230176
434.811601	19016.606022
435.188355	20072.198432
435.565050	19707.143276
435.941683	19657.775256
436.318257	20555.945034
436.694770	20365.384378
437.071222	20970.642953
437.447614	20030.356855
437.823946	20052.704290
438.200218	20217.877696
438.576429	19976.935747
438.952580	20268.997516
439.328670	20220.345340
439.704700	20638.561984
440.080670	20204.211128
440.456580	20814.152934
440.832429	20986.535190
441.208218	19962.071905
441.583947	20409.602859
441.959616	20515.716627
442.335224	20760.878020
442.710773	20891.927856
443.086261	21437.063109
443.461689	20794.222733
443.837057	20909.967625
444.212365	21562.698745
444.587612	21564.939538
444.962800	21136.179321
445.337927	21567.099673
445.712995	20290.344282
446.088002	22162.659068
446.462949	22355.712575
446.837837	22537.975492
447.212664	22490.515549
447.587431	25347.972619
447.962139	28301.960223
448.336786	30717.129140
448.711374	29157.570060
449.085901	25438.572236
449.460369	25367.738983
449.834776	25295.776512
450.209124	27804.055540
450.583412	27322.574937
450.957640	27861.708696
451.331808	26500.156057
451.705917	25123.626149
452.079965	25158.818444
452.453954	25517.040316
452.827883	25398.734518
453.201752	25195.586100
453.575562	25374.557144
453.949311	26493.295047
454.323001	26557.741157
454.696632	26317.580588
455.070202	27871.801086
455.443713	28005.605912
455.817164	28616.802966
456.190556	29153.910182
456.563888	28581.376258
456.937160	29037.819971
457.310373	27344.093102
457.683526	27812.796901
458.056619	27784.160627
458.429653	27721.221821
458.802628	28297.087948
459.175542	28411.801925
459.548398	29723.167357
459.921194	31294.497531
460.293930	31964.408904
460.666607	34014.026112
461.039224	35772.635151
461.411782	36171.718096
461.784280	34977.466229
462.156719	34513.372565
462.529099	33952.418170
462.901419	32663.712725
463.273680	31578.032188
463.645882	31663.668789
464.018024	31628.030352
464.390106	32474.430001
464.762130	35169.352709
465.134094	39233.475487
465.505999	44547.983380
465.877845	49160.445065
466.249631	50339.394509
466.621358	48666.916103
466.993026	46571.179900
467.364634	44493.942211
467.736184	42504.571833
468.107674	41241.331776
468.479105	40442.802924
468.850477	39742.032128
469.221790	38292.433216
469.593043	36546.074180
469.964238	35642.374257
470.335373	35569.043112
470.706449	37294.166287
471.077467	39866.699863
471.448425	44426.320173
471.819324	47266.327289
472.190164	45440.398681
472.560945	41870.704710
472.931667	38755.932024
473.302330	37630.335632
473.672934	36796.929557
474.043479	37299.401526
474.413965	36496.174319
474.784393	36120.620960
475.154761	37007.758173
475.525070	37044.296456
475.895321	36572.147028
476.265513	37155.680750
476.635645	38151.459869
477.005719	37968.244174
477.375734	38440.229765
477.745691	39115.378896
478.115588	40467.005504
478.485427	42435.155144
478.855207	45786.128573
479.224928	48423.977858
479.594591	50060.134750
479.964194	49060.753727
480.333739	49221.359847
480.703226	49256.526936
481.072653	49890.993957
481.442022	50345.519511
481.811333	50604.145827
482.180584	49315.480710
482.549777	48797.282862
482.918912	48254.572404
483.287988	47959.987537
483.657005	47113.981099
484.025964	46472.073336
484.394864	46494.491347
484.763706	46062.671150
485.132489	45188.792172
485.501213	45002.957597
485.869879	45137.064892
486.238487	44722.951748
486.607036	44913.164564
486.975527	44363.517478
487.343959	44556.076952
487.712333	44621.589267
488.080648	44520.957754
488.448905	44979.511190
488.817104	44787.549093
489.185244	45718.851854
489.553326	47376.025317
489.921350	50056.981509
490.289315	52915.953445
490.657222	53514.426627
491.025070	53767.401809
491.392861	52868.664902
491.760593	51616.964046
492.128267	49935.535071
492.495883	48392.160616
492.863440	46986.550812
493.230939	45629.706610
493.598380	44492.490358
493.965763	44136.390812
494.333088	43285.612922
494.700354	42785.089359
495.067563	42446.815333
495.434713	42300.813436
495.801805	42339.784075
496.168839	41912.253900
496.535815	41556.421535
496.902733	41540.211705
497.269593	41081.310429
497.636395	40983.043217
498.003139	41342.220388
498.369825	40764.471389
498.736453	41007.926353
499.103023	40501.436585
499.469535	40315.269294
499.835989	40369.557479
500.202385	39989.492288
500.568723	39932.996077
500.935003	40066.846273
501.301226	39797.487341
501.667390	40339.585299
502.033497	40519.481395
502.399546	39889.992514
502.765537	39149.593208
503.131470	39458.343716
503.497345	39736.819575
503.863163	38345.163685
504.228923	38854.363074
504.594625	39157.046553
504.960269	38379.619972
505.325856	38949.376221
505.691385	38244.050742
506.056856	38274.733725
506.422270	38602.658262
506.787625	38110.361863
507.152924	38158.993874
507.518164	38161.338010
507.883347	37288.550442
508.248472	37434.781712
508.613540	37753.561596
508.978550	37923.945035
509.343503	37550.745895
509.708398	37605.853268
510.073236	37986.470466
510.438016	37841.784309
510.802738	37217.107210
511.167403	37629.914695
511.532010	37717.416523
511.896561	37841.197015
512.261053	38469.322263
512.625488	37890.754078
512.989866	37635.041549
513.354186	37346.750563
513.718449	37172.598862
514.082655	37612.966336
514.446803	37149.197826
514.810894	37441.504091
515.174927	37217.018990
515.538904	36958.082643
515.902822	37363.507359
516.266684	36709.611732
516.630488	36908.271002
516.994235	36600.049814
517.357925	36904.293531
517.721558	36848.422423
518.085133	36919.046468
518.448651	36836.021185
518.812112	36452.661599
519.175516	36346.769642
519.538863	36412.181134
519.902152	36182.649838
520.265385	36361.983845
520.628560	36182.213778
520.991678	35812.520761
521.354739	35790.122914
521.717743	35836.960274
522.080690	35531.715888
522.443580	35740.913691
522.806413	35567.689562
523.169189	35299.495137
523.531908	35225.596862
523.894569	34896.792644
524.257174	34787.263494
524.619722	34791.377076
524.982213	34542.601175
525.344647	34250.736011
525.707025	34036.479411
526.069345	34091.022175
526.431608	33796.762463
526.793815	33790.455980
527.155964	33201.734910
527.518057	33077.404933
527.880093	32677.694365
528.242072	32807.975424
528.603995	32341.628364
528.965860	32106.380399
529.327669	31921.813675
529.689421	31595.164550
530.051117	31328.338797
530.412755	31154.035862
530.774337	30952.944235
531.135862	30567.842931
531.497331	30439.767376
531.858743	30136.869647
532.220098	30104.318917
532.581396	29660.838531
532.942638	29173.353913
533.303824	29129.064856
533.664953	28828.987652
534.026025	28380.846719
534.387040	28432.029554
534.747999	28139.357806
535.108902	27976.384864
535.469748	27429.664168
535.830537	27234.750475
536.191270	27098.641842
536.551947	26634.003733
536.912567	26560.251652
537.273131	26373.817180
537.633638	25817.180534
537.994089	25758.314980
538.354483	25278.855879
538.714821	25333.650701
539.075103	25261.763847
539.435328	24871.538210
539.795497	24567.057559
540.155609	24309.341172
540.515665	24281.060298
540.875665	23749.510955
541.235609	23665.825280
541.595496	23403.763418
541.955328	23476.630776
542.315102	22908.212954
542.674821	22552.060476
543.034483	22320.258140
543.394090	22057.969426
543.753640	21795.990743
544.113134	22011.379082
544.472571	21320.546920
544.831953	21630.111575
545.191278	21042.252543
545.550548	20658.784573
545.909761	20613.998962
546.268918	20463.941456
546.628019	20350.641523
546.987064	19928.333983
547.346053	19389.429596
547.704986	19515.541621
548.063863	19106.499878
548.422684	18951.464232
548.781449	18664.667949
549.140158	18577.642510
549.498811	18295.663049
549.857408	17848.676540
550.215949	17929.239220
550.574434	17679.739913
550.932864	17365.209722
551.291237	17398.884629
551.649555	17047.173408
552.007817	16903.742499
552.366022	16582.641163
552.724173	16426.095692
553.082267	16341.898341
553.440305	16241.286992
553.798288	15818.790409
554.156215	15694.866245
554.514086	15566.203396
554.871902	15284.619665
555.229661	15088.874182
555.587365	14853.641341
555.945014	14684.780331
556.302606	14464.577690
556.660143	14344.630996
557.017625	14187.682232
557.375050	13942.629223
557.732421	13850.429040
558.089735	13669.224765
558.446994	13471.036843
558.804197	13396.241243
559.161345	13215.162997
559.518437	12843.319927
559.875474	12732.336405
560.232455	12595.388420
560.589381	12464.366311
560.946251	12227.613561
561.303065	12215.141747
561.659825	12009.936538
562.016528	11779.180242
562.373177	11564.424567
562.729770	11501.105154
563.086307	11255.590880
563.442789	11196.291787
563.799216	11056.669469
564.155587	10871.333969
564.511904	10734.643082
564.868164	10604.591395
565.224370	10503.992650
565.580520	10318.286624
565.936615	10219.840452
566.292654	10042.666579
566.648638	9942.869377
567.004567	9815.781888
567.360441	9689.150624
567.716260	9542.037152
568.072023	9458.293505
568.427732	9340.234723
568.783385	9153.921238
569.138982	9094.415458
569.494525	8966.639852
569.850013	8823.786155
570.205445	8712.006130
570.560823	8593.768387
570.916145	8473.367990
571.271412	8362.838171
571.626625	8238.644305
571.981782	8140.445148
572.336884	8000.084302
572.691931	7939.603059
573.046923	7793.918754
573.401860	7678.672936
573.756743	7583.634583
574.111570	7503.656677
574.466342	7392.683237
574.821059	7315.929149
575.175722	7173.914804
575.530330	7093.281548
575.884882	6975.338713
576.239380	6893.871146
576.593823	6811.100441
576.948211	6724.790846
577.302544	6604.123267
577.656823	6526.297934
578.011047	6474.416899
578.365216	6375.091045
578.719330	6283.261386
579.073389	6201.912287
579.427394	6141.113451
579.781344	6069.100568
580.135239	5975.009952
580.489080	5910.243728
580.842866	5809.135826
581.196597	5777.089211
581.550273	5717.210386
581.903895	5645.716742
582.257463	5621.632629
582.610975	5513.399056
582.964434	5476.830526
583.317837	5395.085696
583.671186	5327.834183
584.024481	5285.218789
584.377721	5207.186769
584.730906	5165.531714
585.084037	5112.080360
585.437113	5044.932191
585.790135	4990.137369
586.143103	4916.564249
586.496016	4872.721334
586.848874	4823.970856
587.201679	4780.856388
587.554428	4705.672619
587.907124	4670.850849
588.259765	4617.656594
588.612352	4584.095112
588.964884	4514.106253
589.317362	4484.189525
589.669786	4442.733597
590.022155	4391.039084
590.374470	4371.212226
590.726731	4307.381136
591.078937	4249.241509
591.431090	4210.356569
591.783188	4162.997449
592.135232	4114.902321
592.487222	4082.898556
592.839157	4053.203639
593.191038	4007.505579
593.542866	3966.558807
593.894639	3914.970159
594.246358	3892.330337
594.598022	3864.820761
594.949633	3818.411898
595.301190	3789.203453
595.652692	3755.321858
596.004141	3736.737644
596.355535	3680.622040
596.706876	3653.540962
597.058162	3620.972587
597.409395	3611.868264
597.760573	3588.648709
598.111698	3555.183009
598.462768	3534.491593
598.813785	3510.377234
599.164748	3475.348776
599.515657	3465.853763
599.866511	3432.519133
600.217312	3429.933021
600.568060	3389.457597
600.918753	3390.584295
601.269392	3368.136037
601.619978	3342.063189
601.970510	3332.822754
602.320988	3321.286074
602.671412	3313.177378
603.021783	3289.781383
603.372100	3269.097528
603.722363	3256.618152
604.072572	3243.493508
604.422728	3231.364492
604.772830	3210.736090
605.122878	3200.767209
605.472872	3189.611135
605.822813	3179.483457
606.172701	3173.703774
606.522534	3161.108451
606.872314	3156.813388
607.222041	3142.254536
607.571714	3138.740852
607.921333	3120.479272
608.270899	3114.870988
608.620411	3106.961418
608.969870	3098.189810
609.319276	3085.894436
609.668627	3081.364959
610.017926	3078.862026
610.367171	3074.256932
610.716362	3066.317115
611.065500	3058.122719
611.414585	3050.056873
611.763616	3047.800957
612.112594	3039.689740
612.461518	3033.824358
612.810389	3031.833102
613.159207	3021.039992
613.507971	3016.008920
613.856682	3016.145031
614.205340	3005.354442
614.553945	3006.982734
614.902496	2994.609222
615.250994	2994.546208
615.599439	2989.421875
615.947830	2987.090341
616.296169	2979.064824
616.644454	2972.150882
616.992686	2971.624081
617.340864	2972.186170
617.688990	2962.434058
618.037063	2963.207875
618.385082	2958.925415
618.733048	2954.716051
619.080961	2949.692541
619.428821	2945.808332
619.776628	2939.211983
620.124382	2935.327773
620.472083	2930.294181
620.819731	2922.803027
621.167326	2914.437232
621.514868	2910.772313
621.862357	2900.450551
622.209793	2898.187073
622.557176	2891.187430
622.904506	2878.760986
623.251783	2870.193545
623.599007	2866.503421
623.946179	2856.080835
624.293297	2853.645958
624.640363	2845.731346
624.987376	2841.978207
625.334336	2834.976044
625.681243	2831.210302
626.028097	2823.724189
626.374899	2819.809733
626.721647	2815.055925
627.068343	2812.106850
627.414987	2806.145686
627.761577	2801.275931
628.108115	2798.483132
628.454600	2792.617749
628.801032	2791.574230
629.147412	2785.668519
629.493739	2784.309928
629.840014	2779.881274
630.186236	2777.549740
630.532405	2772.581683
630.878521	2771.076899
631.224585	2767.167484
631.570597	2762.355703
631.916556	2764.742689
632.262462	2762.101124
632.608316	2753.843714
632.954117	2756.908736
633.299866	2752.638879
633.645562	2749.294073
633.991206	2742.309554
634.336797	2738.347208
634.682336	2734.596589
635.027823	2732.136506
635.373257	2725.537636
635.718639	2721.686194
636.063968	2718.908518
636.409245	2714.643702
636.754470	2711.656818
637.099642	2709.468958
637.444762	2702.428986
637.789829	2704.243802
638.134845	2698.703574
638.479808	2696.137626
638.824719	2692.654189
639.169577	2691.217460
639.514383	2688.621266
639.859137	2687.171934
640.203839	2684.482479
640.548489	2684.288394
640.893086	2679.126253
641.237632	2674.979904
641.582125	2675.824297
641.926566	2671.675427
642.270955	2673.926302
642.615292	2672.804646
642.959576	2671.710715
643.303809	2671.312464
643.647990	2667.667710
643.992118	2667.874397
644.336195	2665.598316
644.680219	2665.048831
645.024192	2667.098060
645.368112	2667.403049
645.711981	2666.813234
646.055797	2668.832217
646.399562	2671.932526
646.743274	2671.846827
647.086935	2675.531910
647.430544	2673.739780
647.774101	2674.558967
648.117606	2676.935871
648.461059	2676.877898
648.804460	2672.512259
649.147810	2666.054541
649.491108	2667.214006
649.834354	2662.646721
650.177548	2656.410813
650.520690	2651.702376
650.863781	2653.055926
651.206820	2655.725217
651.549807	2648.869247
651.892742	2646.381438
652.235626	2644.611993
652.578458	2640.490850
652.921238	2639.825417
653.263967	2642.512352
653.606644	2638.030767
653.949269	2636.762916
654.291843	2632.523306
654.634365	2632.278810
654.976836	2628.717235
655.319255	2631.905765
655.661622	2633.385343
656.003938	2630.305198
656.346203	2627.106586
656.688416	2626.816720
657.030577	2625.705145
657.372687	2623.214815
657.714746	2627.262862
658.056753	2623.970988
658.398708	2617.490585
658.740612	2620.190123
659.082465	2618.440843
659.424266	2619.706172
659.766016	2617.067128
660.107715	2619.459156
660.449362	2620.248096
660.790958	2620.661471
661.132503	2619.368415
661.473996	2620.369084
661.815438	2619.648199
662.156829	2621.490741
662.498168	2618.970164
662.839456	2621.316821
663.180693	2620.898405
663.521879	2618.617283
663.863013	2618.511419
664.204097	2619.348250
664.545129	2622.652727
664.886110	2620.820267
665.227040	2620.953858
665.567918	2620.875720
665.908746	2619.602829
666.249522	2622.423354
666.590248	2619.832201
666.930922	2619.058384
667.271545	2620.232973
667.612118	2622.756070
667.952639	2619.643158
668.293109	2617.997221
668.633528	2619.338168
668.973896	2620.437140
669.314213	2618.798765
669.654480	2613.818105
669.994695	2614.390276
670.334859	2615.078393
670.674973	2615.494288
671.015035	2615.622838
671.355047	2612.721654
671.695008	2615.872375
672.034918	2615.317848
672.374777	2614.821294
672.714585	2612.560337
673.054342	2615.277519
673.394049	2611.572271
673.733705	2616.164762
674.073310	2610.344750
674.412864	2615.451438
674.752368	2612.031016
675.091820	2611.605038
675.431223	2610.914400
675.770574	2607.025150
676.109875	2602.636825
676.449125	2600.698502
676.788324	2601.053903
677.127473	2600.156578
677.466571	2597.204982
677.805619	2596.017790
678.144616	2596.806731
678.483562	2598.964345
678.822458	2595.541401
679.161303	2596.224478
679.500098	2590.948910
679.838842	2591.533684
680.177535	2595.957297
680.516179	2595.397728
680.854771	2594.911257
681.193314	2603.423245
681.531805	2606.994903
681.870247	2612.378855
682.208638	2614.755759
682.546978	2616.247941
682.885268	2616.747015
683.223508	2614.402878
683.561697	2609.699482
683.899836	2612.555296
684.237925	2609.182764
684.575963	2608.837445
684.913951	2604.774275
685.251889	2607.824173
685.589776	2608.335850
685.927614	2604.844851
686.265401	2605.215376
686.603137	2606.944491
686.940824	2610.526231
687.278460	2614.352467
687.616046	2608.847527
687.953582	2614.193671
688.291068	2611.277363
688.628504	2617.019237
688.965889	2614.884309
689.303224	2615.506891
689.640510	2613.954216
689.977745	2608.013216
690.314930	2606.395006
690.652065	2603.932402
690.989150	2597.948552
691.326185	2591.841194
691.663170	2591.982347
692.000105	2585.597725
692.336990	2582.434401
692.673825	2579.727302
693.010610	2576.475758
693.347345	2569.677762
693.684030	2567.860426
694.020665	2569.153482
694.357251	2557.906667
694.693786	2564.311453
695.030272	2563.772050
695.366707	2561.256514
695.703093	2555.789383
696.039429	2559.277861
696.375716	2558.541853
696.711952	2555.678477
697.048139	2554.942469
697.384276	2556.132181
697.720363	2555.514640
698.056400	2553.909032
698.392388	2556.230484
698.728326	2554.730740
699.064214	2549.379556
699.400053	2553.132695
699.735842	2551.005328
700.071581	2550.909546
700.407270	2546.324616
700.742910	2548.850234
701.078501	2541.316230
701.414042	2542.281611
701.749533	2540.570139
702.084974	2539.158616
702.420366	2540.063503
702.755709	2537.845396
703.091002	2537.704243
703.426246	2534.614016
703.761440	2535.712988
704.096584	2535.584438
704.431679	2533.099149
704.766725	2536.527134
705.101721	2533.010929
705.436668	2534.334232
705.771565	2531.654859
706.106413	2533.172246
706.441212	2533.257946
706.775961	2533.993954
707.110661	2534.510672
707.445311	2533.797349
707.779913	2537.033770
708.114465	2536.121321
708.448967	2537.343801
708.783421	2542.314378
709.117825	2544.761859
709.452180	2546.513660
709.786485	2545.848227
710.120742	2551.819474
710.454949	2553.079763
710.789107	2551.504402
711.123216	2555.859959
711.457275	2558.735937
711.791286	2560.243242
712.125247	2564.301371
712.459159	2564.079560
712.793023	2568.493090
713.126837	2560.233160
713.460602	2565.407904
713.794318	2560.182748
714.127985	2558.753581
714.461602	2554.617314
714.795171	2553.636810
715.128691	2547.955430
715.462162	2544.706406
715.795584	2541.384286
716.128957	2540.053421
716.462281	2537.459747
716.795556	2539.995448
717.128782	2537.857998
717.461960	2533.527647
717.795088	2532.486649
718.128167	2529.882893
718.461198	2525.797038
718.794180	2525.885258
719.127113	2523.140350
719.459997	2520.801254
719.792833	2519.785462
720.125619	2519.803106
720.458357	2520.637417
720.791046	2520.846625
721.123686	2516.753208
721.456278	2516.480986
721.788821	2514.404030
722.121315	2513.259688
722.453761	2512.112826
722.786158	2512.904287
723.118506	2511.948988
723.450805	2514.540141
723.783056	2514.378824
724.115259	2514.726664
724.447412	2515.593742
724.779518	2515.828156
725.111574	2514.459483
725.443582	2516.110461
725.775542	2518.023579
726.107453	2521.169259
726.439315	2517.746315
726.771129	2525.713859
727.102895	2523.571368
727.434612	2523.490710
727.766281	2525.570186
728.097901	2527.329549
728.429473	2526.802748
728.760996	2526.346524
729.092471	2526.878365
729.423897	2528.884745
729.755276	2528.509179
730.086606	2526.124713
730.417887	2530.286185
730.749120	2534.765251
731.080305	2533.126876
731.411442	2540.504604
731.742530	2537.999151
732.073570	2540.129038
732.404562	2542.364790
732.735506	2545.911242
733.066401	2538.404964
733.397249	2538.130221
733.728048	2531.196114
734.058798	2529.023376
734.389501	2524.022552
734.720156	2521.103724
735.050762	2516.375121
735.381320	2514.867816
735.711831	2511.447393
736.042293	2511.144924
736.372707	2512.881602
736.703073	2508.931858
737.033391	2510.766838
737.363661	2513.214318
737.693883	2512.793382
738.024056	2514.598115
738.354182	2515.994514
738.684260	2515.127436
739.014290	2518.366377
739.344272	2519.896367
739.674207	2520.687828
740.004093	2525.953314
740.333931	2520.183713
740.663722	2526.207892
740.993464	2523.455422
741.323159	2522.885772
741.652806	2519.490554
741.982405	2519.659433
742.311956	2517.027951
742.641460	2515.525687
742.970915	2514.469565
743.300323	2510.487054
743.629683	2510.933196
743.958996	2509.597290
744.288260	2506.864985
744.617477	2503.215189
744.946647	2501.032370
745.275768	2502.000271
745.604842	2500.172853
745.933869	2500.165291
746.262847	2494.400732
746.591778	2501.551608
746.920662	2500.377020
747.249498	2501.692761
747.578286	2499.983810
747.907027	2500.543378
748.235720	2504.382216
748.564365	2503.361383
748.892963	2501.317195
749.221514	2505.065293
749.550017	2503.038749
749.878473	2500.661845
750.206881	2502.491784
750.535242	2499.320898
750.863555	2500.069509
751.191821	2501.206289
751.520039	2501.261742
751.848210	2499.479694
752.176334	2500.936588
752.504411	2499.535147
752.832440	2497.722852
753.160421	2497.513644
753.488356	2497.949704
753.816243	2496.366782
754.144082	2494.171359
754.471875	2494.506596
754.799620	2493.142964
755.127318	2497.599344
755.454969	2496.770074
755.782572	2497.337204
756.110129	2495.298057
756.437638	2494.582213
756.765100	2493.117758
757.092515	2495.230002
757.419882	2496.654127
757.747203	2494.935094
758.074477	2498.247132
758.401703	2496.641525
758.728882	2496.565907
759.056014	2499.172184
759.383099	2500.929026
759.710138	2501.150837
760.037129	2500.666886
760.364073	2502.287617
760.690970	2502.275014
761.017820	2504.132679
761.344623	2502.206958
761.671379	2505.604696
761.998088	2505.486229
762.324751	2522.069105
762.651366	2538.639377
762.977935	2573.176322
763.304456	2586.951275
763.630931	2595.715321
763.957359	2584.624783
764.283740	2574.217321
764.610074	2557.936914
764.936362	2543.315048
765.262602	2532.713501
765.588796	2520.181192
765.914943	2510.986128
766.241044	2502.708553
766.567097	2500.354334
766.893104	2493.644559
767.219064	2488.245483
767.544978	2487.312869
767.870845	2484.764566
768.196665	2485.992087
768.522438	2482.299442
768.848165	2481.001345
769.173846	2478.657208
769.499479	2477.893473
769.825066	2477.308700
770.150607	2473.449696
770.476101	2475.677886
770.801548	2473.663945
771.126949	2472.731332
771.452303	2473.295941
771.777611	2468.068265
772.102872	2472.113791
772.428087	2469.303347
772.753256	2468.322843
773.078378	2467.579273
773.403453	2466.752523
773.728482	2462.497790
774.053465	2466.762606
774.378401	2461.555094
774.703291	2465.396453
775.028135	2463.054837
775.352932	2463.354786
775.677683	2460.216667
776.002388	2462.394446
776.327046	2461.993674
776.651658	2460.526698
776.976224	2460.156174
777.300743	2457.910340
777.625216	2461.013170
777.949643	2458.661472
778.274024	2460.509054
778.598359	2453.995884
778.922647	2458.026286
779.246889	2458.941256
779.571086	2456.483693
779.895236	2459.601647
780.219339	2459.258848
780.543397	2458.142233
780.867409	2458.361523
781.191374	2459.856225
781.515294	2459.911678
781.839167	2463.369909
782.162995	2460.332614
782.486776	2460.662810
782.810511	2457.484362
783.134201	2459.246245
783.457844	2457.456636
783.781441	2456.657613
784.104993	2459.135340
784.428498	2458.051492
784.751958	2456.939917
785.075372	2457.156687
785.398739	2455.472942
785.722061	2455.929166
786.045337	2458.727007
786.368568	2458.545525
786.691752	2460.115844
787.014891	2462.384364
787.337983	2463.868983
787.661030	2466.858388
787.984031	2470.805611
788.306987	2474.155458
788.629897	2474.213431
788.952760	2476.585294
789.275579	2473.091774
789.598351	2471.788636
789.921078	2467.077678
790.243759	2468.262349
790.566395	2462.911164
790.888984	2465.134313
791.211529	2461.706328
791.534027	2458.706842
791.856480	2457.572582
792.178888	2457.514609
792.501249	2456.566872
792.823566	2455.407407
793.145836	2454.792386
793.468062	2453.380863
793.790241	2455.533436
794.112375	2457.267592
794.434464	2460.128447
794.756507	2459.460494
795.078505	2458.467387
795.400457	2458.356482
795.722364	2457.864969
796.044226	2464.420990
796.366042	2461.948304
796.687812	2463.097687
797.009538	2465.008284
797.331218	2464.675568
797.652852	2464.378140
797.974442	2464.773871
798.295986	2463.105249
798.617484	2461.625670
798.938938	2460.567028
799.260346	2461.149281
799.581709	2458.961420
799.903026	2463.236319
800.224299	2458.671554
800.545526	2455.823302
800.866708	2454.699125
801.187845	2458.127109
801.508936	2455.861111
801.829983	2456.660133
802.150984	2450.988835
802.471940	2452.614607
802.792851	2453.315328
803.113717	2451.709720
803.434538	2452.453291
803.755314	2451.911367
804.076045	2451.359360
804.396731	2450.777107
804.717372	2451.185440
805.037967	2451.293825
805.358518	2449.226952
805.679024	2452.904474
805.999485	2451.747529
806.319901	2452.985132
806.640272	2452.312138
806.960598	2452.523867
807.280879	2453.769032
807.601115	2455.835905
807.921306	2455.236007
808.241453	2454.104268
808.561554	2453.809361
808.881611	2456.846656
809.201623	2455.697273
809.521590	2454.048816
809.841513	2453.350616
810.161390	2453.650565
810.481223	2454.885647
810.801011	2452.302056
811.120755	2453.537139
811.440453	2453.053188
811.760107	2451.336675
812.079716	2448.881633
812.399281	2446.787034
812.718801	2446.275357
813.038276	2448.090172
813.357707	2448.874071
813.677093	2450.124277
813.996434	2453.438836
814.315731	2448.475820
814.634983	2450.595625
814.954191	2448.332147
815.273354	2449.983125
815.592473	2454.200050
815.911547	2456.808848
816.230577	2454.184927
816.549562	2456.087962
816.868502	2455.432613
817.187399	2458.485031
817.506250	2459.256328
817.825058	2459.407562
818.143821	2461.229939
818.462539	2463.695064
818.781213	2468.055662
819.099843	2472.920375
819.418429	2482.859010
819.736970	2488.978971
820.055466	2500.593789
820.373919	2513.050480
820.692327	2535.833975
821.010691	2575.323854
821.329011	2653.693632
821.647286	2777.426232
821.965517	2911.442787
822.283704	2986.258551
822.601847	3013.087572
822.919945	2959.270734
823.237999	2894.547359
823.556010	2829.682833
823.873976	2770.996240
824.191897	2715.593960
824.509775	2672.000582
824.827609	2633.954994
825.145398	2609.097064
825.463144	2598.858481
825.780845	2601.520210
826.098502	2617.397324
826.416116	2648.080307
826.733685	2678.770851
827.051210	2683.806964
827.368692	2669.361538
827.686129	2637.866929
828.003522	2603.433328
828.320872	2568.714901
828.638177	2548.540203
828.955439	2527.085053
829.272656	2511.800274
829.589830	2496.114724
829.906960	2489.848570
830.224046	2481.434884
830.541088	2477.845583
830.858086	2470.672021
831.175041	2471.302165
831.491952	2468.537092
831.808819	2469.205045
832.125642	2471.337453
832.442421	2481.649133
832.759157	2496.732265
833.075849	2524.914836
833.392497	2549.709751
833.709101	2567.787329
834.025662	2564.049313
834.342179	2552.752088
834.658653	2531.208717
834.975083	2517.796727
835.291469	2503.179901
835.607811	2494.738489
835.924110	2482.440594
836.240366	2475.302320
836.556578	2467.289406
836.872746	2461.996195
837.188871	2458.270782
837.504952	2453.595112
837.820990	2448.947168
838.136984	2451.094700
838.452935	2446.706375
838.768842	2447.419698
839.084706	2452.586881
839.400526	2465.633387
839.716303	2478.526138
840.032037	2489.029382
840.347727	2486.594505
840.663373	2477.147383
840.978977	2467.352421
841.294537	2462.812862
841.610054	2455.979578
841.925527	2453.983281
842.240957	2447.250820
842.556344	2441.478699
842.871687	2441.912238
843.186987	2439.303441
843.502244	2436.223296
843.817458	2435.358738
844.132629	2432.233222
844.447756	2432.379416
844.762840	2427.822213
845.077881	2426.980340
845.392879	2425.533529
845.707833	2429.826072
846.022745	2426.151070
846.337613	2430.186514
846.652438	2427.862542
846.967221	2429.095104
847.281960	2426.524116
847.596656	2429.737851
847.911309	2428.459919
848.225919	2429.289189
848.540485	2428.767429
848.855009	2424.119485
849.169490	2428.500248
849.483928	2426.229208
849.798323	2428.588468
850.112675	2425.236101
850.426984	2428.195258
850.741251	2426.408169
851.055474	2425.709969
851.369654	2423.920360
851.683792	2425.228539
851.997887	2427.255083
852.311938	2424.784918
852.625947	2430.942687
852.939914	2426.370361
853.253837	2428.621236
853.567718	2428.961514
853.881555	2423.302818
854.195350	2426.682912
854.509103	2426.317428
854.822812	2426.503951
855.136479	2426.859352
855.450103	2427.907912
855.763685	2427.668458
856.077224	2425.190731
856.390720	2425.271389
856.704173	2425.518406
857.017584	2428.044024
857.330953	2425.036975
857.644278	2426.824064
857.957561	2428.777512
858.270802	2427.618046
858.584000	2428.308684
858.897155	2427.953283
859.210268	2426.904723
859.523339	2425.155443
859.836367	2427.060999
860.149352	2428.797676
860.462295	2428.318767
860.775195	2424.122006
861.088054	2421.858528
861.400869	2424.298446
861.713642	2421.931625
862.026373	2428.364137
862.339062	2425.099990
862.651708	2427.088725
862.964312	2429.150557
863.276873	2424.139650
863.589392	2428.890938
863.901869	2431.232553
864.214303	2428.437234
864.526696	2429.770619
864.839045	2428.008736
865.151353	2431.454364
865.463619	2429.263983
865.775842	2431.230033
866.088023	2428.250711
866.400162	2431.406473
866.712258	2428.858170
867.024313	2429.339600
867.336325	2430.821699
867.648296	2430.909920
867.960224	2430.841864
868.272110	2430.257090
868.583954	2429.112748
868.895755	2431.214909
869.207515	2432.936463
869.519233	2434.121135
869.830909	2432.175249
870.142542	2432.419745
870.454134	2431.961000
870.765684	2433.838830
871.077191	2432.893614
871.388657	2432.989396
871.700081	2434.249684
872.011463	2433.710281
872.322803	2436.669438
872.634101	2435.250353
872.945357	2434.345466
873.256571	2438.194387
873.567744	2435.419232
873.878874	2437.695313
874.189963	2438.849737
874.501010	2438.063317
874.812015	2439.852927
875.122979	2441.072886
875.433900	2438.948039
875.744780	2437.836465
876.055618	2438.010385
876.366415	2442.713781
876.677169	2439.653801
876.987882	2438.423759
877.298554	2436.956784
877.609183	2441.329985
877.919771	2441.587083
878.230317	2442.519697
878.540822	2450.759463
878.851285	2454.920935
879.161707	2461.292954
879.472087	2472.627988
879.782425	2486.327324
880.092722	2517.736233
880.402977	2562.118551
880.713191	2615.867334
881.023363	2662.545898
881.333494	2696.435054
881.643583	2710.683876
881.953631	2704.488298
882.263637	2689.689991
882.573602	2670.168122
882.883526	2650.222797
883.193408	2629.425517
883.503248	2605.245622
883.813048	2583.581264
884.122806	2568.286403
884.432522	2549.182951
884.742197	2528.741072
885.051831	2518.079031
885.361424	2501.397853
885.670975	2491.383601
885.980485	2482.833804
886.289954	2476.658391
886.599382	2469.449541
886.908768	2464.632718
887.218113	2463.213633
887.527417	2455.765329
887.836680	2452.508743
888.145901	2450.560337
888.455082	2447.956581
888.764221	2442.761672
889.073319	2445.887188
889.382376	2443.492640
889.691392	2442.814604
890.000366	2442.789399
890.309300	2441.473657
890.618193	2441.831579
890.927044	2440.180602
891.235855	2444.692434
891.544625	2443.157403
891.853353	2439.119439
892.162041	2442.539862
892.470687	2448.259051
892.779293	2450.724175
893.087858	2453.955554
893.396381	2459.145422
893.704864	2473.227886
894.013306	2489.301605
894.321707	2505.229130
894.630068	2515.959226
894.938387	2520.672705
895.246665	2516.211284
895.554903	2508.400016
895.863100	2497.574138
896.171256	2490.261944
896.479371	2484.318424
896.787446	2482.911942
897.095480	2475.481281
897.403473	2469.903245
897.711425	2464.113479
898.019336	2459.773046
898.327207	2457.970833
898.635038	2454.308435
898.942827	2450.298197
899.250576	2449.244596
899.558284	2445.045315
899.865952	2444.387444
900.173579	2442.890222
900.481165	2443.069183
900.788711	2439.668924
901.096216	2438.146496
901.403681	2436.457709
901.711105	2436.782864
902.018489	2435.943512
902.325832	2442.048349
902.633135	2442.822166
902.940397	2448.506067
903.247619	2457.708693
903.554800	2481.298773
903.861941	2509.335150
904.169041	2532.723583
904.476101	2538.679707
904.783121	2533.124355
905.090100	2522.427027
905.397039	2509.138545
905.703938	2499.038593
906.010796	2488.414362
906.317614	2481.949082
906.624391	2473.066569
906.931129	2467.531382
907.237826	2462.880917
907.544483	2455.858590
907.851099	2450.540173
908.157675	2443.384255
908.464211	2437.017278
908.770707	2430.627615
909.077163	2431.484611
909.383578	2428.540577
909.689954	2427.552511
909.996289	2423.002870
910.302584	2426.919846
910.608839	2423.738878
910.915054	2426.592171
911.221229	2425.336924
911.527363	2428.172573
911.833458	2428.638880
912.139513	2427.839857
912.445527	2429.480752
912.751502	2430.415887
913.057436	2429.601740
913.363331	2431.257759
913.669186	2435.958635
913.975000	2442.098761
914.280775	2448.450614
914.586510	2458.764815
914.892205	2470.208234
915.197859	2483.138794
915.503475	2503.442041
915.809050	2521.668333
916.114585	2531.654859
916.420081	2534.001516
916.725536	2530.671834
917.030952	2530.384488
917.336328	2520.942407
917.641665	2512.919410
917.946961	2504.813235
918.252218	2498.332832
918.557435	2491.161790
918.862612	2481.137456
919.167750	2474.684779
919.472848	2470.707309
919.777906	2465.081381
920.082925	2459.057202
920.387904	2454.888168
920.692843	2451.084617
920.997743	2445.496498
921.302603	2443.099430
921.607423	2441.577001
921.912204	2439.605910
922.216946	2436.271187
922.521647	2435.567946
922.826310	2433.480908
923.130932	2430.920002
923.435516	2430.405804
923.740059	2428.545618
924.044564	2426.259455
924.349028	2426.133426
924.653454	2422.831471
924.957840	2420.802406
925.262186	2422.496234
925.566493	2421.379618
925.870761	2418.191088
926.174989	2418.768301
926.479178	2420.252920
926.783328	2419.733682
927.087438	2414.969791
927.391509	2419.645461
927.695541	2417.848290
927.999533	2419.665626
928.303486	2416.850142
928.607400	2414.342167
928.911275	2418.969947
929.215110	2416.537590
929.518906	2417.288722
929.822663	2417.079514
930.126381	2414.758063
930.430060	2416.739236
930.733699	2416.071283
931.037299	2418.304514
931.340861	2415.647826
931.644383	2417.119843
931.947866	2416.721592
932.251309	2417.394586
932.554714	2416.325862
932.858080	2418.012127
933.161407	2416.449370
933.464694	2416.013310
933.767943	2414.937024
934.071153	2414.972312
934.374323	2415.584812
934.677455	2413.026426
934.980548	2415.405851
935.283602	2415.184040
935.586617	2416.335944
935.889593	2415.705800
936.192530	2414.211097
936.495428	2415.186561
936.798287	2415.146232
937.101108	2414.188412
937.403890	2419.390883
937.706632	2417.513053
938.009336	2419.816861
938.312002	2422.607139
938.614628	2421.931625
938.917216	2422.115627
939.219765	2422.342479
939.522275	2424.729465
939.824747	2424.530339
940.127179	2421.130081
940.429573	2421.205698
940.731929	2423.312901
941.034246	2419.048085
941.336524	2425.283992
941.638763	2421.755184
941.940964	2421.742581
942.243126	2421.485483
942.545250	2422.765936
942.847335	2422.758374
943.149381	2421.472880
943.451389	2418.417940
943.753359	2419.297622
944.055290	2421.503127
944.357182	2419.443815
944.659036	2418.092786
944.960851	2416.880388
945.262628	2418.334761
945.564367	2419.406007
945.866067	2419.932807
946.167729	2419.441295
946.469352	2416.477096
946.770937	2419.151428
947.072484	2415.630182
947.373992	2421.808116
947.675462	2416.678742
947.976893	2418.619587
948.278286	2418.639751
948.579641	2415.804102
948.880958	2419.368198
949.182236	2418.259144
949.483476	2416.207394
949.784678	2417.830646
950.085841	2417.442477
950.386967	2418.198650
950.688054	2420.015986
950.989103	2420.749474
951.290114	2414.400141
951.591087	2418.493558
951.892021	2415.796540
952.192917	2419.458939
952.493776	2421.767787
952.794596	2421.505647
953.095378	2419.088414
953.396122	2420.762077
953.696828	2421.296439
953.997496	2421.102355
954.298126	2416.096489
954.598718	2420.242838
954.899272	2418.244021
955.199788	2417.669329
955.500266	2419.090934
955.800706	2415.582291
956.101108	2410.856210
956.401472	2410.543658
956.701798	2410.069790
957.002087	2413.346540
957.302337	2413.086920
957.602550	2411.768658
957.902724	2410.450397
958.202861	2410.765469
958.502960	2410.818401
958.803022	2410.662125
959.103045	2411.206570
959.403031	2412.829821
959.702979	2410.682290
960.002889	2412.517270
960.302762	2410.828483
960.602596	2407.934861
960.902393	2409.240520
961.202153	2410.130283
961.501875	2406.460323
961.801559	2408.411250
962.101205	2406.266239
962.400814	2408.582649
962.700385	2411.761097
962.999918	2407.466034
963.299414	2408.635581
963.598873	2407.912176
963.898293	2409.472413
964.197677	2408.743966
964.497022	2408.837228
964.796331	2406.437638
965.095601	2408.151631
965.394835	2407.690365
965.694030	2405.051321
965.993189	2409.732032
966.292309	2408.093657
966.591393	2407.861764
966.890439	2404.554767
967.189447	2408.648184
967.488419	2407.261867
967.787353	2408.554923
968.086249	2408.070972
968.385108	2407.168606
968.683930	2411.055335
968.982714	2407.619789
969.281462	2405.747000
969.580172	2407.433266
969.878844	2407.894532
970.177480	2410.314286
970.476078	2409.646333
970.774639	2407.713050
971.073162	2408.307906
971.371649	2406.238513
971.670098	2406.125087
971.968510	2405.817576
972.266885	2404.519479
972.565223	2407.072824
972.863524	2409.535427
973.161788	2411.554409
973.460014	2407.897052
973.758204	2409.863102
974.056356	2410.543658
974.354471	2409.996693
974.652550	2409.653894
974.950591	2408.459141
975.248595	2408.824625
975.546563	2409.563154
975.844493	2409.550551
976.142386	2408.166754
976.440243	2407.516445
976.738062	2409.520304
977.035845	2406.450241
977.333590	2408.749007
977.631299	2405.996537
977.928971	2407.760941
978.226606	2408.224727
978.524204	2410.866292
978.821765	2408.335633
979.119290	2407.322361
979.416777	2408.459141
979.714228	2409.926117
980.011642	2407.587021
980.309020	2411.602300
980.606360	2405.918399
980.903664	2408.514594
981.200931	2407.939902
981.498162	2412.280336
981.795356	2411.171282
982.092513	2416.673701
982.389633	2417.669329
982.686717	2417.331572
982.983764	2421.205698
983.280775	2421.825760
983.577749	2423.330545
983.874686	2424.903385
984.171587	2418.533887
984.468451	2420.313414
984.765279	2420.585637
985.062070	2415.302507
985.358824	2418.538928
985.655543	2416.769483
985.952224	2410.551220
986.248869	2408.837228
986.545478	2404.456465
986.842050	2406.972001
987.138586	2403.521331
987.435086	2406.994686
987.731549	2404.688358
988.027975	2407.508883
988.324366	2404.433780
988.620719	2405.948646
988.917037	2406.077196
989.213318	2405.235323
989.509563	2407.549213
989.805772	2403.085271
990.101944	2406.379665
990.398080	2405.994017
990.694180	2402.765158
990.990244	2404.128790
991.286271	2406.392268
991.582262	2404.902607
991.878217	2404.907648
992.174136	2402.966804
992.470019	2407.455951
992.765865	2405.797412
993.061676	2404.814387
993.357450	2405.779768
993.653188	2403.659962
993.948890	2406.160375
994.244556	2407.518966
994.540186	2408.476785
994.835780	2407.624830
995.131337	2409.585839
995.426859	2410.049625
995.722345	2413.845614
996.017795	2410.374779
996.313208	2410.485685
996.608586	2412.585325
996.903928	2410.480644
997.199234	2412.804616
997.494504	2414.695048
997.789738	2415.494071
998.084936	2412.217321
998.380099	2413.288566
998.675225	2409.069121
998.970316	2410.273956
999.265371	2410.667166
999.560390	2409.321178
999.855373	2410.203380
1000.150320	2408.315468
1000.445232	2406.762793
1000.740108	2407.261867
1001.034948	2405.631054
1001.329752	2404.506876
1001.624521	2406.435118
1001.919254	2400.088305
1002.213951	2400.421021
1002.508613	2400.952863
1002.803239	2402.258522
1003.097829	2398.424724
1003.392384	2402.064437
1003.686903	2403.728018
1003.981386	2403.801115
1004.275834	2404.017884
1004.570246	2403.866650
1004.864623	2402.336660
1005.158964	2404.038049
1005.453270	2404.209448
1005.747540	2406.777916
1006.041775	2400.930178
1006.335974	2403.153327
1006.630138	2402.036711
1006.924266	2400.751217
1007.218359	2403.009654
1007.512416	2402.434962
1007.806438	2402.596279
1008.100425	2402.820610
1008.394376	2401.547719
1008.688292	2401.356155
1008.982172	2403.110477
1009.276017	2401.779612
1009.569827	2404.327915
1009.863602	2402.631567
1010.157341	2402.727349
1010.451045	2401.981258
1010.744714	2401.855229
1011.038347	2402.606361
1011.331945	2401.179715
1011.625508	2402.104767
1011.919036	2402.074520
1012.212528	2401.797256
1012.505986	2401.860271
1012.799408	2401.270456
1013.092795	2400.882287
1013.386147	2400.937739
1013.679464	2403.130641
1013.972745	2401.303223
1014.265992	2400.960425
1014.559204	2401.300703
1014.852380	2401.953532
1015.145521	2403.591907
1015.438628	2401.961094
1015.731699	2400.824313
1016.024736	2402.510579
1016.317737	2403.596948
1016.610703	2406.702299
1016.903635	2398.593603
1017.196531	2400.728532
1017.489393	2401.167112
1017.782219	2395.601678
1018.075011	2404.668193
1018.367768	2402.500497
1018.660490	2401.154509
1018.953177	2401.154509
1019.245829	2401.154509
