Dividing Wavelength (nm)	Counts (n)	Blue Motor Position (mm): 0.000000	Red Motor Position (mm): 15.000000	
326.493990	1982.383338
326.888308	1982.383338
327.282561	1982.383338
327.676750	1958.029524
328.070874	1959.690584
328.464933	1964.336008
328.858929	1973.266412
329.252859	1989.710656
329.646726	2001.673314
330.040528	2015.778462
330.434265	2035.638088
330.827938	2055.853115
331.221547	2075.145610
331.615091	2092.910637
332.008571	2116.548607
332.401986	2137.136679
332.795338	2158.218785
333.188625	2174.141269
333.581847	2197.118848
333.975006	2211.266847
334.368100	2229.515823
334.761129	2245.929820
335.154095	2262.192583
335.546996	2280.179420
335.939833	2295.794394
336.332606	2307.336115
336.725315	2317.998156
337.117960	2324.155925
337.510540	2333.199755
337.903056	2343.481188
338.295508	2346.271467
338.687896	2359.582634
339.080220	2366.415918
339.472480	2368.013964
339.864676	2371.179808
340.256807	2375.139635
340.648875	2377.624923
341.040879	2380.019472
341.432818	2380.568957
341.824694	2377.526621
342.216506	2380.959647
342.608253	2381.093237
342.999937	2381.609956
343.391557	2381.156252
343.783113	2376.556199
344.174605	2374.786754
344.566033	2371.336084
344.957397	2373.566795
345.348697	2370.900024
345.739934	2368.762575
346.131106	2366.572194
346.522215	2365.561442
346.913260	2363.575228
347.304241	2362.745958
347.695159	2359.358303
348.086012	2360.605988
348.476802	2357.442664
348.867528	2357.190606
349.258191	2355.582478
349.648789	2356.096676
350.039324	2353.427385
350.429796	2356.817561
350.820203	2351.811695
351.210548	2350.448063
351.600828	2353.407220
351.991045	2350.180882
352.381198	2349.817919
352.771288	2351.554596
353.161314	2350.377487
353.551276	2348.245079
353.941175	2349.091993
354.331010	2352.613239
354.720782	2348.948320
355.110490	2352.918228
355.500135	2352.398990
355.889717	2354.203723
356.279235	2353.142560
356.668689	2353.492920
357.058080	2353.876048
357.447408	2353.140039
357.836672	2349.649040
358.225873	2353.230780
358.615010	2349.971674
359.004084	2358.196317
359.393095	2357.672037
359.782043	2358.836543
360.170927	2358.909640
360.559748	2357.891327
360.948505	2359.915350
361.337199	2360.220340
361.725830	2363.086236
362.114398	2363.544981
362.502903	2361.314270
362.891344	2364.671679
363.279722	2369.344828
363.668037	2364.361648
364.056289	2362.917357
364.444478	2365.034642
364.832603	2366.239478
365.220665	2368.157637
365.608665	2370.910107
365.996601	2368.966742
366.384474	2369.853985
366.772284	2371.701568
367.160031	2371.699047
367.547715	2372.979500
367.935336	2371.605786
368.322893	2373.191229
368.710388	2376.125180
369.097820	2376.568802
369.485189	2379.323792
369.872495	2379.389327
370.259738	2380.435367
370.646918	2381.990563
371.034035	2382.353526
371.421090	2384.765718
371.808081	2385.773949
372.195010	2394.747202
372.581875	2399.478325
372.968678	2403.778430
373.355418	2411.055335
373.742096	2418.012127
374.128710	2429.611823
374.515262	2444.803340
374.901751	2454.474793
375.288177	2474.611682
375.674540	2492.674137
376.060841	2510.837414
376.447079	2532.312729
376.833254	2560.407080
377.219367	2585.451532
377.605417	2620.101903
377.991404	2642.711478
378.377329	2686.932479
378.763191	2716.138404
379.148991	2764.084818
379.534727	2812.091727
379.920402	2858.268696
380.306013	2907.578742
380.691563	2965.178966
381.077049	3020.520753
381.462474	3075.988569
381.847835	3148.820639
382.233134	3218.869992
382.618371	3278.400978
383.003545	3361.590099
383.388657	3437.824948
383.773706	3529.193341
384.158693	3603.890638
384.543618	3695.072508
384.928480	3772.991102
385.313280	3874.091443
385.698017	3974.712873
386.082692	4090.460286
386.467305	4155.410513
386.851856	4276.821662
387.236344	4431.327986
387.620770	4494.428109
388.005133	4609.316005
388.389435	4754.045011
388.773674	4835.013504
389.157851	4969.813958
389.541965	5096.402372
389.926018	5118.127224
390.310008	5294.786899
390.693936	5417.269293
391.077802	5531.728692
391.461606	5659.433721
391.845348	5773.358757
392.229027	5887.931581
392.612645	6116.222754
392.996200	6226.992027
393.379694	6396.717595
393.763125	6612.647858
394.146494	6708.265944
394.529801	6835.610531
394.913047	7076.174392
395.296230	7075.130874
395.679351	7126.296065
396.062410	7376.579271
396.445408	7277.863396
396.828343	7424.684481
397.211217	7553.564100
397.594028	7436.695030
397.976778	7633.247098
398.359466	7794.513610
398.742092	7771.447810
399.124656	7910.939058
399.507158	8093.567459
399.889598	8110.450283
400.271977	8310.692476
400.654294	8335.114345
401.036549	8519.212243
401.418742	8545.002786
401.800874	8831.398298
402.182944	8896.298112
402.564952	9242.527079
402.946898	9056.377432
403.328783	9102.985420
403.710606	9268.957848
404.092367	9503.575669
404.474067	9830.237397
404.855705	9603.203992
405.237282	9535.995329
405.618797	9906.709180
406.000250	10111.526220
406.381642	10418.124156
406.762972	10323.509260
407.144240	10092.077448
407.525447	10269.455488
407.906593	10159.147480
408.287677	10346.282672
408.668700	10420.392675
409.049661	10328.477317
409.430560	10390.029805
409.811399	10296.952461
410.192176	10361.544766
410.572891	10331.413789
410.953545	10657.069807
411.334138	10123.536769
411.714669	10520.454538
412.095139	9847.641981
412.475547	10165.428758
412.855894	9935.358058
413.236180	10076.558256
413.616405	9720.972908
413.996568	9815.512187
414.376670	9670.609261
414.756711	9468.166604
415.136691	9537.966421
415.516609	9532.695894
415.896466	9447.979304
416.276262	9505.382923
416.655997	9649.635540
417.035670	9541.502790
417.415283	9802.687491
417.794834	9705.259632
418.174324	9381.730981
418.553753	9162.027414
418.933121	9294.589595
419.312428	9010.525617
419.691674	8806.346283
420.070859	8891.146053
420.449983	8543.419863
420.829045	8653.937079
421.208047	8365.804890
421.586988	8416.471007
421.965867	8364.380764
422.344686	8193.228550
422.723444	8260.817820
423.102141	7531.662807
423.480777	7858.528702
423.859352	7486.393246
424.237866	7747.580467
424.616319	7453.817309
424.994712	7524.148967
425.373044	7280.540249
425.751314	7317.832184
426.129524	6873.860286
426.507673	7036.394647
426.885762	6785.690505
427.263789	6666.308420
427.641756	6544.582199
428.019662	6400.538789
428.397508	6246.650007
428.775292	6160.826883
429.153016	5994.047870
429.530679	5858.574422
429.908282	5715.980344
430.285824	5514.440054
430.663305	5504.292212
431.040726	5289.962515
431.418086	5125.668790
431.795385	5101.428402
432.172624	5035.656468
432.549802	4840.848639
432.926920	4744.227364
433.303977	4612.713742
433.680974	4525.133777
434.057910	4449.513948
434.434786	4347.743135
434.811601	4232.046133
435.188355	4229.807861
435.565050	4101.379426
435.941683	4003.520547
436.318257	3979.176815
436.694770	3874.739231
437.071222	3829.852797
437.447614	3676.556350
437.823946	3596.996860
438.200218	3537.181049
438.576429	3453.313893
438.952580	3399.234915
439.328670	3333.830985
439.704700	3293.806744
440.080670	3218.968295
440.456580	3192.240097
440.832429	3144.359218
441.208218	3057.248079
441.583947	3029.597350
441.959616	2991.035044
442.335224	2959.663944
442.710773	2926.795621
443.086261	2903.255953
443.461689	2858.346834
443.837057	2828.851042
444.212365	2815.660863
444.587612	2788.110958
444.962800	2758.630290
445.337927	2742.039853
445.712995	2701.645087
446.088002	2712.407950
446.462949	2695.053778
446.837837	2684.434588
447.212664	2668.743996
447.587431	2683.229752
447.962139	2704.639532
448.336786	2716.884495
448.711374	2692.636545
449.085901	2644.052425
449.460369	2629.370064
449.834776	2617.911522
450.209124	2629.947276
450.583412	2617.818260
450.957640	2619.829681
451.331808	2600.380909
451.705917	2581.660584
452.079965	2575.349060
452.453954	2573.221693
452.827883	2567.164746
453.201752	2561.871535
453.575562	2559.212326
453.949311	2560.331462
454.323001	2558.773746
454.696632	2549.858465
455.070202	2560.356668
455.443713	2557.949517
455.817164	2555.111347
456.190556	2551.806871
456.563888	2547.801674
456.937160	2545.797816
457.310373	2539.146013
457.683526	2541.628782
458.056619	2538.699871
458.429653	2531.843902
458.802628	2531.428007
459.175542	2530.994468
459.548398	2535.997813
459.921194	2540.844882
460.293930	2543.753628
460.666607	2553.593960
461.039224	2561.266596
461.411782	2556.835422
461.784280	2551.554813
462.156719	2547.589946
462.529099	2544.081303
462.901419	2533.847761
463.273680	2529.156967
463.645882	2525.156811
464.018024	2531.133099
464.390106	2529.257790
464.762130	2542.763041
465.134094	2556.936245
465.505999	2577.766293
465.877845	2597.033583
466.249631	2602.238574
466.621358	2592.385639
466.993026	2586.734506
467.364634	2575.104564
467.736184	2558.299877
468.107674	2555.890206
468.479105	2554.166131
468.850477	2549.470296
469.221790	2543.912424
469.593043	2536.648122
469.964238	2532.128727
470.335373	2531.642256
470.706449	2537.530323
471.077467	2548.099102
471.448425	2564.008984
471.819324	2577.572208
472.190164	2568.026784
472.560945	2553.183106
472.931667	2537.583256
473.302330	2535.344983
473.672934	2532.491690
474.043479	2532.002698
474.413965	2528.362985
474.784393	2524.115813
475.154761	2528.718387
475.525070	2527.087573
475.895321	2527.072450
476.265513	2523.977181
476.635645	2534.694674
477.005719	2533.661238
477.375734	2533.880528
477.745691	2539.239275
478.115588	2544.093906
478.485427	2549.245965
478.855207	2565.932184
479.224928	2573.529203
479.594591	2578.033474
479.964194	2574.048442
480.333739	2574.734039
480.703226	2575.971642
481.072653	2577.690676
481.442022	2580.581777
481.811333	2581.224524
482.180584	2574.436611
482.549777	2574.587845
482.918912	2569.110632
483.287988	2568.596434
483.657005	2566.017884
484.025964	2566.000240
484.394864	2564.699622
484.763706	2566.945456
485.132489	2558.829198
485.501213	2559.250135
485.869879	2558.004970
486.238487	2560.248283
486.607036	2558.824157
486.975527	2557.589075
487.343959	2555.875082
487.712333	2556.694270
488.080648	2556.147305
488.448905	2560.916236
488.817104	2556.540515
489.185244	2563.020918
489.553326	2568.356979
489.921350	2580.329720
490.289315	2590.621235
490.657222	2592.640217
491.025070	2593.482090
491.392861	2591.674836
491.760593	2582.870461
492.128267	2580.294432
492.495883	2574.461817
492.863440	2567.247925
493.230939	2564.376988
493.598380	2556.837943
493.965763	2552.767211
494.333088	2552.968857
494.700354	2551.582540
495.067563	2553.886347
495.434713	2548.129349
495.801805	2551.819474
496.168839	2550.259237
496.535815	2549.568599
496.902733	2550.750749
497.269593	2550.266799
497.636395	2549.810574
498.003139	2553.006666
498.369825	2550.218908
498.736453	2553.198230
499.103023	2548.020965
499.469535	2551.181768
499.835989	2553.818292
500.202385	2551.534649
500.568723	2554.299722
500.935003	2555.582695
501.301226	2556.154866
501.667390	2560.412121
502.033497	2561.377502
502.399546	2560.825495
502.765537	2561.357337
503.131470	2560.306257
503.497345	2563.058727
503.863163	2559.615618
504.228923	2565.864129
504.594625	2568.309088
504.960269	2566.789180
505.325856	2571.853019
505.691385	2570.242371
506.056856	2573.476271
506.422270	2581.078331
506.787625	2577.572208
507.152924	2580.475913
507.518164	2583.939186
507.883347	2581.317786
508.248472	2583.475400
508.613540	2589.703745
508.978550	2592.685588
509.343503	2593.398911
509.708398	2597.784715
510.073236	2604.479367
510.438016	2607.322578
510.802738	2606.042125
511.167403	2609.026488
511.532010	2610.813577
511.896561	2617.737602
512.261053	2625.712707
512.625488	2617.924124
512.989866	2618.899588
513.354186	2622.821605
513.718449	2624.270937
514.082655	2631.515075
514.446803	2632.263687
514.810894	2635.767288
515.174927	2638.915489
515.538904	2636.490694
515.902822	2643.979328
516.266684	2642.845068
516.630488	2645.156437
516.994235	2645.799185
517.357925	2649.335554
517.721558	2653.129022
518.085133	2655.092552
518.448651	2658.336534
518.812112	2660.594971
519.175516	2659.939621
519.538863	2660.698315
519.902152	2660.524395
520.265385	2666.331804
520.628560	2665.663851
520.991678	2664.398522
521.354739	2667.942453
521.717743	2668.756599
522.080690	2669.071671
522.443580	2675.804132
522.806413	2674.349759
523.169189	2673.812877
523.531908	2674.803463
523.894569	2674.775737
524.257174	2678.070131
524.619722	2676.923268
524.982213	2678.092816
525.344647	2678.417971
525.707025	2678.175995
526.069345	2678.392765
526.431608	2679.259843
526.793815	2681.908970
527.155964	2678.579287
527.518057	2680.227745
527.880093	2675.274811
528.242072	2678.087775
528.603995	2676.157013
528.965860	2673.638957
529.327669	2675.005109
529.689421	2672.973524
530.051117	2672.451765
530.412755	2670.175684
530.774337	2671.980417
531.135862	2668.587721
531.497331	2665.245436
531.858743	2663.475991
532.220098	2666.258707
532.581396	2660.607574
532.942638	2659.511123
533.303824	2661.910712
533.664953	2657.224960
534.026025	2652.597181
534.387040	2653.980977
534.747999	2653.005514
535.108902	2652.584578
535.469748	2644.680048
535.830537	2645.229534
536.191270	2642.373721
536.551947	2639.177629
536.912567	2636.314254
537.273131	2637.851806
537.633638	2630.552215
537.994089	2629.412914
538.354483	2622.549383
538.714821	2624.681791
539.075103	2623.035854
539.435328	2622.040227
539.795497	2616.147118
540.155609	2609.618823
540.515665	2609.467589
540.875665	2604.257556
541.235609	2601.621033
541.595496	2601.119438
541.955328	2598.782863
542.315102	2592.977975
542.674821	2590.729620
543.034483	2585.665781
543.394090	2581.368197
543.753640	2578.734194
544.113134	2580.483475
544.472571	2573.410736
544.831953	2576.949626
545.191278	2569.773543
545.550548	2564.535785
545.909761	2565.639797
546.268918	2557.717624
546.628019	2560.626370
546.987064	2557.735268
547.346053	2552.638662
547.704986	2550.486089
548.063863	2548.850234
548.422684	2545.555840
548.781449	2540.900335
549.140158	2538.339429
549.498811	2537.389171
549.857408	2535.508821
550.215949	2531.488501
550.574434	2527.463139
550.932864	2525.476925
551.291237	2522.190092
551.649555	2525.736544
552.007817	2525.421472
552.366022	2519.687159
552.724173	2521.186903
553.082267	2521.411234
553.440305	2520.221522
553.798288	2513.521828
554.156215	2517.388393
554.514086	2516.612056
554.871902	2514.739267
555.229661	2511.500326
555.587365	2510.103926
555.945014	2507.573267
556.302606	2509.143586
556.660143	2509.836745
557.017625	2507.565705
557.375050	2505.629902
557.732421	2506.655777
558.089735	2503.769716
558.446994	2503.326095
558.804197	2503.699140
559.161345	2503.973883
559.518437	2501.619664
559.875474	2501.798625
560.232455	2501.685199
560.589381	2503.353821
560.946251	2502.869870
561.303065	2498.567245
561.659825	2499.668737
562.016528	2498.718480
562.373177	2501.304592
562.729770	2496.029024
563.086307	2496.172697
563.442789	2497.503562
563.799216	2498.726042
564.155587	2496.518016
564.511904	2499.015908
564.868164	2494.950218
565.224370	2495.708911
565.580520	2494.171359
565.936615	2493.808396
566.292654	2497.518685
566.648638	2494.158756
567.004567	2494.430979
567.360441	2494.536843
567.716260	2494.867038
568.072023	2496.384426
568.427732	2490.909733
568.783385	2492.928715
569.138982	2490.221615
569.494525	2491.575165
569.850013	2489.803199
570.205445	2492.900988
570.560823	2491.106338
570.916145	2492.704383
571.271412	2489.331852
571.626625	2493.238746
571.981782	2489.853611
572.336884	2490.884527
572.691931	2489.634321
573.046923	2491.502068
573.401860	2487.879999
573.756743	2488.275730
574.111570	2488.731954
574.466342	2490.564414
574.821059	2488.986533
575.175722	2488.759681
575.530330	2488.502582
575.884882	2487.086017
576.239380	2485.553507
576.593823	2488.376553
576.948211	2484.746922
577.302544	2485.490492
577.656823	2484.925883
578.011047	2488.245483
578.365216	2484.472179
578.719330	2486.808754
579.073389	2484.774648
579.427394	2485.036788
579.781344	2484.479741
580.135239	2482.112919
580.489080	2483.206850
580.842866	2481.417240
581.196597	2483.993270
581.550273	2482.145687
581.903895	2478.803402
582.257463	2484.550317
582.610975	2478.679893
582.964434	2481.767600
583.317837	2480.625779
583.671186	2481.215594
584.024481	2482.712817
584.377721	2480.368680
584.730906	2480.363639
585.084037	2478.284163
585.437113	2480.633341
585.790135	2482.168372
586.143103	2479.531848
586.496016	2476.726446
586.848874	2473.011116
587.201679	2476.129070
587.554428	2473.512711
587.907124	2477.520428
588.259765	2473.568163
588.612352	2478.737867
588.964884	2474.909110
589.317362	2475.829121
589.669786	2475.536734
590.022155	2475.834162
590.374470	2477.396920
590.726731	2475.861888
591.078937	2475.864409
591.431090	2472.993472
591.783188	2474.024388
592.135232	2474.122690
592.487222	2471.309727
592.839157	2471.100519
593.191038	2475.163689
593.542866	2470.926599
593.894639	2471.927268
594.246358	2472.726291
594.598022	2470.838379
594.949633	2472.378451
595.301190	2468.595065
595.652692	2471.024901
596.004141	2470.135138
596.355535	2470.888790
596.706876	2468.194293
597.058162	2468.156485
597.409395	2467.574232
597.760573	2467.985086
598.111698	2466.414766
598.462768	2469.431897
598.813785	2466.228243
599.164748	2465.041052
599.515657	2469.048769
599.866511	2468.937864
600.217312	2466.520630
600.568060	2466.223202
600.918753	2468.398460
601.269392	2467.851495
601.619978	2466.097173
601.970510	2466.240846
602.320988	2464.073150
602.671412	2466.195476
603.021783	2465.333439
603.372100	2468.542133
603.722363	2463.359827
604.072572	2466.127420
604.422728	2466.316464
604.772830	2462.414611
605.122878	2462.500310
605.472872	2462.838067
605.822813	2460.458643
606.172701	2462.802779
606.522534	2466.714715
606.872314	2466.311422
607.222041	2464.771350
607.571714	2464.370578
607.921333	2463.342183
608.270899	2464.758747
608.620411	2464.075671
608.969870	2464.509210
609.319276	2463.657255
609.668627	2464.529375
610.017926	2465.772019
610.367171	2465.197328
610.716362	2466.046762
611.065500	2465.827472
611.414585	2461.905454
611.763616	2465.444344
612.112594	2462.812862
612.461518	2465.953501
612.810389	2463.695064
613.159207	2462.911164
613.507971	2464.872173
613.856682	2467.100363
614.205340	2464.322687
614.553945	2465.028449
614.902496	2463.558953
615.250994	2465.285548
615.599439	2467.473408
615.947830	2463.332101
616.296169	2467.173460
616.644454	2466.679427
616.992686	2464.431072
617.340864	2465.910651
617.688990	2465.338480
618.037063	2464.461319
618.385082	2465.260342
618.733048	2468.738738
619.080961	2465.381330
619.428821	2468.776547
619.776628	2464.484004
620.124382	2465.073819
620.472083	2465.739252
620.819731	2465.973665
621.167326	2465.615743
621.514868	2466.119859
621.862357	2464.504169
622.209793	2461.751699
622.557176	2462.913685
622.904506	2458.510237
623.251783	2455.586368
623.599007	2459.336986
623.946179	2457.867490
624.293297	2460.619960
624.640363	2458.968982
624.987376	2462.091977
625.334336	2458.071657
625.681243	2458.162397
626.028097	2459.407562
626.374899	2457.232304
626.721647	2457.010494
627.068343	2459.238684
627.414987	2458.096862
627.761577	2459.906637
628.108115	2460.277161
628.454600	2460.312449
628.801032	2453.516974
629.147412	2456.309773
629.493739	2455.261213
629.840014	2458.386729
630.186236	2453.827005
630.532405	2456.438323
630.878521	2455.687191
631.224585	2452.967488
631.570597	2455.840946
631.916556	2455.977057
632.262462	2454.956223
632.608316	2454.769701
632.954117	2455.281378
633.299866	2457.330607
633.645562	2453.128805
633.991206	2453.874896
634.336797	2454.429423
634.682336	2455.845987
635.027823	2451.787858
635.373257	2452.478496
635.718639	2451.946655
636.063968	2448.798454
636.409245	2449.801644
636.754470	2449.572271
637.099642	2447.681838
637.444762	2448.453135
637.789829	2450.411623
638.134845	2446.696293
638.479808	2446.635799
638.824719	2447.452466
639.169577	2446.908021
639.514383	2447.714606
639.859137	2446.746704
640.203839	2450.406582
640.548489	2445.025150
640.893086	2444.737805
641.237632	2441.181271
641.582125	2444.369800
641.926566	2440.914089
642.270955	2446.371138
642.615292	2445.660336
642.959576	2443.069183
643.303809	2445.854420
643.647990	2445.241920
643.992118	2444.636982
644.336195	2445.675459
644.680219	2446.343412
645.024192	2448.430450
645.368112	2447.069338
645.711981	2447.946499
646.055797	2448.248968
646.399562	2446.164451
646.743274	2447.540686
647.086935	2448.629575
647.430544	2449.884823
647.774101	2447.752415
648.117606	2449.398351
648.461059	2448.823660
648.804460	2448.725357
649.147810	2449.915070
649.491108	2446.197219
649.834354	2445.955243
650.177548	2447.465069
650.520690	2444.362239
650.863781	2445.834256
651.206820	2449.390790
651.549807	2443.532969
651.892742	2444.891560
652.235626	2441.997938
652.578458	2442.502053
652.921238	2442.063473
653.263967	2442.318051
653.606644	2439.837803
653.949269	2440.818307
654.291843	2441.266970
654.634365	2441.362752
654.976836	2440.679676
655.319255	2443.290993
655.661622	2440.979624
656.003938	2439.467278
656.346203	2443.306117
656.688416	2439.910900
657.030577	2441.138421
657.372687	2439.920982
657.714746	2442.988524
658.056753	2440.190684
658.398708	2439.973914
658.740612	2438.985848
659.082465	2435.388985
659.424266	2438.517021
659.766016	2437.218924
660.107715	2439.996599
660.449362	2439.106836
660.790958	2440.349480
661.132503	2441.231682
661.473996	2438.643050
661.815438	2440.036929
662.156829	2439.129521
662.498168	2440.137752
662.839456	2440.339398
663.180693	2440.805705
663.521879	2441.236723
663.863013	2438.990889
664.204097	2438.602720
664.545129	2440.914089
664.886110	2440.586414
665.227040	2439.457196
665.567918	2442.050870
665.908746	2439.623554
666.249522	2442.106322
666.590248	2442.068514
666.930922	2440.079778
667.271545	2439.754624
667.612118	2440.609100
667.952639	2439.258070
668.293109	2439.822680
668.633528	2440.079778
668.973896	2441.733277
669.314213	2440.266301
669.654480	2438.517021
669.994695	2440.087340
670.334859	2440.810746
670.674973	2437.390323
671.015035	2438.678338
671.355047	2440.273863
671.695008	2439.923503
672.034918	2438.955601
672.374777	2438.469130
672.714585	2437.405446
673.054342	2438.685899
673.394049	2440.543565
673.733705	2440.208328
674.073310	2439.411826
674.412864	2438.509459
674.752368	2438.181784
675.091820	2436.669438
675.431223	2437.140786
675.770574	2438.716146
676.109875	2432.679365
676.449125	2436.848399
676.788324	2432.210537
677.127473	2433.259097
677.466571	2433.982503
677.805619	2433.324632
678.144616	2437.939809
678.483562	2439.109356
678.822458	2435.257915
679.161303	2435.741866
679.500098	2436.742535
679.838842	2434.761361
680.177535	2435.756989
680.516179	2437.531475
680.854771	2437.652463
681.193314	2436.061979
681.531805	2440.079778
681.870247	2438.322936
682.208638	2438.995930
682.546978	2442.151693
682.885268	2437.753286
683.223508	2440.341918
683.561697	2438.726229
683.899836	2441.420725
684.237925	2439.119439
684.575963	2439.595828
684.913951	2438.721187
685.251889	2438.723708
685.589776	2435.303285
685.927614	2438.854778
686.265401	2436.296392
686.603137	2437.191197
686.940824	2437.763368
687.278460	2441.372834
687.616046	2440.891404
687.953582	2444.175716
688.291068	2439.472319
688.628504	2440.984666
688.965889	2440.475509
689.303224	2441.400561
689.640510	2439.742021
689.977745	2438.285128
690.314930	2438.834613
690.652065	2435.280600
690.989150	2436.245981
691.326185	2435.242791
691.663170	2432.913778
692.000105	2434.345466
692.336990	2432.707091
692.673825	2433.090219
693.010610	2433.306988
693.347345	2428.654003
693.684030	2426.012439
694.020665	2426.672830
694.357251	2425.538570
694.693786	2429.987388
695.030272	2433.692637
695.366707	2427.073602
695.703093	2428.066709
696.039429	2427.257604
696.375716	2430.017635
696.711952	2431.169539
697.048139	2424.762232
697.384276	2424.989084
697.720363	2430.335228
698.056400	2428.182655
698.392388	2425.891451
698.728326	2428.442275
699.064214	2429.218613
699.400053	2429.629467
699.735842	2426.267017
700.071581	2424.361461
700.407270	2425.813313
700.742910	2425.500762
701.078501	2427.436565
701.414042	2424.396749
701.749533	2422.496234
702.084974	2424.474887
702.420366	2424.459763
702.755709	2425.896492
703.091002	2422.501275
703.426246	2423.844742
703.761440	2423.030596
704.096584	2422.352561
704.431679	2424.134609
704.766725	2425.800710
705.101721	2422.861717
705.436668	2425.205854
705.771565	2420.615883
706.106413	2423.380956
706.441212	2422.649989
706.775961	2421.661923
707.110661	2424.404311
707.445311	2425.175607
707.779913	2425.520926
708.114465	2423.060843
708.448967	2425.576379
708.783421	2426.635021
709.117825	2425.621749
709.452180	2425.044537
709.786485	2426.813982
710.120742	2426.395566
710.454949	2426.415731
710.789107	2425.934301
711.123216	2423.038158
711.457275	2426.012439
711.791286	2426.319949
712.125247	2424.429516
712.459159	2428.283478
712.793023	2429.722728
713.126837	2428.270876
713.460602	2429.120310
713.794318	2428.485125
714.127985	2429.183324
714.461602	2425.904054
714.795171	2423.655699
715.128691	2426.965217
715.462162	2425.336924
715.795584	2424.056471
716.128957	2425.712490
716.462281	2422.929773
716.795556	2424.041347
717.128782	2422.075298
717.461960	2421.545976
717.795088	2422.652510
718.128167	2422.145874
718.461198	2421.603950
718.794180	2425.077305
719.127113	2420.704104
719.459997	2420.792324
719.792833	2419.403486
720.125619	2422.037489
720.458357	2418.866603
720.791046	2420.101686
721.123686	2416.106571
721.456278	2420.278126
721.788821	2418.266706
722.121315	2420.378949
722.453761	2420.847777
722.786158	2418.682601
723.118506	2417.457601
723.450805	2418.632189
723.783056	2419.453897
724.115259	2419.859710
724.447412	2419.645461
724.779518	2419.761408
725.111574	2419.191757
725.443582	2421.558579
725.775542	2419.867272
726.107453	2419.995822
726.439315	2419.360636
726.771129	2424.674012
727.102895	2423.103693
727.434612	2422.166038
727.766281	2422.889444
728.097901	2419.463980
728.429473	2418.319638
728.760996	2418.135636
729.092471	2417.611356
729.423897	2423.562438
729.755276	2420.731830
730.086606	2423.769125
730.417887	2422.256779
730.749120	2423.769125
731.080305	2422.092942
731.411442	2424.772315
731.742530	2423.181831
732.073570	2425.067222
732.404562	2423.945566
732.735506	2425.886410
733.066401	2427.209713
733.397249	2425.276430
733.728048	2423.328024
734.058798	2421.838363
734.389501	2422.307191
734.720156	2421.056984
735.050762	2420.661254
735.381320	2418.992632
735.711831	2418.705286
736.042293	2419.693352
736.372707	2419.181675
736.703073	2419.577406
737.033391	2420.096645
737.363661	2417.760070
737.693883	2415.942734
738.024056	2423.789290
738.354182	2419.428692
738.684260	2419.889957
739.014290	2419.705955
739.344272	2422.218970
739.674207	2420.177303
740.004093	2422.362643
740.333931	2420.106727
740.663722	2419.784093
740.993464	2421.732499
741.323159	2420.452046
741.652806	2419.552200
741.982405	2421.379618
742.311956	2420.220153
742.641460	2420.401634
742.970915	2417.553382
743.300323	2418.619587
743.629683	2419.227046
743.958996	2418.301994
744.288260	2417.460121
744.617477	2417.041705
744.946647	2414.178330
745.275768	2415.123546
745.604842	2410.578946
745.933869	2414.264030
746.262847	2412.746642
746.591778	2417.165214
746.920662	2413.195305
747.249498	2417.339133
747.578286	2415.398289
747.907027	2417.197981
748.235720	2416.824936
748.564365	2416.761921
748.892963	2417.182858
749.221514	2415.564647
749.550017	2419.612694
749.878473	2416.787127
750.206881	2416.305697
750.535242	2416.535069
750.863555	2414.652198
751.191821	2417.069432
751.520039	2417.414751
751.848210	2414.468196
752.176334	2416.940882
752.504411	2415.471386
752.832440	2415.236972
753.160421	2415.746129
753.488356	2414.826118
753.816243	2417.492889
754.144082	2417.485327
754.471875	2414.032137
754.799620	2415.456263
755.127318	2415.186561
755.454969	2416.330903
755.782572	2413.187743
756.110129	2414.450552
756.437638	2416.073804
756.765100	2414.523649
757.092515	2414.952147
757.419882	2416.144380
757.747203	2415.022723
758.074477	2415.431057
758.401703	2415.042888
758.728882	2414.211097
759.056014	2413.964081
759.383099	2417.250913
759.710138	2417.381983
760.037129	2415.743608
760.364073	2417.732343
760.690970	2418.997673
761.017820	2413.656571
761.344623	2416.734195
761.671379	2416.550193
761.998088	2413.578433
762.324751	2421.951789
762.651366	2423.514547
762.977935	2432.926381
763.304456	2433.344797
763.630931	2438.224634
763.957359	2436.344283
764.283740	2432.041659
764.610074	2428.303643
764.936362	2427.481935
765.262602	2425.435227
765.588796	2420.119330
765.914943	2418.715368
766.241044	2415.867117
766.567097	2414.974832
766.893104	2415.080697
767.219064	2412.645819
767.544978	2412.426529
767.870845	2414.856365
768.196665	2414.329565
768.522438	2412.217321
768.848165	2411.337640
769.173846	2413.409554
769.499479	2411.224214
769.825066	2409.910993
770.150607	2411.269584
770.476101	2408.769172
770.801548	2410.447876
771.126949	2411.783782
771.452303	2411.130953
771.777611	2410.528535
772.102872	2410.089954
772.428087	2410.052146
772.753256	2411.146076
773.078378	2410.352094
773.403453	2407.705488
773.728482	2409.910993
774.053465	2407.801270
774.378401	2407.836558
774.703291	2409.154820
775.028135	2405.489901
775.352932	2409.595921
775.677683	2409.754717
776.002388	2406.077196
776.327046	2409.553071
776.651658	2406.520817
776.976224	2407.297155
777.300743	2410.137845
777.625216	2407.685324
777.949643	2406.735066
778.274024	2409.732032
778.598359	2404.002761
778.922647	2402.487894
779.246889	2406.631723
779.571086	2403.561660
779.895236	2406.735066
780.219339	2405.305899
780.543397	2408.423853
780.867409	2410.432753
781.191374	2406.263718
781.515294	2407.574418
781.839167	2409.636250
782.162995	2407.607186
782.486776	2409.212793
782.810511	2408.844789
783.134201	2405.978893
783.457844	2407.516445
783.781441	2408.993503
784.104993	2407.972670
784.428498	2406.349418
784.751958	2407.347567
785.075372	2406.679614
785.398739	2407.173647
785.722061	2406.861095
786.045337	2406.830848
786.368568	2408.123904
786.691752	2408.030643
787.014891	2407.980231
787.337983	2408.103740
787.661030	2410.697413
787.984031	2411.660274
788.306987	2412.398803
788.629897	2409.815211
788.952760	2410.604152
789.275579	2412.068607
789.598351	2410.815880
789.921078	2411.602300
790.243759	2408.935530
790.566395	2408.207083
790.888984	2407.435787
791.211529	2411.418298
791.534027	2407.798750
791.856480	2405.827659
792.178888	2407.889491
792.501249	2409.376631
792.823566	2405.308420
793.145836	2408.023081
793.468062	2406.135169
793.790241	2407.529048
794.112375	2410.019378
794.434464	2407.972670
794.756507	2410.326888
795.078505	2407.266908
795.400457	2405.285735
795.722364	2403.440672
796.044226	2406.523338
796.366042	2405.963770
796.687812	2406.049469
797.009538	2407.922258
797.331218	2409.800088
797.652852	2407.345046
797.974442	2408.060890
798.295986	2408.605334
798.617484	2409.051477
798.938938	2409.787485
799.260346	2408.628020
799.581709	2408.930489
799.903026	2407.156003
800.224299	2404.844634
800.545526	2406.651887
800.866708	2408.791857
801.187845	2406.571229
801.508936	2407.092988
801.829983	2408.340674
802.150984	2405.194994
802.471940	2407.760941
802.792851	2406.127607
803.113717	2405.157185
803.434538	2405.444531
803.755314	2406.629202
804.076045	2403.181053
804.396731	2406.046949
804.717372	2404.237175
805.037967	2405.489901
805.358518	2403.576783
805.679024	2407.965108
805.999485	2405.736918
806.319901	2405.258008
806.640272	2405.820097
806.960598	2406.399830
807.280879	2407.128276
807.601115	2405.870508
807.921306	2406.049469
808.241453	2405.857906
808.561554	2404.658111
808.881611	2408.675911
809.201623	2409.031312
809.521590	2405.681465
809.841513	2404.988307
810.161390	2402.092164
810.481223	2404.829510
810.801011	2406.941754
811.120755	2404.640467
811.440453	2408.010478
811.760107	2404.315312
812.079716	2402.487894
812.399281	2400.542009
812.718801	2405.177350
813.038276	2400.799108
813.357707	2408.590211
813.677093	2405.237844
813.996434	2405.999058
814.315731	2404.327915
814.634983	2404.242216
814.954191	2403.942267
815.273354	2405.089130
815.592473	2404.234654
815.911547	2407.236661
816.230577	2407.526527
816.549562	2405.689027
816.868502	2405.484860
817.187399	2408.766651
817.506250	2406.470406
817.825058	2404.592576
818.143821	2406.538461
818.462539	2408.048287
818.781213	2407.851682
819.099843	2411.864440
819.418429	2415.572209
819.736970	2414.062383
820.055466	2417.162693
820.373919	2416.822415
820.692327	2426.030083
821.010691	2435.041145
821.329011	2447.986828
821.647286	2483.582416
821.965517	2514.845131
822.283704	2534.787936
822.601847	2537.295910
822.919945	2525.439116
823.237999	2511.994359
823.556010	2495.187152
823.873976	2480.497229
824.191897	2467.014663
824.509775	2458.197685
824.827609	2447.581015
825.145398	2441.012392
825.463144	2438.511980
825.780845	2440.929213
826.098502	2447.331478
826.416116	2449.015224
826.733685	2458.570731
827.051210	2461.645835
827.368692	2456.685339
827.686129	2447.661674
828.003522	2442.260078
828.320872	2426.367840
828.638177	2427.761719
828.955439	2421.939186
829.272656	2417.114802
829.589830	2411.637588
829.906960	2414.639596
830.224046	2412.305541
830.541088	2411.148597
830.858086	2406.455282
831.175041	2411.020047
831.491952	2408.459141
831.808819	2407.496281
832.125642	2411.173802
832.442421	2411.314955
832.759157	2418.541449
833.075849	2422.251738
833.392497	2429.758016
833.709101	2431.940836
834.025662	2431.235074
834.342179	2427.912954
834.658653	2423.988415
834.975083	2420.643610
835.291469	2424.764753
835.607811	2413.172620
835.924110	2410.891498
836.240366	2412.310583
836.556578	2408.786816
836.872746	2408.970818
837.188871	2406.898904
837.504952	2406.566188
837.820990	2405.999058
838.136984	2406.253636
838.452935	2404.516959
838.768842	2404.965621
839.084706	2403.004613
839.400526	2407.087947
839.716303	2411.067938
840.032037	2413.737229
840.347727	2414.629513
840.663373	2409.706827
840.978977	2409.479975
841.294537	2409.021230
841.610054	2403.896897
841.925527	2405.179870
842.240957	2401.330949
842.556344	2407.213976
842.871687	2404.350601
843.186987	2401.129303
843.502244	2402.825652
843.817458	2402.508059
844.132629	2400.781464
844.447756	2400.504200
844.762840	2395.205948
845.077881	2396.267110
845.392879	2396.803993
845.707833	2400.143758
846.022745	2396.461195
846.337613	2399.357338
846.652438	2400.605023
846.967221	2400.718449
847.281960	2399.095198
847.596656	2401.126783
847.911309	2397.292985
848.225919	2399.223747
848.540485	2399.828686
848.855009	2398.888510
849.169490	2397.524878
849.483928	2400.466392
849.798323	2400.872204
850.112675	2397.754251
850.426984	2400.831875
850.741251	2401.305744
851.055474	2399.503531
851.369654	2401.154509
851.683792	2399.516134
851.997887	2398.588562
852.311938	2400.632750
852.625947	2398.528068
852.939914	2399.692574
853.253837	2397.439179
853.567718	2398.432286
853.881555	2400.055537
854.195350	2398.747358
854.509103	2399.616957
854.822812	2398.467574
855.136479	2399.984961
855.450103	2397.509755
855.763685	2401.698954
856.077224	2399.806000
856.390720	2400.332801
856.704173	2400.418501
857.017584	2400.267266
857.330953	2401.386402
857.644278	2396.720814
857.957561	2401.595610
858.270802	2399.306926
858.584000	2399.448078
858.897155	2400.065620
859.210268	2398.240722
859.523339	2397.814745
859.836367	2397.633263
860.149352	2401.754406
860.462295	2403.173491
860.775195	2397.547563
861.088054	2397.348438
861.400869	2398.833058
861.713642	2393.428941
862.026373	2399.495969
862.339062	2398.298695
862.651708	2398.616288
862.964312	2400.695764
863.276873	2399.140568
863.589392	2398.762482
863.901869	2402.041752
864.214303	2396.811555
864.526696	2399.818603
864.839045	2399.778274
865.151353	2400.131155
865.463619	2399.750548
865.775842	2398.457492
866.088023	2399.541340
866.400162	2399.821124
866.712258	2400.736093
867.024313	2400.456309
867.336325	2398.646535
867.648296	2399.705177
867.960224	2399.679972
868.272110	2401.162071
868.583954	2400.748696
868.895755	2401.247770
869.207515	2398.308778
869.519233	2399.019580
869.830909	2399.221227
870.142542	2401.046124
870.454134	2400.960425
870.765684	2400.108470
871.077191	2399.594272
871.388657	2400.761299
871.700081	2402.513100
872.011463	2398.739796
872.322803	2401.270456
872.634101	2398.701988
872.945357	2398.989333
873.256571	2400.441186
873.567744	2403.138203
873.878874	2401.361196
874.189963	2399.614437
874.501010	2402.061917
874.812015	2404.509397
875.122979	2399.448078
875.433900	2402.412277
875.744780	2401.131824
876.055618	2402.830693
876.366415	2401.187277
876.677169	2402.916392
876.987882	2399.105280
877.298554	2399.175856
877.609183	2400.264745
877.919771	2398.828017
878.230317	2399.843809
878.540822	2404.801784
878.851285	2407.017371
879.161707	2405.381517
879.472087	2410.518452
879.782425	2412.053484
880.092722	2420.472211
880.402977	2428.938828
880.713191	2442.562547
881.023363	2458.918570
881.333494	2466.568521
881.643583	2467.748151
881.953631	2465.139354
882.263637	2459.974692
882.573602	2456.539146
882.883526	2450.257868
883.193408	2446.361056
883.503248	2437.055086
883.813048	2438.839655
884.122806	2432.230702
884.432522	2431.020825
884.742197	2420.303332
885.051831	2419.887437
885.361424	2414.874009
885.670975	2415.052970
885.980485	2413.328896
886.289954	2408.123904
886.599382	2407.670200
886.908768	2408.983421
887.218113	2408.128945
887.527417	2405.169788
887.836680	2404.693399
888.145901	2402.278686
888.455082	2401.978738
888.764221	2404.060734
889.073319	2401.474622
889.382376	2404.098543
889.691392	2404.912689
890.000366	2401.865312
890.309300	2402.911351
890.618193	2403.289438
890.927044	2401.887997
891.235855	2403.334808
891.544625	2401.036042
891.853353	2402.031670
892.162041	2401.530075
892.470687	2402.908831
892.779293	2402.649211
893.087858	2402.896228
893.396381	2403.710374
893.704864	2408.340674
894.013306	2408.824625
894.321707	2415.146232
894.630068	2419.093455
894.938387	2420.472211
895.246665	2419.446336
895.554903	2418.995152
895.863100	2417.417271
896.171256	2414.422826
896.479371	2414.117836
896.787446	2412.683628
897.095480	2407.828997
897.403473	2407.433266
897.711425	2404.945457
898.019336	2409.011147
898.327207	2406.878739
898.635038	2405.802453
898.942827	2404.892525
899.250576	2402.767678
899.558284	2401.053686
899.865952	2402.155178
900.173579	2401.893038
900.481165	2404.569891
900.788711	2400.536968
901.096216	2401.729201
901.403681	2400.421021
901.711105	2402.293810
902.018489	2398.041597
902.325832	2401.819941
902.633135	2399.901782
902.940397	2403.518810
903.247619	2404.753893
903.554800	2414.006931
903.861941	2415.811664
904.169041	2422.692839
904.476101	2421.119999
904.783121	2423.839701
905.090100	2419.940369
905.397039	2417.097158
905.703938	2413.689338
906.010796	2413.238155
906.317614	2409.696744
906.624391	2408.486867
906.931129	2407.173647
907.237826	2405.242885
907.544483	2406.566188
907.851099	2402.152658
908.157675	2403.395302
908.464211	2402.409756
908.770707	2396.748541
909.077163	2398.190311
909.383578	2395.871380
909.689954	2396.889693
909.996289	2394.079250
910.302584	2398.994375
910.608839	2397.655948
910.915054	2395.140412
911.221229	2397.920609
911.527363	2399.334652
911.833458	2398.147461
912.139513	2399.397667
912.445527	2396.758623
912.751502	2398.185269
913.057436	2399.377502
913.363331	2397.819786
913.669186	2401.126783
913.975000	2402.102246
914.280775	2405.225241
914.586510	2402.331618
914.892205	2411.141035
915.197859	2412.129101
915.503475	2416.613207
915.809050	2421.873651
916.114585	2421.094793
916.420081	2423.287695
916.725536	2424.318611
917.030952	2423.058323
917.336328	2420.257962
917.641665	2419.625297
917.946961	2414.984915
918.252218	2419.048085
918.557435	2414.049781
918.862612	2411.935017
919.167750	2410.452917
919.472848	2409.069121
919.777906	2406.999727
920.082925	2407.198853
920.387904	2404.148954
920.692843	2405.222720
920.997743	2399.816083
921.302603	2402.578635
921.607423	2401.393964
921.912204	2399.012019
922.216946	2399.644683
922.521647	2400.194169
922.826310	2397.716442
923.130932	2399.589231
923.435516	2398.218037
923.740059	2397.746689
924.044564	2398.681823
924.349028	2396.564538
924.653454	2394.459857
924.957840	2393.393653
925.262186	2392.214023
925.566493	2396.746020
925.870761	2391.674619
926.174989	2396.554456
926.479178	2395.541184
926.783328	2394.974054
927.087438	2393.716287
927.391509	2397.706360
927.695541	2394.661503
927.999533	2399.380023
928.303486	2393.496996
928.607400	2394.979096
928.911275	2397.023283
929.215110	2397.315670
929.518906	2396.211658
929.822663	2397.482028
930.126381	2393.585217
930.430060	2394.774929
930.733699	2395.218550
931.037299	2393.721328
931.340861	2394.744682
931.644383	2395.914230
931.947866	2399.629560
932.251309	2397.151833
932.554714	2397.592934
932.858080	2395.218550
933.161407	2394.195196
933.464694	2393.865001
933.767943	2394.079250
934.071153	2396.435989
934.374323	2398.475136
934.677455	2395.316853
934.980548	2394.704353
935.283602	2394.820299
935.586617	2396.370454
935.889593	2395.044631
936.192530	2395.145454
936.495428	2395.369785
936.798287	2395.294168
937.101108	2394.739641
937.403890	2398.172667
937.706632	2394.981616
938.009336	2396.872049
938.312002	2395.904147
938.614628	2398.999416
938.917216	2396.466236
939.219765	2396.846843
939.522275	2397.915568
939.824747	2400.549571
940.127179	2394.414486
940.429573	2390.999105
940.731929	2395.856256
941.034246	2392.372819
941.336524	2397.746689
941.638763	2397.660989
941.940964	2395.878942
942.243126	2395.268962
942.545250	2398.684344
942.847335	2396.582182
943.149381	2396.556977
943.451389	2396.672923
943.753359	2395.841133
944.055290	2396.161246
944.357182	2394.669065
944.659036	2396.796432
944.960851	2395.339538
945.262628	2395.626884
945.564367	2393.320556
945.866067	2394.754764
946.167729	2397.567728
946.469352	2394.981616
946.770937	2393.774260
947.072484	2396.710732
947.373992	2393.318035
947.675462	2396.902296
947.976893	2396.930022
948.278286	2394.598488
948.579641	2392.513971
948.880958	2394.495145
949.182236	2397.991185
949.483476	2395.210989
949.784678	2395.755433
950.085841	2394.220402
950.386967	2394.255690
950.688054	2396.904816
950.989103	2395.326935
951.290114	2396.521689
951.591087	2395.823489
951.892021	2395.097563
952.192917	2397.373644
952.493776	2397.073695
952.794596	2397.124107
953.095378	2395.810886
953.396122	2398.785167
953.696828	2397.214847
953.997496	2398.893552
954.298126	2396.390619
954.598718	2396.088149
954.899272	2392.138405
955.199788	2395.679816
955.500266	2395.853736
955.800706	2392.637480
956.101108	2392.173693
956.401472	2393.882645
956.701798	2391.835936
957.002087	2394.424569
957.302337	2391.694784
957.602550	2393.668396
957.902724	2391.919115
958.202861	2397.192162
958.502960	2393.880124
958.803022	2395.924312
959.103045	2395.032028
959.403031	2394.306102
959.702979	2392.113200
960.002889	2393.018087
960.302762	2395.112686
960.602596	2394.459857
960.902393	2390.837788
961.202153	2391.213354
961.501875	2394.033879
961.801559	2393.065978
962.101205	2393.088663
962.400814	2392.178735
962.700385	2390.900802
962.999918	2394.820299
963.299414	2393.081101
963.598873	2393.839795
963.898293	2393.504558
964.197677	2390.623539
964.497022	2389.819475
964.796331	2395.447923
965.095601	2390.963817
965.394835	2394.807696
965.694030	2393.093704
965.993189	2392.241749
966.292309	2394.008673
966.591393	2392.277037
966.890439	2393.847357
967.189447	2395.125289
967.488419	2392.700494
967.787353	2394.777449
968.086249	2391.853580
968.385108	2393.091183
968.683930	2391.765360
968.982714	2391.039434
969.281462	2390.285781
969.580172	2392.871893
969.878844	2391.351985
970.177480	2393.796945
970.476078	2390.237890
970.774639	2394.716956
971.073162	2392.917264
971.371649	2393.648231
971.670098	2390.210164
971.968510	2391.031872
972.266885	2388.191182
972.565223	2393.703684
972.863524	2393.018087
973.161788	2392.632438
973.460014	2393.345762
973.758204	2392.932387
974.056356	2393.136554
974.354471	2393.275186
974.652550	2394.230484
974.950591	2394.691750
975.248595	2391.783004
975.546563	2392.766029
975.844493	2393.300391
976.142386	2393.169321
976.440243	2393.338200
976.738062	2391.783004
977.035845	2392.897099
977.333590	2391.606564
977.631299	2393.123951
977.928971	2391.919115
978.226606	2393.449105
978.524204	2392.652603
978.821765	2389.645555
979.119290	2391.745195
979.416777	2393.786863
979.714228	2392.118241
980.011642	2394.069167
980.309020	2395.374826
980.606360	2392.849208
980.903664	2394.134702
981.200931	2393.260062
981.498162	2393.320556
981.795356	2393.872562
982.092513	2394.308622
982.389633	2395.284085
982.686717	2395.430279
982.983764	2394.439692
983.280775	2394.679147
983.577749	2392.884496
983.874686	2395.906668
984.171587	2396.403222
984.468451	2395.944477
984.765279	2394.162429
985.062070	2393.118910
985.358824	2393.938097
985.655543	2395.677295
985.952224	2392.143447
986.248869	2395.059754
986.545478	2388.160935
986.842050	2392.430792
987.138586	2388.660009
987.435086	2392.894578
987.731549	2387.946686
988.027975	2393.340721
988.324366	2390.908364
988.620719	2393.207130
988.917037	2390.769732
989.213318	2393.827192
989.509563	2392.188817
989.805772	2393.302912
990.101944	2391.377191
990.398080	2393.076060
990.694180	2392.440875
990.990244	2394.154867
991.286271	2391.538508
991.582262	2394.041441
991.878217	2392.082953
992.174136	2393.628066
992.470019	2389.635473
992.765865	2391.843498
993.061676	2391.225957
993.357450	2391.629249
993.653188	2393.018087
993.948890	2395.067316
994.244556	2388.803682
994.540186	2393.950700
994.835780	2393.706204
995.131337	2393.814589
995.426859	2392.208982
995.722345	2396.453633
996.017795	2392.032541
996.313208	2394.243087
996.608586	2393.484393
996.903928	2395.717625
997.199234	2391.220915
997.494504	2392.561862
997.789738	2392.576986
998.084936	2391.490617
998.380099	2392.839126
998.675225	2394.762326
998.970316	2394.492624
999.265371	2392.251831
999.560390	2392.665206
999.855373	2392.080432
1000.150320	2394.432130
1000.445232	2393.640669
1000.740108	2394.117058
1001.034948	2393.040772
1001.329752	2391.961965
1001.624521	2391.019269
1001.919254	2388.481048
1002.213951	2391.629249
1002.508613	2387.261089
1002.803239	2391.409959
1003.097829	2384.490975
1003.392384	2393.081101
1003.686903	2389.534649
1003.981386	2392.314846
1004.275834	2391.780483
1004.570246	2393.431461
1004.864623	2390.005997
1005.158964	2390.321069
1005.453270	2390.280740
1005.747540	2389.312839
1006.041775	2392.481204
1006.335974	2390.426934
1006.630138	2388.329814
1006.924266	2392.443395
1007.218359	2388.009700
1007.512416	2392.692932
1007.806438	2390.439537
1008.100425	2390.205123
1008.394376	2392.297202
1008.688292	2387.349309
1008.982172	2386.888044
1009.276017	2389.305277
1009.569827	2391.871224
1009.863602	2390.164794
1010.157341	2390.142108
1010.451045	2390.968858
1010.744714	2390.595812
1011.038347	2389.834598
1011.331945	2390.394166
1011.625508	2393.673437
1011.919036	2393.343241
1012.212528	2392.251831
1012.505986	2390.058929
1012.799408	2389.184289
1013.092795	2391.225957
1013.386147	2393.083622
1013.679464	2390.139588
1013.972745	2393.128992
1014.265992	2390.038765
1014.559204	2391.833416
1014.852380	2391.727551
1015.145521	2393.474311
1015.438628	2389.280071
1015.731699	2390.331152
1016.024736	2390.918446
1016.317737	2393.045813
1016.610703	2393.000443
1016.903635	2389.844680
1017.196531	2385.683208
1017.489393	2388.412993
1017.782219	2386.053733
1018.075011	2391.253683
1018.367768	2390.807541
1018.660490	2391.278889
1018.953177	2391.278889
1019.245829	2391.278889
