Dividing Wavelength (nm)	Counts (n)	Blue Motor Position (mm): 0.000000	Red Motor Position (mm): 46.200000	
326.493990	1998.086533
326.888308	1998.086533
327.282561	1998.086533
327.676750	1975.716412
328.070874	1973.662142
328.464933	1983.638586
328.858929	1990.189565
329.252859	2004.836638
329.646726	2019.241735
330.040528	2033.795546
330.434265	2055.336396
330.827938	2074.815415
331.221547	2093.651686
331.615091	2112.873606
332.008571	2133.565022
332.401986	2155.075625
332.795338	2175.043636
333.188625	2193.229598
333.581847	2213.129553
333.975006	2232.565722
334.368100	2246.416292
334.761129	2267.173243
335.154095	2279.488782
335.546996	2324.637355
335.939833	2407.574418
336.332606	2422.433219
336.725315	2432.689447
337.117960	2441.786209
337.510540	2450.197374
337.903056	2458.737089
338.295508	2464.768829
338.687896	2472.600262
339.080220	2482.296921
339.472480	2486.846563
339.864676	2487.943014
340.256807	2491.769249
340.648875	2495.275372
341.040879	2497.833758
341.432818	2497.848881
341.824694	2500.016577
342.216506	2497.407780
342.608253	2498.191679
342.999937	2496.507934
343.391557	2496.865856
343.783113	2493.591627
344.174605	2493.074908
344.566033	2490.440905
344.957397	2490.105669
345.348697	2489.246152
345.739934	2486.869248
346.131106	2484.918321
346.522215	2482.914463
346.913260	2482.148207
347.304241	2478.589153
347.695159	2477.694348
348.086012	2479.821715
348.476802	2477.054121
348.867528	2474.163020
349.258191	2474.077320
349.648789	2473.129583
350.039324	2472.549850
350.429796	2475.753504
350.820203	2469.421814
351.210548	2469.767133
351.600828	2471.899542
351.991045	2467.672534
352.381198	2468.368213
352.771288	2472.877525
353.161314	2469.255456
353.551276	2470.087247
353.941175	2463.901751
354.331010	2470.969449
354.720782	2470.689665
355.110490	2473.129583
355.500135	2470.248564
355.889717	2471.695375
356.279235	2468.418625
356.668689	2471.801239
357.058080	2472.834676
357.447408	2471.045066
357.836672	2470.001547
358.225873	2470.203193
358.615010	2470.966928
359.004084	2474.316775
359.393095	2476.776858
359.782043	2477.323823
360.170927	2477.759883
360.559748	2476.340798
360.948505	2480.235089
361.337199	2483.161479
361.725830	2479.804071
362.114398	2485.460245
362.502903	2482.402786
362.891344	2487.385966
363.279722	2486.223980
363.668037	2484.782210
364.056289	2486.644917
364.444478	2486.652478
364.832603	2488.502582
365.220665	2492.114568
365.608665	2489.906543
365.996601	2491.030720
366.384474	2491.499548
366.772284	2496.943994
367.160031	2494.340238
367.547715	2496.207985
367.935336	2495.204796
368.322893	2496.026504
368.710388	2496.187821
369.097820	2502.441372
369.485189	2500.208141
369.872495	2505.687875
370.259738	2503.547905
370.646918	2508.621827
371.034035	2509.030160
371.421090	2513.121057
371.808081	2516.561644
372.195010	2518.842766
372.581875	2525.582789
372.968678	2532.065713
373.355418	2541.195242
373.742096	2553.001625
374.128710	2563.756926
374.515262	2577.887281
374.901751	2590.149887
375.288177	2614.801130
375.674540	2629.191103
376.060841	2651.031902
376.447079	2678.163392
376.833254	2698.693491
377.219367	2726.382029
377.605417	2762.494334
377.991404	2789.434261
378.377329	2832.248780
378.763191	2867.551981
379.148991	2917.174578
379.534727	2966.053606
379.920402	3015.265350
380.306013	3067.174111
380.691563	3132.202475
381.077049	3189.800178
381.462474	3249.217738
381.847835	3322.316990
382.233134	3400.333887
382.618371	3459.191878
383.003545	3547.265877
383.388657	3632.347951
383.773706	3728.061819
384.158693	3800.717448
384.543618	3898.576327
384.928480	3980.852999
385.313280	4085.799740
385.698017	4195.757387
386.082692	4321.128363
386.467305	4385.390472
386.851856	4516.261346
387.236344	4673.941077
387.620770	4739.912136
388.005133	4866.364439
388.389435	5021.107698
388.773674	5100.276498
389.157851	5238.633486
389.541965	5377.721442
389.926018	5400.731788
390.310008	5586.372279
390.693936	5713.245518
391.077802	5833.275391
391.461606	5970.543490
391.845348	6092.088230
392.229027	6209.864707
392.612645	6441.669564
392.996200	6559.433438
393.379694	6739.173258
393.763125	6971.890563
394.146494	7068.151396
394.529801	7213.712193
394.913047	7466.140410
395.296230	7464.071016
395.679351	7522.140068
396.062410	7792.844988
396.445408	7686.222063
396.828343	7847.334820
397.211217	7985.280954
397.594028	7865.203190
397.976778	8077.251764
398.359466	8242.667146
398.742092	8220.291984
399.124656	8375.010037
399.507158	8562.225888
399.889598	8588.175227
400.271977	8795.361609
400.654294	8841.997323
401.036549	9039.620637
401.418742	9067.175583
401.800874	9377.819045
402.182944	9467.511254
402.564952	9839.535805
402.946898	9651.228545
403.328783	9714.822700
403.710606	9918.578577
404.092367	10189.921203
404.474067	10561.618079
404.855705	10343.225212
405.237282	10291.772676
405.618797	10738.464277
406.000250	10987.981228
406.381642	11362.700275
406.762972	11318.449027
407.144240	11102.440626
407.525447	11368.021213
407.906593	11310.741103
408.287677	11568.449928
408.668700	11730.638971
409.049661	11701.407841
409.430560	11860.816687
409.811399	11836.830877
410.192176	12009.876044
410.572891	12078.965058
410.953545	12589.964138
411.334138	12043.021631
411.714669	12676.286336
412.095139	11951.509565
412.475547	12472.500212
412.855894	12317.457005
413.236180	12656.925785
413.616405	12320.761482
413.996568	12614.713683
414.376670	12584.204620
414.756711	12455.985392
415.136691	12754.830033
415.516609	12951.954272
415.896466	13019.604036
416.276262	13308.857882
416.655997	13756.330862
417.035670	13782.093679
417.415283	14448.065390
417.794834	14554.002718
418.174324	14289.306853
418.553753	14200.890055
418.933121	14688.029354
419.312428	14493.297143
419.691674	14414.836625
420.070859	14879.091606
420.449983	14530.337021
420.829045	15099.150574
421.208047	14818.703624
421.586988	15300.620287
421.965867	15561.109310
422.344686	15559.173507
422.723444	16138.722197
423.102141	14788.411330
423.480777	16013.595717
423.859352	15510.740621
424.237866	16650.681617
424.616319	16347.030235
424.994712	17021.173657
425.373044	16808.658775
425.751314	17508.091145
426.129524	16605.616222
426.507673	17741.899861
426.885762	17405.942245
427.263789	17630.500443
427.641756	17795.363818
428.019662	17859.739352
428.397508	17902.369870
428.775292	18218.505669
429.153016	18182.451336
429.530679	18262.835055
429.908282	18285.555535
430.285824	17997.970311
430.663305	18721.564932
431.040726	18309.974885
431.418086	18138.701683
431.795385	18797.048649
432.172624	19221.929698
432.549802	18772.251213
432.926920	18958.022773
433.303977	18843.286112
433.680974	19100.692468
434.057910	19398.559126
434.434786	19422.063505
434.811601	19332.509928
435.188355	20403.525748
435.565050	20035.599655
435.941683	19979.789041
436.318257	20895.101262
436.694770	20696.351251
437.071222	21314.404274
437.447614	20352.118581
437.823946	20387.431864
438.200218	20543.526152
438.576429	20306.700306
438.952580	20592.432906
439.328670	20553.883202
439.704700	20984.717854
440.080670	20526.497134
440.456580	21140.431535
440.832429	21324.602529
441.208218	20285.315731
441.583947	20743.155844
441.959616	20858.152125
442.335224	21096.845718
442.710773	21238.671020
443.086261	21781.938526
443.461689	21140.192080
443.837057	21255.014441
444.212365	21919.945154
444.587612	21909.144482
444.962800	21472.565435
445.337927	21910.992065
445.712995	20611.080134
446.088002	22524.906301
446.462949	22711.950752
446.837837	22905.130288
447.212664	22863.172765
447.587431	25794.376874
447.962139	28772.735937
448.336786	31188.613136
448.711374	29569.996938
449.085901	25817.039382
449.460369	25775.139831
449.834776	25700.006474
450.209124	28246.620957
450.583412	27744.751407
450.957640	28290.652915
451.331808	26902.808138
451.705917	25515.147363
452.079965	25567.381278
452.453954	25938.657218
452.827883	25791.843695
453.201752	25604.660611
453.575562	25781.025378
453.949311	26936.495649
454.323001	26993.432961
454.696632	26747.394406
455.070202	28335.693104
455.443713	28460.413771
455.817164	29081.098277
456.190556	29617.872777
456.563888	29037.086483
456.937160	29495.405506
457.310373	27778.464123
457.683526	28268.088711
458.056619	28239.109638
458.429653	28171.623711
458.802628	28773.603016
459.175542	28890.603155
459.548398	30201.630830
459.921194	31808.775882
460.293930	32484.555158
460.666607	34558.107764
461.039224	36331.925965
461.411782	36734.988900
461.784280	35522.394795
462.156719	35044.924429
462.529099	34480.726052
462.901419	33179.377393
463.273680	32100.822527
463.645882	32175.789526
464.018024	32158.218584
464.390106	33014.574512
464.762130	35776.957941
465.134094	39885.110157
465.505999	45243.874339
465.877845	49849.348985
466.249631	51009.852847
466.621358	49330.160550
466.993026	47235.054491
467.364634	45147.489998
467.736184	43156.203982
468.107674	41891.383523
468.479105	41091.410381
468.850477	40373.439168
469.221790	38936.848953
469.593043	37157.024218
469.964238	36256.810252
470.335373	36164.269791
470.706449	37938.634957
471.077467	40594.405544
471.448425	45177.114339
471.819324	47981.903954
472.190164	46098.743126
472.560945	42500.090247
472.931667	39381.282118
473.302330	38255.085828
473.672934	37414.692714
474.043479	37944.124773
474.413965	37118.696325
474.784393	36740.375373
475.154761	37657.749426
475.525070	37682.413272
475.895321	37213.011272
476.265513	37820.755136
476.635645	38810.787340
477.005719	38623.387487
477.375734	39115.356211
477.745691	39807.156274
478.115588	41177.997239
478.485427	43177.069318
478.855207	46562.612459
479.224928	49194.639211
479.594591	50824.950886
479.964194	49834.316264
480.333739	49997.032107
480.703226	50043.014992
481.072653	50685.101716
481.442022	51164.933863
481.811333	51406.281624
482.180584	50128.538167
482.549777	49613.314600
482.918912	49061.676258
483.287988	48804.118667
483.657005	47955.387485
484.025964	47303.871282
484.394864	47323.186463
484.763706	46899.817760
485.132489	46030.677467
485.501213	45858.764038
485.869879	46004.637387
486.238487	45586.594663
486.607036	45791.436908
486.975527	45246.309216
487.343959	45450.581811
487.712333	45523.945723
488.080648	45447.499146
488.448905	45912.296051
488.817104	45726.000211
489.185244	46692.689352
489.553326	48402.242923
489.921350	51104.679471
490.289315	53937.371873
490.657222	54491.780329
491.025070	54783.237159
491.392861	53910.076546
491.760593	52692.774003
492.128267	51064.932494
492.495883	49542.400689
492.863440	48145.602822
493.230939	46786.152344
493.598380	45680.201328
493.965763	45350.882912
494.333088	44532.270103
494.700354	44047.658943
495.067563	43739.316768
495.434713	43613.877737
495.801805	43687.196278
496.168839	43284.433292
496.535815	42950.867703
496.902733	42994.982841
497.269593	42577.267792
497.636395	42502.956143
498.003139	42915.705655
498.369825	42366.638302
498.736453	42688.611757
499.103023	42207.037892
499.469535	42063.097826
499.835989	42165.365193
500.202385	41821.704695
500.568723	41859.805735
500.935003	42048.148284
501.301226	41822.793584
501.667390	42458.881335
502.033497	42748.672064
502.399546	42148.031186
502.765537	41462.416619
503.131470	41858.716846
503.497345	42225.687640
503.863163	40867.852852
504.228923	41495.839469
504.594625	41921.078440
504.960269	41202.835004
505.325856	41908.737695
505.691385	41237.923956
506.056856	41399.180385
506.422270	41833.858917
506.787625	41408.128433
507.152924	41605.698814
507.518164	41713.483724
507.883347	40915.264904
508.248472	41172.577999
508.613540	41658.661176
508.978550	41984.120589
509.343503	41712.800648
509.708398	41937.217694
510.073236	42454.288844
510.438016	42464.444248
510.802738	41904.278795
511.167403	42543.441650
511.532010	42769.570167
511.896561	43075.348915
512.261053	43954.511023
512.625488	43479.878826
512.989866	43365.182494
513.354186	43198.920199
513.718449	43186.634907
514.082655	43872.010019
514.446803	43547.979774
514.810894	44074.545937
515.174927	43990.729192
515.538904	43881.179878
515.902822	44577.118728
516.266684	44000.541798
516.630488	44460.612622
516.994235	44296.276048
517.357925	44880.906221
517.721558	45055.526749
518.085133	45365.288009
518.448651	45503.181211
518.812112	45275.525223
519.175516	45373.807559
519.538863	45709.820627
519.902152	45659.661147
520.265385	46148.476629
520.628560	46179.041145
520.991678	45968.514999
521.354739	46219.458596
521.717743	46528.720782
522.080690	46427.943075
522.443580	46963.051473
522.806413	47035.505457
523.169189	46960.873695
523.531908	47154.141451
523.894569	46994.735125
524.257174	47180.806634
524.619722	47473.254051
524.982213	47458.974983
525.344647	47379.770894
525.707025	47423.951567
526.069345	47798.360583
526.431608	47735.129391
526.793815	48061.229030
527.155964	47573.883044
527.518057	47741.816481
527.880093	47519.705763
528.242072	48062.007888
528.603995	47745.670443
528.965860	47776.076163
529.327669	47861.080099
529.689421	47750.192358
530.051117	47689.932926
530.412755	47836.217128
530.774337	47913.563552
531.135862	47700.204277
531.497331	47905.056605
531.858743	47811.046647
532.220098	48151.647166
532.581396	47861.785861
532.942638	47524.116773
533.303824	47821.857402
533.664953	47791.308009
534.026025	47495.931682
534.387040	47983.267586
534.747999	47914.004653
535.108902	48080.599664
535.469748	47578.624249
535.830537	47710.198364
536.191270	47902.152900
536.551947	47546.184424
536.912567	47869.095534
537.273131	47985.384871
537.633638	47443.826316
537.994089	47814.774580
538.354483	47398.612207
538.714821	47966.959453
539.075103	48310.670364
539.435328	48073.141277
539.795497	47954.132237
540.155609	47928.016540
540.515665	48391.837982
540.875665	47861.911889
541.235609	48173.646761
541.595496	48154.939039
541.955328	48844.374801
542.315102	48200.924444
542.674821	47987.761775
543.034483	48023.034728
543.394090	47993.871653
543.753640	47946.431875
544.113134	48967.434407
544.472571	47952.367833
544.831953	49218.030165
545.191278	48419.670192
545.550548	48120.497876
545.909761	48605.945868
546.268918	48818.370009
546.628019	49122.437285
546.987064	48666.888377
547.346053	47933.375286
547.704986	48838.433801
548.063863	48365.071975
548.422684	48566.617306
548.781449	48426.006923
549.140158	48819.889917
549.498811	48656.561573
549.857408	48088.975541
550.215949	48952.205082
550.574434	48867.354901
550.932864	48628.855392
551.291237	49352.152584
551.649555	48952.409248
552.007817	49186.447336
552.366022	48832.986834
552.724173	49016.457108
553.082267	49410.387993
553.440305	49715.418130
553.798288	49022.682933
554.156215	49331.193987
554.514086	49558.529860
554.871902	49304.717847
555.229661	49318.162604
555.587365	49127.354931
555.945014	49218.073015
556.302606	49138.871447
556.660143	49374.573115
557.017625	49480.412140
557.375050	49265.497670
557.732421	49621.700559
558.089735	49592.466908
558.446994	49512.098313
558.804197	49995.005563
559.161345	49940.445155
559.518437	49171.061735
559.875474	49476.182612
560.232455	49638.273353
560.589381	49832.163691
560.946251	49516.075783
561.303065	50215.268698
561.659825	50025.491941
562.016528	49670.642601
562.373177	49397.996837
562.729770	49885.325179
563.086307	49381.353467
563.442789	49852.222442
563.799216	49912.481875
564.155587	49679.827584
564.511904	49727.116127
564.868164	49813.766000
565.224370	50062.899823
565.580520	49802.889711
565.936615	50008.533500
566.292654	49727.400952
566.648638	49991.078504
567.004567	49934.042890
567.360441	49972.038066
567.716260	49848.000476
568.072023	50106.745259
568.427732	50097.918198
568.783385	49653.522843
569.138982	50046.745446
569.494525	50004.651811
569.850013	49776.297624
570.205445	49751.696793
570.560823	49724.018338
570.916145	49603.595255
571.271412	49627.248349
571.626625	49391.939890
571.981782	49435.109811
572.336884	49136.620572
572.691931	49466.372527
573.046923	49051.727541
573.401860	48904.092309
573.756743	48896.679293
574.111570	49023.038334
574.466342	48859.289054
574.821059	48969.508842
575.175722	48485.071602
575.530330	48500.069034
575.884882	48236.000793
576.239380	48201.957881
576.593823	48172.076442
576.948211	48099.745966
577.302544	47610.456615
577.656823	47627.573853
578.011047	47865.100419
578.365216	47586.201103
578.719330	47373.892909
579.073389	47237.685973
579.427394	47305.978484
579.781344	47275.396325
580.135239	46941.664378
580.489080	47020.354269
580.842866	46501.218767
581.196597	46945.598999
581.550273	46894.126298
581.903895	46764.424971
582.257463	47185.227726
582.610975	46555.040646
582.964434	46825.412850
583.317837	46478.538616
583.671186	46311.315981
584.024481	46551.852116
584.377721	46080.426093
584.730906	46380.780560
585.084037	46397.865031
585.437113	46121.992928
585.790135	46157.863258
586.143103	45756.811743
586.496016	45885.585497
586.848874	45908.248004
587.201679	45925.052691
587.554428	45397.659778
587.907124	45582.954950
588.259765	45335.361199
588.612352	45593.039778
588.964884	44977.832486
589.317362	45271.772084
589.669786	45228.145939
590.022155	44984.340616
590.374470	45419.215752
590.726731	44931.118634
591.078937	44444.506135
591.431090	44540.741762
591.783188	44204.862284
592.135232	43861.932753
592.487222	44116.107730
592.839157	44214.669849
593.191038	43865.940470
593.542866	43630.649656
593.894639	43022.825133
594.246358	43308.156962
594.598022	43296.794201
594.949633	42879.825243
595.301190	42826.716687
595.652692	42645.451918
596.004141	42988.215092
596.355535	41988.455982
596.706876	41944.434106
597.058162	41766.645212
597.409395	42270.488375
597.760573	42336.714013
598.111698	41904.399782
598.462768	41930.762496
598.813785	41975.754794
599.164748	41386.595144
599.515657	41780.929322
599.866511	41239.322876
600.217312	41880.164435
600.568060	40829.129229
600.918753	41576.417272
601.269392	41536.188864
601.619978	41182.682992
601.970510	41413.008270
602.320988	41586.383633
602.671412	41892.636250
603.021783	41632.379121
603.372100	41283.455657
603.722363	41408.420820
604.072572	41485.512665
604.422728	41490.914262
604.772830	41306.123206
605.122878	41392.324416
605.472872	41323.686586
605.822813	41620.497121
606.172701	41441.417693
606.522534	41687.794004
606.872314	41958.987917
607.222041	41691.663090
607.571714	42092.172681
607.921333	41509.863959
608.270899	41815.428458
608.620411	42169.123374
608.969870	41964.704585
609.319276	41946.480814
609.668627	41996.627692
610.017926	42500.838858
610.367171	42683.452136
610.716362	42759.560956
611.065500	42682.441385
611.414585	42874.234603
611.763616	43174.147969
612.112594	43095.695012
612.461518	43323.824868
612.810389	43600.972383
613.159207	43468.415242
613.507971	43549.653437
613.856682	44035.686202
614.205340	43905.430349
614.553945	44625.909536
614.902496	44046.756576
615.250994	44523.296849
615.599439	44587.092651
615.947830	44805.402339
616.296169	44853.941089
616.644454	44970.210261
616.992686	45146.741387
617.340864	45659.436815
617.688990	45362.114602
618.037063	45983.696433
618.385082	45933.199195
618.733048	46231.670791
619.080961	46251.492608
619.428821	46263.603980
619.776628	46374.905095
620.124382	46211.319653
620.472083	46352.900459
620.819731	46486.422980
621.167326	46155.090623
621.514868	46115.678882
621.862357	45695.274378
622.209793	45718.400671
622.557176	45404.735038
622.904506	45142.456406
623.251783	44791.952541
623.599007	44583.311786
623.946179	44343.133573
624.293297	44299.890555
624.640363	43690.639386
624.987376	43676.672870
625.334336	43406.638423
625.681243	43031.861402
626.028097	42990.342459
626.374899	42836.894777
626.721647	42782.089873
627.068343	42673.798326
627.414987	42432.727829
627.761577	42190.293699
628.108115	42526.636963
628.454600	41955.726290
628.801032	42147.373315
629.147412	42101.907149
629.493739	42091.482043
629.840014	41710.910215
630.186236	42035.550441
630.532405	41660.544047
630.878521	41848.836185
631.224585	41726.242885
631.570597	41444.523043
631.916556	41611.564197
632.262462	41536.234235
632.608316	41557.694427
632.954117	41444.177724
633.299866	41442.640172
633.645562	41350.470236
633.991206	40843.022649
634.336797	40408.888562
634.682336	40415.041290
635.027823	40171.268734
635.373257	39988.791568
635.718639	39734.616591
636.063968	39600.983164
636.409245	39007.389819
636.754470	39063.475176
637.099642	38794.196902
637.444762	38275.137017
637.789829	38436.620298
638.134845	38086.471835
638.479808	38021.531691
638.824719	37920.806916
639.169577	37508.158227
639.514383	37571.482681
639.859137	37246.275326
640.203839	37506.373659
640.548489	37114.597867
640.893086	37181.312497
641.237632	36905.382421
641.582125	37019.136057
641.926566	36952.078629
642.270955	36909.470796
642.615292	36924.188445
642.959576	36879.032309
643.303809	36879.221353
643.647990	37016.103803
643.992118	36971.015723
644.336195	36962.901986
644.680219	37025.187962
645.024192	37341.893412
645.368112	37847.987449
645.711981	37843.641974
646.055797	38723.325841
646.399562	38622.535532
646.743274	39590.225342
647.086935	40049.310620
647.430544	39932.688567
647.774101	40047.707533
648.117606	40286.738883
648.461059	40638.427420
648.804460	40252.771589
649.147810	39627.822267
649.491108	39381.012416
649.834354	38999.288685
650.177548	38125.215622
650.520690	37658.966865
650.863781	37697.312402
651.206820	37523.677419
651.549807	37077.568071
651.892742	36576.416885
652.235626	36365.028702
652.578458	36223.049645
652.921238	35585.908292
653.263967	35911.473569
653.606644	35581.824958
653.949269	35527.032657
654.291843	35108.072443
654.634365	35510.664030
654.976836	35094.131132
655.319255	35062.543262
655.661622	35071.226649
656.003938	34839.749467
656.346203	34680.577555
656.688416	34899.164507
657.030577	34696.986511
657.372687	34534.132036
657.714746	34806.671937
658.056753	34927.304228
658.398708	34358.853637
658.740612	34407.223509
659.082465	34683.322464
659.424266	34470.457222
659.766016	34594.101602
660.107715	34464.027230
660.449362	34593.776448
660.790958	34566.992797
661.132503	34586.050880
661.473996	34594.898105
661.815438	34713.962597
662.156829	34923.097385
662.498168	34662.895708
662.839456	34688.066189
663.180693	34823.978218
663.521879	34968.548428
663.863013	34920.922127
664.204097	34923.039411
664.545129	35380.130913
664.886110	35324.660577
665.227040	35368.536259
665.567918	35492.558726
665.908746	35545.228701
666.249522	35713.799845
666.590248	35689.836720
666.930922	35817.506462
667.271545	35772.327641
667.612118	35845.013518
667.952639	35611.928208
668.293109	35678.022776
668.633528	35573.247434
668.973896	35490.038149
669.314213	35536.530190
669.654480	35256.549547
669.994695	35287.655987
670.334859	35147.302702
670.674973	35049.469029
671.015035	35214.624791
671.355047	35143.542001
671.695008	35082.475984
672.034918	34973.077904
672.374777	35024.548085
672.714585	34850.736662
673.054342	35070.450312
673.394049	34809.099252
673.733705	35108.294253
674.073310	34762.982777
674.412864	34826.745811
674.752368	34421.890746
675.091820	34714.317998
675.431223	34312.422090
675.770574	34006.061088
676.109875	33857.515929
676.449125	33567.843667
676.788324	33491.795341
677.127473	32935.776236
677.466571	32875.567215
677.805619	32501.740452
678.144616	32495.343227
678.483562	32391.762639
678.822458	32053.778480
679.161303	31966.937043
679.500098	31866.207227
679.838842	31744.682652
680.177535	31897.943811
680.516179	32135.422487
680.854771	32364.696684
681.193314	33214.746128
681.531805	34315.625743
681.870247	35042.272782
682.208638	35772.854442
682.546978	35984.237584
682.885268	36109.270802
683.223508	35588.121359
683.561697	35257.358652
683.899836	35057.479423
684.237925	34536.443405
684.575963	34377.447933
684.913951	33883.440062
685.251889	34038.029566
685.589776	34000.367105
685.927614	33970.672188
686.265401	34073.592385
686.603137	34147.810773
686.940824	34629.162827
687.278460	34966.126153
687.616046	35087.514617
687.953582	35671.378535
688.291068	35513.892889
688.628504	35822.426628
688.965889	35753.758551
689.303224	35385.560236
689.640510	35074.301753
689.977745	34354.228379
690.314930	33577.162240
690.652065	33076.487443
690.989150	32344.491740
691.326185	31432.869643
691.663170	30741.800547
692.000105	29985.445989
692.336990	29290.328847
692.673825	28825.287445
693.010610	28297.309759
693.347345	27697.440178
693.684030	27010.424170
694.020665	26732.664155
694.357251	26037.685644
694.693786	25969.420859
695.030272	25724.098149
695.366707	25165.901266
695.703093	24870.235072
696.039429	24851.030796
696.375716	24568.973198
696.711952	24521.619119
697.048139	24343.709238
697.384276	24148.583817
697.720363	24271.976139
698.056400	24054.657038
698.392388	23826.882584
698.728326	23796.633140
699.064214	23581.809410
699.400053	23535.052708
699.735842	23182.713863
700.071581	22880.902503
700.407270	22583.330753
700.742910	22404.218557
701.078501	22131.121609
701.414042	21835.846105
701.749533	21525.968898
702.084974	21172.246257
702.420366	21381.295345
702.755709	20939.992737
703.091002	20629.558483
703.426246	20639.361007
703.761440	20530.295643
704.096584	20247.431460
704.431679	20205.826817
704.766725	20089.973540
705.101721	20029.830054
705.436668	20115.844742
705.771565	19774.808163
706.106413	20109.492888
706.441212	20081.438867
706.775961	20197.743327
707.110661	20259.094169
707.445311	20592.528688
707.779913	20410.515308
708.114465	20635.040738
708.448967	20897.815923
708.783421	21584.267322
709.117825	21826.804795
709.452180	22025.332996
709.786485	22388.928737
710.120742	23167.875227
710.454949	23155.695799
710.789107	23601.263223
711.123216	24292.748214
711.457275	24387.128696
711.791286	24928.278917
712.125247	25010.416958
712.459159	24712.593150
712.793023	25403.647122
713.126837	24304.332785
713.460602	24581.172790
713.794318	24239.027158
714.127985	23877.730182
714.461602	22998.908353
714.795171	22966.435760
715.128691	21961.272533
715.462162	21431.419537
715.795584	21013.646515
716.128957	20764.467322
716.462281	20347.231183
716.795556	20110.753176
717.128782	19605.493450
717.461960	19051.415189
717.795088	18976.627152
718.128167	18574.068332
718.461198	18108.742105
718.794180	17955.299465
719.127113	17578.132937
719.459997	17373.479735
719.792833	17025.874533
720.125619	16986.724932
720.458357	16663.750808
720.791046	16489.581463
721.123686	16327.009293
721.456278	16076.834472
721.788821	16035.973399
722.121315	15765.344096
722.453761	15831.554611
722.786158	15746.475057
723.118506	15741.212092
723.450805	15602.093890
723.783056	15745.396250
724.115259	15641.175436
724.447412	15561.338682
724.779518	15785.397806
725.111574	15795.807789
725.443582	15986.905328
725.775542	15956.807119
726.107453	16396.347843
726.439315	16275.123217
726.771129	16644.266748
727.102895	16999.902508
727.434612	17177.409097
727.766281	17295.321685
728.097901	17547.485242
728.429473	17596.434846
728.760996	17575.020024
729.092471	17668.089807
729.423897	17554.144606
729.755276	17415.006239
730.086606	17519.930295
730.417887	18024.171708
730.749120	18498.244337
731.080305	18655.878697
731.411442	18981.557400
731.742530	19063.433300
732.073570	19165.650256
732.404562	19454.543660
732.735506	19290.552404
733.066401	19028.198155
733.397249	18517.350310
733.728048	17889.245226
734.058798	17092.442969
734.389501	16422.670228
734.720156	15973.243801
735.050762	15456.480162
735.381320	15087.792854
735.711831	14843.122973
736.042293	14489.460825
736.372707	14488.140043
736.703073	14266.304068
737.033391	14441.204380
737.363661	14382.749680
737.693883	14458.301453
738.024056	14608.447179
738.354182	14765.075829
738.684260	15017.567061
739.014290	15214.908069
739.344272	15383.388472
739.674207	15653.801005
740.004093	15752.652991
740.333931	15749.567805
740.663722	15789.612211
740.993464	15789.435770
741.323159	15629.021214
741.652806	15383.948040
741.982405	15173.989023
742.311956	14857.744840
742.641460	14759.031486
742.970915	14458.855980
743.300323	14145.548268
743.629683	13945.255664
743.958996	13674.023943
744.288260	13407.924117
744.617477	13110.710289
744.946647	13038.616748
745.275768	12760.045107
745.604842	12577.482241
745.933869	12397.472720
746.262847	12352.339269
746.591778	12279.842436
746.920662	12163.462358
747.249498	12156.949187
747.578286	12262.410126
747.907027	12379.473280
748.235720	12585.666554
748.564365	12602.362856
748.892963	12501.580108
749.221514	12550.312943
749.550017	12401.787947
749.878473	12365.103471
750.206881	12164.223572
750.535242	12067.657750
750.863555	11989.676141
751.191821	11888.472457
751.520039	11901.435784
751.848210	11811.950262
752.176334	11827.560195
752.504411	11734.021585
752.832440	11586.219996
753.160421	11631.958385
753.488356	11509.874241
753.816243	11421.606158
754.144082	11285.913420
754.471875	11221.442103
754.799620	11160.444142
755.127318	11133.925152
755.454969	11092.053328
755.782572	11036.565348
756.110129	11043.751513
756.437638	10965.175048
756.765100	10950.991761
757.092515	10947.538571
757.419882	10952.594848
757.747203	10947.049579
758.074477	11013.663386
758.401703	10965.240583
758.728882	11111.706267
759.056014	11147.206072
759.383099	11250.569890
759.710138	11338.439722
760.037129	11408.279868
760.364073	11424.691344
760.690970	11408.073181
761.017820	11401.703683
761.344623	11579.913512
761.671379	11874.647093
761.998088	12453.525309
762.324751	13919.606274
762.651366	16557.485806
762.977935	19926.781308
763.304456	21967.526084
763.630931	22422.248244
763.957359	21399.743447
764.283740	19660.315998
764.610074	17911.428823
764.936362	15950.024247
765.262602	14537.724832
765.588796	13152.655210
765.914943	12168.390086
766.241044	11372.976667
766.567097	10768.817064
766.893104	10244.539585
767.219064	9895.913549
767.544978	9525.492085
767.870845	9227.040654
768.196665	9053.022544
768.522438	8862.756795
768.848165	8703.602527
769.173846	8537.955253
769.499479	8424.027696
769.825066	8271.162268
770.150607	8099.977286
770.476101	8031.919188
770.801548	7935.345804
771.126949	7798.385216
771.452303	7711.634520
771.777611	7551.144346
772.102872	7532.537447
772.428087	7423.313288
772.753256	7304.026985
773.078378	7213.127419
773.403453	7084.371309
773.728482	6984.097717
774.053465	6927.553615
774.378401	6841.571695
774.703291	6749.026193
775.028135	6655.021277
775.352932	6618.183045
775.677683	6540.423247
776.002388	6453.488549
776.327046	6455.673889
776.651658	6370.861517
776.976224	6295.826462
777.300743	6276.793586
777.625216	6211.188010
777.949643	6172.978584
778.274024	6174.858935
778.598359	6110.261589
778.922647	6103.607266
779.246889	6065.982614
779.571086	6067.888171
779.895236	6082.782260
780.219339	6066.587553
780.543397	6063.409105
780.867409	6106.896619
781.191374	6101.643737
781.515294	6072.778090
781.839167	6117.846005
782.162995	6087.972128
782.486776	6044.645931
782.810511	6009.025138
783.134201	5932.129898
783.457844	5925.289052
783.781441	5881.607454
784.104993	5838.679508
784.428498	5812.248738
784.751958	5793.939268
785.075372	5769.323313
785.398739	5730.902159
785.722061	5752.357310
786.045337	5751.548205
786.368568	5849.061764
786.691752	5861.962077
787.014891	6088.191418
787.337983	6333.579663
787.661030	6720.888993
787.984031	7094.307423
788.306987	7325.693864
788.629897	7397.406798
788.952760	7329.172260
789.275579	7176.566451
789.598351	6915.351503
789.921078	6670.910994
790.243759	6425.237923
790.566395	6240.799748
790.888984	6059.313168
791.211529	5938.950579
791.534027	5785.558349
791.856480	5658.435573
792.178888	5598.534062
792.501249	5534.619793
792.823566	5441.595381
793.145836	5434.096665
793.468062	5407.499537
793.790241	5367.684504
794.112375	5406.128343
794.434464	5487.853009
794.756507	5510.243294
795.078505	5614.411176
795.400457	5804.192975
795.722364	6010.487072
796.044226	6178.692732
796.366042	6328.175547
796.687812	6277.728720
797.009538	6307.534542
797.331218	6224.388271
797.652852	6169.031361
797.974442	6057.445420
798.295986	5990.531665
798.617484	5875.016145
798.938938	5775.735661
799.260346	5716.751641
799.581709	5593.281180
799.903026	5544.200506
800.224299	5477.248942
800.545526	5372.400504
800.866708	5316.589889
801.187845	5270.571717
801.508936	5199.025141
801.829983	5166.819729
802.150984	5074.639711
802.471940	5047.069640
802.792851	5031.842835
803.113717	5011.486656
803.434538	4986.719467
803.755314	4954.531700
804.076045	4942.639618
804.396731	4903.802568
804.717372	4916.546605
805.037967	4918.989044
805.358518	4938.553763
805.679024	4988.468747
805.999485	4995.314634
806.319901	5009.026573
806.640272	5017.515876
806.960598	5055.687493
807.280879	5051.420156
807.601115	5082.105659
807.921306	5049.524682
808.241453	5046.855391
808.561554	5053.066093
808.881611	5027.877968
809.201623	5025.372514
809.521590	4978.779650
809.841513	4970.653310
810.161390	4984.801308
810.481223	4903.270727
810.801011	4890.660280
811.120755	4867.193709
811.440453	4820.043797
811.760107	4795.760559
812.079716	4774.610398
812.399281	4726.124581
812.718801	4722.482347
813.038276	4691.577553
813.357707	4658.437008
813.677093	4680.781922
813.996434	4629.795692
814.315731	4643.056448
814.634983	4637.818689
814.954191	4638.721055
815.273354	4691.073438
815.592473	4726.205239
815.911547	4794.091937
816.230577	4837.045089
816.549562	4914.746913
816.868502	4959.348522
817.187399	5006.773177
817.506250	5077.225823
817.825058	5102.368577
818.143821	5231.903546
818.462539	5378.389394
818.781213	5574.734775
819.099843	5889.350666
819.418429	6434.929541
819.736970	6962.463606
820.055466	7568.037253
820.373919	8379.189153
820.692327	9659.944700
821.010691	12058.704661
821.329011	17644.114079
821.647286	26325.190210
821.965517	35738.632569
822.283704	40690.258043
822.601847	41926.590942
822.919945	37616.769887
823.237999	32970.522389
823.556010	28295.056363
823.873976	24111.463280
824.191897	20363.849346
824.509775	17589.097446
824.827609	15149.274767
825.145398	13756.182148
825.463144	13065.723032
825.780845	13308.570537
826.098502	14393.129416
826.416116	16448.039835
826.733685	18363.733749
827.051210	18723.941836
827.368692	17421.544616
827.686129	15257.899029
828.003522	13169.709433
828.320872	11267.039340
828.638177	9851.551396
828.955439	8774.849154
829.272656	7855.488886
829.589830	7120.607123
829.906960	6495.788871
830.224046	6034.397265
830.541088	5676.130023
830.858086	5447.117965
831.175041	5267.468886
831.491952	5208.968817
831.808819	5238.318414
832.125642	5441.103869
832.442421	5911.521661
832.759157	6858.310847
833.075849	8358.926236
833.392497	9901.773891
833.709101	10827.818729
834.025662	10600.233318
834.342179	9714.104336
834.658653	8619.032130
834.975083	7690.365892
835.291469	6921.688233
835.607811	6298.939375
835.924110	5852.646025
836.240366	5435.427530
836.556578	5049.486873
836.872746	4745.343980
837.188871	4511.575593
837.504952	4321.110719
837.820990	4179.605530
838.136984	4078.507711
838.452935	4041.041855
838.768842	4066.572779
839.084706	4306.992968
839.400526	4937.303556
839.716303	5691.465213
840.032037	6155.644577
840.347727	6025.270256
840.663373	5523.317526
840.978977	5040.770718
841.294537	4671.871683
841.610054	4390.839959
841.925527	4183.792209
842.240957	4013.494470
842.556344	3851.000437
842.871687	3717.445149
843.186987	3587.761466
843.502244	3486.898060
843.817458	3411.542892
844.132629	3351.379242
844.447756	3310.082109
844.762840	3271.134155
845.077881	3233.781725
845.392879	3204.447251
845.707833	3184.930424
846.022745	3160.969820
846.337613	3151.552944
846.652438	3133.014101
846.967221	3123.584623
847.281960	3103.717435
847.596656	3093.912391
847.911309	3088.273861
848.225919	3075.134093
848.540485	3065.447516
848.855009	3058.657082
849.169490	3049.240206
849.483928	3042.984134
849.798323	3039.125131
850.112675	3031.268493
850.426984	3032.717825
850.741251	3025.261958
851.055474	3020.752646
851.369654	3019.462111
851.683792	3014.970443
851.997887	3019.174765
852.311938	3017.586801
852.625947	3017.513705
852.939914	3009.727643
853.253837	3016.013961
853.567718	3011.844927
853.881555	3008.243023
854.195350	3014.115967
854.509103	3011.512211
854.822812	3008.069103
855.136479	3005.626664
855.450103	3007.257477
855.763685	3000.111642
856.077224	3006.092971
856.390720	3009.780575
856.704173	3018.378262
857.017584	3023.643748
857.330953	3022.638038
857.644278	3031.523071
857.957561	3033.262269
858.270802	3028.657175
858.584000	3030.325797
858.897155	3024.505785
859.210268	3016.596215
859.523339	3007.237313
859.836367	3003.237157
860.149352	3002.531395
860.462295	2998.465705
860.775195	2988.751401
861.088054	2982.177737
861.400869	2986.419868
861.713642	2984.451297
862.026373	2990.019252
862.339062	2993.306084
862.651708	2998.385046
862.964312	3011.265194
863.276873	3017.652336
863.589392	3042.842982
863.901869	3064.535067
864.214303	3082.738674
864.526696	3095.865838
864.839045	3110.996862
865.151353	3118.442646
865.463619	3120.138994
865.775842	3122.616721
866.088023	3125.800210
866.400162	3119.345012
866.712258	3122.163017
867.024313	3117.444497
867.336325	3119.455918
867.648296	3120.028089
867.960224	3117.532717
868.272110	3117.310907
868.583954	3120.181844
868.895755	3125.457411
869.207515	3121.245527
869.519233	3137.639360
869.830909	3139.754124
870.142542	3147.819970
870.454134	3153.050167
870.765684	3165.128772
871.077191	3181.910773
871.388657	3192.023327
871.700081	3206.347766
872.011463	3219.943758
872.322803	3237.076119
872.634101	3250.767893
872.945357	3267.154164
873.256571	3290.691311
873.567744	3300.559370
873.878874	3306.414670
874.189963	3320.860096
874.501010	3320.918069
874.812015	3320.474448
875.122979	3331.479287
875.433900	3326.468380
875.744780	3331.234791
876.055618	3335.658403
876.366415	3333.558763
876.677169	3338.786439
876.987882	3354.285467
877.298554	3367.561345
877.609183	3399.625604
877.919771	3437.151954
878.230317	3492.697907
878.540822	3576.398705
878.851285	3701.772201
879.161707	3879.712329
879.472087	4187.154658
879.782425	4708.437692
880.092722	5714.276434
880.402977	7400.066007
880.713191	9521.635603
881.023363	11606.145156
881.333494	12796.931230
881.643583	13172.711440
881.953631	12751.707039
882.263637	11973.168883
882.573602	11079.601678
882.883526	10242.399615
883.193408	9416.525024
883.503248	8628.237277
883.813048	7910.008965
884.122806	7256.130982
884.432522	6607.392455
884.742197	6039.932452
885.051831	5553.274583
885.361424	5129.232886
885.670975	4794.898522
885.980485	4519.051625
886.289954	4292.996204
886.599382	4112.636322
886.908768	3960.302735
887.218113	3828.360616
887.527417	3715.753842
887.836680	3615.843213
888.145901	3536.331614
888.455082	3469.372488
888.764221	3414.408788
889.073319	3363.556149
889.382376	3336.233095
889.691392	3316.844817
890.000366	3308.042963
890.309300	3303.647076
890.618193	3306.613795
890.927044	3304.292344
891.235855	3306.268476
891.544625	3322.019562
891.853353	3344.770289
892.162041	3392.885582
892.470687	3467.305615
892.779293	3562.991757
893.087858	3705.011143
893.396381	3931.784928
893.704864	4273.348307
894.013306	4733.469542
894.321707	5191.276887
894.630068	5465.747549
894.938387	5487.825283
895.246665	5335.925235
895.554903	5079.012912
895.863100	4813.157581
896.171256	4596.309828
896.479371	4405.461826
896.787446	4225.434660
897.095480	4066.003128
897.403473	3944.796146
897.711425	3829.890606
898.019336	3728.608784
898.327207	3634.414824
898.635038	3547.265877
898.942827	3462.007363
899.250576	3398.337590
899.558284	3328.321004
899.865952	3287.681742
900.173579	3238.046541
900.481165	3201.634287
900.788711	3167.586334
901.096216	3139.812097
901.403681	3116.128756
901.711105	3111.064917
902.018489	3108.665328
902.325832	3134.526447
902.633135	3180.373221
902.940397	3315.161072
903.247619	3649.278666
903.554800	4272.019963
903.861941	5074.866563
904.169041	5650.906610
904.476101	5818.686292
904.783121	5584.927988
905.090100	5251.019601
905.397039	4911.845729
905.703938	4618.710195
906.010796	4357.633878
906.317614	4149.784585
906.624391	3956.587405
906.931129	3796.440029
907.237826	3645.109632
907.544483	3507.407994
907.851099	3366.268289
908.157675	3236.781212
908.464211	3121.875672
908.770707	3035.588762
909.077163	2973.960656
909.383578	2924.587595
909.689954	2889.927142
909.996289	2865.038965
910.302584	2846.492560
910.608839	2835.775067
910.915054	2827.031186
911.221229	2822.279898
911.527363	2829.587051
911.833458	2829.244252
912.139513	2842.769668
912.445527	2852.254599
912.751502	2875.693444
913.057436	2913.504618
913.363331	2961.080508
913.669186	3033.088349
913.975000	3126.337093
914.280775	3278.320319
914.586510	3497.602950
914.892205	3805.481339
915.197859	4215.080130
915.503475	4684.955998
915.809050	5079.582562
916.114585	5307.893899
916.420081	5356.757803
916.725536	5290.708606
917.030952	5092.787864
917.336328	4928.136218
917.641665	4757.067183
917.946961	4575.804935
918.252218	4417.197632
918.557435	4236.600816
918.862612	4074.772216
919.167750	3938.172070
919.472848	3781.929068
919.777906	3649.384531
920.082925	3521.314017
920.387904	3397.692322
920.692843	3308.121100
920.997743	3228.581775
921.302603	3155.563182
921.607423	3102.573093
921.912204	3050.102244
922.216946	3008.132117
922.521647	2969.849595
922.826310	2939.181736
923.130932	2907.301479
923.435516	2876.973897
923.740059	2853.489682
924.044564	2826.794252
924.349028	2809.435038
924.653454	2788.047943
924.957840	2767.051537
925.262186	2750.012437
925.566493	2737.621281
925.870761	2711.319061
926.174989	2703.767413
926.479178	2693.417924
926.783328	2683.653209
927.087438	2672.114008
927.391509	2663.203768
927.695541	2651.064670
927.999533	2643.089564
928.303486	2636.180663
928.607400	2632.553553
928.911275	2626.534415
929.215110	2622.735906
929.518906	2620.598457
929.822663	2621.180710
930.126381	2618.655092
930.430060	2620.787500
930.733699	2621.152983
931.037299	2623.363529
931.340861	2623.449229
931.644383	2625.987450
931.947866	2624.109620
932.251309	2623.794548
932.554714	2621.639455
932.858080	2621.236162
933.161407	2618.256841
933.464694	2613.510594
933.767943	2613.671911
934.071153	2610.498505
934.374323	2606.379882
934.677455	2603.440889
934.980548	2598.334201
935.283602	2600.317895
935.586617	2598.810590
935.889593	2603.251846
936.192530	2599.539036
936.495428	2609.734770
936.798287	2608.754266
937.101108	2620.500154
937.403890	2637.534213
937.706632	2659.516164
938.009336	2681.263702
938.312002	2706.141796
938.614628	2723.947152
938.917216	2736.784450
939.219765	2744.956160
939.522275	2755.610639
939.824747	2751.383631
940.127179	2750.193919
940.429573	2741.573546
940.731929	2743.486664
941.034246	2737.308730
941.336524	2737.333936
941.638763	2731.690364
941.940964	2726.268603
942.243126	2712.002137
942.545250	2707.807897
942.847335	2699.832792
943.149381	2686.814012
943.451389	2676.910666
943.753359	2664.960610
944.055290	2660.022800
944.357182	2651.130205
944.659036	2648.690286
944.960851	2646.804895
945.262628	2641.564615
945.564367	2643.719709
945.866067	2641.365490
946.167729	2638.963380
946.469352	2636.578914
946.770937	2637.940026
947.072484	2630.244704
947.373992	2634.030611
947.675462	2629.193624
947.976893	2625.569034
948.278286	2623.492079
948.579641	2619.882613
948.880958	2614.901953
949.182236	2616.754577
949.483476	2614.186109
949.784678	2611.552106
950.085841	2614.191150
950.386967	2615.317848
950.688054	2619.769187
950.989103	2625.715228
951.290114	2631.938532
951.591087	2641.988072
951.892021	2652.713127
952.192917	2662.934067
952.493776	2667.647545
952.794596	2670.894048
953.095378	2674.440500
953.396122	2672.222392
953.696828	2670.921775
953.997496	2666.999757
954.298126	2661.325938
954.598718	2656.332676
954.899272	2644.617034
955.199788	2639.180150
955.500266	2628.543315
955.800706	2615.388424
956.101108	2599.894438
956.401472	2595.052409
956.701798	2582.136973
957.002087	2569.700447
957.302337	2564.954200
957.602550	2555.607901
957.902724	2547.068187
958.202861	2542.054759
958.502960	2535.561753
958.803022	2529.109076
959.103045	2521.948117
959.403031	2517.403517
959.702979	2515.739936
960.002889	2510.643329
960.302762	2506.020591
960.602596	2503.028667
960.902393	2501.171001
961.202153	2501.465909
961.501875	2493.909219
961.801559	2495.446771
962.101205	2491.002994
962.400814	2494.337717
962.700385	2486.135760
962.999918	2488.542911
963.299414	2486.508805
963.598873	2487.998466
963.898293	2483.829432
964.197677	2482.780872
964.497022	2484.338589
964.796331	2480.078814
965.095601	2481.258444
965.394835	2481.802888
965.694030	2479.519246
965.993189	2480.555203
966.292309	2477.565798
966.591393	2476.665952
966.890439	2478.226190
967.189447	2478.485809
967.488419	2476.189563
967.787353	2475.698051
968.086249	2477.928762
968.385108	2479.877168
968.683930	2480.345995
968.982714	2481.301293
969.281462	2480.590491
969.580172	2481.729792
969.878844	2486.034937
970.177480	2483.960502
970.476078	2485.682056
970.774639	2490.791266
971.073162	2493.566421
971.371649	2493.929384
971.670098	2489.881337
971.968510	2492.185145
972.266885	2492.981647
972.565223	2495.776967
972.863524	2496.502893
973.161788	2497.896772
973.460014	2499.877945
973.758204	2499.467091
974.056356	2500.792915
974.354471	2499.961124
974.652550	2500.722339
974.950591	2501.302071
975.248595	2502.695950
975.546563	2498.526916
975.844493	2498.378202
976.142386	2496.835609
976.440243	2492.427120
976.738062	2492.918633
977.035845	2494.357882
977.333590	2491.532315
977.631299	2487.650627
977.928971	2486.564258
978.226606	2486.339927
978.524204	2486.055102
978.821765	2484.235245
979.119290	2486.017293
979.416777	2480.824904
979.714228	2483.705924
980.011642	2483.037971
980.309020	2490.889568
980.606360	2490.266986
980.903664	2498.025321
981.200931	2507.394306
981.498162	2525.154291
981.795356	2546.838814
982.092513	2578.386355
982.389633	2616.464710
982.686717	2646.638537
982.983764	2676.499812
983.280775	2691.361133
983.577749	2690.541946
983.874686	2682.541634
984.171587	2672.033349
984.468451	2656.728406
984.765279	2641.801550
985.062070	2625.420320
985.358824	2612.698968
985.655543	2592.635176
985.952224	2575.028946
986.248869	2551.902653
986.545478	2527.856349
986.842050	2515.049298
987.138586	2499.416680
987.435086	2488.530308
987.731549	2480.948413
988.027975	2475.506487
988.324366	2473.159830
988.620719	2468.499283
988.917037	2463.324539
989.213318	2462.432255
989.509563	2459.142902
989.805772	2462.336473
990.101944	2459.553756
990.398080	2459.127778
990.694180	2457.461677
990.990244	2461.976030
991.286271	2458.099383
991.582262	2461.058540
991.878217	2459.619291
992.174136	2461.792028
992.470019	2460.879579
992.765865	2464.831844
993.061676	2465.038531
993.357450	2464.620115
993.653188	2467.959880
993.948890	2473.336270
994.244556	2477.028916
994.540186	2484.184833
994.835780	2492.759836
995.131337	2507.245592
995.426859	2516.944772
995.722345	2533.023532
996.017795	2545.480223
996.313208	2559.565207
996.608586	2565.846485
996.903928	2567.454613
997.199234	2562.358006
997.494504	2564.724828
997.789738	2559.040927
998.084936	2551.098589
998.380099	2536.842206
998.675225	2529.320804
998.970316	2520.438291
999.265371	2512.057373
999.560390	2502.408605
999.855373	2491.343272
1000.150320	2483.925214
1000.445232	2478.533700
1000.740108	2473.258132
1001.034948	2469.305868
1001.329752	2461.792028
1001.624521	2461.444188
1001.919254	2453.154011
1002.213951	2455.445215
1002.508613	2452.160904
1002.803239	2452.176027
1003.097829	2446.774431
1003.392384	2448.906839
1003.686903	2445.831735
1003.981386	2449.579833
1004.275834	2445.680500
1004.570246	2449.529421
1004.864623	2443.522887
1005.158964	2443.510284
1005.453270	2445.010027
1005.747540	2441.085489
1006.041775	2443.626230
1006.335974	2442.532300
1006.630138	2445.052877
1006.924266	2443.961467
1007.218359	2443.706889
1007.512416	2444.374842
1007.806438	2439.585745
1008.100425	2440.722526
1008.394376	2440.629264
1008.688292	2440.896445
1008.982172	2441.594645
1009.276017	2439.691610
1009.569827	2439.832762
1009.863602	2440.722526
1010.157341	2439.250509
1010.451045	2442.376024
1010.744714	2439.137083
1011.038347	2440.536003
1011.331945	2438.398554
1011.625508	2438.499377
1011.919036	2439.658842
1012.212528	2440.430139
1012.505986	2438.123811
1012.799408	2437.380241
1013.092795	2439.908379
1013.386147	2437.869232
1013.679464	2437.327308
1013.972745	2437.707916
1014.265992	2437.654983
1014.559204	2434.342945
1014.852380	2439.000972
1015.145521	2435.658687
1015.438628	2439.046342
1015.731699	2437.518872
1016.024736	2437.029880
1016.317737	2439.510128
1016.610703	2436.331681
1016.903635	2434.758841
1017.196531	2433.433017
1017.489393	2435.865374
1017.782219	2429.180804
1018.075011	2438.837134
1018.367768	2440.059614
1018.660490	2439.918462
1018.953177	2439.918462
1019.245829	2439.918462
