Dividing Wavelength (nm)	Counts (n)	Blue Motor Position (mm): 0.000000	Red Motor Position (mm): 10.800000	
326.493990	1978.254633
326.888308	1978.254633
327.282561	1978.254633
327.676750	1953.328648
328.070874	1955.377877
328.464933	1961.611264
328.858929	1973.082410
329.252859	1985.193782
329.646726	1995.016470
330.040528	2011.312000
330.434265	2033.505680
330.827938	2051.565613
331.221547	2069.796946
331.615091	2092.232601
332.008571	2112.624069
332.401986	2129.373302
332.795338	2155.650317
333.188625	2172.523059
333.581847	2194.938549
333.975006	2210.379603
334.368100	2227.872407
334.761129	2246.275139
335.154095	2258.615884
335.546996	2275.528955
335.939833	2288.603188
336.332606	2305.594397
336.725315	2314.638227
337.117960	2322.978816
337.510540	2328.466112
337.903056	2340.287618
338.295508	2342.399861
338.687896	2350.642148
339.080220	2356.525174
339.472480	2364.344004
339.864676	2367.711494
340.256807	2371.749459
340.648875	2372.493029
341.040879	2375.265663
341.432818	2375.195087
341.824694	2375.371528
342.216506	2373.571836
342.608253	2374.506970
342.999937	2373.705426
343.391557	2373.065200
343.783113	2372.248533
344.174605	2369.687627
344.566033	2366.773840
344.957397	2366.337780
345.348697	2365.682430
345.739934	2364.366689
346.131106	2363.529857
346.522215	2359.628004
346.913260	2355.895030
347.304241	2356.391583
347.695159	2354.496110
348.086012	2354.334793
348.476802	2351.794051
348.867528	2349.979236
349.258191	2350.415296
349.648789	2349.694411
350.039324	2349.462518
350.429796	2348.930676
350.820203	2349.424709
351.210548	2344.779286
351.600828	2346.901611
351.991045	2345.500171
352.381198	2345.981601
352.771288	2345.800119
353.161314	2344.333143
353.551276	2345.207784
353.941175	2346.266426
354.331010	2344.612928
354.720782	2344.262567
355.110490	2347.383042
355.500135	2346.342043
355.889717	2345.356498
356.279235	2346.324399
356.668689	2347.688031
357.058080	2342.896415
357.447408	2346.273988
357.836672	2342.571260
358.225873	2346.916735
358.615010	2347.093175
359.004084	2349.729699
359.393095	2348.620645
359.782043	2353.402179
360.170927	2350.637106
360.559748	2354.286902
360.948505	2353.687004
361.337199	2353.712210
361.725830	2354.664988
362.114398	2359.640607
362.502903	2357.009125
362.891344	2358.143384
363.279722	2356.494927
363.668037	2360.694208
364.056289	2358.463498
364.444478	2362.859384
364.832603	2357.727489
365.220665	2361.538602
365.608665	2363.958355
365.996601	2362.904754
366.384474	2362.829137
366.772284	2364.379292
367.160031	2364.848119
367.547715	2364.205372
367.935336	2363.338293
368.322893	2367.177132
368.710388	2364.543129
369.097820	2369.029756
369.485189	2367.600589
369.872495	2370.073275
370.259738	2372.155272
370.646918	2372.825745
371.034035	2373.954963
371.421090	2379.757332
371.808081	2378.204656
372.195010	2384.193547
372.581875	2386.585574
372.968678	2395.442882
373.355418	2400.489077
373.742096	2410.614234
374.128710	2420.449525
374.515262	2434.141299
374.901751	2444.546241
375.288177	2459.808334
375.674540	2481.137456
376.060841	2497.377533
376.447079	2519.727489
376.833254	2549.094730
377.219367	2570.176836
377.605417	2607.562033
377.991404	2633.967597
378.377329	2670.324398
378.763191	2703.404450
379.148991	2751.045874
379.534727	2796.297792
379.920402	2841.970645
380.306013	2892.341855
380.691563	2951.076338
381.077049	3006.123218
381.462474	3059.801424
381.847835	3134.723052
382.233134	3202.450954
382.618371	3260.888009
383.003545	3347.570650
383.388657	3424.415478
383.773706	3511.735825
384.158693	3588.593256
384.543618	3679.840662
384.928480	3756.395624
385.313280	3860.997046
385.698017	3961.878096
386.082692	4081.174481
386.467305	4139.180518
386.851856	4261.347840
387.236344	4411.140685
387.620770	4474.807938
388.005133	4593.736319
388.389435	4730.432247
388.773674	4808.431499
389.157851	4938.037044
389.541965	5063.725613
389.926018	5079.292696
390.310008	5246.028859
390.693936	5358.449110
391.077802	5459.977949
391.461606	5575.576648
391.845348	5669.949568
392.229027	5766.384321
392.612645	5963.110308
392.996200	6047.005191
393.379694	6190.166398
393.763125	6371.852103
394.146494	6428.161792
394.529801	6516.112282
394.913047	6699.413678
395.296230	6651.419372
395.679351	6653.977758
396.062410	6827.569891
396.445408	6684.514547
396.828343	6764.346260
397.211217	6810.230842
397.594028	6663.624006
397.976778	6759.529437
398.359466	6824.638460
398.742092	6737.721406
399.124656	6777.697756
399.507158	6842.325348
399.889598	6789.262163
400.271977	6849.342634
400.654294	6789.456247
401.036549	6835.194636
401.418742	6767.423884
401.800874	6873.640996
402.182944	6827.113666
402.564952	6963.688606
402.946898	6745.210040
403.328783	6669.126425
403.710606	6678.581109
404.092367	6715.815072
404.474067	6806.147507
404.855705	6569.656898
405.237282	6428.522234
405.618797	6535.102309
406.000250	6534.187340
406.381642	6588.004177
406.762972	6429.633809
407.144240	6209.675664
407.525447	6193.879208
407.906593	6031.465834
408.287677	6017.489235
408.668700	5950.739317
409.049661	5808.288912
409.430560	5737.627059
409.811399	5601.558755
410.192176	5532.250451
410.572891	5431.777734
410.953545	5447.488490
411.334138	5165.103216
411.714669	5209.364547
412.095139	4903.913474
412.475547	4909.705760
412.855894	4762.713275
413.236180	4715.701995
413.616405	4538.472670
413.996568	4488.897963
414.376670	4376.457547
414.756711	4246.904934
415.136691	4199.636555
415.516609	4125.723157
415.896466	4044.177453
416.276262	3989.415399
416.655997	3958.760142
417.035670	3867.381667
417.415283	3861.533928
417.794834	3782.975107
418.174324	3668.321625
418.553753	3573.799990
418.933121	3540.334291
419.312428	3449.694344
419.691674	3366.633773
420.070859	3331.897702
420.449983	3241.837489
420.829045	3216.964436
421.208047	3140.855616
421.586988	3108.027622
421.965867	3067.816858
422.344686	3017.372552
422.723444	2989.540342
423.102141	2891.512585
423.480777	2895.059037
423.859352	2838.731704
424.237866	2837.219358
424.616319	2791.549025
424.994712	2776.949843
425.373044	2739.748648
425.751314	2725.769529
426.129524	2682.337468
426.507673	2681.803105
426.885762	2652.856800
427.263789	2636.029428
427.641756	2619.441512
428.019662	2602.727566
428.397508	2585.189392
428.775292	2578.358628
429.153016	2561.322049
429.530679	2550.009700
429.908282	2542.543751
430.285824	2529.913140
430.663305	2527.967255
431.040726	2512.077538
431.418086	2507.439676
431.795385	2505.498832
432.172624	2500.656804
432.549802	2493.818478
432.926920	2493.299240
433.303977	2486.965030
433.680974	2485.994608
434.057910	2481.540748
434.434786	2481.220635
434.811601	2476.212249
435.188355	2477.049080
435.565050	2473.008595
435.941683	2470.939202
436.318257	2470.840899
436.694770	2463.601802
437.071222	2472.058338
437.447614	2460.151132
437.823946	2457.892696
438.200218	2460.317491
438.576429	2458.583334
438.952580	2458.225412
439.328670	2457.015535
439.704700	2458.444702
440.080670	2452.354988
440.456580	2453.340534
440.832429	2454.084104
441.208218	2450.565378
441.583947	2450.187292
441.959616	2447.555810
442.335224	2451.858434
442.710773	2449.473969
443.086261	2450.099072
443.461689	2448.130501
443.837057	2450.862807
444.212365	2450.913218
444.587612	2448.148145
444.962800	2444.843669
445.337927	2445.196550
445.712995	2442.376024
446.088002	2448.838783
446.462949	2449.910028
446.837837	2448.770728
447.212664	2446.920624
447.587431	2455.006635
447.962139	2463.397636
448.336786	2469.043728
448.711374	2467.034828
449.085901	2454.336162
449.460369	2453.937910
449.834776	2456.803806
450.209124	2459.780608
450.583412	2460.453602
450.957640	2458.588375
451.331808	2457.444033
451.705917	2454.298353
452.079965	2453.169134
452.453954	2453.557303
452.827883	2452.997735
453.201752	2454.094186
453.575562	2453.867334
453.949311	2454.512602
454.323001	2456.879424
454.696632	2454.578137
455.070202	2459.400001
455.443713	2460.055351
455.817164	2458.958900
456.190556	2457.887654
456.563888	2458.169959
456.937160	2457.628035
457.310373	2458.220371
457.683526	2456.133333
458.056619	2459.934363
458.429653	2455.384722
458.802628	2458.477469
459.175542	2455.046964
459.548398	2461.250104
459.921194	2466.913840
460.293930	2469.247895
460.666607	2471.581949
461.039224	2477.933803
461.411782	2476.025726
461.784280	2476.943216
462.156719	2471.665128
462.529099	2470.813173
462.901419	2466.954170
463.273680	2465.162039
463.645882	2469.000878
464.018024	2465.341000
464.390106	2467.755713
464.762130	2472.932978
465.134094	2482.808598
465.505999	2496.742348
465.877845	2507.429594
466.249631	2508.757938
466.621358	2503.615961
466.993026	2502.277535
467.364634	2497.223778
467.736184	2487.212046
468.107674	2484.968733
468.479105	2483.282467
468.850477	2482.801037
469.221790	2478.170737
469.593043	2475.491364
469.964238	2473.026239
470.335373	2474.170581
470.706449	2475.201497
471.077467	2484.222642
471.448425	2492.618684
471.819324	2499.527585
472.190164	2493.989878
472.560945	2486.909577
472.931667	2477.313741
473.302330	2473.734522
473.672934	2473.033801
474.043479	2472.963225
474.413965	2475.854327
474.784393	2467.581793
475.154761	2477.293576
475.525070	2468.103553
475.895321	2470.281331
476.265513	2470.712350
476.635645	2476.993627
477.005719	2475.312403
477.375734	2479.236941
477.745691	2477.805253
478.115588	2481.538228
478.485427	2486.133239
478.855207	2494.677995
479.224928	2499.953563
479.594591	2503.202586
479.964194	2499.850219
480.333739	2501.836434
480.703226	2498.600013
481.072653	2501.498676
481.442022	2505.604696
481.811333	2506.978411
482.180584	2498.269817
482.549777	2497.924498
482.918912	2498.574807
483.287988	2496.228150
483.657005	2496.326453
484.025964	2494.894765
484.394864	2494.047851
484.763706	2494.980464
485.132489	2491.862511
485.501213	2492.275885
485.869879	2492.220433
486.238487	2491.802017
486.607036	2487.537201
486.975527	2488.600884
487.343959	2490.198930
487.712333	2490.304794
488.080648	2491.701194
488.448905	2490.624908
488.817104	2490.571975
489.185244	2491.802017
489.553326	2493.826040
489.921350	2503.149654
490.289315	2508.677279
490.657222	2510.129132
491.025070	2511.936385
491.392861	2509.783813
491.760593	2504.349449
492.128267	2501.183604
492.495883	2498.337873
492.863440	2494.524240
493.230939	2491.996101
493.598380	2489.909064
493.965763	2484.963692
494.333088	2484.618373
494.700354	2482.964874
495.067563	2483.448825
495.434713	2479.153762
495.801805	2485.883702
496.168839	2485.586274
496.535815	2486.637355
496.902733	2483.862200
497.269593	2486.266830
497.636395	2484.809937
498.003139	2488.021152
498.369825	2485.079638
498.736453	2487.169197
499.103023	2485.364463
499.469535	2486.339927
499.835989	2488.951244
500.202385	2488.671460
500.568723	2490.655154
500.935003	2490.647593
501.301226	2490.302274
501.667390	2491.721358
502.033497	2494.446102
502.399546	2492.248159
502.765537	2492.747233
503.131470	2496.623881
503.497345	2499.056237
503.863163	2498.073212
504.228923	2497.191010
504.594625	2502.199397
504.960269	2498.960455
505.325856	2506.315499
505.691385	2504.709891
506.056856	2510.499657
506.422270	2510.971004
506.787625	2511.165089
507.152924	2513.025275
507.518164	2517.668177
507.883347	2517.287570
508.248472	2517.547190
508.613540	2523.974661
508.978550	2524.652696
509.343503	2529.063706
509.708398	2531.473377
510.073236	2537.220293
510.438016	2535.760878
510.802738	2540.895294
511.167403	2539.138452
511.532010	2544.575336
511.896561	2547.111036
512.261053	2554.057746
512.625488	2547.937786
512.989866	2549.039278
513.354186	2552.028682
513.718449	2550.556665
514.082655	2562.352965
514.446803	2558.534291
514.810894	2560.591082
515.174927	2568.034345
515.538904	2563.630897
515.902822	2568.787998
516.266684	2565.241546
516.630488	2568.765313
516.994235	2570.902762
517.357925	2572.563822
517.721558	2575.437280
518.085133	2575.112125
518.448651	2574.509707
518.812112	2573.766137
519.175516	2573.834193
519.538863	2575.845613
519.902152	2577.693196
520.265385	2574.862588
520.628560	2575.772517
520.991678	2571.626168
521.354739	2573.335119
521.717743	2573.330077
522.080690	2574.310582
522.443580	2573.188925
522.806413	2570.103739
523.169189	2569.450910
523.531908	2570.197000
523.894569	2564.344221
524.257174	2565.796073
524.619722	2565.077709
524.982213	2561.871535
525.344647	2560.954045
525.707025	2555.444064
526.069345	2556.918601
526.431608	2551.983312
526.793815	2549.697148
527.155964	2551.421223
527.518057	2548.963660
527.880093	2542.395037
528.242072	2544.552651
528.603995	2538.767927
528.965860	2534.906403
529.327669	2531.889272
529.689421	2530.208047
530.051117	2528.620084
530.412755	2522.684125
530.774337	2524.166225
531.135862	2517.229597
531.497331	2515.200532
531.858743	2509.529234
532.220098	2507.147289
532.581396	2506.186949
532.942638	2504.876249
533.303824	2505.531599
533.664953	2499.701505
534.026025	2496.462564
534.387040	2497.349807
534.747999	2494.246977
535.108902	2489.329331
535.469748	2488.000987
535.830537	2490.171204
536.191270	2484.429329
536.551947	2486.571820
536.912567	2482.352374
537.273131	2478.508494
537.633638	2477.187712
537.994089	2476.386168
538.354483	2473.996662
538.714821	2473.953812
539.075103	2471.518934
539.435328	2473.676548
539.795497	2471.614716
540.155609	2466.399643
540.515665	2467.871660
540.875665	2463.379992
541.235609	2466.170270
541.595496	2465.444344
541.955328	2464.312605
542.315102	2460.592233
542.674821	2460.612398
543.034483	2459.957048
543.394090	2460.438478
543.753640	2459.384877
544.113134	2458.762295
544.472571	2458.230453
544.831953	2461.222378
545.191278	2456.158539
545.550548	2456.612242
545.909761	2456.783642
546.268918	2452.596963
546.628019	2456.531584
546.987064	2455.049485
547.346053	2456.541666
547.704986	2452.052519
548.063863	2450.794751
548.422684	2451.626541
548.781449	2452.473455
549.140158	2452.594443
549.498811	2452.473455
549.857408	2451.230811
550.215949	2448.012034
550.574434	2446.388783
550.932864	2448.432970
551.291237	2448.087651
551.649555	2450.043619
552.007817	2451.261058
552.366022	2450.772066
552.724173	2452.891871
553.082267	2454.373970
553.440305	2450.454473
553.798288	2452.528908
554.156215	2451.571089
554.514086	2451.422375
554.871902	2451.775255
555.229661	2450.139401
555.587365	2448.208639
555.945014	2450.459514
556.302606	2448.175872
556.660143	2447.790223
557.017625	2450.439350
557.375050	2447.137394
557.732421	2451.939093
558.089735	2449.083279
558.446994	2448.533793
558.804197	2449.194185
559.161345	2446.179575
559.518437	2448.029678
559.875474	2448.100254
560.232455	2448.737960
560.589381	2445.932558
560.946251	2449.131170
561.303065	2449.012703
561.659825	2448.332147
562.016528	2448.155707
562.373177	2449.708382
562.729770	2449.206788
563.086307	2450.126798
563.442789	2444.881478
563.799216	2450.010852
564.155587	2448.274174
564.511904	2447.656633
564.868164	2447.071859
565.224370	2449.365584
565.580520	2448.710234
565.936615	2448.034719
566.292654	2446.229986
566.648638	2447.059256
567.004567	2448.432970
567.360441	2446.986159
567.716260	2446.300562
568.072023	2447.512960
568.427732	2442.373503
568.783385	2442.607917
569.138982	2443.787547
569.494525	2445.050356
569.850013	2442.103802
570.205445	2445.383072
570.560823	2444.745366
570.916145	2446.366097
571.271412	2446.792075
571.626625	2447.462548
571.981782	2444.836107
572.336884	2445.007506
572.691931	2446.058587
573.046923	2444.130346
573.401860	2444.697475
573.756743	2443.538010
574.111570	2443.215376
574.466342	2443.671601
574.821059	2441.577001
575.175722	2444.158072
575.530330	2445.667897
575.884882	2443.807712
576.239380	2445.035233
576.593823	2444.936930
576.948211	2443.467434
577.302544	2442.373503
577.656823	2441.067845
578.011047	2440.646908
578.365216	2442.426436
578.719330	2443.061621
579.073389	2444.851231
579.427394	2445.635130
579.781344	2442.255036
580.135239	2440.765375
580.489080	2440.173040
580.842866	2439.948708
581.196597	2443.399378
581.550273	2441.143462
581.903895	2440.349480
582.257463	2440.243616
582.610975	2441.506425
582.964434	2442.428956
583.317837	2441.294697
583.671186	2443.540531
584.024481	2436.792946
584.377721	2441.299738
584.730906	2435.943512
585.084037	2439.595828
585.437113	2442.204625
585.790135	2440.263781
586.143103	2440.727567
586.496016	2438.549788
586.848874	2435.537699
587.201679	2437.405446
587.554428	2434.786567
587.907124	2437.314706
588.259765	2434.703388
588.612352	2440.314192
588.964884	2439.300920
589.317362	2440.601538
589.669786	2440.021805
590.022155	2437.070210
590.374470	2439.787392
590.726731	2435.590631
591.078937	2437.410487
591.431090	2437.561722
591.783188	2438.068358
592.135232	2440.679676
592.487222	2435.885538
592.839157	2435.552822
593.191038	2437.017277
593.542866	2434.736155
593.894639	2440.077258
594.246358	2436.243460
594.598022	2435.303285
594.949633	2437.448296
595.301190	2433.730445
595.652692	2437.975097
596.004141	2437.352514
596.355535	2434.219437
596.706876	2433.778336
597.058162	2434.862184
597.409395	2432.124838
597.760573	2432.944025
598.111698	2432.807914
598.462768	2433.743048
598.813785	2434.698347
599.164748	2433.468305
599.515657	2435.636001
599.866511	2435.267997
600.217312	2433.911927
600.568060	2434.630291
600.918753	2435.681372
601.269392	2435.830086
601.619978	2431.340938
601.970510	2434.511824
602.320988	2435.509972
602.671412	2435.630960
603.021783	2436.553491
603.372100	2434.347987
603.722363	2430.042841
604.072572	2436.278748
604.422728	2438.171702
604.772830	2429.402615
605.122878	2429.047213
605.472872	2432.424786
605.822813	2426.894641
606.172701	2436.324119
606.522534	2432.548295
606.872314	2435.759510
607.222041	2433.125507
607.571714	2433.329673
607.921333	2433.188521
608.270899	2434.526948
608.620411	2432.155085
608.969870	2432.404622
609.319276	2431.517379
609.668627	2433.858995
610.017926	2435.288162
610.367171	2432.361772
610.716362	2431.046031
611.065500	2434.214396
611.414585	2434.189190
611.763616	2436.780343
612.112594	2432.485280
612.461518	2435.114242
612.810389	2433.790939
613.159207	2432.729776
613.507971	2431.376226
613.856682	2434.436207
614.205340	2434.607606
614.553945	2437.566763
614.902496	2435.293203
615.250994	2431.343459
615.599439	2433.143151
615.947830	2432.507965
616.296169	2433.778336
616.644454	2434.153902
616.992686	2434.232040
617.340864	2436.172884
617.688990	2432.064344
618.037063	2432.762544
618.385082	2432.714653
618.733048	2433.934612
619.080961	2432.954108
619.428821	2435.378903
619.776628	2432.195414
620.124382	2432.555856
620.472083	2433.743048
620.819731	2436.200611
621.167326	2433.014601
621.514868	2435.361258
621.862357	2431.416556
622.209793	2433.672472
622.557176	2432.175249
622.904506	2427.691143
623.251783	2426.062850
623.599007	2430.851946
623.946179	2429.599220
624.293297	2429.213571
624.640363	2428.409507
624.987376	2428.540577
625.334336	2428.996802
625.681243	2432.147523
626.028097	2429.689960
626.374899	2430.602409
626.721647	2429.558890
627.068343	2434.234561
627.414987	2429.170722
627.761577	2431.444282
628.108115	2430.393201
628.454600	2429.521082
628.801032	2426.987902
629.147412	2428.258273
629.493739	2428.293561
629.840014	2428.739703
630.186236	2429.039652
630.532405	2427.088725
630.878521	2431.729107
631.224585	2427.948242
631.570597	2427.050916
631.916556	2429.856318
632.262462	2427.363468
632.608316	2429.422779
632.954117	2427.169383
633.299866	2429.566452
633.645562	2428.137285
633.991206	2428.880855
634.336797	2427.862542
634.682336	2428.447316
635.027823	2425.611667
635.373257	2427.139137
635.718639	2425.893972
636.063968	2426.405649
636.409245	2425.621749
636.754470	2429.011925
637.099642	2424.999167
637.444762	2425.956986
637.789829	2424.331214
638.134845	2426.075453
638.479808	2423.116296
638.824719	2422.886923
639.169577	2424.893303
639.514383	2426.662748
639.859137	2423.348189
640.203839	2423.396080
640.548489	2425.213416
640.893086	2422.460946
641.237632	2419.184196
641.582125	2422.473549
641.926566	2421.417427
642.270955	2424.278282
642.615292	2423.023034
642.959576	2423.723755
643.303809	2423.804413
643.647990	2422.791141
643.992118	2423.963210
644.336195	2422.433219
644.680219	2424.043868
645.024192	2421.006573
645.368112	2424.101841
645.711981	2422.478590
646.055797	2422.045051
646.399562	2424.868097
646.743274	2421.949269
647.086935	2425.977151
647.430544	2423.995977
647.774101	2429.095104
648.117606	2424.898344
648.461059	2424.986564
648.804460	2428.129723
649.147810	2427.560073
649.491108	2423.257448
649.834354	2420.663774
650.177548	2426.539239
650.520690	2422.750812
650.863781	2422.511357
651.206820	2424.638724
651.549807	2421.898857
651.892742	2422.047571
652.235626	2422.796183
652.578458	2421.757705
652.921238	2418.866603
653.263967	2424.031265
653.606644	2420.525143
653.949269	2419.068249
654.291843	2423.489341
654.634365	2421.125040
654.976836	2420.126892
655.319255	2421.172931
655.661622	2421.684608
656.003938	2421.414906
656.346203	2419.993301
656.688416	2419.491706
657.030577	2419.264854
657.372687	2418.266706
657.714746	2418.521284
658.056753	2417.926428
658.398708	2416.051119
658.740612	2414.994997
659.082465	2415.136149
659.424266	2417.545821
659.766016	2415.909966
660.107715	2420.404155
660.449362	2418.145718
660.790958	2418.433064
661.132503	2420.008424
661.473996	2421.881213
661.815438	2420.991449
662.156829	2418.801068
662.498168	2420.268044
662.839456	2420.305852
663.180693	2419.466500
663.521879	2422.443302
663.863013	2417.913825
664.204097	2417.863413
664.545129	2419.433733
664.886110	2421.954310
665.227040	2421.540935
665.567918	2419.872313
665.908746	2420.391552
666.249522	2421.072108
666.590248	2418.652354
666.930922	2419.448856
667.271545	2423.179310
667.612118	2422.894485
667.952639	2419.698393
668.293109	2420.472211
668.633528	2418.778383
668.973896	2419.209402
669.314213	2419.353074
669.654480	2418.107909
669.994695	2420.101686
670.334859	2418.796027
670.674973	2421.301480
671.015035	2419.489186
671.355047	2418.238979
671.695008	2419.254772
672.034918	2418.216294
672.374777	2418.944741
672.714585	2421.848446
673.054342	2419.491706
673.394049	2420.187385
673.733705	2418.569175
674.073310	2422.813827
674.412864	2423.247366
674.752368	2418.317117
675.091820	2418.117992
675.431223	2417.371901
675.770574	2419.869793
676.109875	2414.175809
676.449125	2417.939031
676.788324	2415.635223
677.127473	2415.554565
677.466571	2412.418967
677.805619	2420.255441
678.144616	2417.402148
678.483562	2419.771490
678.822458	2418.062539
679.161303	2420.116809
679.500098	2417.119843
679.838842	2417.092117
680.177535	2418.354926
680.516179	2418.317117
680.854771	2418.244021
681.193314	2416.237641
681.531805	2420.852818
681.870247	2421.145205
682.208638	2419.295101
682.546978	2420.023548
682.885268	2417.502971
683.223508	2420.852818
683.561697	2418.755698
683.899836	2420.825091
684.237925	2418.549010
684.575963	2419.080852
684.913951	2416.930800
685.251889	2419.106058
685.589776	2417.649164
685.927614	2415.163876
686.265401	2418.906932
686.603137	2418.284350
686.940824	2421.341810
687.278460	2423.597726
687.616046	2418.294432
687.953582	2422.105544
688.291068	2418.249062
688.628504	2422.496234
688.965889	2418.745615
689.303224	2422.458425
689.640510	2419.842066
689.977745	2418.894329
690.314930	2420.305852
690.652065	2419.501788
690.989150	2417.518094
691.326185	2418.140677
691.663170	2414.813515
692.000105	2416.635892
692.336990	2416.242682
692.673825	2414.740419
693.010610	2415.720923
693.347345	2411.332599
693.684030	2413.964081
694.020665	2412.938206
694.357251	2409.366549
694.693786	2415.526839
695.030272	2410.694893
695.366707	2413.273443
695.703093	2412.544996
696.039429	2414.402661
696.375716	2415.783937
696.711952	2415.630182
697.048139	2414.594225
697.384276	2412.734039
697.720363	2413.800243
698.056400	2411.685479
698.392388	2414.102713
698.728326	2414.004410
699.064214	2412.010634
699.400053	2413.522980
699.735842	2412.169430
700.071581	2411.786302
700.407270	2411.967784
700.742910	2411.118350
701.078501	2410.135325
701.414042	2411.526683
701.749533	2411.743453
702.084974	2410.387382
702.420366	2409.787485
702.755709	2408.915365
703.091002	2411.700603
703.426246	2409.497619
703.761440	2407.876888
704.096584	2410.231107
704.431679	2410.730181
704.766725	2412.242527
705.101721	2410.836045
705.436668	2411.597259
705.771565	2410.364697
706.106413	2410.959553
706.441212	2411.055335
706.775961	2408.819583
707.110661	2411.476272
707.445311	2411.912331
707.779913	2408.605334
708.114465	2410.137845
708.448967	2410.712537
708.783421	2410.576426
709.117825	2412.050963
709.452180	2413.311252
709.786485	2409.429563
710.120742	2414.793351
710.454949	2413.706982
710.789107	2410.198339
711.123216	2407.201373
711.457275	2410.097516
711.791286	2411.509039
712.125247	2414.440470
712.459159	2412.086251
712.793023	2412.444173
713.126837	2413.807805
713.460602	2413.817888
713.794318	2413.021385
714.127985	2411.604821
714.461602	2411.922414
714.795171	2415.786458
715.128691	2411.539286
715.462162	2413.717064
715.795584	2410.770510
716.128957	2407.962587
716.462281	2407.113153
716.795556	2411.539286
717.128782	2410.828483
717.461960	2411.178843
717.795088	2408.242371
718.128167	2409.406878
718.461198	2409.580798
718.794180	2410.377300
719.127113	2407.700447
719.459997	2409.449728
719.792833	2408.650705
720.125619	2408.433935
720.458357	2408.832186
720.791046	2408.605334
721.123686	2406.215828
721.456278	2409.248082
721.788821	2405.936043
722.121315	2408.252454
722.453761	2406.646846
722.786158	2404.716084
723.118506	2404.574932
723.450805	2409.185067
723.783056	2404.947977
724.115259	2409.124573
724.447412	2406.513256
724.779518	2407.859244
725.111574	2407.327402
725.443582	2410.009296
725.775542	2406.732546
726.107453	2410.520973
726.439315	2408.630540
726.771129	2414.314441
727.102895	2406.674573
727.434612	2412.033319
727.766281	2409.603483
728.097901	2406.908986
728.429473	2405.331105
728.760996	2408.348236
729.092471	2403.070148
729.423897	2409.621127
729.755276	2410.140366
730.086606	2411.637588
730.417887	2409.991652
730.749120	2410.737742
731.080305	2410.387382
731.411442	2409.401837
731.742530	2412.176992
732.073570	2411.216652
732.404562	2408.580129
732.735506	2408.459141
733.066401	2410.838566
733.397249	2409.946281
733.728048	2410.430232
734.058798	2408.728843
734.389501	2407.760941
734.720156	2408.945612
735.050762	2409.366549
735.381320	2408.711199
735.711831	2408.544841
736.042293	2407.750859
736.372707	2405.691548
736.703073	2407.075344
737.033391	2408.015519
737.363661	2407.042577
737.693883	2407.380334
738.024056	2409.200191
738.354182	2409.757238
738.684260	2411.153638
739.014290	2409.603483
739.344272	2408.015519
739.674207	2406.016702
740.004093	2406.276321
740.333931	2409.273287
740.663722	2410.629358
740.993464	2410.301683
741.323159	2409.492578
741.652806	2409.422001
741.982405	2408.383524
742.311956	2405.847823
742.641460	2408.328071
742.970915	2411.181364
743.300323	2407.314799
743.629683	2407.594583
743.958996	2406.810684
744.288260	2406.407391
744.617477	2405.028636
744.946647	2404.310271
745.275768	2404.706002
745.604842	2401.557801
745.933869	2402.913872
746.262847	2401.777092
746.591778	2405.313461
746.920662	2406.419994
747.249498	2405.280693
747.578286	2407.118194
747.907027	2405.996537
748.235720	2404.471588
748.564365	2401.729201
748.892963	2408.590211
749.221514	2408.161713
749.550017	2409.157341
749.878473	2406.979562
750.206881	2406.752710
750.535242	2404.852195
750.863555	2406.609038
751.191821	2405.996537
751.520039	2406.752710
751.848210	2405.709192
752.176334	2407.589542
752.504411	2406.356980
752.832440	2403.513769
753.160421	2406.263718
753.488356	2403.581825
753.816243	2409.127094
754.144082	2404.713564
754.471875	2406.132648
754.799620	2405.840262
755.127318	2405.290776
755.454969	2405.404202
755.782572	2406.233472
756.110129	2406.694737
756.437638	2408.149110
756.765100	2402.939078
757.092515	2404.300189
757.419882	2403.957391
757.747203	2408.068452
758.074477	2405.111815
758.401703	2407.150962
758.728882	2407.468554
759.056014	2408.323030
759.383099	2406.515776
759.710138	2404.597617
760.037129	2406.724984
760.364073	2409.122053
760.690970	2405.787329
761.017820	2406.523338
761.344623	2406.422515
761.671379	2406.067113
761.998088	2403.516290
762.324751	2408.812022
762.651366	2408.716240
762.977935	2412.993659
763.304456	2413.570871
763.630931	2417.573547
763.957359	2417.976839
764.283740	2416.290573
764.610074	2413.505336
764.936362	2413.681776
765.262602	2409.232958
765.588796	2409.174985
765.914943	2410.336971
766.241044	2408.915365
766.567097	2407.080385
766.893104	2406.982083
767.219064	2404.020405
767.544978	2407.796229
767.870845	2403.581825
768.196665	2403.864129
768.522438	2406.135169
768.848165	2402.949160
769.173846	2405.288255
769.499479	2403.541495
769.825066	2404.713564
770.150607	2403.980076
770.476101	2401.288100
770.801548	2402.966804
771.126949	2400.761299
771.452303	2402.823131
771.777611	2400.839437
772.102872	2402.276166
772.428087	2402.129972
772.753256	2399.800959
773.078378	2402.419839
773.403453	2400.552091
773.728482	2403.624674
774.053465	2400.857081
774.378401	2401.222565
774.703291	2401.489746
775.028135	2400.277348
775.352932	2400.234498
775.677683	2399.117883
776.002388	2399.874056
776.327046	2402.172822
776.651658	2399.637122
776.976224	2400.360527
777.300743	2401.467061
777.625216	2400.975548
777.949643	2402.132493
778.274024	2400.524365
778.598359	2396.793911
778.922647	2396.035217
779.246889	2401.204921
779.571086	2395.417676
779.895236	2399.276679
780.219339	2397.479508
780.543397	2401.721639
780.867409	2401.598131
781.191374	2401.867832
781.515294	2400.143758
781.839167	2401.840106
782.162995	2397.260218
782.486776	2400.622667
782.810511	2401.956053
783.134201	2401.096536
783.457844	2400.589900
783.781441	2398.268448
784.104993	2399.813562
784.428498	2399.478325
784.751958	2399.944632
785.075372	2401.235168
785.398739	2401.484705
785.722061	2400.988151
786.045337	2400.544529
786.368568	2398.964128
786.691752	2399.392626
787.014891	2399.281720
787.337983	2400.955383
787.661030	2401.930847
787.984031	2403.957391
788.306987	2401.855229
788.629897	2401.933367
788.952760	2403.153327
789.275579	2399.992523
789.598351	2402.881104
789.921078	2399.614437
790.243759	2401.232647
790.566395	2402.631567
790.888984	2399.606875
791.211529	2397.061092
791.534027	2400.932698
791.856480	2400.413459
792.178888	2401.741803
792.501249	2398.107132
792.823566	2398.530588
793.145836	2400.179046
793.468062	2401.761968
793.790241	2398.986813
794.112375	2403.221382
794.434464	2397.824827
794.756507	2399.369941
795.078505	2403.251629
795.400457	2398.245763
795.722364	2396.516647
796.044226	2402.429921
796.366042	2398.447409
796.687812	2398.666700
797.009538	2399.488408
797.331218	2401.696433
797.652852	2400.408418
797.974442	2400.736093
798.295986	2399.576628
798.617484	2401.802297
798.938938	2399.090157
799.260346	2400.025291
799.581709	2402.651732
799.903026	2402.808008
800.224299	2400.259704
800.545526	2402.951680
800.866708	2397.413973
801.187845	2398.210475
801.508936	2399.972358
801.829983	2400.733573
802.150984	2400.078223
802.471940	2399.909344
802.792851	2399.422873
803.113717	2398.883469
803.434538	2399.795918
803.755314	2399.667369
804.076045	2400.433624
804.396731	2398.719632
804.717372	2399.385064
805.037967	2401.038562
805.358518	2399.773233
805.679024	2401.270456
805.999485	2397.615619
806.319901	2400.199210
806.640272	2400.216854
806.960598	2401.920764
807.280879	2399.289282
807.601115	2397.413973
807.921306	2398.762482
808.241453	2399.652245
808.561554	2400.592420
808.881611	2400.675599
809.201623	2398.427245
809.521590	2401.189797
809.841513	2398.596123
810.161390	2399.498490
810.481223	2397.721483
810.801011	2399.218706
811.120755	2401.840106
811.440453	2398.492780
811.760107	2399.997564
812.079716	2397.754251
812.399281	2397.088818
812.718801	2397.361041
813.038276	2394.573283
813.357707	2399.561504
813.677093	2397.043448
813.996434	2398.218037
814.315731	2400.514282
814.634983	2396.751061
814.954191	2399.006977
815.273354	2398.207955
815.592473	2399.299364
815.911547	2400.438665
816.230577	2399.266597
816.549562	2399.732904
816.868502	2397.751730
817.187399	2401.683830
817.506250	2403.465878
817.825058	2399.732904
818.143821	2400.408418
818.462539	2402.427400
818.781213	2399.052348
819.099843	2401.129303
819.418429	2404.305230
819.736970	2405.169788
820.055466	2405.169788
820.373919	2404.955539
820.692327	2407.665159
821.010691	2415.851993
821.329011	2426.468663
821.647286	2446.224945
821.965517	2464.158850
822.283704	2476.605459
822.601847	2479.030254
822.919945	2473.512711
823.237999	2461.504682
823.556010	2452.002107
823.873976	2441.950047
824.191897	2437.269335
824.509775	2428.255752
824.827609	2425.818354
825.145398	2419.254772
825.463144	2420.192427
825.780845	2418.559093
826.098502	2420.469690
826.416116	2422.423137
826.733685	2428.633839
827.051210	2431.628284
827.368692	2430.506627
827.686129	2423.741399
828.003522	2419.743764
828.320872	2410.228586
828.638177	2407.705488
828.955439	2407.284552
829.272656	2407.748338
829.589830	2400.564694
829.906960	2400.458830
830.224046	2402.959242
830.541088	2399.269117
830.858086	2400.748696
831.175041	2402.187946
831.491952	2400.413459
831.808819	2400.602503
832.125642	2401.895559
832.442421	2401.149468
832.759157	2405.487381
833.075849	2408.315468
833.392497	2412.532393
833.709101	2416.625810
834.025662	2414.034657
834.342179	2415.547003
834.658653	2410.278998
834.975083	2406.311609
835.291469	2414.458114
835.607811	2403.375137
835.924110	2403.483522
836.240366	2402.871022
836.556578	2401.920764
836.872746	2400.441186
837.188871	2398.152502
837.504952	2398.681823
837.820990	2399.203582
838.136984	2397.890362
838.452935	2398.182749
838.768842	2399.821124
839.084706	2399.916906
839.400526	2400.441186
839.716303	2401.535116
840.032037	2402.717267
840.347727	2402.946639
840.663373	2400.993192
840.978977	2400.867163
841.294537	2399.866494
841.610054	2396.569580
841.925527	2398.676782
842.240957	2398.762482
842.556344	2396.168808
842.871687	2395.823489
843.186987	2396.637635
843.502244	2393.522202
843.817458	2398.270969
844.132629	2396.917419
844.447756	2396.012532
844.762840	2392.448436
845.077881	2391.820813
845.392879	2394.094373
845.707833	2395.810886
846.022745	2391.810730
846.337613	2396.867008
846.652438	2394.517830
846.967221	2395.110166
847.281960	2394.971534
847.596656	2396.294837
847.911309	2395.843653
848.225919	2397.043448
848.540485	2392.418189
848.855009	2393.829712
849.169490	2391.261245
849.483928	2392.634959
849.798323	2391.961965
850.112675	2394.666544
850.426984	2394.865670
850.741251	2397.555125
851.055474	2394.807696
851.369654	2395.223592
851.683792	2392.304763
851.997887	2397.008160
852.311938	2395.563869
852.625947	2395.626884
852.939914	2394.472460
853.253837	2393.872562
853.567718	2393.179404
853.881555	2393.244939
854.195350	2393.958262
854.509103	2395.241236
854.822812	2391.460370
855.136479	2396.362892
855.450103	2395.919271
855.763685	2395.493293
856.077224	2395.102604
856.390720	2393.232336
856.704173	2396.471277
857.017584	2395.654610
857.330953	2395.125289
857.644278	2393.093704
857.957561	2397.976062
858.270802	2395.142933
858.584000	2393.128992
858.897155	2394.212840
859.210268	2394.666544
859.523339	2393.096225
859.836367	2394.280896
860.149352	2392.453478
860.462295	2394.651421
860.775195	2392.821482
861.088054	2390.590771
861.400869	2394.225443
861.713642	2392.667727
862.026373	2394.825340
862.339062	2391.823333
862.651708	2395.939435
862.964312	2396.564538
863.276873	2392.027500
863.589392	2393.534805
863.901869	2396.970351
864.214303	2394.071688
864.526696	2394.648900
864.839045	2396.516648
865.151353	2392.806358
865.463619	2395.460526
865.775842	2396.093191
866.088023	2393.955741
866.400162	2396.168808
866.712258	2394.056564
867.024313	2393.454147
867.336325	2396.400701
867.648296	2395.074877
867.960224	2393.985988
868.272110	2395.881462
868.583954	2394.842984
868.895755	2394.296019
869.207515	2396.188972
869.519233	2395.263921
869.830909	2394.704353
870.142542	2396.103273
870.454134	2394.840464
870.765684	2395.826009
871.077191	2396.335166
871.388657	2396.856925
871.700081	2394.986657
872.011463	2396.151164
872.322803	2395.077398
872.634101	2395.823489
872.945357	2394.215361
873.256571	2397.792059
873.567744	2394.855587
873.878874	2395.755433
874.189963	2395.601678
874.501010	2395.994888
874.812015	2394.318704
875.122979	2395.208468
875.433900	2398.853222
875.744780	2397.973541
876.055618	2395.657131
876.366415	2395.463046
876.677169	2395.959600
876.987882	2394.699312
877.298554	2390.888199
877.609183	2395.513458
877.919771	2392.637480
878.230317	2392.965155
878.540822	2396.088149
878.851285	2396.970351
879.161707	2398.762482
879.472087	2402.825652
879.782425	2400.930178
880.092722	2407.334964
880.402977	2412.197157
880.713191	2422.488672
881.023363	2427.852460
881.333494	2436.808070
881.643583	2438.874943
881.953631	2435.149530
882.263637	2433.959818
882.573602	2430.163829
882.883526	2425.677202
883.193408	2424.444640
883.503248	2418.642272
883.813048	2417.671850
884.122806	2416.192271
884.432522	2413.465007
884.742197	2407.695406
885.051831	2407.725653
885.361424	2406.616599
885.670975	2405.318502
885.980485	2399.826165
886.289954	2402.374468
886.599382	2400.695764
886.908768	2398.104611
887.218113	2396.201575
887.527417	2400.952863
887.836680	2394.638818
888.145901	2397.114024
888.455082	2398.840619
888.764221	2395.699981
889.073319	2396.962790
889.382376	2397.739127
889.691392	2395.657131
890.000366	2390.971378
890.309300	2397.943294
890.618193	2398.742317
890.927044	2394.719476
891.235855	2395.178221
891.544625	2397.053530
891.853353	2397.595454
892.162041	2397.529919
892.470687	2396.753582
892.779293	2397.658469
893.087858	2399.072512
893.396381	2395.450443
893.704864	2397.141751
894.013306	2398.391957
894.321707	2408.164233
894.630068	2408.418812
894.938387	2406.556105
895.246665	2404.816907
895.554903	2405.459654
895.863100	2405.673903
896.171256	2402.329098
896.479371	2402.319016
896.787446	2402.036711
897.095480	2398.870866
897.403473	2398.530588
897.711425	2399.198541
898.019336	2397.731566
898.327207	2399.609395
898.635038	2400.267266
898.942827	2394.177552
899.250576	2394.348951
899.558284	2394.560680
899.865952	2396.357851
900.173579	2395.679816
900.481165	2393.537326
900.788711	2395.279044
901.096216	2396.110835
901.403681	2395.899106
901.711105	2395.488252
902.018489	2395.475649
902.325832	2398.313819
902.633135	2394.099414
902.940397	2396.219219
903.247619	2397.744168
903.554800	2402.681979
903.861941	2404.917730
904.169041	2409.356466
904.476101	2408.290262
904.783121	2407.881929
905.090100	2404.953018
905.397039	2406.299007
905.703938	2404.433780
906.010796	2402.097205
906.317614	2402.044273
906.624391	2401.668707
906.931129	2402.538306
907.237826	2398.858263
907.544483	2399.105280
907.851099	2397.444220
908.157675	2398.351628
908.464211	2392.549259
908.770707	2390.656306
909.077163	2391.336862
909.383578	2389.706049
909.689954	2390.820144
909.996289	2388.322252
910.302584	2390.966337
910.608839	2392.670247
910.915054	2391.213354
911.221229	2392.917264
911.527363	2394.084291
911.833458	2390.850391
912.139513	2396.519168
912.445527	2394.437172
912.751502	2390.986502
913.057436	2393.459188
913.363331	2397.030845
913.669186	2394.686709
913.975000	2396.771226
914.280775	2396.637635
914.586510	2396.849364
914.892205	2399.178377
915.197859	2400.231978
915.503475	2404.562329
915.809050	2404.355642
916.114585	2408.804460
916.420081	2408.454100
916.725536	2407.035015
917.030952	2408.007958
917.336328	2406.787998
917.641665	2405.641136
917.946961	2404.721125
918.252218	2406.190622
918.557435	2402.956722
918.862612	2402.162740
919.167750	2401.283058
919.472848	2398.268448
919.777906	2398.374313
920.082925	2396.728376
920.387904	2399.679972
920.692843	2396.075547
920.997743	2396.710732
921.302603	2396.468757
921.607423	2397.388767
921.912204	2397.668551
922.216946	2394.467418
922.521647	2392.955072
922.826310	2393.219733
923.130932	2396.725855
923.435516	2393.335679
923.740059	2393.791904
924.044564	2393.184445
924.349028	2393.466749
924.653454	2385.877292
924.957840	2389.912736
925.262186	2386.938455
925.566493	2392.478683
925.870761	2388.909546
926.174989	2393.560011
926.479178	2394.132182
926.783328	2393.340721
927.087438	2392.466080
927.391509	2392.178735
927.695541	2392.045144
927.999533	2392.481204
928.303486	2390.401728
928.607400	2390.928528
928.911275	2390.348796
929.215110	2393.542367
929.518906	2391.072201
929.822663	2390.842829
930.126381	2389.222098
930.430060	2392.468601
930.733699	2389.544732
931.037299	2392.012377
931.340861	2390.797458
931.644383	2391.568755
931.947866	2389.910215
932.251309	2388.934752
932.554714	2390.873076
932.858080	2392.337531
933.161407	2389.683363
933.464694	2392.168652
933.767943	2388.498692
934.071153	2391.677140
934.374323	2391.725031
934.677455	2391.039434
934.980548	2389.706049
935.283602	2390.235370
935.586617	2391.311656
935.889593	2392.834085
936.192530	2392.670247
936.495428	2392.662685
936.798287	2392.748385
937.101108	2393.343241
937.403890	2390.694115
937.706632	2394.474980
938.009336	2392.045144
938.312002	2395.931874
938.614628	2390.888199
938.917216	2392.483724
939.219765	2391.830895
939.522275	2391.994733
939.824747	2391.636811
940.127179	2389.290153
940.429573	2389.685884
940.731929	2391.420041
941.034246	2386.623383
941.336524	2391.765360
941.638763	2394.139743
941.940964	2391.737634
942.243126	2392.143447
942.545250	2390.053888
942.847335	2391.689743
943.149381	2390.434495
943.451389	2391.336862
943.753359	2392.004815
944.055290	2390.633621
944.357182	2391.828374
944.659036	2392.186296
944.960851	2393.534805
945.262628	2387.981974
945.564367	2392.430792
945.866067	2388.521378
946.167729	2391.667058
946.469352	2392.471122
946.770937	2390.923487
947.072484	2390.500030
947.373992	2389.209495
947.675462	2389.421223
947.976893	2393.683519
948.278286	2393.446585
948.579641	2390.915926
948.880958	2390.469783
949.182236	2389.398538
949.483476	2390.200082
949.784678	2392.889537
950.085841	2390.275699
950.386967	2391.793086
950.688054	2389.922818
950.989103	2392.821482
951.290114	2388.660009
951.591087	2390.981461
951.892021	2392.355175
952.192917	2394.651421
952.493776	2391.238559
952.794596	2390.278220
953.095378	2391.079763
953.396122	2392.362737
953.696828	2390.169835
953.997496	2392.773591
954.298126	2389.627911
954.598718	2390.915926
954.899272	2390.462222
955.199788	2391.354506
955.500266	2390.154711
955.800706	2392.461039
956.101108	2387.359392
956.401472	2392.173693
956.701798	2386.900647
957.002087	2388.246635
957.302337	2390.502551
957.602550	2390.923487
957.902724	2390.457181
958.202861	2391.805689
958.502960	2389.317880
958.803022	2391.535988
959.103045	2387.828219
959.403031	2391.145298
959.702979	2389.146481
960.002889	2389.910215
960.302762	2388.743188
960.602596	2392.259393
960.902393	2389.277551
961.202153	2388.292005
961.501875	2390.749567
961.801559	2389.832078
962.101205	2389.446429
962.400814	2387.755122
962.700385	2388.954917
962.999918	2389.529608
963.299414	2389.643034
963.598873	2391.311656
963.898293	2390.124464
964.197677	2392.607233
964.497022	2387.987015
964.796331	2387.724875
965.095601	2387.785369
965.394835	2390.313508
965.694030	2388.856614
965.993189	2392.196379
966.292309	2389.002808
966.591393	2388.503733
966.890439	2389.438867
967.189447	2391.722510
967.488419	2387.891233
967.787353	2389.136398
968.086249	2387.019114
968.385108	2388.302087
968.683930	2387.863507
968.982714	2386.678836
969.281462	2389.945503
969.580172	2389.766542
969.878844	2387.225801
970.177480	2389.731254
970.476078	2390.555483
970.774639	2390.777294
971.073162	2388.430637
971.371649	2388.503733
971.670098	2383.989380
971.968510	2388.279402
972.266885	2386.570451
972.565223	2388.780997
972.863524	2388.080277
973.161788	2388.957437
973.460014	2391.266286
973.758204	2391.339382
974.056356	2387.064484
974.354471	2387.969371
974.652550	2391.437685
974.950591	2390.331152
975.248595	2392.771070
975.546563	2389.348127
975.844493	2388.962478
976.142386	2388.889382
976.440243	2387.850904
976.738062	2390.063971
977.035845	2390.411810
977.333590	2389.660678
977.631299	2389.990874
977.928971	2390.303425
978.226606	2387.770246
978.524204	2389.078425
978.821765	2390.381563
979.119290	2389.085987
979.416777	2389.665719
979.714228	2386.313352
980.011642	2390.590771
980.309020	2389.217057
980.606360	2388.924670
980.903664	2389.950545
981.200931	2390.865514
981.498162	2391.694784
981.795356	2389.998436
982.092513	2391.868704
982.389633	2390.754609
982.686717	2390.293343
982.983764	2391.271327
983.280775	2391.344424
983.577749	2392.304763
983.874686	2391.407438
984.171587	2391.334341
984.468451	2394.807696
984.765279	2390.066491
985.062070	2390.318549
985.358824	2388.672612
985.655543	2391.987171
985.952224	2390.865514
986.248869	2388.448281
986.545478	2386.394011
986.842050	2387.087169
987.138586	2382.832435
987.435086	2385.186654
987.731549	2382.827394
988.027975	2388.455843
988.324366	2384.730430
988.620719	2389.547252
988.917037	2390.225288
989.213318	2387.366953
989.509563	2388.218908
989.805772	2387.848383
990.101944	2387.808054
990.398080	2387.182951
990.694180	2391.291492
990.990244	2390.210164
991.286271	2389.728734
991.582262	2388.617159
991.878217	2387.808054
992.174136	2389.285112
992.470019	2390.749568
992.765865	2390.124464
993.061676	2389.706049
993.357450	2389.862324
993.653188	2388.407952
993.948890	2388.521378
994.244556	2387.682025
994.540186	2390.915926
994.835780	2387.891233
995.131337	2390.328631
995.426859	2387.974412
995.722345	2391.800648
996.017795	2387.513147
996.313208	2388.425596
996.608586	2388.728065
996.903928	2389.706049
997.199234	2390.343755
997.494504	2388.032386
997.789738	2389.592623
998.084936	2390.749568
998.380099	2388.596995
998.675225	2391.150339
998.970316	2388.755791
999.265371	2388.622201
999.560390	2387.538352
999.855373	2390.399207
1000.150320	2387.674464
1000.445232	2387.298898
1000.740108	2386.580533
1001.034948	2389.499361
1001.329752	2387.863507
1001.624521	2389.794269
1001.919254	2382.784544
1002.213951	2386.842673
1002.508613	2386.696480
1002.803239	2386.288146
1003.097829	2384.014586
1003.392384	2384.853938
1003.686903	2388.259238
1003.981386	2388.412993
1004.275834	2388.269320
1004.570246	2388.586913
1004.864623	2388.539022
1005.158964	2389.975750
1005.453270	2386.646068
1005.747540	2387.661861
1006.041775	2386.787221
1006.335974	2386.678836
1006.630138	2385.468959
1006.924266	2387.871069
1007.218359	2388.682694
1007.512416	2386.855276
1007.806438	2384.793444
1008.100425	2389.922818
1008.394376	2389.164125
1008.688292	2388.909546
1008.982172	2386.383928
1009.276017	2388.312170
1009.569827	2388.317211
1009.863602	2388.970040
1010.157341	2387.949207
1010.451045	2387.563558
1010.744714	2387.054402
1011.038347	2386.512478
1011.331945	2387.475338
1011.625508	2391.788045
1011.919036	2388.155894
1012.212528	2389.058260
1012.505986	2387.583723
1012.799408	2388.783518
1013.092795	2386.814947
1013.386147	2387.041799
1013.679464	2390.689074
1013.972745	2388.569268
1014.265992	2389.983312
1014.559204	2387.853425
1014.852380	2387.500544
1015.145521	2387.220760
1015.438628	2387.505585
1015.731699	2386.930893
1016.024736	2386.782179
1016.317737	2389.809392
1016.610703	2391.961965
1016.903635	2389.847201
1017.196531	2385.403424
1017.489393	2387.878630
1017.782219	2384.674977
1018.075011	2388.332334
1018.367768	2386.144473
1018.660490	2386.436860
1018.953177	2386.436860
1019.245829	2386.436860
