Dividing Wavelength (nm)	Counts (n)	Blue Motor Position (mm): 0.000000	Red Motor Position (mm): 19.000000	
326.493990	1981.357464
326.888308	1981.357464
327.282561	1981.357464
327.676750	1960.121603
328.070874	1959.133537
328.464933	1967.194342
328.858929	1973.725157
329.252859	1986.663278
329.646726	2003.483088
330.040528	2018.241066
330.434265	2037.422656
330.827938	2056.190872
331.221547	2073.787019
331.615091	2095.103538
332.008571	2120.458022
332.401986	2136.551905
332.795338	2156.240132
333.188625	2179.177382
333.581847	2198.285875
333.975006	2214.904039
334.368100	2231.481873
334.761129	2248.306724
335.154095	2265.106370
335.546996	2282.473145
335.939833	2296.989147
336.332606	2311.537917
336.725315	2324.677685
337.117960	2331.531133
337.510540	2335.836279
337.903056	2349.686849
338.295508	2353.843280
338.687896	2359.499455
339.080220	2366.756196
339.472480	2373.508821
339.864676	2375.888246
340.256807	2378.350850
340.648875	2380.616848
341.040879	2383.994421
341.432818	2384.916953
341.824694	2384.566592
342.216506	2384.964843
342.608253	2386.819988
342.999937	2382.456869
343.391557	2382.391334
343.783113	2382.366129
344.174605	2380.997455
344.566033	2377.514018
344.957397	2377.294728
345.348697	2374.348173
345.739934	2372.377082
346.131106	2372.195601
346.522215	2369.085209
346.913260	2367.835003
347.304241	2367.638398
347.695159	2364.507841
348.086012	2362.652697
348.476802	2361.619260
348.867528	2360.227902
349.258191	2361.468025
349.648789	2360.122037
350.039324	2354.856552
350.429796	2361.233612
350.820203	2354.055009
351.210548	2357.326718
351.600828	2352.668691
351.991045	2354.498630
352.381198	2356.157170
352.771288	2354.397807
353.161314	2356.409228
353.551276	2356.638600
353.941175	2355.882427
354.331010	2355.958044
354.720782	2358.092973
355.110490	2356.799917
355.500135	2356.764629
355.889717	2354.460822
356.279235	2356.406707
356.668689	2361.498272
357.058080	2360.147243
357.447408	2357.974506
357.836672	2354.359998
358.225873	2358.060205
358.615010	2355.113651
359.004084	2362.090608
359.393095	2362.322501
359.782043	2364.427183
360.170927	2365.485825
360.559748	2364.250742
360.948505	2366.836854
361.337199	2365.037162
361.725830	2366.816690
362.114398	2367.056144
362.502903	2366.133613
362.891344	2370.075796
363.279722	2369.964890
363.668037	2369.851464
364.056289	2372.256095
364.444478	2370.549664
364.832603	2371.993955
365.220665	2374.746425
365.608665	2374.267515
365.996601	2371.988913
366.384474	2375.144676
366.772284	2375.850437
367.160031	2375.772299
367.547715	2378.222300
367.935336	2375.984028
368.322893	2377.012423
368.710388	2378.736498
369.097820	2383.318907
369.485189	2380.473175
369.872495	2385.831922
370.259738	2383.830584
370.646918	2390.542880
371.034035	2388.087838
371.421090	2391.727551
371.808081	2393.358365
372.195010	2397.575290
372.581875	2403.412946
372.968678	2411.778741
373.355418	2416.446849
373.742096	2426.559404
374.128710	2440.273863
374.515262	2451.618980
374.901751	2461.227419
375.288177	2479.758700
375.674540	2498.857112
376.060841	2517.206912
376.447079	2541.878319
376.833254	2569.395457
377.219367	2591.742892
377.605417	2629.551546
377.991404	2653.620535
378.377329	2694.917667
378.763191	2727.347410
379.148991	2774.003289
379.534727	2821.067501
379.920402	2866.085005
380.306013	2914.086872
380.691563	2978.298569
381.077049	3033.776467
381.462474	3092.021958
381.847835	3161.058040
382.233134	3232.344996
382.618371	3290.015796
383.003545	3376.469064
383.388657	3453.986887
383.773706	3546.504663
384.158693	3618.678862
384.543618	3708.870146
384.928480	3788.953916
385.313280	3891.773290
385.698017	3994.234742
386.082692	4111.829737
386.467305	4176.734593
386.851856	4301.966937
387.236344	4455.308755
387.620770	4518.935678
388.005133	4636.384480
388.389435	4783.843272
388.773674	4861.033419
389.157851	4993.250282
389.541965	5125.807422
389.926018	5150.413294
390.310008	5328.749153
390.693936	5445.688798
391.077802	5562.028547
391.461606	5691.066962
391.845348	5807.421834
392.229027	5927.333240
392.612645	6147.447661
392.996200	6260.067037
393.379694	6432.572802
393.763125	6656.092522
394.146494	6749.706749
394.529801	6882.541153
394.913047	7122.167360
395.296230	7116.556555
395.679351	7170.325502
396.062410	7423.706498
396.445408	7318.507699
396.828343	7466.692416
397.211217	7600.809794
397.594028	7483.494582
397.976778	7686.935387
398.359466	7854.155501
398.742092	7825.176428
399.124656	7969.761762
399.507158	8156.652458
399.889598	8170.903800
400.271977	8381.523208
400.654294	8405.083040
401.036549	8605.158875
401.418742	8628.675857
401.800874	8923.497658
402.182944	9004.889607
402.564952	9363.260193
402.946898	9192.312145
403.328783	9247.124611
403.710606	9438.960680
404.092367	9688.830511
404.474067	10045.615654
404.855705	9838.247791
405.237282	9791.571747
405.618797	10216.440193
406.000250	10454.198653
406.381642	10817.318005
406.762972	10762.034192
407.144240	10561.229911
407.525447	10804.621859
407.906593	10747.762685
408.287677	11003.926397
408.668700	11147.790846
409.049661	11126.257557
409.430560	11289.396857
409.811399	11260.853844
410.192176	11412.191803
410.572891	11481.805097
410.953545	11952.926129
411.334138	11439.552666
411.714669	12024.092098
412.095139	11346.934067
412.475547	11837.728202
412.855894	11678.793224
413.236180	11993.028508
413.616405	11682.276662
413.996568	11945.553442
414.376670	11912.980026
414.756711	11793.802108
415.136691	12057.068806
415.516609	12213.074874
415.896466	12276.759770
416.276262	12542.350440
416.655997	12970.256181
417.035670	12996.434893
417.415283	13594.298095
417.794834	13671.851206
418.174324	13411.894026
418.553753	13282.527936
418.933121	13718.393659
419.312428	13513.758101
419.691674	13393.350141
420.070859	13789.360502
420.449983	13431.221810
420.829045	13901.107760
421.208047	13626.425369
421.586988	13993.658303
421.965867	14185.295246
422.344686	14119.079690
422.723444	14563.938832
423.102141	13297.207776
423.480777	14304.621878
423.859352	13784.374801
424.237866	14694.545046
424.616319	14336.335777
424.994712	14818.365867
425.373044	14539.796746
425.751314	15016.735270
426.129524	14154.145956
426.507673	14961.637979
426.885762	14595.204068
427.263789	14627.107010
427.641756	14632.753103
428.019662	14544.326223
428.397508	14444.813846
428.775292	14532.469429
429.153016	14357.380074
429.530679	14274.047280
429.908282	14133.328512
430.285824	13772.066824
430.663305	14115.767652
431.040726	13671.034539
431.418086	13384.724727
431.795385	13662.910720
432.172624	13780.760294
432.549802	13307.395948
432.926920	13248.711876
433.303977	12982.745640
433.680974	12962.026498
434.057910	12957.968369
434.434786	12768.393258
434.811601	12530.178574
435.188355	12970.480513
435.565050	12551.117007
435.941683	12318.583703
436.318257	12614.179321
436.694770	12303.626600
437.071222	12408.628793
437.447614	11700.008920
437.823946	11505.468273
438.200218	11371.403827
438.576429	11061.546786
438.952580	10986.395785
439.328670	10764.340520
439.704700	10754.963973
440.080670	10364.380415
440.456580	10407.794832
440.832429	10278.733731
441.208218	9663.153394
441.583947	9638.343355
441.959616	9490.108227
442.335224	9379.575887
442.710773	9232.417045
443.086261	9232.724555
443.461689	8815.415319
443.837057	8665.619953
444.212365	8685.446811
444.587612	8495.944797
444.962800	8179.463679
445.337927	8120.325903
445.712995	7576.614776
446.088002	7908.418481
446.462949	7778.276053
446.837837	7646.492730
447.212664	7452.317566
447.587431	7945.057587
447.962139	8442.621992
448.336786	8804.231519
448.711374	8256.033765
449.085901	7272.925586
449.460369	7038.426232
449.834776	6840.437436
450.209124	7120.995291
450.583412	6880.063426
450.957640	6798.074099
451.331808	6410.847949
451.705917	6022.111973
452.079965	5861.707499
452.453954	5769.101503
452.827883	5606.607470
453.201752	5441.096307
453.575562	5328.814687
453.949311	5326.468030
454.323001	5207.504361
454.696632	5056.995672
455.070202	5092.510601
455.443713	4983.677131
455.817164	4920.201442
456.190556	4845.446172
456.563888	4688.608314
456.937160	4605.227629
457.310373	4369.538563
457.683526	4291.998055
458.056619	4194.174465
458.429653	4097.152418
458.802628	4041.835837
459.175542	3965.832881
459.548398	3956.484061
459.921194	3969.563335
460.293930	3936.009415
460.666607	3967.390597
461.039224	3977.946774
461.411782	3906.231319
461.784280	3768.869959
462.156719	3663.116634
462.529099	3570.200607
462.901419	3455.705920
463.273680	3357.985674
463.645882	3307.027170
464.018024	3253.316196
464.390106	3231.689646
464.762130	3268.936212
465.134094	3336.681758
465.505999	3432.201541
465.877845	3494.217815
466.249631	3459.333031
466.621358	3362.885675
466.993026	3265.977054
467.364634	3184.438911
467.736184	3109.746655
468.107674	3057.185065
468.479105	3018.370701
468.850477	2980.670432
469.221790	2935.559667
469.593043	2889.891854
469.964238	2858.762729
470.335373	2841.758917
470.706449	2846.358970
471.077467	2859.939838
471.448425	2899.102042
471.819324	2918.898653
472.190164	2889.173489
472.560945	2837.060562
472.931667	2792.905095
473.302330	2772.463216
473.672934	2754.078128
474.043479	2749.594022
474.413965	2733.056517
474.784393	2719.203426
475.154761	2722.195351
475.525070	2713.602704
475.895321	2705.448637
476.265513	2703.780016
476.635645	2709.975594
477.005719	2703.391847
477.375734	2700.931764
477.745691	2700.989737
478.115588	2706.910572
478.485427	2717.005483
478.855207	2736.723956
479.224928	2752.941348
479.594591	2757.269178
479.964194	2748.268198
480.333739	2745.125039
480.703226	2739.065572
481.072653	2739.610017
481.442022	2741.543299
481.811333	2736.005592
482.180584	2724.408417
482.549777	2720.786348
482.918912	2711.107333
483.287988	2708.838813
483.657005	2699.840354
484.025964	2690.683098
484.394864	2686.582119
484.763706	2684.144721
485.132489	2676.131807
485.501213	2671.766168
485.869879	2668.532268
486.238487	2669.139727
486.607036	2668.174346
486.975527	2660.320228
487.343959	2659.254024
487.712333	2658.180258
488.080648	2658.865855
488.448905	2659.871566
488.817104	2659.112872
489.185244	2660.184117
489.553326	2668.350786
489.921350	2683.476768
490.289315	2696.959334
490.657222	2703.185159
491.025070	2705.249512
491.392861	2697.710466
491.760593	2690.105886
492.128267	2677.480316
492.495883	2666.997237
492.863440	2662.235867
493.230939	2651.346974
493.598380	2646.852786
493.965763	2639.926240
494.333088	2634.774181
494.700354	2629.175980
495.067563	2631.336114
495.434713	2628.049282
495.801805	2631.777215
496.168839	2631.031124
496.535815	2629.498614
496.902733	2626.093314
497.269593	2625.667337
497.636395	2626.864611
498.003139	2629.400311
498.369825	2627.172121
498.736453	2630.816875
499.103023	2627.081380
499.469535	2625.458129
499.835989	2627.527522
500.202385	2622.803961
500.568723	2625.410238
500.935003	2627.744292
501.301226	2630.237143
501.667390	2630.574900
502.033497	2635.386681
502.399546	2634.091105
502.765537	2629.796042
503.131470	2634.668317
503.497345	2635.419449
503.863163	2630.564818
504.228923	2634.741414
504.594625	2638.592855
504.960269	2636.732669
505.325856	2640.894142
505.691385	2639.288534
506.056856	2643.394554
506.422270	2646.814977
506.787625	2649.136428
507.152924	2649.564927
507.518164	2653.199598
507.883347	2651.034423
508.248472	2654.719506
508.613540	2657.401400
508.978550	2660.962975
509.343503	2662.971875
509.708398	2664.484221
510.073236	2669.290962
510.438016	2676.865295
510.802738	2671.123421
511.167403	2674.551406
511.532010	2680.988959
511.896561	2685.525997
512.261053	2693.924560
512.625488	2688.243179
512.989866	2687.577747
513.354186	2688.520443
513.718449	2692.944055
514.082655	2703.568287
514.446803	2701.869418
514.810894	2706.351004
515.174927	2706.756817
515.538904	2707.964173
515.902822	2712.465924
516.266684	2714.310986
516.630488	2714.003476
516.994235	2716.670246
517.357925	2720.851883
517.721558	2723.785835
518.085133	2728.337997
518.448651	2727.642317
518.812112	2729.114334
519.175516	2731.778584
519.538863	2731.660117
519.902152	2736.081209
520.265385	2737.643967
520.628560	2737.008781
520.991678	2736.726477
521.354739	2739.509193
521.717743	2743.277456
522.080690	2743.148907
522.443580	2746.839031
522.806413	2750.476224
523.169189	2750.405647
523.531908	2751.113930
523.894569	2750.705596
524.257174	2748.873137
524.619722	2755.640886
524.982213	2752.706934
525.344647	2756.949065
525.707025	2756.041658
526.069345	2756.792789
526.431608	2756.956627
526.793815	2761.004673
527.155964	2756.318921
527.518057	2756.639034
527.880093	2757.874117
528.242072	2758.647934
528.603995	2760.465270
528.965860	2757.969899
529.327669	2759.018459
529.689421	2759.348654
530.051117	2760.671957
530.412755	2757.858993
530.774337	2759.653644
531.135862	2757.443098
531.497331	2757.425454
531.858743	2753.556369
532.220098	2757.183479
532.581396	2753.987387
532.942638	2751.386152
533.303824	2760.102307
533.664953	2758.365629
534.026025	2755.260279
534.387040	2759.061309
534.747999	2757.911926
535.108902	2758.640372
535.469748	2756.815475
535.830537	2759.678850
536.191270	2760.616505
536.551947	2755.444281
536.912567	2757.783376
537.273131	2758.537029
537.633638	2755.764394
537.994089	2758.428644
538.354483	2750.685432
538.714821	2756.787748
539.075103	2757.780856
539.435328	2756.235742
539.795497	2755.270361
540.155609	2752.850607
540.515665	2754.486462
540.875665	2752.442274
541.235609	2752.853128
541.595496	2751.751636
541.955328	2753.964702
542.315102	2749.256264
542.674821	2747.186871
543.034483	2747.849782
543.394090	2747.053280
543.753640	2744.053794
544.113134	2749.394896
544.472571	2738.299317
544.831953	2748.013620
545.191278	2740.484657
545.550548	2735.670355
545.909761	2737.870818
546.268918	2737.061713
546.628019	2736.978534
546.987064	2731.163563
547.346053	2723.382542
547.704986	2728.448902
548.063863	2723.165773
548.422684	2722.974209
548.781449	2717.232335
549.140158	2717.043291
549.498811	2714.270657
549.857408	2706.978628
550.215949	2709.088351
550.574434	2704.536189
550.932864	2701.564428
551.291237	2701.231712
551.649555	2699.116948
552.007817	2697.292051
552.366022	2688.792665
552.724173	2689.206040
553.082267	2688.439784
553.440305	2684.951306
553.798288	2677.986952
554.156215	2677.750018
554.514086	2677.737415
554.871902	2670.825993
555.229661	2669.883297
555.587365	2663.428100
555.945014	2661.267965
556.302606	2658.452481
556.660143	2656.173879
557.017625	2651.876296
557.375050	2649.113743
557.732421	2648.017292
558.089735	2640.758031
558.446994	2641.105870
558.804197	2641.373052
559.161345	2637.468678
559.518437	2630.146402
559.875474	2629.145733
560.232455	2626.201699
560.589381	2623.209774
560.946251	2622.388066
561.303065	2620.295987
561.659825	2615.690893
562.016528	2611.073196
562.373177	2611.534462
562.729770	2608.169492
563.086307	2603.743359
563.442789	2603.067844
563.799216	2603.821497
564.155587	2596.963007
564.511904	2598.165322
564.868164	2594.404621
565.224370	2593.973602
565.580520	2589.897830
565.936615	2588.337593
566.292654	2587.193251
566.648638	2584.523960
567.004567	2581.587488
567.360441	2585.128898
567.716260	2576.939544
568.072023	2577.128587
568.427732	2572.662125
568.783385	2572.629357
569.138982	2568.021742
569.494525	2569.765982
569.850013	2565.420507
570.205445	2568.891342
570.560823	2569.198852
570.916145	2568.755230
571.271412	2561.412790
571.626625	2565.980075
571.981782	2566.668193
572.336884	2558.665361
572.691931	2562.297512
573.046923	2558.562017
573.401860	2556.293498
573.756743	2554.602191
574.111570	2554.413148
574.466342	2555.295350
574.821059	2552.583209
575.175722	2552.641182
575.530330	2550.881819
575.884882	2548.431819
576.239380	2549.699669
576.593823	2548.575492
576.948211	2543.143648
577.302544	2545.568443
577.656823	2543.640202
578.011047	2546.112888
578.365216	2542.972249
578.719330	2544.963505
579.073389	2541.091899
579.427394	2545.346633
579.781344	2544.219935
580.135239	2541.553164
580.489080	2541.142310
580.842866	2538.346990
581.196597	2539.080478
581.550273	2539.665252
581.903895	2536.975797
582.257463	2538.820859
582.610975	2534.735004
582.964434	2536.640560
583.317837	2536.696012
583.671186	2537.638708
584.024481	2533.555374
584.377721	2533.560415
584.730906	2537.696682
585.084037	2532.869777
585.437113	2531.546474
585.790135	2533.542771
586.143103	2530.225692
586.496016	2533.247863
586.848874	2527.810979
587.201679	2530.276103
587.554428	2526.628828
587.907124	2527.526154
588.259765	2527.261493
588.612352	2528.743592
588.964884	2529.013294
589.317362	2529.741741
589.669786	2528.052954
590.022155	2528.362985
590.374470	2528.042872
590.726731	2527.853829
591.078937	2526.613705
591.431090	2525.366019
591.783188	2524.766122
592.135232	2521.358302
592.487222	2523.069774
592.839157	2523.813344
593.191038	2522.525329
593.542866	2522.023734
593.894639	2519.954341
594.246358	2521.259999
594.598022	2520.587005
594.949633	2519.029289
595.301190	2517.955523
595.652692	2516.586850
596.004141	2518.283198
596.355535	2517.590039
596.706876	2513.962929
597.058162	2514.648526
597.409395	2515.818074
597.760573	2518.126922
598.111698	2513.292456
598.462768	2512.886643
598.813785	2514.144411
599.164748	2513.231962
599.515657	2512.412774
599.866511	2513.536952
600.217312	2512.977384
600.568060	2510.802126
600.918753	2517.065759
601.269392	2514.726664
601.619978	2514.741788
601.970510	2510.565192
602.320988	2509.451097
602.671412	2513.794051
603.021783	2511.318844
603.372100	2509.952691
603.722363	2510.958402
604.072572	2512.069976
604.422728	2511.596107
604.772830	2506.789367
605.122878	2505.450941
605.472872	2509.168792
605.822813	2504.052021
606.172701	2507.230468
606.522534	2507.873215
606.872314	2510.227434
607.222041	2509.602331
607.571714	2510.209790
607.921333	2508.319358
608.270899	2510.209790
608.620411	2509.481343
608.969870	2507.530417
609.319276	2506.791888
609.668627	2508.853720
610.017926	2509.554440
610.367171	2507.666528
610.716362	2507.069151
611.065500	2509.448576
611.414585	2507.240551
611.763616	2506.391116
612.112594	2506.754079
612.461518	2508.387413
612.810389	2509.148627
613.159207	2508.868843
613.507971	2506.265087
613.856682	2509.562002
614.205340	2505.357680
614.553945	2509.642660
614.902496	2511.112157
615.250994	2508.102588
615.599439	2509.786333
615.947830	2506.393637
616.296169	2507.245592
616.644454	2509.720798
616.992686	2508.901611
617.340864	2507.648884
617.688990	2505.602176
618.037063	2509.816580
618.385082	2511.845645
618.733048	2510.025788
619.080961	2509.614934
619.428821	2507.013699
619.776628	2508.773061
620.124382	2508.662156
620.472083	2509.239368
620.819731	2507.643843
621.167326	2506.643174
621.514868	2507.051507
621.862357	2505.435818
622.209793	2506.300375
622.557176	2503.807525
622.904506	2503.701661
623.251783	2498.468943
623.599007	2501.904489
623.946179	2497.780825
624.293297	2500.624036
624.640363	2494.990547
624.987376	2500.563542
625.334336	2498.441217
625.681243	2497.672441
626.028097	2497.324601
626.374899	2494.814106
626.721647	2495.043479
627.068343	2494.330156
627.414987	2496.220588
627.761577	2495.240084
628.108115	2495.237563
628.454600	2496.268479
628.801032	2492.802686
629.147412	2493.450474
629.493739	2492.341420
629.840014	2492.109527
630.186236	2493.301760
630.532405	2494.105824
630.878521	2493.785711
631.224585	2489.873776
631.570597	2490.866883
631.916556	2492.081801
632.262462	2490.115751
632.608316	2491.126502
632.954117	2490.960144
633.299866	2487.335555
633.645562	2487.217088
633.991206	2487.887561
634.336797	2484.535194
634.682336	2488.626090
635.027823	2485.233393
635.373257	2485.248517
635.718639	2482.521253
636.063968	2485.462766
636.409245	2479.468834
636.754470	2482.927066
637.099642	2482.107878
637.444762	2482.710296
637.789829	2480.643423
638.134845	2481.855820
638.479808	2480.547641
638.824719	2482.642240
639.169577	2479.579739
639.514383	2478.619400
639.859137	2478.085037
640.203839	2478.163175
640.548489	2478.833649
640.893086	2475.077989
641.237632	2473.167392
641.582125	2474.609162
641.926566	2473.147227
642.270955	2477.311220
642.615292	2478.117805
642.959576	2474.498256
643.303809	2475.100674
643.647990	2478.228710
643.992118	2473.389202
644.336195	2473.656384
644.680219	2471.801239
645.024192	2475.710654
645.368112	2476.209728
645.711981	2476.517238
646.055797	2477.535552
646.399562	2474.115129
646.743274	2478.057311
647.086935	2478.354739
647.430544	2478.442959
647.774101	2479.194091
648.117606	2480.366159
648.461059	2480.088896
648.804460	2480.741725
649.147810	2480.918166
649.491108	2478.422795
649.834354	2476.073617
650.177548	2472.811990
650.520690	2472.055817
650.863781	2470.445169
651.206820	2473.825262
651.549807	2470.926599
651.892742	2472.335601
652.235626	2472.181846
652.578458	2467.702781
652.921238	2470.051959
653.263967	2467.768316
653.606644	2469.197483
653.949269	2469.658749
654.291843	2468.988275
654.634365	2469.996506
654.976836	2466.981896
655.319255	2469.053810
655.661622	2468.310240
656.003938	2468.504324
656.346203	2467.428038
656.688416	2469.547843
657.030577	2465.111628
657.372687	2469.031125
657.714746	2467.206227
658.056753	2464.978037
658.398708	2462.525516
658.740612	2462.064250
659.082465	2462.412090
659.424266	2463.455609
659.766016	2460.153653
660.107715	2466.976855
660.449362	2466.082050
660.790958	2463.931998
661.132503	2464.602471
661.473996	2466.888635
661.815438	2466.485342
662.156829	2467.052472
662.498168	2465.547688
662.839456	2467.922071
663.180693	2465.827472
663.521879	2466.046762
663.863013	2463.029631
664.204097	2463.483335
664.545129	2466.167750
664.886110	2467.291927
665.227040	2467.985086
665.567918	2465.121710
665.908746	2466.422328
666.249522	2468.148923
666.590248	2465.023408
666.930922	2466.563480
667.271545	2467.181022
667.612118	2468.554736
667.952639	2463.475773
668.293109	2465.197327
668.633528	2466.288737
668.973896	2468.567339
669.314213	2464.420990
669.654480	2464.100877
669.994695	2464.383181
670.334859	2462.487707
670.674973	2462.003757
671.015035	2462.921247
671.355047	2464.915023
671.695008	2463.138016
672.034918	2462.941411
672.374777	2464.052986
672.714585	2464.287399
673.054342	2463.352265
673.394049	2464.103397
673.733705	2464.466360
674.073310	2462.742286
674.412864	2461.696246
674.752368	2461.418983
675.091820	2463.342183
675.431223	2462.686833
675.770574	2461.723972
676.109875	2456.450926
676.449125	2457.814558
676.788324	2455.712397
677.127473	2459.967130
677.466571	2457.209619
677.805619	2459.742799
678.144616	2458.898406
678.483562	2459.321863
678.822458	2459.636935
679.161303	2459.977213
679.500098	2458.222891
679.838842	2459.800772
680.177535	2457.854887
680.516179	2461.068622
680.854771	2457.234825
681.193314	2458.492593
681.531805	2464.519292
681.870247	2463.604323
682.208638	2464.758747
682.546978	2465.053655
682.885268	2465.686319
683.223508	2464.567183
683.561697	2462.855712
683.899836	2462.263376
684.237925	2462.333952
684.575963	2462.742286
684.913951	2458.968982
685.251889	2463.347224
685.589776	2461.050978
685.927614	2462.926288
686.265401	2462.482666
686.603137	2464.277317
686.940824	2461.136678
687.278460	2464.834364
687.616046	2463.047275
687.953582	2465.913171
688.291068	2464.852008
688.628504	2465.434262
688.965889	2467.748151
689.303224	2464.657924
689.640510	2464.448716
689.977745	2462.664148
690.314930	2460.849332
690.652065	2458.147274
690.989150	2458.827830
691.326185	2458.142233
691.663170	2454.371450
692.000105	2452.554114
692.336990	2453.708538
692.673825	2457.164249
693.010610	2451.752570
693.347345	2450.822477
693.684030	2447.129832
694.020665	2450.283074
694.357251	2443.164965
694.693786	2447.729729
695.030272	2445.176385
695.366707	2445.516663
695.703093	2446.731581
696.039429	2447.926334
696.375716	2447.001283
696.711952	2448.425409
697.048139	2443.716971
697.384276	2442.980963
697.720363	2444.715119
698.056400	2445.347784
698.392388	2444.248813
698.728326	2444.626899
699.064214	2443.502722
699.400053	2440.556167
699.735842	2444.452979
700.071581	2441.450972
700.407270	2442.509615
700.742910	2439.779830
701.078501	2443.036415
701.414042	2441.675304
701.749533	2441.082968
702.084974	2440.871240
702.420366	2437.584407
702.755709	2440.833431
703.091002	2439.414346
703.426246	2441.640016
703.761440	2438.171702
704.096584	2440.125149
704.431679	2439.066507
704.766725	2441.317382
705.101721	2438.143975
705.436668	2437.203800
705.771565	2437.949891
706.106413	2439.139603
706.441212	2440.210848
706.775961	2438.443924
707.110661	2438.917792
707.445311	2440.800663
707.779913	2439.099274
708.114465	2440.689758
708.448967	2438.701023
708.783421	2443.354008
709.117825	2441.670262
709.452180	2443.071703
709.786485	2440.813266
710.120742	2444.785696
710.454949	2442.983483
710.789107	2443.827876
711.123216	2441.783688
711.457275	2443.638833
711.791286	2444.987342
712.125247	2447.676797
712.459159	2446.562702
712.793023	2447.638989
713.126837	2447.954061
713.460602	2446.378700
713.794318	2448.324586
714.127985	2449.481530
714.461602	2445.579677
714.795171	2446.219904
715.128691	2441.002310
715.462162	2444.795778
715.795584	2439.406784
716.128957	2441.667742
716.462281	2437.949891
716.795556	2440.044490
717.128782	2436.908893
717.461960	2438.567432
717.795088	2436.467792
718.128167	2436.440065
718.461198	2436.059458
718.794180	2434.867225
719.127113	2436.364448
719.459997	2435.895621
719.792833	2431.605599
720.125619	2434.852102
720.458357	2435.663728
720.791046	2432.833120
721.123686	2432.916299
721.456278	2431.953438
721.788821	2431.653490
722.121315	2432.616350
722.453761	2429.069898
722.786158	2433.130548
723.118506	2432.490321
723.450805	2428.268355
723.783056	2431.126689
724.115259	2434.647935
724.447412	2433.007040
724.779518	2434.325301
725.111574	2434.421083
725.443582	2433.007040
725.775542	2429.672316
726.107453	2434.264807
726.439315	2432.306319
726.771129	2435.883018
727.102895	2434.363110
727.434612	2435.593152
727.766281	2436.959304
728.097901	2433.488470
728.429473	2437.256732
728.760996	2432.054262
729.092471	2432.654159
729.423897	2436.119952
729.755276	2436.803028
730.086606	2437.186156
730.417887	2438.849737
730.749120	2437.413008
731.080305	2438.005344
731.411442	2441.062803
731.742530	2440.992227
732.073570	2439.956270
732.404562	2444.873916
732.735506	2439.081630
733.066401	2440.014243
733.397249	2437.115580
733.728048	2439.575663
734.058798	2438.159099
734.389501	2431.628284
734.720156	2436.823193
735.050762	2433.634663
735.381320	2430.846905
735.711831	2429.664755
736.042293	2429.437903
736.372707	2425.588982
736.703073	2428.890937
737.033391	2430.370516
737.363661	2426.418252
737.693883	2429.637028
738.024056	2432.160126
738.354182	2431.582914
738.684260	2433.001998
739.014290	2430.743562
739.344272	2436.137596
739.674207	2434.524427
740.004093	2435.441917
740.333931	2433.080136
740.663722	2434.181628
740.993464	2436.016608
741.323159	2433.218768
741.652806	2431.935794
741.982405	2432.936463
742.311956	2434.451330
742.641460	2432.437389
742.970915	2433.995106
743.300323	2431.678696
743.629683	2430.183993
743.958996	2429.521082
744.288260	2431.464447
744.617477	2427.746596
744.946647	2423.983374
745.275768	2423.322983
745.604842	2422.957499
745.933869	2423.748961
746.262847	2424.714342
746.591778	2428.517892
746.920662	2427.229877
747.249498	2427.260124
747.578286	2428.946390
747.907027	2428.822882
748.235720	2427.733993
748.564365	2428.190217
748.892963	2426.995464
749.221514	2426.846750
749.550017	2428.825403
749.878473	2426.309867
750.206881	2429.377409
750.535242	2428.101997
750.863555	2428.399425
751.191821	2428.069229
751.520039	2428.341452
751.848210	2426.380443
752.176334	2425.674681
752.504411	2424.926070
752.832440	2427.981009
753.160421	2427.388674
753.488356	2425.379774
753.816243	2426.176276
754.144082	2425.810793
754.471875	2427.224836
754.799620	2426.267017
755.127318	2429.372368
755.454969	2428.122162
755.782572	2424.759712
756.110129	2424.671492
756.437638	2426.957655
756.765100	2426.947573
757.092515	2425.551173
757.419882	2426.382963
757.747203	2428.316246
758.074477	2426.062850
758.401703	2424.429516
758.728882	2424.726944
759.056014	2426.884558
759.383099	2428.409507
759.710138	2427.686102
760.037129	2425.432706
760.364073	2427.552511
760.690970	2426.020000
761.017820	2427.799528
761.344623	2428.500248
761.671379	2431.298088
761.998088	2427.093766
762.324751	2434.153902
762.651366	2437.932247
762.977935	2451.094700
763.304456	2451.112344
763.630931	2458.243056
763.957359	2454.195009
764.283740	2453.884978
764.610074	2448.281736
764.936362	2440.455344
765.262602	2434.748758
765.588796	2437.622216
765.914943	2433.622060
766.241044	2427.416400
766.567097	2425.094949
766.893104	2427.234918
767.219064	2425.198292
767.544978	2423.015473
767.870845	2421.455236
768.196665	2421.319124
768.522438	2422.551687
768.848165	2420.444484
769.173846	2422.723086
769.499479	2420.537746
769.825066	2420.832653
770.150607	2417.797878
770.476101	2417.586150
770.801548	2420.555390
771.126949	2418.856521
771.452303	2417.903743
771.777611	2417.444998
772.102872	2419.267375
772.428087	2415.095820
772.753256	2416.519946
773.078378	2414.861406
773.403453	2415.415933
773.728482	2416.986253
774.053465	2417.802920
774.378401	2412.907959
774.703291	2415.506674
775.028135	2415.093299
775.352932	2413.712023
775.677683	2415.720923
776.002388	2415.829308
776.327046	2414.387538
776.651658	2414.700089
776.976224	2411.808988
777.300743	2413.245717
777.625216	2414.115316
777.949643	2411.950140
778.274024	2414.374935
778.598359	2411.688000
778.922647	2410.725140
779.246889	2416.419123
779.571086	2407.917217
779.895236	2415.718403
780.219339	2412.308062
780.543397	2412.860068
780.867409	2412.688669
781.191374	2415.441139
781.515294	2414.589184
781.839167	2413.384348
782.162995	2413.732188
782.486776	2413.686818
782.810511	2414.211097
783.134201	2414.460635
783.457844	2413.275963
783.781441	2416.081366
784.104993	2412.754204
784.428498	2413.031467
784.751958	2412.439132
785.075372	2415.821746
785.398739	2412.494585
785.722061	2415.667991
786.045337	2412.519790
786.368568	2411.267064
786.691752	2413.245717
787.014891	2413.863258
787.337983	2414.034657
787.661030	2416.056160
787.984031	2419.567323
788.306987	2417.588671
788.629897	2419.602612
788.952760	2419.774011
789.275579	2416.638413
789.598351	2419.728640
789.921078	2415.620100
790.243759	2415.012641
790.566395	2415.380645
790.888984	2415.952816
791.211529	2412.517270
791.534027	2411.312434
791.856480	2413.192784
792.178888	2412.124060
792.501249	2414.069945
792.823566	2412.315624
793.145836	2412.207239
793.468062	2412.008113
793.790241	2413.041550
794.112375	2413.102044
794.434464	2412.691190
794.756507	2412.764286
795.078505	2413.994328
795.400457	2414.193453
795.722364	2410.122722
796.044226	2413.346540
796.366042	2413.782599
796.687812	2411.395613
797.009538	2415.337795
797.331218	2413.858217
797.652852	2414.795871
797.974442	2417.258475
798.295986	2411.698082
798.617484	2413.815367
798.938938	2415.637744
799.260346	2414.354770
799.581709	2412.378638
799.903026	2416.401479
800.224299	2413.323854
800.545526	2410.594070
800.866708	2413.396951
801.187845	2413.117167
801.508936	2411.957702
801.829983	2414.475758
802.150984	2410.866292
802.471940	2413.946437
802.792851	2411.864440
803.113717	2413.379307
803.434538	2412.360994
803.755314	2413.616241
804.076045	2411.733370
804.396731	2410.488205
804.717372	2412.038360
805.037967	2411.148597
805.358518	2409.714388
805.679024	2411.917373
805.999485	2411.655233
806.319901	2413.351581
806.640272	2411.753535
806.960598	2412.718916
807.280879	2410.672208
807.601115	2411.516601
807.921306	2411.551889
808.241453	2412.348391
808.561554	2412.154307
808.881611	2414.022054
809.201623	2411.887126
809.521590	2413.369225
809.841513	2413.220511
810.161390	2415.244534
810.481223	2411.483833
810.801011	2412.325706
811.120755	2410.767989
811.440453	2410.304203
811.760107	2410.296642
812.079716	2410.034502
812.399281	2406.089799
812.718801	2409.101888
813.038276	2404.779099
813.357707	2411.665315
813.677093	2410.425191
813.996434	2414.138001
814.315731	2409.295973
814.634983	2411.365366
814.954191	2412.628175
815.273354	2411.478792
815.592473	2409.694224
815.911547	2413.190264
816.230577	2412.512229
816.549562	2411.914852
816.868502	2413.462486
817.187399	2413.986766
817.506250	2411.955181
817.825058	2415.940213
818.143821	2413.492733
818.462539	2417.404668
818.781213	2414.921900
819.099843	2418.223856
819.418429	2421.750143
819.736970	2425.838519
820.055466	2425.518406
820.373919	2430.839343
820.692327	2440.268822
821.010691	2450.724175
821.329011	2483.085862
821.647286	2523.856194
821.965517	2571.979048
822.283704	2599.067688
822.601847	2607.630088
822.919945	2588.014959
823.237999	2564.031669
823.556010	2540.350849
823.873976	2519.578775
824.191897	2500.359376
824.509775	2485.913949
824.827609	2473.474902
825.145398	2466.026597
825.463144	2459.095011
825.780845	2461.318160
826.098502	2467.990127
826.416116	2478.523618
826.733685	2487.428816
827.051210	2491.565083
827.368692	2483.242138
827.686129	2474.069758
828.003522	2460.017542
828.320872	2449.582353
828.638177	2447.213011
828.955439	2433.178439
829.272656	2433.022163
829.589830	2422.839032
829.906960	2424.084197
830.224046	2420.383990
830.541088	2420.661254
830.858086	2416.464493
831.175041	2416.706469
831.491952	2415.662950
831.808819	2418.128074
832.125642	2416.963567
832.442421	2423.877510
832.759157	2428.734662
833.075849	2433.372523
833.392497	2443.588422
833.709101	2452.423044
834.025662	2449.161417
834.342179	2443.981632
834.658653	2440.442742
834.975083	2434.226999
835.291469	2434.756320
835.607811	2424.807603
835.924110	2422.329876
836.240366	2419.683270
836.556578	2413.144893
836.872746	2414.062383
837.188871	2415.045408
837.504952	2408.819583
837.820990	2410.223545
838.136984	2410.147927
838.452935	2409.351425
838.768842	2412.645819
839.084706	2411.723288
839.400526	2415.718403
839.716303	2419.627817
840.032037	2425.641914
840.347727	2423.721234
840.663373	2421.034299
840.978977	2414.500964
841.294537	2413.407033
841.610054	2411.992990
841.925527	2411.922414
842.240957	2412.726478
842.556344	2408.554923
842.871687	2406.989645
843.186987	2409.621127
843.502244	2404.194325
843.817458	2406.914027
844.132629	2405.593245
844.447756	2404.489232
844.762840	2401.164591
845.077881	2403.891856
845.392879	2400.378171
845.707833	2403.544016
846.022745	2398.543191
846.337613	2404.171640
846.652438	2402.271125
846.967221	2406.203225
847.281960	2403.962432
847.596656	2402.099725
847.911309	2403.748183
848.225919	2402.755075
848.540485	2399.863974
848.855009	2405.142062
849.169490	2405.048800
849.483928	2404.700961
849.798323	2401.819941
850.112675	2400.955383
850.426984	2402.911351
850.741251	2400.007647
851.055474	2402.392112
851.369654	2400.700805
851.683792	2401.462019
851.997887	2401.744324
852.311938	2403.493604
852.625947	2402.165260
852.939914	2399.685013
853.253837	2405.106774
853.567718	2400.141237
853.881555	2402.762637
854.195350	2401.462019
854.509103	2402.296330
854.822812	2403.647360
855.136479	2402.636608
855.450103	2403.130641
855.763685	2405.187432
856.077224	2403.899417
856.390720	2405.031156
856.704173	2401.192318
857.017584	2402.361865
857.330953	2404.337998
857.644278	2401.900600
857.957561	2408.864954
858.270802	2405.303379
858.584000	2404.516959
858.897155	2404.169119
859.210268	2404.660632
859.523339	2401.411608
859.836367	2403.851526
860.149352	2403.586866
860.462295	2403.594427
860.775195	2400.801628
861.088054	2398.515465
861.400869	2400.070661
861.713642	2399.339694
862.026373	2404.337998
862.339062	2400.897410
862.651708	2404.436300
862.964312	2402.954201
863.276873	2403.012174
863.589392	2402.187946
863.901869	2401.288100
864.214303	2405.056362
864.526696	2403.987638
864.839045	2404.005282
865.151353	2403.377658
865.463619	2405.250447
865.775842	2403.332287
866.088023	2401.512431
866.400162	2406.445200
866.712258	2403.481002
867.024313	2403.354973
867.336325	2403.546537
867.648296	2405.562998
867.960224	2404.005282
868.272110	2404.569891
868.583954	2405.179870
868.895755	2402.825652
869.207515	2407.856723
869.519233	2405.956208
869.830909	2403.186094
870.142542	2404.663152
870.454134	2403.380178
870.765684	2403.740621
871.077191	2405.373955
871.388657	2403.339849
871.700081	2403.959911
872.011463	2403.975035
872.322803	2402.828172
872.634101	2406.639284
872.945357	2405.280693
873.256571	2406.283883
873.567744	2405.928482
873.878874	2405.328584
874.189963	2406.354459
874.501010	2406.742628
874.812015	2401.908162
875.122979	2407.241702
875.433900	2406.838410
875.744780	2408.451579
876.055618	2407.932340
876.366415	2409.016188
876.677169	2405.570560
876.987882	2406.961918
877.298554	2406.006620
877.609183	2409.066600
877.919771	2405.436969
878.230317	2406.147772
878.540822	2407.708009
878.851285	2411.171282
879.161707	2408.978380
879.472087	2420.930956
879.782425	2422.339958
880.092722	2433.337235
880.402977	2450.071345
880.713191	2468.756382
881.023363	2485.026706
881.333494	2497.869046
881.643583	2501.554129
881.953631	2496.702018
882.263637	2494.352841
882.573602	2488.051398
882.883526	2481.472693
883.193408	2469.893162
883.503248	2464.521813
883.813048	2453.617797
884.122806	2450.767025
884.432522	2445.229317
884.742197	2437.914603
885.051831	2431.968562
885.361424	2426.692994
885.670975	2424.792479
885.980485	2421.445153
886.289954	2417.596232
886.599382	2415.083217
886.908768	2415.226890
887.218113	2415.683114
887.527417	2412.063566
887.836680	2411.594739
888.145901	2410.803277
888.455082	2409.974008
888.764221	2407.377813
889.073319	2407.350087
889.382376	2410.465520
889.691392	2406.314130
890.000366	2408.325550
890.309300	2406.503173
890.618193	2407.758421
890.927044	2405.477298
891.235855	2405.381517
891.544625	2408.108781
891.853353	2407.609707
892.162041	2408.890160
892.470687	2410.125242
892.779293	2410.213463
893.087858	2409.124573
893.396381	2412.383679
893.704864	2418.501119
894.013306	2419.090934
894.321707	2429.861360
894.630068	2433.377564
894.938387	2432.749941
895.246665	2434.133737
895.554903	2431.008222
895.863100	2422.723086
896.171256	2426.062850
896.479371	2422.057653
896.787446	2420.946079
897.095480	2415.988104
897.403473	2416.832498
897.711425	2411.531724
898.019336	2415.889802
898.327207	2411.433422
898.635038	2413.916190
898.942827	2410.624317
899.250576	2409.490057
899.558284	2408.181877
899.865952	2408.479306
900.173579	2404.912689
900.481165	2408.058369
900.788711	2407.211455
901.096216	2407.549213
901.403681	2408.244892
901.711105	2405.026115
902.018489	2406.694737
902.325832	2409.293452
902.633135	2407.639953
902.940397	2409.938720
903.247619	2412.552558
903.554800	2421.929104
903.861941	2428.648962
904.169041	2437.924685
904.476101	2440.188163
904.783121	2439.623554
905.090100	2435.557863
905.397039	2429.881524
905.703938	2427.398756
906.010796	2421.092273
906.317614	2421.142684
906.624391	2419.554721
906.931129	2414.904256
907.237826	2414.765624
907.544483	2408.973339
907.851099	2409.535427
908.157675	2408.779254
908.464211	2406.215828
908.770707	2400.715929
909.077163	2400.884807
909.383578	2402.465209
909.689954	2402.203069
909.996289	2400.040414
910.302584	2400.070661
910.608839	2402.218193
910.915054	2402.871022
911.221229	2401.923285
911.527363	2402.709705
911.833458	2402.868501
912.139513	2401.073851
912.445527	2403.889335
912.751502	2403.624674
913.057436	2401.653583
913.363331	2405.109294
913.669186	2405.182391
913.975000	2404.887483
914.280775	2405.825138
914.586510	2413.437280
914.892205	2419.600091
915.197859	2420.570513
915.503475	2428.275917
915.809050	2432.966710
916.114585	2436.797987
916.420081	2438.103646
916.725536	2437.753286
917.030952	2438.542227
917.336328	2431.373706
917.641665	2432.233222
917.946961	2428.674168
918.252218	2429.364806
918.557435	2421.989598
918.862612	2422.397931
919.167750	2419.113620
919.472848	2417.888619
919.777906	2414.737898
920.082925	2413.301169
920.387904	2409.167423
920.692843	2407.949984
920.997743	2406.480488
921.302603	2408.499470
921.607423	2407.309758
921.912204	2408.935530
922.216946	2400.831875
922.521647	2405.464696
922.826310	2403.349932
923.130932	2403.629716
923.435516	2401.683830
923.740059	2402.558470
924.044564	2401.877915
924.349028	2400.410939
924.653454	2395.069836
924.957840	2398.044117
925.262186	2395.899106
925.566493	2399.579148
925.870761	2395.105124
926.174989	2402.434962
926.479178	2399.107801
926.783328	2400.627708
927.087438	2397.149312
927.391509	2398.165105
927.695541	2397.950856
927.999533	2401.250291
928.303486	2397.255177
928.607400	2398.893552
928.911275	2397.754251
929.215110	2397.648387
929.518906	2397.754251
929.822663	2400.163922
930.126381	2400.743655
930.430060	2400.476474
930.733699	2397.056051
931.037299	2398.039076
931.340861	2397.605537
931.644383	2401.381361
931.947866	2397.406411
932.251309	2399.995044
932.554714	2395.621843
932.858080	2398.684344
933.161407	2398.417163
933.464694	2398.477656
933.767943	2398.533109
934.071153	2399.231309
934.374323	2398.394477
934.677455	2397.096380
934.980548	2398.381874
935.283602	2398.207955
935.586617	2398.885990
935.889593	2400.395815
936.192530	2397.608057
936.495428	2396.357851
936.798287	2399.347255
937.101108	2398.036555
937.403890	2397.035886
937.706632	2399.495969
938.009336	2399.006978
938.312002	2401.958573
938.614628	2400.584859
938.917216	2402.558470
939.219765	2398.628891
939.522275	2401.335991
939.824747	2401.227606
940.127179	2396.320043
940.429573	2396.257028
940.731929	2401.083933
941.034246	2397.383726
941.336524	2402.528223
941.638763	2401.638460
941.940964	2403.354973
942.243126	2399.901782
942.545250	2397.232491
942.847335	2401.444375
943.149381	2400.342883
943.451389	2399.775753
943.753359	2399.871535
944.055290	2394.595968
944.357182	2398.790208
944.659036	2398.260887
944.960851	2400.121073
945.262628	2396.483880
945.564367	2400.650394
945.866067	2397.706360
946.167729	2399.412790
946.469352	2398.349107
946.770937	2398.298695
947.072484	2398.034035
947.373992	2399.067471
947.675462	2399.221227
947.976893	2398.545712
948.278286	2398.717111
948.579641	2396.919940
948.880958	2396.473798
949.182236	2398.853222
949.483476	2397.466905
949.784678	2397.424055
950.085841	2398.775084
950.386967	2399.367420
950.688054	2399.533778
950.989103	2399.047307
951.290114	2398.563356
951.591087	2397.814745
951.892021	2398.245763
952.192917	2399.589231
952.493776	2399.916906
952.794596	2400.380692
953.095378	2399.092677
953.396122	2400.529406
953.696828	2398.467574
953.997496	2401.361196
954.298126	2401.338511
954.598718	2400.116031
954.899272	2399.465723
955.199788	2401.255332
955.500266	2400.461350
955.800706	2396.408263
956.101108	2392.997922
956.401472	2395.604199
956.701798	2394.288457
957.002087	2393.746533
957.302337	2397.045969
957.602550	2398.233160
957.902724	2398.724673
958.202861	2393.091183
958.502960	2395.495814
958.803022	2396.299878
959.103045	2394.049003
959.403031	2396.133520
959.702979	2395.387429
960.002889	2397.030845
960.302762	2394.969013
960.602596	2395.359703
960.902393	2397.081257
961.202153	2392.319887
961.501875	2393.267624
961.801559	2392.594630
962.101205	2394.192676
962.400814	2394.817779
962.700385	2398.243243
962.999918	2397.514796
963.299414	2393.426420
963.598873	2393.945659
963.898293	2393.554970
964.197677	2394.424569
964.497022	2395.095042
964.796331	2396.461195
965.095601	2390.701677
965.394835	2395.702501
965.694030	2392.672768
965.993189	2394.989178
966.292309	2395.087480
966.591393	2392.634959
966.890439	2395.435320
967.189447	2395.478170
967.488419	2395.339538
967.787353	2394.953890
968.086249	2394.598488
968.385108	2394.124620
968.683930	2395.261400
968.982714	2395.921791
969.281462	2395.755433
969.580172	2397.088818
969.878844	2392.571945
970.177480	2394.797614
970.476078	2395.009343
970.774639	2395.344579
971.073162	2396.287275
971.371649	2392.755947
971.670098	2392.655124
971.968510	2393.396173
972.266885	2391.122613
972.565223	2394.207799
972.863524	2394.472460
973.161788	2394.585886
973.460014	2396.390619
973.758204	2395.533623
974.056356	2393.784342
974.354471	2396.688047
974.652550	2395.936915
974.950591	2397.285423
975.248595	2396.448592
975.546563	2395.155536
975.844493	2397.534961
976.142386	2396.753582
976.440243	2397.197203
976.738062	2397.063613
977.035845	2391.964486
977.333590	2392.042623
977.631299	2394.550597
977.928971	2394.714435
978.226606	2395.946997
978.524204	2393.985988
978.821765	2394.628735
979.119290	2394.900958
979.416777	2393.708725
979.714228	2394.553118
980.011642	2392.214023
980.309020	2394.701832
980.606360	2394.023797
980.903664	2398.938922
981.200931	2394.069167
981.498162	2399.006977
981.795356	2394.984137
982.092513	2398.465053
982.389633	2397.812224
982.686717	2398.346586
982.983764	2399.503531
983.280775	2400.514282
983.577749	2399.059910
983.874686	2402.838254
984.171587	2399.052348
984.468451	2398.724673
984.765279	2398.109652
985.062070	2396.428427
985.358824	2395.717625
985.655543	2396.713253
985.952224	2398.676782
986.248869	2394.220402
986.545478	2389.632952
986.842050	2393.146636
987.138586	2391.800648
987.435086	2391.150339
987.731549	2388.334855
988.027975	2394.545556
988.324366	2393.587737
988.620719	2394.739641
988.917037	2390.404248
989.213318	2391.528426
989.509563	2392.566903
989.805772	2393.776780
990.101944	2394.540515
990.398080	2393.789383
990.694180	2392.244270
990.990244	2392.791235
991.286271	2392.667727
991.582262	2394.278375
991.878217	2394.711914
992.174136	2392.899620
992.470019	2394.880793
992.765865	2393.000443
993.061676	2393.537326
993.357450	2394.911040
993.653188	2392.370298
993.948890	2395.405073
994.244556	2393.345762
994.540186	2394.989178
994.835780	2393.678478
995.131337	2397.499673
995.426859	2396.390619
995.722345	2399.853891
996.017795	2393.922974
996.313208	2397.940773
996.608586	2396.667882
996.903928	2394.636297
997.199234	2397.391288
997.494504	2397.713922
997.789738	2395.543705
998.084936	2396.607388
998.380099	2397.890362
998.675225	2394.951369
998.970316	2393.547408
999.265371	2395.931874
999.560390	2392.831564
999.855373	2393.277706
1000.150320	2392.304763
1000.445232	2394.353992
1000.740108	2393.562531
1001.034948	2393.285268
1001.329752	2394.434651
1001.624521	2395.747872
1001.919254	2388.271840
1002.213951	2391.271327
1002.508613	2388.844011
1002.803239	2393.169321
1003.097829	2388.745709
1003.392384	2393.628066
1003.686903	2393.539846
1003.981386	2393.401214
1004.275834	2395.122768
1004.570246	2395.170659
1004.864623	2395.168139
1005.158964	2395.468087
1005.453270	2390.429454
1005.747540	2393.234856
1006.041775	2391.576317
1006.335974	2392.710576
1006.630138	2390.437016
1006.924266	2394.669065
1007.218359	2392.216543
1007.512416	2393.562531
1007.806438	2394.532953
1008.100425	2392.831564
1008.394376	2392.655124
1008.688292	2391.762839
1008.982172	2393.522202
1009.276017	2390.447098
1009.569827	2390.550442
1009.863602	2393.680998
1010.157341	2390.603374
1010.451045	2395.180742
1010.744714	2390.910884
1011.038347	2391.969527
1011.331945	2392.287119
1011.625508	2391.581358
1011.919036	2393.557490
1012.212528	2390.835267
1012.505986	2391.664537
1012.799408	2390.931049
1013.092795	2391.346944
1013.386147	2393.769219
1013.679464	2393.000443
1013.972745	2392.773591
1014.265992	2393.544887
1014.559204	2393.988509
1014.852380	2395.026987
1015.145521	2393.058416
1015.438628	2390.852911
1015.731699	2393.600340
1016.024736	2392.927346
1016.317737	2392.004815
1016.610703	2392.652603
1016.903635	2391.278889
1017.196531	2389.766542
1017.489393	2390.278220
1017.782219	2387.818137
1018.075011	2391.039434
1018.367768	2390.303425
1018.660490	2394.215361
1018.953177	2394.215361
1019.245829	2394.215361
