Dividing Wavelength (nm)	Counts (n)	Blue Motor Position (mm): 0.000000	Red Motor Position (mm): 16.000000	
326.493990	1982.058184
326.888308	1982.058184
327.282561	1982.058184
327.676750	1959.070522
328.070874	1957.164966
328.464933	1965.959259
328.858929	1972.696761
329.252859	1984.745119
329.646726	2001.391009
330.040528	2013.981291
330.434265	2037.830990
330.827938	2053.478731
331.221547	2075.291804
331.615091	2096.310895
332.008571	2113.206322
332.401986	2138.107101
332.795338	2154.919349
333.188625	2174.627740
333.581847	2194.767150
333.975006	2212.945551
334.368100	2230.713098
334.761129	2247.089286
335.154095	2263.072264
335.546996	2276.169182
335.939833	2295.824641
336.332606	2310.386013
336.725315	2319.996973
337.117960	2325.640545
337.510540	2332.879642
337.903056	2343.662670
338.295508	2348.171982
338.687896	2358.602129
339.080220	2364.696884
339.472480	2369.007071
339.864676	2374.685931
340.256807	2375.303472
340.648875	2378.542413
341.040879	2379.341436
341.432818	2380.881509
341.824694	2382.197250
342.216506	2379.739687
342.608253	2381.937631
342.999937	2379.749770
343.391557	2376.883874
343.783113	2378.005531
344.174605	2375.694162
344.566033	2376.382279
344.957397	2375.449666
345.348697	2370.138810
345.739934	2372.934130
346.131106	2367.683768
346.522215	2365.937008
346.913260	2361.989785
347.304241	2362.297295
347.695159	2363.108921
348.086012	2360.071626
348.476802	2355.355626
348.867528	2357.293950
349.258191	2356.454598
349.648789	2355.834536
350.039324	2354.533918
350.429796	2353.750019
350.820203	2353.825636
351.210548	2353.258506
351.600828	2353.666840
351.991045	2352.356140
352.381198	2349.389421
352.771288	2351.806654
353.161314	2349.820439
353.551276	2353.427385
353.941175	2352.731706
354.331010	2352.318331
354.720782	2353.616428
355.110490	2352.638444
355.500135	2352.963599
355.889717	2351.574761
356.279235	2353.024093
356.668689	2354.644824
357.058080	2352.419154
357.447408	2352.270440
357.836672	2352.038547
358.225873	2352.157014
358.615010	2351.015193
359.004084	2359.292768
359.393095	2360.280834
359.782043	2357.661954
360.170927	2359.665813
360.559748	2358.476101
360.948505	2359.862418
361.337199	2361.619260
361.725830	2363.585310
362.114398	2364.265866
362.502903	2362.564476
362.891344	2363.678571
363.279722	2366.022708
363.668037	2365.695033
364.056289	2365.868953
364.444478	2369.654859
364.832603	2370.529499
365.220665	2369.022194
365.608665	2367.666124
365.996601	2369.375075
366.384474	2368.046731
366.772284	2374.469161
367.160031	2372.956815
367.547715	2373.103008
367.935336	2375.147196
368.322893	2373.392875
368.710388	2373.062679
369.097820	2379.278422
369.485189	2373.851620
369.872495	2377.002341
370.259738	2380.006869
370.646918	2383.752446
371.034035	2384.422919
371.421090	2386.943496
371.808081	2388.929711
372.195010	2394.361554
372.581875	2399.823644
372.968678	2404.355642
373.355418	2408.381003
373.742096	2422.907088
374.128710	2431.023346
374.515262	2446.068669
374.901751	2458.457305
375.288177	2476.429018
375.674540	2493.286637
376.060841	2513.685666
376.447079	2537.265663
376.833254	2559.214847
377.219367	2584.947417
377.605417	2622.143570
377.991404	2648.788589
378.377329	2686.897191
378.763191	2719.382387
379.148991	2768.460540
379.534727	2811.396047
379.920402	2860.980837
380.306013	2908.720563
380.691563	2969.993268
381.077049	3025.105682
381.462474	3077.705082
381.847835	3147.646050
382.233134	3224.584140
382.618371	3279.568005
383.003545	3367.208465
383.388657	3445.300979
383.773706	3531.343393
384.158693	3602.123713
384.543618	3696.272303
384.928480	3775.420938
385.313280	3877.267370
385.698017	3977.248574
386.082692	4095.362808
386.467305	4154.679545
386.851856	4279.559008
387.236344	4435.292853
387.620770	4495.721165
388.005133	4614.498311
388.389435	4762.083131
388.773674	4843.878373
389.157851	4972.153053
389.541965	5101.960244
389.926018	5123.238954
390.310008	5300.871572
390.693936	5419.880611
391.077802	5535.665833
391.461606	5664.109392
391.845348	5778.296567
392.229027	5897.030864
392.612645	6117.357013
392.996200	6228.610237
393.379694	6405.511888
393.763125	6620.806966
394.146494	6710.186623
394.529801	6840.235790
394.913047	7079.733447
395.296230	7078.120278
395.679351	7127.939481
396.062410	7381.154118
396.445408	7281.724920
396.828343	7432.730163
397.211217	7557.738175
397.594028	7442.331040
397.976778	7642.679097
398.359466	7810.083213
398.742092	7779.886702
399.124656	7923.221829
399.507158	8103.503573
399.889598	8123.932849
400.271977	8330.910023
400.654294	8362.175259
401.036549	8553.303046
401.418742	8579.935461
401.800874	8871.649390
402.182944	8949.131925
402.564952	9296.089338
402.946898	9121.171382
403.328783	9174.612654
403.710606	9363.877734
404.092367	9603.251883
404.474067	9953.259195
404.855705	9741.003933
405.237282	9687.582826
405.618797	10092.528632
406.000250	10324.777110
406.381642	10655.965794
406.762972	10591.227297
407.144240	10383.955215
407.525447	10603.338669
407.906593	10521.558550
408.287677	10739.459905
408.668700	10862.436332
409.049661	10807.669237
409.430560	10923.323388
409.811399	10851.943171
410.192176	10960.496857
410.572891	10981.268931
410.953545	11371.277799
411.334138	10834.074801
411.714669	11318.338122
412.095139	10628.889757
412.475547	11008.967551
412.855894	10800.273864
413.236180	11008.808755
413.616405	10655.832204
413.996568	10807.782663
414.376670	10699.896929
414.756711	10502.016518
415.136691	10638.631787
415.516609	10686.610968
415.896466	10637.084153
416.276262	10751.082285
416.655997	10984.369241
417.035670	10893.603266
417.415283	11253.760941
417.794834	11193.425891
418.174324	10874.981244
418.553753	10660.109623
418.933121	10864.692249
419.312428	10587.753942
419.691674	10384.489577
420.070859	10532.943996
420.449983	10155.921141
420.829045	10357.423622
421.208047	10038.232884
421.586988	10161.773921
421.965867	10156.460545
422.344686	9990.621707
422.723444	10133.702256
423.102141	9227.640552
423.480777	9716.536693
423.859352	9278.281463
424.237866	9681.384727
424.616319	9350.793419
424.994712	9497.400256
425.373044	9212.073468
425.751314	9336.771450
426.129524	8759.609746
426.507673	9050.191936
426.885762	8729.942556
427.263789	8622.444991
427.641756	8499.755909
428.019662	8340.805808
428.397508	8174.528390
428.775292	8091.654341
429.153016	7894.225112
429.530679	7732.472129
429.908282	7555.918319
430.285824	7290.806559
430.663305	7325.494738
431.040726	7037.075203
431.418086	6826.324726
431.795385	6826.269273
432.172624	6769.047136
432.549802	6496.136710
432.926920	6375.257403
433.303977	6191.464495
433.680974	6094.392037
434.057910	6003.129508
434.434786	5856.321026
434.811601	5691.296334
435.188355	5739.484724
435.565050	5538.675402
435.941683	5389.646291
436.318257	5393.787599
436.694770	5226.224686
437.071222	5174.472201
437.447614	4915.724897
437.823946	4793.469355
438.200218	4691.522101
438.576429	4551.569587
438.952580	4468.806444
439.328670	4362.460783
439.704700	4295.703303
440.080670	4161.664064
440.456580	4117.644708
440.832429	4035.289899
441.208218	3867.225391
441.583947	3815.243533
441.959616	3741.907348
442.335224	3679.684386
442.710773	3615.029067
443.086261	3570.729928
443.461689	3470.408446
443.837057	3409.102974
444.212365	3381.336298
444.587612	3320.839932
444.962800	3247.511308
445.337927	3210.047973
445.712995	3113.855196
446.088002	3133.629122
446.462949	3091.913574
446.837837	3054.518294
447.212664	3008.865605
447.587431	3045.340874
447.962139	3085.193716
448.336786	3110.195318
448.711374	3033.718494
449.085901	2919.531318
449.460369	2881.699979
449.834776	2850.452387
450.209124	2864.895293
450.583412	2834.151816
450.957640	2819.628252
451.331808	2782.142232
451.705917	2736.018194
452.079965	2722.122254
452.453954	2708.337219
452.827883	2690.194106
453.201752	2677.883608
453.575562	2666.614109
453.949311	2668.030673
454.323001	2656.216729
454.696632	2644.891777
455.070202	2652.118271
455.443713	2644.196098
455.817164	2639.863226
456.190556	2632.621608
456.563888	2623.126595
456.937160	2614.672580
457.310373	2606.589090
457.683526	2599.642380
458.056619	2596.521906
458.429653	2589.625607
458.802628	2589.000504
459.175542	2585.811974
459.548398	2591.004363
459.921194	2596.090887
460.293930	2594.747420
460.666607	2608.169492
461.039224	2611.473968
461.411782	2610.463217
461.784280	2599.155909
462.156719	2593.056112
462.529099	2587.099989
462.901419	2575.344018
463.273680	2565.924623
463.645882	2564.250959
464.018024	2565.561659
464.390106	2564.941597
464.762130	2581.002714
465.134094	2600.247318
465.505999	2622.751029
465.877845	2643.563433
466.249631	2645.423619
466.621358	2634.789305
466.993026	2618.713065
467.364634	2609.933896
467.736184	2598.858481
468.107674	2588.831626
468.479105	2582.651171
468.850477	2576.170768
469.221790	2568.787998
469.593043	2560.510423
469.964238	2551.680842
470.335373	2550.932231
470.706449	2561.629559
471.077467	2570.794377
471.448425	2591.440423
471.819324	2600.159098
472.190164	2593.787080
472.560945	2578.015830
472.931667	2560.497820
473.302330	2556.835422
473.672934	2550.806202
474.043479	2552.169834
474.413965	2546.163299
474.784393	2542.687424
475.154761	2547.620193
475.525070	2545.031560
475.895321	2544.903011
476.265513	2542.563916
476.635645	2553.193188
477.005719	2550.856614
477.375734	2553.137736
477.745691	2555.486913
478.115588	2561.732903
478.485427	2566.315312
478.855207	2581.353074
479.224928	2595.667430
479.594591	2601.121959
479.964194	2595.795980
480.333739	2595.443099
480.703226	2596.471494
481.072653	2598.162801
481.442022	2603.473657
481.811333	2604.131527
482.180584	2596.733634
482.549777	2594.757502
482.918912	2591.695001
483.287988	2588.035123
483.657005	2585.953127
484.025964	2584.264340
484.394864	2582.638568
484.763706	2581.872313
485.132489	2579.210583
485.501213	2578.895511
485.869879	2575.530541
486.238487	2576.415264
486.607036	2574.648339
486.975527	2573.085582
487.343959	2573.516600
487.712333	2574.797053
488.080648	2573.846796
488.448905	2578.698906
488.817104	2576.374934
489.185244	2580.559092
489.553326	2586.953796
489.921350	2599.559201
490.289315	2610.932044
490.657222	2615.854731
491.025070	2615.643002
491.392861	2613.462703
491.760593	2606.163112
492.128267	2600.438882
492.495883	2590.727099
492.863440	2588.120823
493.230939	2580.301993
493.598380	2576.626992
493.965763	2571.366548
494.333088	2567.079047
494.700354	2566.257339
495.067563	2565.417987
495.434713	2566.375806
495.801805	2570.375961
496.168839	2570.418811
496.535815	2567.590724
496.902733	2567.363872
497.269593	2566.897565
497.636395	2568.188101
498.003139	2569.778585
498.369825	2569.758420
498.736453	2568.346897
499.103023	2566.060734
499.469535	2568.417473
499.835989	2569.352607
500.202385	2569.304716
500.568723	2568.835889
500.935003	2573.478792
501.301226	2570.315467
501.667390	2577.577250
502.033497	2577.156313
502.399546	2574.819738
502.765537	2575.812846
503.131470	2575.742270
503.497345	2578.567836
503.863163	2575.389389
504.228923	2583.319124
504.594625	2585.945565
504.960269	2583.906418
505.325856	2589.204671
505.691385	2584.037488
506.056856	2589.943200
506.422270	2595.637183
506.787625	2593.550146
507.152924	2597.134406
507.518164	2598.750096
507.883347	2598.772781
508.248472	2600.501897
508.613540	2604.693616
508.978550	2611.814246
509.343503	2611.607559
509.708398	2608.136724
510.073236	2617.520832
510.438016	2623.207254
510.802738	2620.013683
511.167403	2624.986781
511.532010	2630.179169
511.896561	2633.977679
512.261053	2640.667290
512.625488	2638.557567
512.989866	2636.868781
513.354186	2640.695016
513.718449	2639.974131
514.082655	2648.090389
514.446803	2650.321100
514.810894	2654.716986
515.174927	2650.651295
515.538904	2655.521050
515.902822	2659.601864
516.266684	2661.320897
516.630488	2662.787873
516.994235	2662.364416
517.357925	2668.887669
517.721558	2671.151147
518.085133	2674.448062
518.448651	2676.000737
518.812112	2674.720284
519.175516	2674.790860
519.538863	2680.129442
519.902152	2680.991480
520.265385	2681.301511
520.628560	2682.161027
520.991678	2683.988446
521.354739	2683.711182
521.717743	2689.954651
522.080690	2686.325020
522.443580	2690.920032
522.806413	2692.492872
523.169189	2692.444981
523.531908	2696.430013
523.894569	2693.967410
524.257174	2695.174766
524.619722	2695.734334
524.982213	2696.886238
525.344647	2694.153932
525.707025	2698.973275
526.069345	2699.905889
526.431608	2698.080991
526.793815	2703.096939
527.155964	2702.144161
527.518057	2701.559387
527.880093	2699.265662
528.242072	2699.721887
528.603995	2700.893955
528.965860	2701.032587
529.327669	2697.909592
529.689421	2700.460416
530.051117	2695.704087
530.412755	2698.454037
530.774337	2698.854808
531.135862	2698.408666
531.497331	2693.790969
531.858743	2691.288036
532.220098	2694.912626
532.581396	2686.929959
532.942638	2687.282840
533.303824	2689.846266
533.664953	2689.558921
534.026025	2686.057839
534.387040	2688.144877
534.747999	2685.775535
535.108902	2685.231090
535.469748	2679.176664
535.830537	2677.134997
536.191270	2679.668177
536.551947	2676.560305
536.912567	2672.489574
537.273131	2675.932682
537.633638	2666.089829
537.994089	2666.624191
538.354483	2663.186124
538.714821	2664.146464
539.075103	2664.474139
539.435328	2659.591782
539.795497	2654.061636
540.155609	2651.281439
540.515665	2651.243631
540.875665	2648.029895
541.235609	2648.566778
541.595496	2644.435552
541.955328	2643.757517
542.315102	2638.537402
542.674821	2632.165384
543.034483	2631.230250
543.394090	2628.543315
543.753640	2625.342182
544.113134	2624.104579
544.472571	2615.774072
544.831953	2622.173817
545.191278	2611.816767
545.550548	2606.412650
545.909761	2609.454986
546.268918	2605.900972
546.628019	2602.064654
546.987064	2597.451999
547.346053	2594.283633
547.704986	2590.444795
548.063863	2585.869948
548.422684	2583.535893
548.781449	2578.618248
549.140158	2582.257961
549.498811	2575.235634
549.857408	2571.389233
550.215949	2567.920919
550.574434	2564.742472
550.932864	2561.495969
551.291237	2563.101576
551.649555	2562.728531
552.007817	2558.499003
552.366022	2554.110678
552.724173	2552.757129
553.082267	2551.683363
553.440305	2548.459545
553.798288	2547.234545
554.156215	2545.150028
554.514086	2544.136756
554.871902	2540.852444
555.229661	2540.381096
555.587365	2536.844727
555.945014	2534.346835
556.302606	2533.583100
556.660143	2535.332380
557.017625	2533.268028
557.375050	2528.710825
557.732421	2529.635877
558.089735	2529.071267
558.446994	2524.703108
558.804197	2530.717204
559.161345	2524.645134
559.518437	2523.654547
559.875474	2520.740761
560.232455	2520.392921
560.589381	2520.173631
560.946251	2521.514578
561.303065	2519.044412
561.659825	2516.218846
562.016528	2518.494927
562.373177	2517.373270
562.729770	2517.829494
563.086307	2512.203567
563.442789	2514.131808
563.799216	2513.441170
564.155587	2512.725326
564.511904	2510.197187
564.868164	2511.447393
565.224370	2509.045284
565.580520	2510.101405
565.936615	2509.625016
566.292654	2509.849348
566.648638	2511.918741
567.004567	2507.752228
567.360441	2507.646363
567.716260	2507.459841
568.072023	2505.702999
568.427732	2505.299706
568.783385	2506.272649
569.138982	2503.938595
569.494525	2502.325426
569.850013	2499.918275
570.205445	2505.687875
570.560823	2503.096722
570.916145	2500.498007
571.271412	2505.403050
571.626625	2504.881291
571.981782	2504.583862
572.336884	2506.025632
572.691931	2500.535816
573.046923	2501.082781
573.401860	2504.389778
573.756743	2501.836434
574.111570	2501.947339
574.466342	2503.016064
574.821059	2501.478512
575.175722	2499.353665
575.530330	2498.010198
575.884882	2497.596823
576.239380	2496.265959
576.593823	2498.776453
576.948211	2498.153871
577.302544	2497.664879
577.656823	2495.076246
578.011047	2500.553460
578.365216	2498.511793
578.719330	2495.230002
579.073389	2495.358551
579.427394	2498.778974
579.781344	2495.968531
580.135239	2495.696308
580.489080	2492.880824
580.842866	2490.574496
581.196597	2497.148161
581.550273	2497.075064
581.903895	2492.812768
582.257463	2494.844353
582.610975	2493.465598
582.964434	2493.175731
583.317837	2491.726400
583.671186	2489.871255
584.024481	2493.700011
584.377721	2491.242449
584.730906	2490.645072
585.084037	2490.640031
585.437113	2489.609115
585.790135	2491.343272
586.143103	2490.461070
586.496016	2490.564414
586.848874	2486.793631
587.201679	2483.388331
587.554428	2485.659371
587.907124	2488.706748
588.259765	2483.085862
588.612352	2489.498210
588.964884	2487.249855
589.317362	2486.720534
589.669786	2486.957468
590.022155	2488.777325
590.374470	2486.458394
590.726731	2485.929073
591.078937	2486.037457
591.431090	2484.154587
591.783188	2482.808598
592.135232	2485.475369
592.487222	2483.022848
592.839157	2483.983187
593.191038	2481.870944
593.542866	2480.577888
593.894639	2482.095275
594.246358	2482.236428
594.598022	2483.214411
594.949633	2480.222487
595.301190	2479.511684
595.652692	2480.603094
596.004141	2481.271047
596.355535	2479.857003
596.706876	2476.643267
597.058162	2479.582260
597.409395	2479.950264
597.760573	2477.883391
598.111698	2480.161993
598.462768	2479.027733
598.813785	2478.148052
599.164748	2477.091930
599.515657	2478.629482
599.866511	2478.929431
600.217312	2477.754842
600.568060	2474.833493
600.918753	2477.782568
601.269392	2478.180819
601.619978	2473.792495
601.970510	2476.761734
602.320988	2475.065386
602.671412	2476.076137
603.021783	2474.649491
603.372100	2476.411374
603.722363	2475.014975
604.072572	2473.570684
604.422728	2477.225521
604.772830	2471.143368
605.122878	2470.545992
605.472872	2472.232258
605.822813	2470.518265
606.172701	2473.779892
606.522534	2476.292907
606.872314	2474.314254
607.222041	2473.532875
607.571714	2473.411888
607.921333	2472.622947
608.270899	2473.432052
608.620411	2472.839717
608.969870	2472.386013
609.319276	2475.279635
609.668627	2471.655046
610.017926	2474.682258
610.367171	2474.203349
610.716362	2476.376086
611.065500	2476.234934
611.414585	2472.814511
611.763616	2474.974645
612.112594	2474.004223
612.461518	2474.152937
612.810389	2473.573205
613.159207	2478.203504
613.507971	2472.721250
613.856682	2476.277784
614.205340	2470.944243
614.553945	2476.456745
614.902496	2473.326188
615.250994	2474.810808
615.599439	2473.323667
615.947830	2475.135962
616.296169	2476.237454
616.644454	2476.446662
616.992686	2474.836014
617.340864	2476.103864
617.688990	2473.938688
618.037063	2476.106384
618.385082	2475.798874
618.733048	2474.178143
619.080961	2476.691158
619.428821	2474.495736
619.776628	2474.841055
620.124382	2475.713174
620.472083	2472.837196
620.819731	2477.449852
621.167326	2473.059007
621.514868	2474.962042
621.862357	2472.010447
622.209793	2474.682258
622.557176	2471.201342
622.904506	2471.793677
623.251783	2465.489714
623.599007	2468.794191
623.946179	2466.122379
624.293297	2468.670683
624.640363	2468.307719
624.987376	2467.168419
625.334336	2465.837554
625.681243	2464.020218
626.028097	2466.472739
626.374899	2467.722946
626.721647	2464.589868
627.068343	2470.324181
627.414987	2465.933336
627.761577	2464.534416
628.108115	2466.061885
628.454600	2465.061216
628.801032	2463.579117
629.147412	2462.328911
629.493739	2465.063737
629.840014	2462.028962
630.186236	2462.896041
630.532405	2463.995012
630.878521	2460.080556
631.224585	2461.411421
631.570597	2459.825978
631.916556	2463.868983
632.262462	2462.873356
632.608316	2462.056689
632.954117	2459.957048
633.299866	2462.394446
633.645562	2462.109621
633.991206	2461.116513
634.336797	2459.594085
634.682336	2457.864969
635.027823	2457.950669
635.373257	2459.962089
635.718639	2460.176338
636.063968	2458.454784
636.409245	2456.874383
636.754470	2457.428909
637.099642	2451.898764
637.444762	2455.669547
637.789829	2456.178703
638.134845	2454.799948
638.479808	2455.256172
638.824719	2456.808848
639.169577	2454.068980
639.514383	2452.685184
639.859137	2455.707355
640.203839	2452.231480
640.548489	2450.610749
640.893086	2450.978753
641.237632	2445.254523
641.582125	2448.740481
641.926566	2447.477672
642.270955	2452.687704
642.615292	2452.722992
642.959576	2452.410441
643.303809	2454.525205
643.647990	2449.718465
643.992118	2448.495985
644.336195	2451.377004
644.680219	2450.804833
645.024192	2453.827005
645.368112	2455.052005
645.711981	2452.009669
646.055797	2450.358691
646.399562	2454.038733
646.743274	2454.951182
647.086935	2456.236677
647.430544	2455.483024
647.774101	2454.071501
648.117606	2454.091666
648.461059	2453.857252
648.804460	2455.737602
649.147810	2455.142746
649.491108	2453.043106
649.834354	2452.811213
650.177548	2449.743670
650.520690	2450.431788
650.863781	2450.956068
651.206820	2451.855914
651.549807	2450.401541
651.892742	2449.947837
652.235626	2447.316355
652.578458	2447.588577
652.921238	2447.011365
653.263967	2452.173507
653.606644	2447.207970
653.949269	2445.826694
654.291843	2444.402568
654.634365	2448.261571
654.976836	2446.388783
655.319255	2448.460697
655.661622	2448.395162
656.003938	2446.827363
656.346203	2444.820984
656.688416	2443.737136
657.030577	2444.211004
657.372687	2446.474482
657.714746	2446.613114
658.056753	2444.510953
658.398708	2441.939964
658.740612	2447.439863
659.082465	2440.377207
659.424266	2445.655295
659.766016	2440.309151
660.107715	2444.364759
660.449362	2445.662856
660.790958	2444.548761
661.132503	2445.375511
661.473996	2444.808381
661.815438	2442.018102
662.156829	2446.411468
662.498168	2444.039605
662.839456	2445.428443
663.180693	2445.390634
663.521879	2443.875767
663.863013	2444.536158
664.204097	2443.664039
664.545129	2445.887188
664.886110	2443.648915
665.227040	2445.279729
665.567918	2445.955243
665.908746	2443.722012
666.249522	2447.328958
666.590248	2442.318051
666.930922	2445.816612
667.271545	2445.919955
667.612118	2448.039760
667.952639	2443.162444
668.293109	2445.579677
668.633528	2444.931889
668.973896	2448.657302
669.314213	2445.504060
669.654480	2446.953392
669.994695	2445.592280
670.334859	2444.911724
670.674973	2442.008020
671.015035	2445.718309
671.355047	2443.331323
671.695008	2445.531786
672.034918	2443.477516
672.374777	2442.549944
672.714585	2444.226127
673.054342	2445.738474
673.394049	2446.015737
673.733705	2443.429625
674.073310	2445.703186
674.412864	2445.123453
674.752368	2443.233020
675.091820	2444.576488
675.431223	2441.055242
675.770574	2443.671601
676.109875	2439.366455
676.449125	2440.755293
676.788324	2436.707247
677.127473	2441.400561
677.466571	2436.913934
677.805619	2442.295366
678.144616	2440.664552
678.483562	2441.244285
678.822458	2440.611620
679.161303	2440.891404
679.500098	2439.860488
679.838842	2440.488112
680.177535	2441.612289
680.516179	2441.876950
680.854771	2438.292689
681.193314	2441.844182
681.531805	2441.481219
681.870247	2441.597166
682.208638	2443.568257
682.546978	2443.384255
682.885268	2443.290993
683.223508	2444.505912
683.561697	2443.283432
683.899836	2443.379214
684.237925	2442.582711
684.575963	2442.920469
684.913951	2441.597166
685.251889	2441.836621
685.589776	2441.390478
685.927614	2443.714450
686.265401	2444.853751
686.603137	2443.185129
686.940824	2444.483226
687.278460	2443.217897
687.616046	2445.015068
687.953582	2445.337702
688.291068	2445.133535
688.628504	2446.824842
688.965889	2443.212856
689.303224	2445.451128
689.640510	2443.885850
689.977745	2442.507094
690.314930	2444.934410
690.652065	2440.170519
690.989150	2439.303441
691.326185	2440.677155
691.663170	2440.178081
692.000105	2438.985848
692.336990	2437.057607
692.673825	2437.982658
693.010610	2437.299582
693.347345	2434.993254
693.684030	2431.945877
694.020665	2430.839343
694.357251	2428.921184
694.693786	2435.474684
695.030272	2432.457554
695.366707	2432.051741
695.703093	2429.972265
696.039429	2431.096442
696.375716	2430.957811
696.711952	2433.102822
697.048139	2432.457554
697.384276	2430.229364
697.720363	2431.184663
698.056400	2433.082657
698.392388	2433.730445
698.728326	2431.240115
699.064214	2429.848757
699.400053	2431.207348
699.735842	2431.040990
700.071581	2429.304312
700.407270	2428.613674
700.742910	2426.204002
701.078501	2428.285999
701.414042	2427.055958
701.749533	2426.168714
702.084974	2429.342121
702.420366	2425.954465
702.755709	2425.954465
703.091002	2428.044024
703.426246	2426.312387
703.761440	2427.421441
704.096584	2428.873293
704.431679	2425.682243
704.766725	2425.664599
705.101721	2426.687953
705.436668	2421.533373
705.771565	2426.249373
706.106413	2424.432037
706.441212	2426.335073
706.775961	2427.287851
707.110661	2425.548653
707.445311	2425.924218
707.779913	2429.218613
708.114465	2424.747109
708.448967	2427.653334
708.783421	2428.757347
709.117825	2430.985537
709.452180	2430.151226
709.786485	2428.749785
710.120742	2430.322625
710.454949	2432.026535
710.789107	2429.815989
711.123216	2425.883889
711.457275	2428.664086
711.791286	2426.478745
712.125247	2428.094435
712.459159	2431.628284
712.793023	2432.447472
713.126837	2432.679365
713.460602	2433.604416
713.794318	2432.369334
714.127985	2431.882862
714.461602	2428.054106
714.795171	2429.274065
715.128691	2429.478232
715.462162	2431.035948
715.795584	2428.207861
716.128957	2425.926739
716.462281	2427.726431
716.795556	2428.205341
717.128782	2426.153591
717.461960	2426.582089
717.795088	2425.137798
718.128167	2422.629824
718.461198	2423.254927
718.794180	2423.948086
719.127113	2422.677715
719.459997	2425.170566
719.792833	2422.864238
720.125619	2423.423806
720.458357	2420.930956
720.791046	2421.780390
721.123686	2420.905750
721.456278	2423.650658
721.788821	2421.367015
722.121315	2422.672674
722.453761	2417.707138
722.786158	2421.551017
723.118506	2422.503796
723.450805	2421.656882
723.783056	2420.280647
724.115259	2423.043199
724.447412	2422.849115
724.779518	2422.350040
725.111574	2422.040009
725.443582	2423.469177
725.775542	2422.234094
726.107453	2422.314752
726.439315	2423.259969
726.771129	2427.885227
727.102895	2427.149219
727.434612	2426.035124
727.766281	2425.954465
728.097901	2422.939855
728.429473	2423.270051
728.760996	2425.200813
729.092471	2421.109917
729.423897	2423.406162
729.755276	2423.509506
730.086606	2427.454209
730.417887	2427.650814
730.749120	2426.945052
731.080305	2430.063006
731.411442	2425.974630
731.742530	2430.040321
732.073570	2430.448654
732.404562	2428.964034
732.735506	2428.908582
733.066401	2425.223498
733.397249	2428.769950
733.728048	2424.298446
734.058798	2426.120823
734.389501	2422.808785
734.720156	2422.781059
735.050762	2423.262489
735.381320	2419.350554
735.711831	2421.319124
736.042293	2419.469021
736.372707	2419.673188
736.703073	2423.141502
737.033391	2421.803075
737.363661	2422.730647
737.693883	2422.168559
738.024056	2422.665112
738.354182	2422.155956
738.684260	2423.456574
739.014290	2421.845925
739.344272	2422.448343
739.674207	2422.304670
740.004093	2427.605443
740.333931	2423.930442
740.663722	2424.182500
740.993464	2426.113262
741.323159	2424.502613
741.652806	2422.342479
741.982405	2423.156625
742.311956	2423.660740
742.641460	2422.158477
742.970915	2423.706111
743.300323	2419.549679
743.629683	2419.385842
743.958996	2422.019845
744.288260	2420.237797
744.617477	2421.288877
744.946647	2414.687487
745.275768	2414.591705
745.604842	2413.134811
745.933869	2416.671181
746.262847	2414.281674
746.591778	2419.426171
746.920662	2418.712848
747.249498	2416.973650
747.578286	2418.080183
747.907027	2417.865934
748.235720	2417.016500
748.564365	2419.963054
748.892963	2420.767118
749.221514	2418.072621
749.550017	2417.571027
749.878473	2422.912129
750.206881	2418.821233
750.535242	2417.437436
750.863555	2415.872158
751.191821	2418.934659
751.520039	2419.600091
751.848210	2414.795871
752.176334	2417.956675
752.504411	2418.014648
752.832440	2415.189081
753.160421	2419.282498
753.488356	2417.417271
753.816243	2418.130595
754.144082	2417.379463
754.471875	2416.300656
754.799620	2416.300656
755.127318	2417.853331
755.454969	2418.712848
755.782572	2417.906263
756.110129	2416.777045
756.437638	2417.260996
756.765100	2415.642785
757.092515	2418.405337
757.419882	2416.656057
757.747203	2417.760070
758.074477	2417.528177
758.401703	2415.612538
758.728882	2416.930800
759.056014	2419.348033
759.383099	2416.310738
759.710138	2418.470873
760.037129	2416.542631
760.364073	2418.034813
760.690970	2416.237641
761.017820	2420.724268
761.344623	2419.085893
761.671379	2418.284350
761.998088	2415.655388
762.324751	2423.373395
762.651366	2426.007397
762.977935	2435.267997
763.304456	2434.360589
763.630931	2441.425767
763.957359	2438.345622
764.283740	2432.487801
764.610074	2431.807245
764.936362	2429.054775
765.262602	2425.283992
765.588796	2422.576892
765.914943	2421.309042
766.241044	2417.379463
766.567097	2418.541449
766.893104	2416.187230
767.219064	2415.799061
767.544978	2417.137487
767.870845	2413.568350
768.196665	2413.646488
768.522438	2414.382497
768.848165	2414.369894
769.173846	2414.483320
769.499479	2413.656571
769.825066	2413.412075
770.150607	2412.734039
770.476101	2413.495254
770.801548	2412.577764
771.126949	2411.710685
771.452303	2413.026426
771.777611	2411.708165
772.102872	2411.597259
772.428087	2410.770510
772.753256	2410.336971
773.078378	2409.714388
773.403453	2410.437794
773.728482	2410.848648
774.053465	2410.755387
774.378401	2410.238668
774.703291	2410.919224
775.028135	2406.483009
775.352932	2410.054666
775.677683	2408.015519
776.002388	2409.348905
776.327046	2407.997875
776.651658	2407.786147
776.976224	2407.791188
777.300743	2410.604152
777.625216	2410.039543
777.949643	2410.158010
778.274024	2406.561147
778.598359	2406.399830
778.922647	2404.184242
779.246889	2408.166754
779.571086	2405.444531
779.895236	2409.611045
780.219339	2411.937537
780.543397	2409.197670
780.867409	2407.551733
781.191374	2408.857392
781.515294	2410.888977
781.839167	2411.884605
782.162995	2410.218504
782.486776	2407.511404
782.810511	2407.539130
783.134201	2408.842269
783.457844	2408.663308
783.781441	2405.308420
784.104993	2406.193142
784.428498	2408.401168
784.751958	2408.920407
785.075372	2407.647515
785.398739	2408.517114
785.722061	2407.382855
786.045337	2406.757752
786.368568	2408.302865
786.691752	2405.172309
787.014891	2410.183216
787.337983	2410.336971
787.661030	2411.201529
787.984031	2411.216652
788.306987	2411.688000
788.629897	2412.678587
788.952760	2415.441139
789.275579	2410.614234
789.598351	2411.990469
789.921078	2412.136663
790.243759	2409.600962
790.566395	2409.512742
790.888984	2408.055849
791.211529	2407.284552
791.534027	2410.281518
791.856480	2407.884449
792.178888	2409.749676
792.501249	2407.655077
792.823566	2410.810839
793.145836	2408.353277
793.468062	2409.220355
793.790241	2406.558626
794.112375	2409.411919
794.434464	2409.043915
794.756507	2408.643143
795.078505	2407.458472
795.400457	2409.227917
795.722364	2403.223903
796.044226	2407.629871
796.366042	2406.067113
796.687812	2405.958729
797.009538	2409.351425
797.331218	2408.864954
797.652852	2408.675911
797.974442	2408.534758
798.295986	2408.549882
798.617484	2408.912845
798.938938	2409.676580
799.260346	2410.432753
799.581709	2406.147772
799.903026	2410.647002
800.224299	2408.895201
800.545526	2407.032494
800.866708	2405.242885
801.187845	2406.949315
801.508936	2407.080385
801.829983	2409.996693
802.150984	2408.348236
802.471940	2407.597104
802.792851	2406.379665
803.113717	2407.070303
803.434538	2404.559808
803.755314	2407.264388
804.076045	2406.578791
804.396731	2409.323699
804.717372	2408.265057
805.037967	2406.535941
805.358518	2405.600807
805.679024	2405.305899
805.999485	2405.666342
806.319901	2405.837741
806.640272	2407.960067
806.960598	2406.992165
807.280879	2407.498801
807.601115	2407.844120
807.921306	2407.443348
808.241453	2407.453431
808.561554	2407.148441
808.881611	2408.300345
809.201623	2408.711199
809.521590	2408.600293
809.841513	2407.823956
810.161390	2406.513256
810.481223	2408.812022
810.801011	2406.815725
811.120755	2408.212124
811.440453	2407.322361
811.760107	2404.204407
812.079716	2405.429407
812.399281	2402.097205
812.718801	2404.766496
813.038276	2400.635270
813.357707	2405.774727
813.677093	2406.115004
813.996434	2403.788512
814.315731	2403.024777
814.634983	2406.051990
814.954191	2405.530231
815.273354	2406.722463
815.592473	2405.255488
815.911547	2404.842113
816.230577	2408.191960
816.549562	2407.902093
816.868502	2407.385375
817.187399	2409.565674
817.506250	2409.636250
817.825058	2405.936043
818.143821	2409.369069
818.462539	2411.377969
818.781213	2407.695406
819.099843	2411.748494
819.418429	2416.409041
819.736970	2417.008938
820.055466	2421.745102
820.373919	2422.241656
820.692327	2427.413879
821.010691	2437.435693
821.329011	2458.905968
821.647286	2492.086842
821.965517	2528.741072
822.283704	2550.418033
822.601847	2555.769218
822.919945	2537.739531
823.237999	2522.192613
823.556010	2506.481857
823.873976	2486.773466
824.191897	2471.629840
824.509775	2459.916719
824.827609	2453.995884
825.145398	2449.113526
825.463144	2445.083124
825.780845	2443.462393
826.098502	2446.971036
826.416116	2455.883796
826.733685	2465.388891
827.051210	2468.708491
827.368692	2461.529888
827.686129	2454.517643
828.003522	2446.030861
828.320872	2432.548295
828.638177	2428.742223
828.955439	2423.292736
829.272656	2420.142015
829.589830	2414.327044
829.906960	2416.557755
830.224046	2412.131622
830.541088	2415.524318
830.858086	2410.205901
831.175041	2411.204049
831.491952	2412.645819
831.808819	2411.839235
832.125642	2413.202867
832.442421	2410.515932
832.759157	2419.705955
833.075849	2426.478745
833.392497	2430.751123
833.709101	2435.298244
834.025662	2437.241609
834.342179	2430.466298
834.658653	2427.313056
834.975083	2423.058322
835.291469	2427.476894
835.607811	2413.477610
835.924110	2413.550706
836.240366	2414.586663
836.556578	2408.943092
836.872746	2412.746642
837.188871	2407.045097
837.504952	2408.625499
837.820990	2406.898904
838.136984	2408.648184
838.452935	2406.838410
838.768842	2404.993348
839.084706	2405.137021
839.400526	2410.662125
839.716303	2413.752352
840.032037	2413.888464
840.347727	2413.875861
840.663373	2414.324523
840.978977	2410.452917
841.294537	2407.914696
841.610054	2408.759090
841.925527	2408.227248
842.240957	2400.789025
842.556344	2404.390930
842.871687	2406.178019
843.186987	2405.875550
843.502244	2400.020249
843.817458	2400.393295
844.132629	2404.025446
844.447756	2400.476474
844.762840	2395.021945
845.077881	2401.262894
845.392879	2395.246277
845.707833	2401.036042
846.022745	2395.916750
846.337613	2398.759961
846.652438	2401.325908
846.967221	2399.538819
847.281960	2401.330949
847.596656	2401.840106
847.911309	2401.759447
848.225919	2400.978069
848.540485	2400.471433
848.855009	2400.146278
849.169490	2400.731052
849.483928	2402.162740
849.798323	2398.986813
850.112675	2402.810528
850.426984	2399.185938
850.741251	2397.061092
851.055474	2399.916906
851.369654	2400.605023
851.683792	2398.603685
851.997887	2398.581000
852.311938	2398.351627
852.625947	2398.933881
852.939914	2398.855743
853.253837	2401.368758
853.567718	2399.924468
853.881555	2400.826834
854.195350	2400.053017
854.509103	2398.344066
854.822812	2400.529406
855.136479	2398.757440
855.450103	2400.887328
855.763685	2400.773902
856.077224	2398.757440
856.390720	2398.452451
856.704173	2399.286762
857.017584	2400.902451
857.330953	2398.225599
857.644278	2397.729045
857.957561	2400.017729
858.270802	2402.566032
858.584000	2400.839437
858.897155	2396.584703
859.210268	2401.378840
859.523339	2397.217368
859.836367	2399.465723
860.149352	2401.875394
860.462295	2400.549571
860.775195	2400.073182
861.088054	2396.312481
861.400869	2398.094529
861.713642	2394.230484
862.026373	2401.479663
862.339062	2400.247101
862.651708	2399.521175
862.964312	2400.985630
863.276873	2398.732235
863.589392	2400.758778
863.901869	2401.078892
864.214303	2400.415980
864.526696	2402.351783
864.839045	2401.693912
865.151353	2401.968655
865.463619	2402.220713
865.775842	2400.637791
866.088023	2400.005126
866.400162	2399.924468
866.712258	2400.494118
867.024313	2398.568397
867.336325	2399.609395
867.648296	2400.332801
867.960224	2398.916237
868.272110	2400.254663
868.583954	2400.375651
868.895755	2401.827503
869.207515	2401.081412
869.519233	2399.551422
869.830909	2399.669889
870.142542	2403.821279
870.454134	2399.425393
870.765684	2400.297513
871.077191	2402.850857
871.388657	2401.071330
871.700081	2398.177708
872.011463	2400.990672
872.322803	2401.272976
872.634101	2402.515621
872.945357	2400.519324
873.256571	2402.550909
873.567744	2402.122411
873.878874	2399.432955
874.189963	2405.106774
874.501010	2404.912689
874.812015	2400.552091
875.122979	2402.361865
875.433900	2404.259860
875.744780	2403.841444
876.055618	2403.561660
876.366415	2401.063768
876.677169	2404.368245
876.987882	2399.869015
877.298554	2399.075033
877.609183	2402.172822
877.919771	2398.538150
878.230317	2401.003274
878.540822	2404.249778
878.851285	2406.092319
879.161707	2406.485529
879.472087	2412.507188
879.782425	2411.463669
880.092722	2424.278282
880.402977	2434.005188
880.713191	2448.662343
881.023363	2465.068778
881.333494	2472.567494
881.643583	2474.904069
881.953631	2477.114615
882.263637	2467.985086
882.573602	2465.121710
882.883526	2458.767336
883.193408	2450.681325
883.503248	2445.456169
883.813048	2442.335695
884.122806	2435.192380
884.432522	2429.747934
884.742197	2423.837181
885.051831	2421.309042
885.361424	2419.511871
885.670975	2415.768814
885.980485	2414.639596
886.289954	2411.551889
886.599382	2410.707496
886.908768	2412.134142
887.218113	2408.600293
887.527417	2406.414953
887.836680	2405.953688
888.145901	2407.869326
888.455082	2406.568708
888.764221	2404.007802
889.073319	2402.422359
889.382376	2401.633419
889.691392	2403.584345
890.000366	2402.319016
890.309300	2404.181722
890.618193	2404.688358
890.927044	2401.940929
891.235855	2401.620816
891.544625	2402.601320
891.853353	2403.541495
892.162041	2402.157699
892.470687	2403.972514
892.779293	2405.552916
893.087858	2405.053842
893.396381	2404.988307
893.704864	2410.246230
894.013306	2410.757907
894.321707	2419.166552
894.630068	2422.985226
894.938387	2421.377098
895.246665	2425.231060
895.554903	2419.032961
895.863100	2415.829308
896.171256	2415.720923
896.479371	2415.685635
896.787446	2411.630027
897.095480	2410.672208
897.403473	2410.367218
897.711425	2406.908986
898.019336	2405.956208
898.327207	2407.972670
898.635038	2404.204407
898.942827	2404.849675
899.250576	2401.509910
899.558284	2402.981927
899.865952	2404.365724
900.173579	2402.102246
900.481165	2403.239026
900.788711	2402.470250
901.096216	2401.184756
901.403681	2400.940260
901.711105	2403.735580
902.018489	2400.688202
902.325832	2405.976373
902.633135	2399.611916
902.940397	2404.174160
903.247619	2409.278328
903.554800	2412.529873
903.861941	2421.409865
904.169041	2427.945721
904.476101	2428.079312
904.783121	2427.882707
905.090100	2421.750143
905.397039	2420.699062
905.703938	2415.930131
906.010796	2415.589853
906.317614	2412.613052
906.624391	2410.760428
906.931129	2410.495767
907.237826	2407.629871
907.544483	2404.993348
907.851099	2404.766496
908.157675	2401.968655
908.464211	2403.354973
908.770707	2396.562018
909.077163	2397.275341
909.383578	2398.031514
909.689954	2399.596792
909.996289	2394.215361
910.302584	2400.131155
910.608839	2399.276679
910.915054	2396.791390
911.221229	2399.521175
911.527363	2401.187277
911.833458	2397.885321
912.139513	2399.216185
912.445527	2396.438510
912.751502	2397.436658
913.057436	2400.889848
913.363331	2400.363048
913.669186	2402.122411
913.975000	2403.584345
914.280775	2400.814231
914.586510	2406.009140
914.892205	2410.624317
915.197859	2412.439132
915.503475	2418.899371
915.809050	2425.924218
916.114585	2425.677202
916.420081	2425.107552
916.725536	2427.784404
917.030952	2424.363981
917.336328	2422.473549
917.641665	2420.943558
917.946961	2420.857859
918.252218	2417.772673
918.557435	2415.468865
918.862612	2413.318813
919.167750	2411.067938
919.472848	2411.682959
919.777906	2408.345715
920.082925	2408.630540
920.387904	2405.590724
920.692843	2403.065106
920.997743	2399.586710
921.302603	2405.663821
921.607423	2403.055024
921.912204	2403.435631
922.216946	2401.761968
922.521647	2400.103428
922.826310	2398.646535
923.130932	2398.563356
923.435516	2397.603016
923.740059	2401.094015
924.044564	2398.906154
924.349028	2396.277193
924.653454	2395.205947
924.957840	2394.641338
925.262186	2395.939435
925.566493	2394.943807
925.870761	2391.967006
926.174989	2397.597975
926.479178	2395.064795
926.783328	2395.891544
927.087438	2396.204096
927.391509	2397.262738
927.695541	2397.255177
927.999533	2395.231153
928.303486	2394.109497
928.607400	2396.435989
928.911275	2394.185114
929.215110	2395.185783
929.518906	2393.691081
929.822663	2395.352141
930.126381	2397.219888
930.430060	2393.653272
930.733699	2396.020094
931.037299	2393.358365
931.340861	2395.132851
931.644383	2397.235012
931.947866	2395.495814
932.251309	2397.572769
932.554714	2394.651421
932.858080	2396.136040
933.161407	2396.529250
933.464694	2395.266441
933.767943	2393.890206
934.071153	2394.870711
934.374323	2397.529919
934.677455	2395.334497
934.980548	2396.168808
935.283602	2396.521689
935.586617	2395.090001
935.889593	2394.626215
936.192530	2396.239384
936.495428	2397.983623
936.798287	2397.555125
937.101108	2395.090001
937.403890	2397.282903
937.706632	2397.839950
938.009336	2399.082595
938.312002	2397.804662
938.614628	2396.085629
938.917216	2398.364230
939.219765	2397.156874
939.522275	2397.910527
939.824747	2398.737276
940.127179	2392.834085
940.429573	2394.807696
940.731929	2396.751061
941.034246	2394.114538
941.336524	2401.648542
941.638763	2397.101421
941.940964	2395.808365
942.243126	2399.909344
942.545250	2397.890362
942.847335	2397.371123
943.149381	2398.520506
943.451389	2397.779457
943.753359	2395.334497
944.055290	2397.139230
944.357182	2393.406256
944.659036	2395.258880
944.960851	2395.866339
945.262628	2395.561349
945.564367	2396.677964
945.866067	2396.400701
946.167729	2397.063613
946.469352	2395.702501
946.770937	2396.229302
947.072484	2395.841133
947.373992	2397.940773
947.675462	2396.221740
947.976893	2396.166287
948.278286	2397.963459
948.579641	2394.406925
948.880958	2393.081101
949.182236	2395.195865
949.483476	2393.428941
949.784678	2394.802655
950.085841	2392.995402
950.386967	2393.610422
950.688054	2397.013201
950.989103	2396.239384
951.290114	2394.104455
951.591087	2394.792573
951.892021	2398.170146
952.192917	2396.960269
952.493776	2396.897255
952.794596	2394.911040
953.095378	2396.763664
953.396122	2396.720814
953.696828	2395.916750
953.997496	2394.064126
954.298126	2394.772408
954.598718	2395.604199
954.899272	2395.841133
955.199788	2393.917933
955.500266	2396.191493
955.800706	2392.042623
956.101108	2388.569268
956.401472	2392.660165
956.701798	2389.988353
957.002087	2392.677809
957.302337	2392.937428
957.602550	2393.496996
957.902724	2394.608571
958.202861	2392.977758
958.502960	2395.107645
958.803022	2395.382388
959.103045	2395.800804
959.403031	2392.539177
959.702979	2391.704866
960.002889	2395.067316
960.302762	2391.737634
960.602596	2391.757798
960.902393	2389.645555
961.202153	2392.274517
961.501875	2393.229815
961.801559	2394.147305
962.101205	2393.244939
962.400814	2396.264590
962.700385	2392.047665
962.999918	2393.280227
963.299414	2392.564383
963.598873	2394.900958
963.898293	2392.975237
964.197677	2392.108158
964.497022	2392.738303
964.796331	2391.982130
965.095601	2396.057902
965.394835	2394.162429
965.694030	2393.948180
965.993189	2393.517161
966.292309	2392.428272
966.591393	2391.566234
966.890439	2393.902809
967.189447	2391.112531
967.488419	2393.436503
967.787353	2395.372306
968.086249	2394.240567
968.385108	2393.847357
968.683930	2394.157387
968.982714	2392.037582
969.281462	2390.996584
969.580172	2394.018756
969.878844	2392.829043
970.177480	2392.546739
970.476078	2392.846687
970.774639	2393.542367
971.073162	2390.505072
971.371649	2394.018756
971.670098	2391.258724
971.968510	2389.282592
972.266885	2388.297046
972.565223	2392.854249
972.863524	2392.884496
973.161788	2393.149157
973.460014	2391.636811
973.758204	2392.975237
974.056356	2391.155380
974.354471	2393.249980
974.652550	2395.195865
974.950591	2395.100083
975.248595	2394.437172
975.546563	2393.746533
975.844493	2392.871893
976.142386	2392.881976
976.440243	2392.370298
976.738062	2394.883314
977.035845	2393.673437
977.333590	2395.004301
977.631299	2391.820813
977.928971	2393.446585
978.226606	2393.474311
978.524204	2393.234856
978.821765	2394.522871
979.119290	2392.125803
979.416777	2390.366440
979.714228	2392.095556
980.011642	2392.367778
980.309020	2394.805176
980.606360	2392.791235
980.903664	2392.879455
981.200931	2394.575803
981.498162	2396.204096
981.795356	2393.865001
982.092513	2395.447923
982.389633	2396.095711
982.686717	2393.280227
982.983764	2396.574621
983.280775	2394.719476
983.577749	2394.598488
983.874686	2395.563869
984.171587	2397.413973
984.468451	2396.705691
984.765279	2394.883314
985.062070	2397.272821
985.358824	2395.820968
985.655543	2394.641338
985.952224	2392.032541
986.248869	2391.394835
986.545478	2389.522047
986.842050	2390.653786
987.138586	2386.522560
987.435086	2388.854094
987.731549	2387.306459
988.027975	2392.652603
988.324366	2391.525905
988.620719	2389.239742
988.917037	2393.532284
989.213318	2393.010525
989.509563	2392.302243
989.805772	2393.544887
990.101944	2391.450288
990.398080	2392.665206
990.694180	2388.975081
990.990244	2392.894578
991.286271	2390.459701
991.582262	2391.135216
991.878217	2392.851729
992.174136	2393.302912
992.470019	2393.179404
992.765865	2391.372150
993.061676	2393.401214
993.357450	2391.672099
993.653188	2392.952552
993.948890	2393.239898
994.244556	2390.968858
994.540186	2392.692932
994.835780	2393.691081
995.131337	2390.406769
995.426859	2392.347613
995.722345	2395.866339
996.017795	2394.469939
996.313208	2394.364075
996.608586	2394.595968
996.903928	2394.255690
997.199234	2392.690412
997.494504	2392.181255
997.789738	2394.565721
998.084936	2396.909858
998.380099	2392.307284
998.675225	2395.929353
998.970316	2395.770557
999.265371	2394.837943
999.560390	2393.774260
999.855373	2392.647562
1000.150320	2393.980947
1000.445232	2396.070505
1000.740108	2390.951214
1001.034948	2391.893909
1001.329752	2393.476832
1001.624521	2392.266955
1001.919254	2386.545245
1002.213951	2389.408621
1002.508613	2387.576161
1002.803239	2387.505585
1003.097829	2387.550955
1003.392384	2391.934239
1003.686903	2389.501882
1003.981386	2392.592109
1004.275834	2391.299053
1004.570246	2389.048178
1004.864623	2392.103117
1005.158964	2392.166132
1005.453270	2390.711759
1005.747540	2390.091697
1006.041775	2393.249980
1006.335974	2390.870555
1006.630138	2390.167314
1006.924266	2393.749054
1007.218359	2390.729403
1007.512416	2392.219064
1007.806438	2389.025493
1008.100425	2391.563714
1008.394376	2391.140257
1008.688292	2392.198899
1008.982172	2391.954403
1009.276017	2389.363250
1009.569827	2389.821995
1009.863602	2389.988353
1010.157341	2391.765360
1010.451045	2390.651265
1010.744714	2391.488097
1011.038347	2391.029352
1011.331945	2393.570093
1011.625508	2393.025648
1011.919036	2390.000956
1012.212528	2388.478528
1012.505986	2388.856614
1012.799408	2390.794938
1013.092795	2392.435833
1013.386147	2391.704866
1013.679464	2391.009187
1013.972745	2391.694784
1014.265992	2391.034393
1014.559204	2391.072201
1014.852380	2393.151677
1015.145521	2390.794938
1015.438628	2390.195041
1015.731699	2394.359034
1016.024736	2391.052037
1016.317737	2391.578837
1016.610703	2392.372819
1016.903635	2387.210678
1017.196531	2387.860986
1017.489393	2386.663712
1017.782219	2385.307642
1018.075011	2390.116903
1018.367768	2389.083466
1018.660490	2388.004659
1018.953177	2388.004659
1019.245829	2388.004659
