Dividing Wavelength (nm)	Counts (n)	Blue Motor Position (mm): 0.000000	Red Motor Position (mm): 32.000000	
326.493990	1988.793166
326.888308	1988.793166
327.282561	1988.793166
327.676750	1964.330967
328.070874	1965.377006
328.464933	1972.424539
328.858929	1982.343009
329.252859	1995.139978
329.646726	2007.636999
330.040528	2023.428413
330.434265	2042.549510
330.827938	2061.751265
331.221547	2083.503843
331.615091	2103.055959
332.008571	2123.213012
332.401986	2146.172948
332.795338	2163.905206
333.188625	2183.986643
333.581847	2200.670341
333.975006	2219.052909
334.368100	2239.411608
334.761129	2255.591192
335.154095	2270.286155
335.546996	2293.472942
335.939833	2327.518375
336.332606	2340.776609
336.725315	2353.313959
337.117960	2358.975175
337.510540	2366.110928
337.903056	2377.342619
338.295508	2381.718340
338.687896	2393.212171
339.080220	2397.580331
339.472480	2403.478481
339.864676	2405.139541
340.256807	2407.521486
340.648875	2412.297980
341.040879	2409.275808
341.432818	2414.821077
341.824694	2414.649678
342.216506	2415.925090
342.608253	2415.158834
342.999937	2417.351736
343.391557	2412.481982
343.783113	2409.671538
344.174605	2412.575243
344.566033	2409.086765
344.957397	2407.029974
345.348697	2405.535272
345.739934	2405.759603
346.131106	2401.325908
346.522215	2402.319016
346.913260	2397.202244
347.304241	2399.085115
347.695159	2397.943294
348.086012	2395.568911
348.476802	2393.494476
348.867528	2393.978427
349.258191	2393.169321
349.648789	2390.215205
350.039324	2388.196223
350.429796	2388.496172
350.820203	2388.826367
351.210548	2388.660009
351.600828	2388.811244
351.991045	2385.484082
352.381198	2385.345451
352.771288	2387.371994
353.161314	2386.756974
353.551276	2386.704042
353.941175	2389.040616
354.331010	2389.471635
354.720782	2387.548435
355.110490	2388.120606
355.500135	2387.825698
355.889717	2389.302756
356.279235	2388.569268
356.668689	2391.719990
357.058080	2390.721841
357.447408	2387.371994
357.836672	2386.361243
358.225873	2390.084135
358.615010	2388.236552
359.004084	2393.922974
359.393095	2391.979609
359.782043	2393.403735
360.170927	2398.008829
360.559748	2395.657131
360.948505	2397.237533
361.337199	2398.669220
361.725830	2398.926319
362.114398	2400.121072
362.502903	2399.765671
362.891344	2402.631567
363.279722	2403.821279
363.668037	2404.895045
364.056289	2404.148954
364.444478	2404.191804
364.832603	2406.329253
365.220665	2407.889491
365.608665	2411.816549
365.996601	2409.326219
366.384474	2411.440983
366.772284	2413.071797
367.160031	2412.870151
367.547715	2411.511560
367.935336	2413.775038
368.322893	2412.857548
368.710388	2415.718402
369.097820	2417.709658
369.485189	2414.327044
369.872495	2420.883065
370.259738	2420.840215
370.646918	2422.849115
371.034035	2425.962027
371.421090	2430.698191
371.808081	2432.306319
372.195010	2436.276228
372.581875	2441.758483
372.968678	2451.127467
373.355418	2456.854218
373.742096	2466.702112
374.128710	2478.163175
374.515262	2490.125833
374.901751	2506.312978
375.288177	2521.978364
375.674540	2542.647095
376.060841	2564.737431
376.447079	2590.984198
376.833254	2615.237189
377.219367	2639.908596
377.605417	2677.051818
377.991404	2702.514686
378.377329	2741.916344
378.763191	2777.338012
379.148991	2827.958758
379.534727	2874.881818
379.920402	2924.007863
380.306013	2972.339925
380.691563	3037.844678
381.077049	3096.286775
381.462474	3152.054539
381.847835	3230.421796
382.233134	3300.266983
382.618371	3359.858462
383.003545	3447.377934
383.388657	3527.751571
383.773706	3621.159110
384.158693	3696.030327
384.543618	3792.059267
384.928480	3871.533057
385.313280	3979.766630
385.698017	4083.266560
386.082692	4207.367165
386.467305	4273.139099
386.851856	4398.356319
387.236344	4557.286256
387.620770	4622.173468
388.005133	4745.711984
388.389435	4889.604159
388.773674	4976.785873
389.157851	5113.713694
389.541965	5243.941821
389.926018	5272.454588
390.310008	5457.059121
390.693936	5577.804838
391.077802	5697.398651
391.461606	5834.964178
391.845348	5950.822496
392.229027	6069.844138
392.612645	6296.978366
392.996200	6406.852835
393.379694	6592.100115
393.763125	6820.207285
394.146494	6914.224805
394.529801	7058.036321
394.913047	7301.806356
395.296230	7295.998947
395.679351	7354.718307
396.062410	7620.480376
396.445408	7522.253493
396.828343	7673.997265
397.211217	7817.284502
397.594028	7692.168104
397.976778	7900.607213
398.359466	8068.230620
398.742092	8038.283645
399.124656	8188.404166
399.507158	8383.816933
399.889598	8403.321157
400.271977	8616.065411
400.654294	8646.657653
401.036549	8847.262809
401.418742	8870.220223
401.800874	9174.121142
402.182944	9256.901929
402.564952	9626.229463
402.946898	9449.000138
403.328783	9508.092543
403.710606	9707.399601
404.092367	9969.038007
404.474067	10332.679119
404.855705	10124.665988
405.237282	10074.037679
405.618797	10510.732672
406.000250	10760.592422
406.381642	11131.664195
406.762972	11079.727707
407.144240	10874.661130
407.525447	11132.024637
407.906593	11071.729917
408.287677	11332.551655
408.668700	11488.562763
409.049661	11463.951850
409.430560	11625.311623
409.811399	11596.019999
410.192176	11753.235943
410.572891	11837.486227
410.953545	12325.502687
411.334138	11791.939402
411.714669	12401.424984
412.095139	11706.413706
412.475547	12209.001621
412.855894	12058.480329
413.236180	12389.270762
413.616405	12073.117319
413.996568	12347.696367
414.376670	12320.534630
414.756711	12196.595342
415.136691	12489.125938
415.516609	12675.021006
415.896466	12736.598701
416.276262	13023.566383
416.655997	13465.917551
417.035670	13501.140093
417.415283	14161.881607
417.794834	14249.864865
418.174324	14002.722298
418.553753	13900.535589
418.933121	14393.283171
419.312428	14203.418194
419.691674	14114.315800
420.070859	14572.866715
420.449983	14221.417634
420.829045	14773.587818
421.208047	14519.596843
421.586988	14982.997348
421.965867	15243.395630
422.344686	15235.879269
422.723444	15805.716177
423.102141	14488.266072
423.480777	15682.908628
423.859352	15185.127453
424.237866	16306.196889
424.616319	15999.818244
424.994712	16670.294226
425.373044	16458.233048
425.751314	17138.529198
426.129524	16262.422030
426.507673	17352.571549
426.885762	17044.809107
427.263789	17260.389010
427.641756	17417.108401
428.019662	17478.673492
428.397508	17532.545782
428.775292	17832.272626
429.153016	17793.659908
429.530679	17873.985653
429.908282	17898.881391
430.285824	17616.581817
430.663305	18327.492894
431.040726	17920.215554
431.418086	17742.426661
431.795385	18396.350015
432.172624	18820.550508
432.549802	18376.351757
432.926920	18562.710612
433.303977	18435.063556
433.680974	18705.322334
434.057910	19006.122943
434.434786	19015.128964
434.811601	18935.423281
435.188355	19979.998248
435.565050	19621.622622
435.941683	19572.148738
436.318257	20466.537650
436.694770	20275.334247
437.071222	20869.963548
437.447614	19939.542989
437.823946	19961.842533
438.200218	20105.764955
438.576429	19898.288706
438.952580	20161.802421
439.328670	20131.202617
439.704700	20548.395906
440.080670	20114.975143
440.456580	20711.878005
440.832429	20880.746577
441.208218	19867.083964
441.583947	20317.780762
441.959616	20421.270609
442.335224	20671.909217
442.710773	20798.550563
443.086261	21334.911688
443.461689	20692.535098
443.837057	20818.697534
444.212365	21476.195066
444.587612	21461.253086
444.962800	21037.329856
445.337927	21463.256945
445.712995	20188.613798
446.088002	22053.371893
446.462949	22239.624884
446.837837	22424.325199
447.212664	22375.703270
447.587431	25225.076850
447.962139	28170.607919
448.336786	30577.501782
448.711374	29020.364976
449.085901	25304.119622
449.460369	25267.067141
449.834776	25176.792678
450.209124	27672.925047
450.583412	27194.212036
450.957640	27731.185662
451.331808	26379.654836
451.705917	25004.584342
452.079965	25032.507294
452.453954	25390.966100
452.827883	25282.992146
453.201752	25077.988584
453.575562	25246.232052
453.949311	26379.949743
454.323001	26419.510198
454.696632	26187.881782
455.070202	27745.643691
455.443713	27896.263285
455.817164	28471.373240
456.190556	29010.451547
456.563888	28464.076169
456.937160	28893.171623
457.310373	27221.885450
457.683526	27683.161109
458.056619	27650.900245
458.429653	27580.044307
458.802628	28163.583071
459.175542	28275.136244
459.548398	29568.265302
459.921194	31146.968164
460.293930	31827.755826
460.666607	33853.946792
461.039224	35602.423112
461.411782	36000.296180
461.784280	34834.436091
462.156719	34357.820201
462.529099	33780.424083
462.901419	32510.902749
463.273680	31437.578080
463.645882	31508.237413
464.018024	31480.614411
464.390106	32318.718841
464.762130	35006.188203
465.134094	39056.747757
465.505999	44337.245505
465.877845	48944.038412
466.249631	50126.945162
466.621358	48450.464080
466.993026	46357.205604
467.364634	44276.590342
467.736184	42302.585401
468.107674	41037.543132
468.479105	40237.292726
468.850477	39544.217251
469.221790	38105.227448
469.593043	36358.689451
469.964238	35464.618131
470.335373	35399.468779
470.706449	37087.310101
471.077467	39646.870267
471.448425	44211.723295
471.819324	47051.163281
472.190164	45212.225975
472.560945	41663.062104
472.931667	38551.477948
473.302330	37431.368851
473.672934	36621.323484
474.043479	37113.879502
474.413965	36317.152863
474.784393	35934.982990
475.154761	36810.868348
475.525070	36850.028031
475.895321	36391.681282
476.265513	36982.746488
476.635645	37949.380176
477.005719	37763.464943
477.375734	38234.578414
477.745691	38928.994836
478.115588	40261.099575
478.485427	42217.652041
478.855207	45571.443475
479.224928	48170.730453
479.594591	49808.238375
479.964194	48822.604578
480.333739	48986.381584
480.703226	48996.093367
481.072653	49629.723556
481.442022	50092.587178
481.811333	50373.150075
482.180584	49071.884594
482.549777	48548.600222
482.918912	47993.228906
483.287988	47690.462247
483.657005	46860.131277
484.025964	46203.132819
484.394864	46224.159472
484.763706	45787.769469
485.132489	44903.094860
485.501213	44720.229524
485.869879	44851.299524
486.238487	44427.114155
486.607036	44601.051606
486.975527	44053.063060
487.343959	44239.492491
487.712333	44291.280264
488.080648	44190.195047
488.448905	44626.655627
488.817104	44424.664154
489.185244	45335.373802
489.553326	46975.699728
489.921350	49644.229476
490.289315	52488.297241
490.657222	53077.993774
491.025070	53330.439635
491.392861	52413.809152
491.760593	51136.567290
492.128267	49422.517009
492.495883	47878.063746
492.863440	46477.772360
493.230939	45072.986785
493.598380	43936.924957
493.965763	43563.080550
494.333088	42714.538411
494.700354	42180.811289
495.067563	41849.476411
495.434713	41683.834178
495.801805	41680.932994
496.168839	41251.124217
496.535815	40873.405683
496.902733	40843.856960
497.269593	40361.332837
497.636395	40222.411240
498.003139	40546.691023
498.369825	39938.742992
498.736453	40179.042193
499.103023	39637.183690
499.469535	39420.885422
499.835989	39438.542064
500.202385	39015.022126
500.568723	38957.278229
500.935003	39030.667347
501.301226	38733.143488
501.667390	39246.975697
502.033497	39387.359229
502.399546	38725.957323
502.765537	37990.924325
503.131470	38247.456042
503.497345	38459.834812
503.863163	37089.213137
504.228923	37541.954123
504.594625	37794.914181
504.960269	37008.826898
505.325856	37529.522637
505.691385	36805.882647
506.056856	36808.937586
506.422270	37071.551454
506.787625	36547.059726
507.152924	36585.964831
507.518164	36536.044805
507.883347	35681.327252
508.248472	35772.640192
508.613540	36034.644081
508.978550	36155.185632
509.343503	35769.408813
509.708398	35794.337319
510.073236	36097.398885
510.438016	35932.157424
510.802738	35288.492818
511.167403	35659.037791
511.532010	35684.644332
511.896561	35773.323269
512.261053	36311.327810
512.625488	35732.487402
512.989866	35445.572652
513.354186	35139.776259
513.718449	34934.069456
514.082655	35296.256195
514.446803	34837.349878
514.810894	35072.214715
515.174927	34815.960263
515.538904	34535.301584
515.902822	34882.662290
516.266684	34201.799010
516.630488	34355.496229
516.994235	34022.948954
517.357925	34273.141419
517.721558	34167.740975
518.085133	34190.663101
518.448651	34079.167902
518.812112	33667.532484
519.175516	33519.556975
519.538863	33577.449586
519.902152	33314.044256
520.265385	33426.363684
520.628560	33216.200501
520.991678	32825.755574
521.354739	32760.520522
521.717743	32754.771087
522.080690	32443.563016
522.443580	32586.116764
522.806413	32378.990876
523.169189	32081.444332
523.531908	31971.070789
523.894569	31626.767543
524.257174	31482.865286
524.619722	31448.449329
524.982213	31174.641578
525.344647	30868.971215
525.707025	30636.511008
526.069345	30644.881844
526.431608	30335.077734
526.793815	30285.770208
527.155964	29720.200638
527.518057	29554.069413
527.880093	29153.963114
528.242072	29240.227339
528.603995	28776.887327
528.965860	28507.853549
529.327669	28315.730135
529.689421	27985.201842
530.051117	27682.409978
530.412755	27508.633843
530.774337	27277.469212
531.135862	26892.693063
531.497331	26758.827743
531.858743	26434.633660
532.220098	26375.465637
532.581396	25934.972135
532.942638	25488.159546
533.303824	25386.729010
533.664953	25106.206442
534.026025	24695.155799
534.387040	24679.760115
534.747999	24402.912549
535.108902	24226.935950
535.469748	23714.895872
535.830537	23514.313401
536.191270	23360.011244
536.551947	22936.506430
536.912567	22819.927227
537.273131	22630.006797
537.633638	22114.687447
537.994089	22035.085108
538.354483	21593.512798
538.714821	21611.028287
539.075103	21520.121160
539.435328	21163.172180
539.795497	20855.218173
540.155609	20607.415215
540.515665	20561.873431
540.875665	20095.070147
541.235609	19984.041254
541.595496	19722.924608
541.955328	19761.867522
542.315102	19264.081306
542.674821	18933.265667
543.034483	18721.496876
543.394090	18467.291652
543.753640	18231.010251
544.113134	18365.404892
544.472571	17760.221934
544.831953	17997.269591
545.191278	17459.088609
545.550548	17137.367212
545.909761	17069.725010
546.268918	16918.452586
546.628019	16802.884134
546.987064	16435.789831
547.346053	15978.277393
547.704986	16053.872016
548.063863	15696.378591
548.422684	15559.496140
548.781449	15301.840247
549.140158	15212.488315
549.498811	14963.228463
549.857408	14607.290234
550.215949	14640.118228
550.574434	14432.291620
550.932864	14176.992466
551.291237	14176.581612
551.649555	13884.958423
552.007817	13750.982198
552.366022	13470.802429
552.724173	13341.779138
553.082267	13253.972320
553.440305	13152.682936
553.798288	12788.154581
554.156215	12674.350533
554.514086	12558.741752
554.871902	12327.430928
555.229661	12150.869556
555.587365	11951.620471
555.945014	11806.468007
556.302606	11629.067283
556.660143	11512.611588
557.017625	11374.617563
557.375050	11180.810403
557.732421	11092.070972
558.089735	10936.498444
558.446994	10766.626683
558.804197	10705.979082
559.161345	10549.841944
559.518437	10261.913922
559.875474	10169.426392
560.232455	10062.059898
560.589381	9950.279873
560.946251	9758.063198
561.303065	9732.207119
561.659825	9569.854239
562.016528	9384.359942
562.373177	9208.829486
562.729770	9153.366711
563.086307	8961.465108
563.442789	8892.585302
563.799216	8790.385990
564.155587	8633.744737
564.511904	8516.792489
564.868164	8417.411182
565.224370	8331.885486
565.580520	8188.298301
565.936615	8096.115762
566.292654	7948.848535
566.648638	7873.263995
567.004567	7764.526306
567.360441	7660.005543
567.716260	7541.311576
568.072023	7474.155845
568.427732	7376.085238
568.783385	7233.934782
569.138982	7180.246493
569.494525	7084.187307
569.850013	6975.744526
570.205445	6880.902778
570.560823	6794.419263
570.916145	6695.940323
571.271412	6615.659948
571.626625	6513.546335
571.981782	6436.424243
572.336884	6333.035219
572.691931	6283.949504
573.046923	6172.958420
573.401860	6085.138999
573.756743	6010.040930
574.111570	5949.337876
574.466342	5870.441298
574.821059	5805.405372
575.175722	5702.401996
575.530330	5640.231966
575.884882	5552.815838
576.239380	5488.795705
576.593823	5423.558133
576.948211	5362.587898
577.302544	5268.998877
577.656823	5215.781936
578.011047	5171.427344
578.365216	5099.003607
578.719330	5034.176889
579.073389	4973.347806
579.427394	4924.521711
579.781344	4876.451788
580.135239	4805.522754
580.489080	4760.212863
580.842866	4688.131925
581.196597	4664.430940
581.550273	4620.048621
581.903895	4570.955345
582.257463	4546.238567
582.610975	4476.857167
582.964434	4447.593269
583.317837	4393.678128
583.671186	4346.329091
584.024481	4314.589986
584.377721	4258.071090
584.730906	4225.293508
585.084037	4194.812171
585.437113	4143.147906
585.790135	4110.788739
586.143103	4058.902663
586.496016	4030.284033
586.848874	3994.910256
587.201679	3968.580310
587.554428	3917.241199
587.907124	3895.637334
588.259765	3856.828011
588.612352	3842.909386
588.964884	3795.187303
589.317362	3779.247174
589.669786	3749.736260
590.022155	3714.879201
590.374470	3702.926626
590.726731	3666.647962
591.078937	3628.647744
591.431090	3605.274434
591.783188	3571.055082
592.135232	3545.534241
592.487222	3527.605377
592.839157	3509.127028
593.191038	3479.449755
593.542866	3460.636169
593.894639	3422.157042
594.246358	3412.541041
594.598022	3396.484966
594.949633	3366.926160
595.301190	3354.993749
595.652692	3334.458609
596.004141	3326.002073
596.355535	3287.901032
596.706876	3270.861932
597.058162	3255.801485
597.409395	3250.609097
597.760573	3240.859505
598.111698	3215.638612
598.462768	3208.059238
598.813785	3193.523071
599.164748	3174.132272
599.515657	3168.539112
599.866511	3151.265598
600.217312	3149.022285
600.568060	3119.468521
600.918753	3126.720220
601.269392	3115.480968
601.619978	3099.160232
601.970510	3095.346599
602.320988	3090.875096
602.671412	3085.523911
603.021783	3073.805749
603.372100	3060.161866
603.722363	3052.217008
604.072572	3044.594783
604.422728	3040.297199
604.772830	3025.047709
605.122878	3019.265506
605.472872	3013.372397
605.822813	3010.778723
606.172701	3001.460150
606.522534	3000.217506
606.872314	2997.931343
607.222041	2985.525063
607.571714	2984.365598
607.921333	2972.672641
608.270899	2971.125007
608.620411	2966.986220
608.969870	2961.700570
609.319276	2953.191102
609.668627	2949.178344
610.017926	2950.577264
610.367171	2947.330761
610.716362	2939.970676
611.065500	2934.886673
611.414585	2932.484563
611.763616	2929.679161
612.112594	2926.961979
612.461518	2922.067018
612.810389	2918.497881
613.159207	2913.096285
613.507971	2907.467837
613.856682	2909.380955
614.205340	2902.013308
614.553945	2905.164029
614.902496	2891.716752
615.250994	2892.399828
615.599439	2892.530898
615.947830	2888.049312
616.296169	2883.013199
616.644454	2881.147973
616.992686	2876.913403
617.340864	2877.508259
617.688990	2871.383257
618.037063	2871.393340
618.385082	2865.177597
618.733048	2864.169366
619.080961	2862.619212
619.428821	2856.703417
619.776628	2853.313242
620.124382	2849.494568
620.472083	2847.314268
620.819731	2847.246213
621.167326	2836.304388
621.514868	2832.742813
621.862357	2821.712769
622.209793	2819.991215
622.557176	2816.951399
622.904506	2808.446972
623.251783	2798.979685
623.599007	2797.379119
623.946179	2789.774538
624.293297	2785.177006
624.640363	2783.019392
624.987376	2779.359515
625.334336	2774.202414
625.681243	2769.171343
626.028097	2764.462905
626.374899	2762.370826
626.721647	2758.345465
627.068343	2755.852614
627.414987	2751.237438
627.761577	2746.902046
628.108115	2747.199474
628.454600	2740.030953
628.801032	2740.459451
629.147412	2736.507186
629.493739	2733.585838
629.840014	2729.442009
630.186236	2728.789180
630.532405	2726.586196
630.878521	2724.083263
631.224585	2723.788355
631.570597	2717.973384
631.916556	2716.516491
632.262462	2719.125288
632.608316	2717.141594
632.954117	2712.352498
633.299866	2710.734287
633.645562	2709.297558
633.991206	2703.308668
634.336797	2698.577545
634.682336	2696.835826
635.027823	2692.719724
635.373257	2689.778211
635.718639	2688.535566
636.063968	2686.319979
636.409245	2681.853517
636.754470	2682.367715
637.099642	2675.781447
637.444762	2673.220541
637.789829	2671.912362
638.134845	2667.423214
638.479808	2667.395488
638.824719	2665.842812
639.169577	2664.000271
639.514383	2660.292502
639.859137	2661.764519
640.203839	2658.134888
640.548489	2655.437871
640.893086	2651.730102
641.237632	2647.780358
641.582125	2651.803199
641.926566	2644.435552
642.270955	2647.871099
642.615292	2648.045019
642.959576	2647.772796
643.303809	2645.791623
643.647990	2645.106026
643.992118	2644.296921
644.336195	2646.789771
644.680219	2641.536889
645.024192	2642.746766
645.368112	2645.577374
645.711981	2645.834473
646.055797	2651.599032
646.399562	2648.733136
646.743274	2654.222953
647.086935	2654.575833
647.430544	2653.612973
647.774101	2652.950061
648.117606	2654.076759
648.461059	2654.043992
648.804460	2652.287150
649.147810	2650.890750
649.491108	2646.953609
649.834354	2642.199801
650.177548	2640.266518
650.520690	2637.511528
650.863781	2637.428349
651.206820	2634.602782
651.549807	2631.550363
651.892742	2628.397122
652.235626	2625.745475
652.578458	2624.704476
652.921238	2621.881430
653.263967	2622.914867
653.606644	2620.880761
653.949269	2622.433437
654.291843	2616.747015
654.634365	2618.211470
654.976836	2617.704834
655.319255	2616.593260
655.661622	2615.219545
656.003938	2614.037395
656.346203	2612.146962
656.688416	2614.654936
657.030577	2611.915069
657.372687	2607.244440
657.714746	2610.881632
658.056753	2611.448762
658.398708	2607.196549
658.740612	2606.067331
659.082465	2607.549430
659.424266	2606.309306
659.766016	2601.316043
660.107715	2610.193515
660.449362	2605.548092
660.790958	2608.542537
661.132503	2606.500870
661.473996	2608.789554
661.815438	2607.700664
662.156829	2611.138731
662.498168	2606.992382
662.839456	2607.882146
663.180693	2606.556322
663.521879	2609.510439
663.863013	2608.691251
664.204097	2608.207300
664.545129	2608.908021
664.886110	2607.136055
665.227040	2607.942640
665.567918	2606.601693
665.908746	2608.310644
666.249522	2608.373658
666.590248	2608.950871
666.930922	2611.932713
667.271545	2610.685027
667.612118	2611.289966
667.952639	2607.965325
668.293109	2608.033381
668.633528	2608.023298
668.973896	2609.830552
669.314213	2609.331478
669.654480	2607.844337
669.994695	2605.880808
670.334859	2603.272011
670.674973	2603.085488
671.015035	2605.573297
671.355047	2605.099429
671.695008	2604.660849
672.034918	2603.622371
672.374777	2602.941815
672.714585	2602.019284
673.054342	2603.536671
673.394049	2599.849067
673.733705	2603.950046
674.073310	2601.169850
674.412864	2604.549943
674.752368	2598.818151
675.091820	2602.777978
675.431223	2599.032400
675.770574	2597.903182
676.109875	2594.374374
676.449125	2590.336410
676.788324	2589.809609
677.127473	2589.300453
677.466571	2586.028744
677.805619	2590.936307
678.144616	2589.444126
678.483562	2589.549990
678.822458	2586.830287
679.161303	2586.416913
679.500098	2585.658219
679.838842	2583.329206
680.177535	2582.729309
680.516179	2587.422623
680.854771	2588.070411
681.193314	2593.976123
681.531805	2599.292020
681.870247	2603.390478
682.208638	2605.490118
682.546978	2607.975407
682.885268	2606.742845
683.223508	2604.922989
683.561697	2603.387957
683.899836	2603.418204
684.237925	2599.115579
684.575963	2600.421238
684.913951	2597.421752
685.251889	2600.814448
685.589776	2595.687595
685.927614	2598.530806
686.265401	2598.828234
686.603137	2600.350662
686.940824	2600.685899
687.278460	2599.962493
687.616046	2604.444079
687.953582	2608.378700
688.291068	2604.529779
688.628504	2608.998762
688.965889	2607.756117
689.303224	2606.024481
689.640510	2604.093719
689.977745	2601.399222
690.314930	2596.017790
690.652065	2594.129878
690.989150	2588.733323
691.326185	2588.897161
691.663170	2582.512539
692.000105	2577.216807
692.336990	2574.852506
692.673825	2573.589697
693.010610	2569.299675
693.347345	2564.046793
693.684030	2558.627552
694.020665	2558.395659
694.357251	2553.921635
694.693786	2559.408931
695.030272	2556.071687
695.366707	2550.138249
695.703093	2550.153373
696.039429	2550.407951
696.375716	2549.581202
696.711952	2549.404761
697.048139	2548.676315
697.384276	2545.984338
697.720363	2549.866027
698.056400	2550.947354
698.392388	2548.421736
698.728326	2549.687066
699.064214	2544.650953
699.400053	2544.172044
699.735842	2544.471992
700.071581	2544.018288
700.407270	2542.977290
700.742910	2537.815149
701.078501	2539.612320
701.414042	2536.673327
701.749533	2537.205169
702.084974	2533.194931
702.420366	2533.215096
702.755709	2531.296937
703.091002	2531.748120
703.426246	2528.720907
703.761440	2530.535723
704.096584	2528.221833
704.431679	2528.045393
704.766725	2529.638397
705.101721	2525.464322
705.436668	2527.334590
705.771565	2526.815351
706.106413	2529.219981
706.441212	2526.041534
706.775961	2528.940197
707.110661	2529.482121
707.445311	2531.634694
707.779913	2529.409025
708.114465	2531.075126
708.448967	2533.295754
708.783421	2538.228523
709.117825	2535.367668
709.452180	2538.654501
709.786485	2541.386806
710.120742	2548.454504
710.454949	2547.269833
710.789107	2547.937786
711.123216	2549.256047
711.457275	2549.621531
711.791286	2552.149670
712.125247	2552.920966
712.459159	2557.463046
712.793023	2561.541339
713.126837	2556.837943
713.460602	2557.195865
713.794318	2552.832746
714.127985	2554.219063
714.461602	2548.267981
714.795171	2544.897970
715.128691	2541.956457
715.462162	2540.761703
715.795584	2537.411856
716.128957	2534.331711
716.462281	2530.334076
716.795556	2531.859025
717.128782	2528.443644
717.461960	2527.911802
717.795088	2525.996163
718.128167	2521.310411
718.461198	2520.168590
718.794180	2523.326873
719.127113	2516.107940
719.459997	2517.859741
719.792833	2512.175840
720.125619	2516.554082
720.458357	2512.380007
720.791046	2514.643485
721.123686	2512.175840
721.456278	2510.718947
721.788821	2507.595952
722.121315	2510.756755
722.453761	2508.803308
722.786158	2509.037722
723.118506	2509.904800
723.450805	2508.208452
723.783056	2505.360200
724.115259	2508.102588
724.447412	2508.135355
724.779518	2508.087464
725.111574	2511.215500
725.443582	2512.259019
725.775542	2507.923627
726.107453	2512.130470
726.439315	2515.581140
726.771129	2520.239166
727.102895	2519.074659
727.434612	2523.246214
727.766281	2520.531553
728.097901	2521.970802
728.429473	2519.430061
728.760996	2519.616583
729.092471	2519.543487
729.423897	2523.583971
729.755276	2524.135978
730.086606	2522.048940
730.417887	2526.091945
730.749120	2528.829292
731.080305	2530.460105
731.411442	2533.101670
731.742530	2532.421114
732.073570	2536.199459
732.404562	2535.244160
732.735506	2535.009747
733.066401	2534.044366
733.397249	2531.367513
733.728048	2526.646472
734.058798	2523.611698
734.389501	2518.749505
734.720156	2514.429236
735.050762	2511.659122
735.381320	2510.729029
735.711831	2508.049656
736.042293	2506.565036
736.372707	2506.247443
736.703073	2506.648215
737.033391	2507.033863
737.363661	2505.665190
737.693883	2508.319357
738.024056	2508.992352
738.354182	2510.124091
738.684260	2513.541993
739.014290	2510.955881
739.344272	2515.150121
739.674207	2516.700276
740.004093	2519.243538
740.333931	2517.307735
740.663722	2517.038033
740.993464	2515.298835
741.323159	2519.183044
741.652806	2515.424864
741.982405	2512.432939
742.311956	2509.889677
742.641460	2512.652229
742.970915	2511.979235
743.300323	2505.955056
743.629683	2506.900273
743.958996	2505.297186
744.288260	2503.275683
744.617477	2498.146309
744.946647	2497.294354
745.275768	2496.875938
745.604842	2492.500217
745.933869	2495.204796
746.262847	2489.873776
746.591778	2496.495331
746.920662	2496.805362
747.249498	2493.500886
747.578286	2496.248315
747.907027	2498.491628
748.235720	2497.012049
748.564365	2500.074550
748.892963	2499.177225
749.221514	2498.635301
749.550017	2498.448778
749.878473	2499.666217
750.206881	2495.678664
750.535242	2496.321411
750.863555	2497.367451
751.191821	2496.124806
751.520039	2495.030876
751.848210	2494.153715
752.176334	2494.173880
752.504411	2493.286637
752.832440	2495.461895
753.160421	2497.092708
753.488356	2492.538025
753.816243	2494.627584
754.144082	2490.398056
754.471875	2494.138592
754.799620	2491.171873
755.127318	2493.211019
755.454969	2490.912253
755.782572	2489.639362
756.110129	2491.116420
756.437638	2489.432675
756.765100	2489.067191
757.092515	2491.529795
757.419882	2491.189517
757.747203	2490.088025
758.074477	2493.122799
758.401703	2493.120279
758.728882	2495.396360
759.056014	2492.112048
759.383099	2494.786380
759.710138	2497.246463
760.037129	2495.862666
760.364073	2498.869715
760.690970	2497.869046
761.017820	2496.911226
761.344623	2497.034735
761.671379	2501.579335
761.998088	2502.098574
762.324751	2517.486696
762.651366	2535.987730
762.977935	2564.077040
763.304456	2577.509194
763.630931	2587.510843
763.957359	2582.867941
764.283740	2566.143913
764.610074	2550.372663
764.936362	2537.764737
765.262602	2525.693694
765.588796	2516.266737
765.914943	2505.518997
766.241044	2500.838285
766.567097	2494.763695
766.893104	2488.701707
767.219064	2484.794813
767.544978	2482.596870
767.870845	2481.006386
768.196665	2480.066211
768.522438	2477.091930
768.848165	2479.052939
769.173846	2476.406333
769.499479	2474.551188
769.825066	2474.548668
770.150607	2472.375931
770.476101	2471.231589
770.801548	2472.023050
771.126949	2468.685806
771.452303	2469.013481
771.777611	2466.818058
772.102872	2466.036680
772.428087	2464.846967
772.753256	2465.877883
773.078378	2467.642287
773.403453	2464.869652
773.728482	2461.960907
774.053465	2462.432255
774.378401	2463.246401
774.703291	2460.488890
775.028135	2460.882100
775.352932	2459.074846
775.677683	2460.884620
776.002388	2459.747840
776.327046	2459.584003
776.651658	2456.518981
776.976224	2457.101234
777.300743	2457.696091
777.625216	2455.074691
777.949643	2458.026286
778.274024	2455.520833
778.598359	2454.593260
778.922647	2453.360698
779.246889	2452.720472
779.571086	2448.460697
779.895236	2456.057716
780.219339	2456.249279
780.543397	2454.126954
780.867409	2455.672067
781.191374	2455.704835
781.515294	2456.453446
781.839167	2458.409414
782.162995	2456.007304
782.486776	2457.328086
782.810511	2453.673250
783.134201	2455.157870
783.457844	2455.470421
783.781441	2455.954372
784.104993	2454.396655
784.428498	2455.634259
784.751958	2452.962447
785.075372	2454.409258
785.398739	2454.202571
785.722061	2453.532097
786.045337	2454.772221
786.368568	2456.743312
786.691752	2454.767180
787.014891	2459.226081
787.337983	2462.094497
787.661030	2464.116000
787.984031	2467.743110
788.306987	2471.662607
788.629897	2474.669656
788.952760	2471.844089
789.275579	2472.428863
789.598351	2467.435600
789.921078	2466.991978
790.243759	2463.357306
790.566395	2461.885289
790.888984	2461.597944
791.211529	2457.486883
791.534027	2458.048971
791.856480	2455.593929
792.178888	2454.525205
792.501249	2455.011676
792.823566	2455.520833
793.145836	2452.183589
793.468062	2451.649227
793.790241	2451.069494
794.112375	2454.308435
794.434464	2453.138887
794.756507	2456.304732
795.078505	2457.963272
795.400457	2456.796245
795.722364	2454.656275
796.044226	2457.212140
796.366042	2460.098200
796.687812	2460.410752
797.009538	2465.030969
797.331218	2465.323356
797.652852	2462.028962
797.974442	2460.178859
798.295986	2459.253807
798.617484	2458.232973
798.938938	2458.253138
799.260346	2457.055864
799.581709	2456.435802
799.903026	2458.527881
800.224299	2456.501337
800.545526	2453.877417
800.866708	2453.524536
801.187845	2454.923456
801.508936	2449.922631
801.829983	2453.582509
802.150984	2451.624021
802.471940	2451.152673
802.792851	2451.482868
803.113717	2450.605708
803.434538	2451.245934
803.755314	2449.453804
804.076045	2448.690069
804.396731	2450.058742
804.717372	2450.333485
805.037967	2449.811726
805.358518	2447.601180
805.679024	2454.119392
805.999485	2452.400358
806.319901	2449.073197
806.640272	2452.291974
806.960598	2448.632096
807.280879	2449.799123
807.601115	2453.118723
807.921306	2449.075717
808.241453	2450.343568
808.561554	2451.434978
808.881611	2451.671912
809.201623	2454.313476
809.521590	2450.167127
809.841513	2452.695266
810.161390	2452.380194
810.481223	2448.344750
810.801011	2452.634772
811.120755	2448.523711
811.440453	2449.998249
811.760107	2448.233845
812.079716	2448.919442
812.399281	2445.471292
812.718801	2445.085644
813.038276	2442.164296
813.357707	2448.221242
813.677093	2447.245779
813.996434	2447.039091
814.315731	2445.766200
814.634983	2447.762497
814.954191	2447.036571
815.273354	2450.454473
815.592473	2450.761983
815.911547	2454.855400
816.230577	2451.213167
816.549562	2453.884978
816.868502	2452.526387
817.187399	2456.607201
817.506250	2455.180555
817.825058	2456.529063
818.143821	2459.962089
818.462539	2463.460650
818.781213	2460.299847
819.099843	2471.977679
819.418429	2475.846765
819.736970	2487.892602
820.055466	2495.517347
820.373919	2510.451766
820.692327	2530.928932
821.010691	2564.147616
821.329011	2647.457724
821.647286	2768.992382
821.965517	2895.822771
822.283704	2972.990234
822.601847	2998.553925
822.919945	2946.594752
823.237999	2881.586553
823.556010	2818.239414
823.873976	2759.835126
824.191897	2706.207331
824.509775	2665.373985
824.827609	2628.356792
825.145398	2604.640684
825.463144	2595.309508
825.780845	2596.169025
826.098502	2613.427415
826.416116	2641.247023
826.733685	2668.985972
827.051210	2677.747497
827.368692	2661.701504
827.686129	2630.640435
828.003522	2599.002153
828.320872	2564.533264
828.638177	2539.390509
828.955439	2522.071625
829.272656	2511.326406
829.589830	2494.461226
829.906960	2484.636017
830.224046	2478.087558
830.541088	2471.650004
830.858086	2467.780919
831.175041	2466.689509
831.491952	2463.770681
831.808819	2462.850670
832.125642	2468.917699
832.442421	2478.884060
832.759157	2493.647079
833.075849	2520.234125
833.392497	2546.874102
833.709101	2561.816082
834.025662	2558.325083
834.342179	2545.724719
834.658653	2529.814838
834.975083	2512.024606
835.291469	2500.946670
835.607811	2487.406131
835.924110	2477.628813
836.240366	2471.604634
836.556578	2460.786318
836.872746	2460.506534
837.188871	2451.208126
837.504952	2451.845832
837.820990	2446.514811
838.136984	2445.403237
838.452935	2446.603032
838.768842	2446.073710
839.084706	2447.223093
839.400526	2462.366720
839.716303	2471.299644
840.032037	2484.963692
840.347727	2482.385142
840.663373	2475.693010
840.978977	2465.310753
841.294537	2456.206430
841.610054	2450.953547
841.925527	2449.358022
842.240957	2443.490119
842.556344	2438.963163
842.871687	2438.673297
843.186987	2437.193718
843.502244	2434.148861
843.817458	2431.078798
844.132629	2429.054775
844.447756	2432.107194
844.762840	2424.883220
845.077881	2424.626121
845.392879	2422.687798
845.707833	2428.870773
846.022745	2423.433888
846.337613	2426.937490
846.652438	2425.087387
846.967221	2426.032603
847.281960	2426.917326
847.596656	2424.116965
847.911309	2425.316759
848.225919	2426.967737
848.540485	2425.972109
848.855009	2424.132088
849.169490	2424.631162
849.483928	2424.081677
849.798323	2422.881882
850.112675	2423.741399
850.426984	2423.736358
850.741251	2424.842891
851.055474	2422.009762
851.369654	2425.515885
851.683792	2425.531008
851.997887	2424.923549
852.311938	2423.880031
852.625947	2428.278437
852.939914	2425.367171
853.253837	2427.476894
853.567718	2423.597726
853.881555	2426.370361
854.195350	2423.781728
854.509103	2424.535381
854.822812	2422.168559
855.136479	2424.608477
855.450103	2422.899526
855.763685	2425.803231
856.077224	2426.778694
856.390720	2424.432037
856.704173	2424.366502
857.017584	2426.405649
857.330953	2426.682912
857.644278	2425.364650
857.957561	2428.270876
858.270802	2425.097469
858.584000	2426.350196
858.897155	2425.112593
859.210268	2425.820875
859.523339	2424.275761
859.836367	2425.369692
860.149352	2423.622932
860.462295	2424.484969
860.775195	2422.486152
861.088054	2422.818868
861.400869	2424.311049
861.713642	2418.365008
862.026373	2426.539239
862.339062	2423.774166
862.651708	2426.040165
862.964312	2424.908426
863.276873	2427.103848
863.589392	2426.025042
863.901869	2427.552511
864.214303	2428.175094
864.526696	2427.159301
864.839045	2428.343972
865.151353	2427.272727
865.463619	2425.745258
865.775842	2428.074271
866.088023	2427.701225
866.400162	2429.768098
866.712258	2424.245514
867.024313	2428.031421
867.336325	2429.989909
867.648296	2429.024528
867.960224	2428.780032
868.272110	2429.062337
868.583954	2430.539395
868.895755	2429.689960
869.207515	2429.763057
869.519233	2432.828079
869.830909	2430.645259
870.142542	2429.067378
870.454134	2430.844385
870.765684	2429.500917
871.077191	2428.366658
871.388657	2432.044179
871.700081	2433.324632
872.011463	2434.100970
872.322803	2434.471495
872.634101	2433.790939
872.945357	2435.194900
873.256571	2435.048707
873.567744	2435.525096
873.878874	2433.851433
874.189963	2435.966197
874.501010	2433.979982
874.812015	2438.675817
875.122979	2435.472164
875.433900	2435.822524
875.744780	2438.448965
876.055618	2435.704057
876.366415	2437.004675
876.677169	2435.464602
876.987882	2435.830086
877.298554	2435.802359
877.609183	2439.298400
877.919771	2438.138934
878.230317	2441.229162
878.540822	2449.534462
878.851285	2449.095882
879.161707	2457.328086
879.472087	2465.318315
879.782425	2485.122488
880.092722	2511.283556
880.402977	2556.555638
880.713191	2607.509101
881.023363	2659.944662
881.333494	2691.035979
881.643583	2704.180787
881.953631	2694.819365
882.263637	2682.864268
882.573602	2663.937256
882.883526	2641.524286
883.193408	2622.607356
883.503248	2602.253698
883.813048	2578.802250
884.122806	2559.950855
884.432522	2541.817825
884.742197	2525.290402
885.051831	2514.177178
885.361424	2501.019767
885.670975	2486.692808
885.980485	2479.005048
886.289954	2470.150261
886.599382	2467.042390
886.908768	2462.008798
887.218113	2455.871193
887.527417	2454.726851
887.836680	2447.578495
888.145901	2447.588577
888.455082	2449.297528
888.764221	2443.850562
889.073319	2441.637495
889.382376	2441.849223
889.691392	2441.360232
890.000366	2440.553647
890.309300	2438.960642
890.618193	2443.250664
890.927044	2443.185129
891.235855	2440.863678
891.544625	2442.232351
891.853353	2442.736467
892.162041	2443.658998
892.470687	2447.659153
892.779293	2444.470623
893.087858	2453.315328
893.396381	2457.154167
893.704864	2470.944243
894.013306	2481.187868
894.321707	2502.942967
894.630068	2512.039729
894.938387	2513.942765
895.246665	2512.929493
895.554903	2502.390961
895.863100	2497.425424
896.171256	2488.961327
896.479371	2478.891622
896.787446	2475.569502
897.095480	2471.350056
897.403473	2463.581638
897.711425	2459.342027
898.019336	2458.578292
898.327207	2453.025462
898.635038	2447.581015
898.942827	2446.736622
899.250576	2444.463062
899.558284	2444.077413
899.865952	2443.106991
900.173579	2439.522731
900.481165	2438.459048
900.788711	2436.949222
901.096216	2434.070723
901.403681	2434.302616
901.711105	2436.971907
902.018489	2434.353028
902.325832	2437.599531
902.633135	2438.519541
902.940397	2446.071190
903.247619	2451.908846
903.554800	2479.241982
903.861941	2502.658142
904.169041	2525.396266
904.476101	2535.594520
904.783121	2529.078829
905.090100	2517.032992
905.397039	2504.964470
905.703938	2492.386791
906.010796	2483.935296
906.317614	2477.883391
906.624391	2468.935343
906.931129	2461.469394
907.237826	2458.497634
907.544483	2450.961109
907.851099	2445.975408
908.157675	2438.096084
908.464211	2435.167174
908.770707	2430.057965
909.077163	2428.409507
909.383578	2425.848601
909.689954	2423.718714
909.996289	2423.506985
910.302584	2424.043868
910.608839	2424.013621
910.915054	2423.769125
911.221229	2424.747109
911.527363	2425.707449
911.833458	2424.674012
912.139513	2422.985226
912.445527	2427.035793
912.751502	2429.697522
913.057436	2431.111566
913.363331	2432.255908
913.669186	2434.007709
913.975000	2439.971394
914.280775	2444.644543
914.586510	2454.817592
914.892205	2465.376288
915.197859	2478.790799
915.503475	2500.470281
915.809050	2516.571726
916.114585	2527.385001
916.420081	2528.841895
916.725536	2527.964734
917.030952	2520.481141
917.336328	2517.398476
917.641665	2506.693585
917.946961	2501.589417
918.252218	2497.785867
918.557435	2485.654330
918.862612	2481.238279
919.167750	2473.802577
919.472848	2466.860908
919.777906	2462.422172
920.082925	2457.912860
920.387904	2450.530090
920.692843	2447.724688
920.997743	2442.980962
921.302603	2438.194387
921.607423	2438.489294
921.912204	2436.719849
922.216946	2433.748089
922.521647	2432.515527
922.826310	2430.458736
923.130932	2428.696853
923.435516	2428.041503
923.740059	2427.187028
924.044564	2422.385328
924.349028	2423.204516
924.653454	2416.414082
924.957840	2420.109247
925.262186	2416.958526
925.566493	2419.355595
925.870761	2416.504823
926.174989	2417.439957
926.479178	2418.733013
926.783328	2420.661254
927.087438	2421.046902
927.391509	2419.937848
927.695541	2413.775038
927.999533	2415.126067
928.303486	2418.584298
928.607400	2415.473907
928.911275	2416.068763
929.215110	2413.049112
929.518906	2417.833167
929.822663	2412.429050
930.126381	2414.437949
930.430060	2413.412075
930.733699	2415.509195
931.037299	2415.940213
931.340861	2414.087589
931.644383	2415.592374
931.947866	2413.795202
932.251309	2416.585481
932.554714	2411.662794
932.858080	2415.804102
933.161407	2412.562640
933.464694	2411.887126
933.767943	2414.705131
934.071153	2416.154462
934.374323	2412.953330
934.677455	2412.169430
934.980548	2413.470048
935.283602	2413.724626
935.586617	2414.153124
935.889593	2413.734708
936.192530	2413.124729
936.495428	2415.302507
936.798287	2412.003072
937.101108	2417.263516
937.403890	2413.820408
937.706632	2418.080183
938.009336	2417.117323
938.312002	2419.761408
938.614628	2419.479103
938.917216	2422.977664
939.219765	2420.628486
939.522275	2425.069743
939.824747	2422.365164
940.127179	2420.265523
940.429573	2417.263516
940.731929	2417.558424
941.034246	2415.718402
941.336524	2420.600760
941.638763	2419.191757
941.940964	2423.015473
942.243126	2420.371387
942.545250	2419.988260
942.847335	2416.749318
943.149381	2421.235945
943.451389	2416.882909
943.753359	2419.814340
944.055290	2418.145718
944.357182	2417.079514
944.659036	2418.866603
944.960851	2415.249575
945.262628	2413.878381
945.564367	2414.856365
945.866067	2417.495409
946.167729	2415.771335
946.469352	2415.325192
946.770937	2416.280491
947.072484	2416.958526
947.373992	2415.788979
947.675462	2414.017013
947.976893	2416.824936
948.278286	2414.198495
948.579641	2418.123033
948.880958	2415.148752
949.182236	2417.918866
949.483476	2412.998700
949.784678	2413.061714
950.085841	2415.085738
950.386967	2418.725451
950.688054	2416.018351
950.989103	2413.361663
951.290114	2416.421643
951.591087	2417.180337
951.892021	2415.337795
952.192917	2416.086407
952.493776	2413.369225
952.794596	2416.766962
953.095378	2418.715368
953.396122	2419.774011
953.696828	2420.048754
953.997496	2417.429874
954.298126	2417.192940
954.598718	2414.362332
954.899272	2417.089596
955.199788	2416.575399
955.500266	2414.921900
955.800706	2411.753535
956.101108	2409.769841
956.401472	2412.151786
956.701798	2410.624317
957.002087	2411.420819
957.302337	2411.135994
957.602550	2411.889646
957.902724	2410.417629
958.202861	2410.440314
958.502960	2410.568864
958.803022	2408.665828
959.103045	2408.522155
959.403031	2408.842269
959.702979	2409.916034
960.002889	2407.813873
960.302762	2409.081723
960.602596	2410.180695
960.902393	2406.908986
961.202153	2407.327402
961.501875	2407.682803
961.801559	2409.341343
962.101205	2403.254150
962.400814	2409.850499
962.700385	2407.332443
962.999918	2405.953687
963.299414	2404.287586
963.598873	2406.094840
963.898293	2408.217166
964.197677	2405.598286
964.497022	2407.634912
964.796331	2405.270611
965.095601	2404.292627
965.394835	2406.528379
965.694030	2403.715415
965.993189	2406.669531
966.292309	2406.485529
966.591393	2405.726836
966.890439	2405.686506
967.189447	2404.491753
967.488419	2407.370252
967.787353	2404.837072
968.086249	2407.486198
968.385108	2407.466034
968.683930	2408.885118
968.982714	2405.416805
969.281462	2407.395458
969.580172	2405.636095
969.878844	2408.620458
970.177480	2406.130128
970.476078	2405.114335
970.774639	2408.088616
971.073162	2405.373955
971.371649	2404.582494
971.670098	2400.698285
971.968510	2404.738769
972.266885	2402.465209
972.565223	2408.610376
972.863524	2406.377144
973.161788	2407.821435
973.460014	2405.971332
973.758204	2405.963770
974.056356	2405.109294
974.354471	2407.193811
974.652550	2406.601476
974.950591	2409.419481
975.248595	2406.782957
975.546563	2406.694737
975.844493	2406.495612
976.142386	2406.699778
976.440243	2407.768503
976.738062	2408.441497
977.035845	2406.104922
977.333590	2406.462844
977.631299	2407.539130
977.928971	2405.051321
978.226606	2404.620302
978.524204	2407.534089
978.821765	2405.184912
979.119290	2405.081568
979.416777	2404.353121
979.714228	2405.066444
980.011642	2404.269942
980.309020	2411.768658
980.606360	2408.053328
980.903664	2408.852351
981.200931	2409.487536
981.498162	2412.378638
981.795356	2410.026940
982.092513	2411.322516
982.389633	2413.351581
982.686717	2419.867272
982.983764	2418.120512
983.280775	2422.632345
983.577749	2418.075142
983.874686	2418.705286
984.171587	2420.595719
984.468451	2416.209915
984.765279	2414.059863
985.062070	2417.802920
985.358824	2413.313772
985.655543	2412.819739
985.952224	2412.600449
986.248869	2412.013154
986.545478	2402.744993
986.842050	2406.974521
987.138586	2404.375806
987.435086	2402.860940
987.731549	2401.719118
988.027975	2403.869170
988.324366	2402.230795
988.620719	2406.142731
988.917037	2403.425549
989.213318	2404.680796
989.509563	2404.864798
989.805772	2405.578122
990.101944	2403.191135
990.398080	2403.339849
990.694180	2400.673079
990.990244	2401.358676
991.286271	2403.821279
991.582262	2403.410425
991.878217	2405.459654
992.174136	2404.892525
992.470019	2403.869170
992.765865	2402.563512
993.061676	2404.789181
993.357450	2404.146434
993.653188	2403.536454
993.948890	2406.974521
994.244556	2403.357493
994.540186	2406.367062
994.835780	2403.682648
995.131337	2404.834551
995.426859	2405.966290
995.722345	2411.471230
996.017795	2409.784964
996.313208	2412.106416
996.608586	2412.048442
996.903928	2413.384348
997.199234	2412.897877
997.494504	2414.624472
997.789738	2408.403688
998.084936	2410.825963
998.380099	2408.781775
998.675225	2410.566343
998.970316	2409.404357
999.265371	2410.278997
999.560390	2406.160375
999.855373	2405.870508
1000.150320	2408.869995
1000.445232	2407.264388
1000.740108	2405.424366
1001.034948	2404.516959
1001.329752	2403.657442
1001.624521	2403.728018
1001.919254	2400.252142
1002.213951	2403.168450
1002.508613	2398.470095
1002.803239	2403.264232
1003.097829	2399.616957
1003.392384	2402.457647
1003.686903	2405.023595
1003.981386	2401.444375
1004.275834	2404.343039
1004.570246	2401.560322
1004.864623	2401.308264
1005.158964	2404.443862
1005.453270	2402.276166
1005.747540	2403.354973
1006.041775	2399.488408
1006.335974	2400.365568
1006.630138	2401.840106
1006.924266	2402.044273
1007.218359	2400.403377
1007.512416	2399.601834
1007.806438	2398.467574
1008.100425	2404.164078
1008.394376	2401.177194
1008.688292	2404.096022
1008.982172	2402.462688
1009.276017	2403.029818
1009.569827	2401.199879
1009.863602	2402.911351
1010.157341	2401.958573
1010.451045	2401.411608
1010.744714	2402.029149
1011.038347	2402.387071
1011.331945	2402.356824
1011.625508	2400.360527
1011.919036	2402.341701
1012.212528	2400.330280
1012.505986	2399.311967
1012.799408	2400.224416
1013.092795	2399.536299
1013.386147	2403.097874
1013.679464	2403.680127
1013.972745	2400.980589
1014.265992	2402.031670
1014.559204	2400.274828
1014.852380	2401.023439
1015.145521	2403.881773
1015.438628	2399.949673
1015.731699	2401.527554
1016.024736	2398.028994
1016.317737	2400.446227
1016.610703	2403.004613
1016.903635	2397.552605
1017.196531	2396.287275
1017.489393	2399.558984
1017.782219	2398.114693
1018.075011	2401.953532
1018.367768	2401.237688
1018.660490	2397.784498
1018.953177	2397.784498
1019.245829	2397.784498
