Dividing Wavelength (nm)	Counts (n)	Blue Motor Position (mm): 0.000000	Red Motor Position (mm): 19.200000	
326.493990	1984.992136
326.888308	1984.992136
327.282561	1984.992136
327.676750	1958.843671
328.070874	1959.781325
328.464933	1965.253498
328.858929	1974.635085
329.252859	1989.448516
329.646726	2003.215907
330.040528	2017.668895
330.434265	2037.631864
330.827938	2056.490821
331.221547	2076.852041
331.615091	2099.600248
332.008571	2115.714296
332.401986	2139.616927
332.795338	2158.801038
333.188625	2177.332319
333.581847	2197.252439
333.975006	2213.767259
334.368100	2233.019425
334.761129	2247.243041
335.154095	2264.534199
335.546996	2281.094389
335.939833	2297.465536
336.332606	2312.447845
336.725315	2322.452015
337.117960	2329.297902
337.510540	2337.681341
337.903056	2345.739625
338.295508	2353.631552
338.687896	2362.020032
339.080220	2370.083357
339.472480	2374.549820
339.864676	2375.285828
340.256807	2381.892260
340.648875	2382.408978
341.040879	2385.209339
341.432818	2383.394524
341.824694	2385.831922
342.216506	2386.048692
342.608253	2385.970554
342.999937	2383.671788
343.391557	2383.192878
343.783113	2383.838146
344.174605	2380.773124
344.566033	2379.976622
344.957397	2375.943699
345.348697	2374.242309
345.739934	2375.197608
346.131106	2370.650487
346.522215	2372.157792
346.913260	2367.013295
347.304241	2370.189222
347.695159	2363.933150
348.086012	2362.882069
348.476802	2361.984744
348.867528	2361.122706
349.258191	2357.666995
349.648789	2359.141533
350.039324	2357.914012
350.429796	2359.340658
350.820203	2356.595750
351.210548	2358.715555
351.600828	2355.315297
351.991045	2355.708507
352.381198	2355.544670
352.771288	2358.876872
353.161314	2353.019052
353.551276	2355.166583
353.941175	2353.757581
354.331010	2357.334279
354.720782	2355.993332
355.110490	2355.743795
355.500135	2356.701614
355.889717	2358.042561
356.279235	2356.817561
356.668689	2357.472911
357.058080	2357.825792
357.447408	2357.735051
357.836672	2356.510051
358.225873	2357.631707
358.615010	2356.822602
359.004084	2360.469877
359.393095	2361.649507
359.782043	2362.551873
360.170927	2365.342152
360.559748	2364.739734
360.948505	2363.262676
361.337199	2366.315095
361.725830	2364.540609
362.114398	2369.160826
362.502903	2367.797194
362.891344	2369.806094
363.279722	2368.439941
363.668037	2371.681403
364.056289	2370.499253
364.444478	2372.873636
364.832603	2370.905065
365.220665	2373.012268
365.608665	2376.475540
365.996601	2375.593338
366.384474	2377.826570
366.772284	2377.400592
367.160031	2377.811446
367.547715	2375.938657
367.935336	2378.512167
368.322893	2381.120964
368.710388	2379.946375
369.097820	2383.775131
369.485189	2382.378732
369.872495	2383.966695
370.259738	2386.978784
370.646918	2389.002808
371.034035	2388.609598
371.421090	2394.046482
371.808081	2394.795093
372.195010	2398.185269
372.581875	2405.152144
372.968678	2410.531055
373.355418	2416.230080
373.742096	2429.112748
374.128710	2435.998964
374.515262	2449.844493
374.901751	2461.671040
375.288177	2481.994452
375.674540	2498.264776
376.060841	2519.455266
376.447079	2545.003834
376.833254	2567.850343
377.219367	2594.162646
377.605417	2628.029117
377.991404	2654.941317
378.377329	2692.860876
378.763191	2727.191134
379.148991	2772.009512
379.534727	2824.785352
379.920402	2866.178266
380.306013	2917.073755
380.691563	2976.758496
381.077049	3037.421221
381.462474	3090.865014
381.847835	3161.441167
382.233134	3232.644945
382.618371	3294.066363
383.003545	3377.063920
383.388657	3457.200623
383.773706	3550.015827
384.158693	3620.959985
384.543618	3718.655026
384.928480	3790.373001
385.313280	3896.713621
385.698017	3997.501409
386.082692	4117.001961
386.467305	4180.094522
386.851856	4305.485663
387.236344	4456.095175
387.620770	4521.549516
388.005133	4640.944204
388.389435	4789.849806
388.773674	4870.425089
389.157851	5005.394421
389.541965	5132.766735
389.926018	5156.850848
390.310008	5332.451880
390.693936	5453.646260
391.077802	5569.691101
391.461606	5702.943920
391.845348	5812.573893
392.229027	5935.802378
392.612645	6155.203476
392.996200	6272.102792
393.379694	6443.880110
393.763125	6660.984962
394.146494	6754.591627
394.529801	6890.876701
394.913047	7129.610623
395.296230	7126.341435
395.679351	7176.384969
396.062410	7432.982221
396.445408	7327.070099
396.828343	7483.466856
397.211217	7619.489789
397.594028	7492.803073
397.976778	7704.690331
398.359466	7858.642128
398.742092	7836.753438
399.124656	7976.315262
399.507158	8162.434662
399.889598	8183.746139
400.271977	8388.911019
400.654294	8424.335207
401.036549	8616.761090
401.418742	8640.666242
401.800874	8944.645298
402.182944	9017.593315
402.564952	9374.449034
402.946898	9201.731541
403.328783	9256.264223
403.710606	9450.756980
404.092367	9705.660403
404.474067	10058.609228
404.855705	9856.907622
405.237282	9810.549171
405.618797	10228.657430
406.000250	10473.032403
406.381642	10827.609521
406.762972	10779.075812
407.144240	10578.884031
407.525447	10831.834008
407.906593	10768.411251
408.287677	11020.421053
408.668700	11165.936479
409.049661	11143.316822
409.430560	11303.950668
409.811399	11272.635021
410.192176	11431.948085
410.572891	11501.800833
410.953545	11977.002680
411.334138	11465.794392
411.714669	12045.935418
412.095139	11364.283198
412.475547	11860.095802
412.855894	11698.143693
413.236180	12021.362313
413.616405	11705.879344
413.996568	11975.835653
414.376670	11947.716097
414.756711	11819.471664
415.136691	12084.285996
415.516609	12257.497521
415.896466	12307.699852
416.276262	12586.110176
416.655997	13022.689222
417.035670	13046.485989
417.415283	13659.908713
417.794834	13739.377462
418.174324	13461.970328
418.553753	13341.136390
418.933121	13811.839007
419.312428	13591.926233
419.691674	13481.330879
420.070859	13895.433941
420.449983	13521.733206
420.829045	14015.967929
421.208047	13731.132655
421.586988	14126.069250
421.965867	14314.222756
422.344686	14257.653448
422.723444	14734.798659
423.102141	13456.634266
423.480777	14490.096010
423.859352	13967.759375
424.237866	14899.813269
424.616319	14554.418613
424.994712	15057.664398
425.373044	14780.486637
425.751314	15274.834786
426.129524	14416.134722
426.507673	15260.522950
426.885762	14888.185847
427.263789	14934.665286
427.641756	14940.129897
428.019662	14885.085538
428.397508	14788.504592
428.775292	14894.552825
429.153016	14721.255599
429.530679	14640.060255
429.908282	14520.849569
430.285824	14163.267924
430.663305	14531.385581
431.040726	14082.760697
431.418086	13794.378971
431.795385	14099.920785
432.172624	14240.143000
432.549802	13760.295730
432.926920	13708.225652
433.303977	13460.135348
433.680974	13446.625055
434.057910	13457.950007
434.434786	13294.931695
434.811601	13040.620607
435.188355	13510.047812
435.565050	13091.208586
435.941683	12852.313346
436.318257	13193.541488
436.694770	12871.147097
437.071222	13002.149041
437.447614	12250.006367
437.823946	12055.196018
438.200218	11921.716346
438.576429	11597.786923
438.952580	11534.848118
439.328670	11320.110087
439.704700	11318.088584
440.080670	10911.892572
440.456580	10976.142078
440.832429	10842.493528
441.208218	10197.813130
441.583947	10181.986427
441.959616	10034.124344
442.335224	9920.761397
442.710773	9776.450806
443.086261	9785.545048
443.461689	9352.552782
443.837057	9195.674595
444.212365	9224.520077
444.587612	9024.479531
444.962800	8694.926701
445.337927	8641.961818
445.712995	8064.825320
446.088002	8436.199562
446.462949	8307.042680
446.837837	8173.464706
447.212664	7963.646842
447.587431	8522.569651
447.962139	9079.203777
448.336786	9485.510694
448.711374	8899.204337
449.085901	7823.101993
449.460369	7570.623365
449.834776	7354.340221
450.209124	7676.432143
450.583412	7412.961278
450.957640	7333.537899
451.331808	6907.126860
451.705917	6478.911088
452.079965	6313.097455
452.453954	6207.898657
452.827883	6035.213932
453.201752	5858.864288
453.575562	5736.276029
453.949311	5742.761474
454.323001	5612.634170
454.696632	5443.236277
455.070202	5497.809288
455.443713	5382.480291
455.817164	5312.017563
456.190556	5234.577878
456.563888	5054.618768
456.937160	4963.222649
457.310373	4698.020148
457.683526	4613.744658
458.056619	4501.495806
458.429653	4393.690731
458.802628	4334.167307
459.175542	4248.127414
459.548398	4241.369747
459.921194	4255.968929
460.293930	4222.425091
460.666607	4261.554527
461.039224	4275.604223
461.411782	4194.935679
461.784280	4036.640928
462.156719	3914.708019
462.529099	3798.050678
462.901419	3658.327537
463.273680	3548.304355
463.645882	3484.430415
464.018024	3422.169644
464.390106	3395.885068
464.762130	3435.178342
465.134094	3520.956095
465.505999	3639.398005
465.877845	3710.909293
466.249631	3670.305319
466.621358	3546.068603
466.993026	3428.181220
467.364634	3326.707835
467.736184	3237.043352
468.107674	3174.228054
468.479105	3123.133439
468.850477	3072.396747
469.221790	3020.246010
469.593043	2967.066878
469.964238	2927.067843
470.335373	2902.590520
470.706449	2906.688978
471.077467	2922.745053
471.448425	2967.618884
471.819324	2982.896101
472.190164	2949.967284
472.560945	2889.312121
472.931667	2839.031653
473.302330	2813.805719
473.672934	2791.186062
474.043479	2781.900256
474.413965	2766.242432
474.784393	2750.824063
475.154761	2754.602408
475.525070	2743.176633
475.895321	2733.467371
476.265513	2728.020404
476.635645	2736.683627
477.005719	2728.325394
477.375734	2727.481000
477.745691	2725.845146
478.115588	2730.649366
478.485427	2739.216807
478.855207	2764.261259
479.224928	2778.585697
479.594591	2784.650206
479.964194	2771.303751
480.333739	2768.687392
480.703226	2762.348141
481.072653	2763.414345
481.442022	2764.034407
481.811333	2761.251690
482.180584	2747.312900
482.549777	2740.472054
482.918912	2732.721280
483.287988	2728.040568
483.657005	2714.426932
484.025964	2708.561550
484.394864	2706.035932
484.763706	2701.851774
485.132489	2692.439940
485.501213	2688.074301
485.869879	2682.564320
486.238487	2683.940555
486.607036	2678.057528
486.975527	2675.599966
487.343959	2675.879750
487.712333	2669.777433
488.080648	2669.366579
488.448905	2668.643173
488.817104	2667.022442
489.185244	2668.963287
489.553326	2678.763290
489.921350	2693.112934
490.289315	2706.540047
490.657222	2714.232848
491.025070	2712.622199
491.392861	2709.630275
491.760593	2697.186186
492.128267	2685.717561
492.495883	2678.546520
492.863440	2667.181239
493.230939	2661.204951
493.598380	2652.715648
493.965763	2647.145173
494.333088	2642.567805
494.700354	2637.566980
495.067563	2640.614358
495.434713	2635.747124
495.801805	2639.953967
496.168839	2637.897176
496.535815	2633.521454
496.902733	2631.323511
497.269593	2633.216465
497.636395	2631.308388
498.003139	2631.817544
498.369825	2628.971813
498.736453	2632.304016
499.103023	2630.998357
499.469535	2631.426855
499.835989	2631.721762
500.202385	2630.499283
500.568723	2630.610188
500.935003	2633.448358
501.301226	2631.978861
501.667390	2638.005561
502.033497	2640.261477
502.399546	2638.670993
502.765537	2634.668317
503.131470	2638.728966
503.497345	2641.801550
503.863163	2637.418266
504.228923	2638.998668
504.594625	2644.591828
504.960269	2642.673669
505.325856	2649.007879
505.691385	2645.315234
506.056856	2649.055770
506.422270	2651.914104
506.787625	2652.143477
507.152924	2655.899136
507.518164	2654.061636
507.883347	2656.050371
508.248472	2658.240752
508.613540	2660.247132
508.978550	2663.728048
509.343503	2666.596465
509.708398	2671.700633
510.073236	2674.788340
510.438016	2678.896880
510.802738	2674.816066
511.167403	2680.235307
511.532010	2687.192099
511.896561	2691.020855
512.261053	2696.878676
512.625488	2695.704087
512.989866	2694.524457
513.354186	2698.416228
513.718449	2695.280630
514.082655	2705.451158
514.446803	2704.707588
514.810894	2710.212528
515.174927	2712.370142
515.538904	2711.656818
515.902822	2716.642520
516.266684	2717.602859
516.630488	2717.817108
516.994235	2719.233673
517.357925	2726.036710
517.721558	2727.889334
518.085133	2727.995198
518.448651	2735.052813
518.812112	2733.182545
519.175516	2733.442165
519.538863	2734.460478
519.902152	2736.940726
520.265385	2741.351735
520.628560	2740.449369
520.991678	2740.724112
521.354739	2743.295100
521.717743	2748.321130
522.080690	2747.910276
522.443580	2752.343971
522.806413	2753.437902
523.169189	2753.500916
523.531908	2754.862027
523.894569	2752.830442
524.257174	2756.366812
524.619722	2759.547780
524.982213	2758.327821
525.344647	2757.743047
525.707025	2758.474014
526.069345	2759.966196
526.431608	2762.610281
526.793815	2763.908378
527.155964	2762.015425
527.518057	2761.203799
527.880093	2761.717997
528.242072	2765.662700
528.603995	2763.686567
528.965860	2760.014087
529.327669	2762.675816
529.689421	2762.428799
530.051117	2761.849067
530.412755	2764.326794
530.774337	2763.283275
531.135862	2763.676485
531.497331	2765.629932
531.858743	2759.580547
532.220098	2765.009870
532.581396	2761.501227
532.942638	2759.822523
533.303824	2763.449633
533.664953	2761.438213
534.026025	2758.095928
534.387040	2764.757812
534.747999	2763.147164
535.108902	2763.769746
535.469748	2757.475866
535.830537	2759.983840
536.191270	2762.585075
536.551947	2761.415527
536.912567	2762.149015
537.273131	2762.640528
537.633638	2757.669950
537.994089	2758.952924
538.354483	2755.255237
538.714821	2759.575506
539.075103	2764.878800
539.435328	2757.201123
539.795497	2756.006369
540.155609	2762.675816
540.515665	2761.710435
540.875665	2755.822367
541.235609	2758.143819
541.595496	2758.128695
541.955328	2759.676329
542.315102	2756.273551
542.674821	2753.120309
543.034483	2751.015627
543.394090	2750.970257
543.753640	2751.418919
544.113134	2755.645927
544.472571	2746.332395
544.831953	2754.367994
545.191278	2748.240472
545.550548	2742.997672
545.909761	2744.172261
546.268918	2745.987076
546.628019	2744.721747
546.987064	2740.277969
547.346053	2733.318657
547.704986	2735.698081
548.063863	2732.194479
548.422684	2728.769015
548.781449	2725.593088
549.140158	2726.941597
549.498811	2724.231977
549.857408	2716.846686
550.215949	2718.613611
550.574434	2710.625902
550.932864	2706.963504
551.291237	2710.567929
551.649555	2708.150696
552.007817	2705.332691
552.366022	2700.939325
552.724173	2698.317925
553.082267	2697.657534
553.440305	2695.194931
553.798288	2687.885257
554.156215	2687.625638
554.514086	2686.965247
554.871902	2681.246058
555.229661	2679.685821
555.587365	2673.550737
555.945014	2672.852537
556.302606	2665.018584
556.660143	2668.905313
557.017625	2662.959272
557.375050	2659.783345
557.732421	2656.723365
558.089735	2654.444763
558.446994	2649.872437
558.804197	2649.874958
559.161345	2644.836324
559.518437	2639.165026
559.875474	2637.645118
560.232455	2635.837865
560.589381	2633.370220
560.946251	2633.168574
561.303065	2627.698922
561.659825	2626.010135
562.016528	2618.148456
562.373177	2621.473097
562.729770	2618.894547
563.086307	2611.428598
563.442789	2612.951026
563.799216	2608.781992
564.155587	2605.658997
564.511904	2604.055910
564.868164	2601.908379
565.224370	2600.108687
565.580520	2598.828234
565.936615	2597.494848
566.292654	2591.500917
566.648638	2589.880186
567.004567	2592.110896
567.360441	2589.519743
567.716260	2587.160483
568.072023	2585.012952
568.427732	2579.525656
568.783385	2580.324678
569.138982	2576.329564
569.494525	2576.745459
569.850013	2571.041394
570.205445	2576.523648
570.560823	2570.577607
570.916145	2572.384861
571.271412	2574.222362
571.626625	2569.677762
571.981782	2565.365054
572.336884	2566.146433
572.691931	2565.435631
573.046923	2561.495969
573.401860	2560.432285
573.756743	2562.642831
574.111570	2558.902295
574.466342	2562.060578
574.821059	2557.735268
575.175722	2555.502037
575.530330	2556.069167
575.884882	2554.040102
576.239380	2552.570606
576.593823	2553.919115
576.948211	2551.088507
577.302544	2551.340564
577.656823	2548.678835
578.011047	2552.237890
578.365216	2551.476676
578.719330	2547.912580
579.073389	2545.835624
579.427394	2551.234700
579.781344	2545.139945
580.135239	2541.633823
580.489080	2544.933258
580.842866	2541.429656
581.196597	2544.666077
581.550273	2543.574667
581.903895	2542.044677
582.257463	2542.752959
582.610975	2540.945705
582.964434	2538.591486
583.317837	2540.345808
583.671186	2536.950591
584.024481	2540.633154
584.377721	2538.475540
584.730906	2538.808256
585.084037	2536.355735
585.437113	2538.102494
585.790135	2538.462937
586.143103	2535.634850
586.496016	2534.792977
586.848874	2530.654190
587.201679	2534.319108
587.554428	2531.223840
587.907124	2531.790970
588.259765	2529.282996
588.612352	2533.522606
588.964884	2532.239633
589.317362	2531.594365
589.669786	2532.363141
590.022155	2530.560928
590.374470	2532.335414
590.726731	2526.807789
591.078937	2529.351051
591.431090	2531.407842
591.783188	2528.264683
592.135232	2528.420958
592.487222	2525.020700
592.839157	2526.951462
593.191038	2524.579599
593.542866	2525.948273
593.894639	2524.705628
594.246358	2523.946934
594.598022	2520.481141
594.949633	2525.401307
595.301190	2519.054495
595.652692	2521.481810
596.004141	2520.062725
596.355535	2517.244720
596.706876	2519.387211
597.058162	2514.898063
597.409395	2519.230935
597.760573	2518.610873
598.111698	2515.233300
598.462768	2519.130112
598.813785	2516.549041
599.164748	2519.246058
599.515657	2516.271778
599.866511	2512.412774
600.217312	2514.598115
600.568060	2515.371932
600.918753	2516.785975
601.269392	2513.484020
601.619978	2512.942096
601.970510	2516.163393
602.320988	2508.742814
602.671412	2517.053157
603.021783	2512.392610
603.372100	2513.965450
603.722363	2514.396468
604.072572	2513.509225
604.422728	2514.162055
604.772830	2510.048473
605.122878	2508.553771
605.472872	2512.450583
605.822813	2509.408247
606.172701	2509.935047
606.522534	2510.050994
606.872314	2509.269615
607.222041	2511.018895
607.571714	2512.569050
607.921333	2508.155520
608.270899	2516.274298
608.620411	2509.952691
608.969870	2511.865809
609.319276	2509.017557
609.668627	2510.345901
610.017926	2513.854544
610.367171	2511.459996
610.716362	2512.788340
611.065500	2509.204080
611.414585	2511.492764
611.763616	2508.193329
612.112594	2513.070645
612.461518	2511.550737
612.810389	2512.006962
613.159207	2511.898577
613.507971	2511.502846
613.856682	2510.933196
614.205340	2509.657784
614.553945	2510.547548
614.902496	2510.499657
615.250994	2512.372445
615.599439	2511.981756
615.947830	2509.251971
616.296169	2511.331447
616.644454	2511.497805
616.992686	2510.754235
617.340864	2511.190295
617.688990	2510.814729
618.037063	2513.562157
618.385082	2510.910511
618.733048	2511.661643
619.080961	2510.608041
619.428821	2511.767507
619.776628	2510.933196
620.124382	2513.541993
620.472083	2510.497136
620.819731	2513.995697
621.167326	2509.564522
621.514868	2510.171982
621.862357	2507.371621
622.209793	2510.275325
622.557176	2507.389265
622.904506	2503.530261
623.251783	2501.165960
623.599007	2501.423059
623.946179	2499.678820
624.293297	2500.009015
624.640363	2497.438027
624.987376	2501.939777
625.334336	2500.066989
625.681243	2502.035559
626.028097	2499.315857
626.374899	2496.268479
626.721647	2498.874756
627.068343	2498.199241
627.414987	2496.190341
627.761577	2496.954076
628.108115	2495.320742
628.454600	2496.770074
628.801032	2497.705208
629.147412	2496.220588
629.493739	2494.746051
629.840014	2496.621360
630.186236	2495.471977
630.532405	2495.734117
630.878521	2494.257059
631.224585	2493.649600
631.570597	2492.553149
631.916556	2496.412152
632.262462	2493.518530
632.608316	2491.678509
632.954117	2493.079949
633.299866	2493.203458
633.645562	2488.593323
633.991206	2490.050216
634.336797	2489.654485
634.682336	2489.737664
635.027823	2486.536532
635.373257	2486.458394
635.718639	2485.450163
636.063968	2486.241624
636.409245	2483.912611
636.754470	2487.892602
637.099642	2484.762046
637.444762	2481.754997
637.789829	2479.811633
638.134845	2483.574854
638.479808	2480.555203
638.824719	2481.349184
639.169577	2480.146869
639.514383	2480.386324
639.859137	2482.269195
640.203839	2478.092599
640.548489	2477.661580
640.893086	2476.055973
641.237632	2475.141003
641.582125	2477.459934
641.926566	2472.620427
642.270955	2479.052939
642.615292	2476.925572
642.959576	2478.195943
643.303809	2477.654019
643.647990	2477.961529
643.992118	2477.570840
644.336195	2476.565129
644.680219	2479.418422
645.024192	2478.669811
645.368112	2477.303658
645.711981	2478.097640
646.055797	2479.194091
646.399562	2478.115284
646.743274	2482.138125
647.086935	2479.821715
647.430544	2477.971611
647.774101	2482.216263
648.117606	2484.252889
648.461059	2481.323979
648.804460	2484.807416
649.147810	2480.726602
649.491108	2477.260809
649.834354	2478.448000
650.177548	2475.246868
650.520690	2475.761065
650.863781	2477.921200
651.206820	2477.049080
651.549807	2475.216621
651.892742	2473.316106
652.235626	2472.650673
652.578458	2471.234109
652.921238	2470.404839
653.263967	2469.116825
653.606644	2469.147072
653.949269	2473.119501
654.291843	2471.826445
654.634365	2470.737556
654.976836	2466.734879
655.319255	2468.665641
655.661622	2467.286886
656.003938	2468.879890
656.346203	2468.658080
656.688416	2470.913996
657.030577	2467.649849
657.372687	2471.029942
657.714746	2468.315281
658.056753	2468.090950
658.398708	2463.357306
658.740612	2465.136834
659.082465	2461.776905
659.424266	2465.681278
659.766016	2462.419652
660.107715	2469.570528
660.449362	2466.195476
660.790958	2467.851495
661.132503	2467.922071
661.473996	2466.255970
661.815438	2465.010805
662.156829	2470.041876
662.498168	2465.802266
662.839456	2469.590693
663.180693	2464.788994
663.521879	2469.406691
663.863013	2467.828810
664.204097	2467.561629
664.545129	2464.700774
664.886110	2467.314612
665.227040	2465.499797
665.567918	2465.247739
665.908746	2467.841413
666.249522	2466.800414
666.590248	2468.272431
666.930922	2467.856536
667.271545	2466.046762
667.612118	2468.461475
667.952639	2467.801083
668.293109	2469.724284
668.633528	2466.893676
668.973896	2470.402319
669.314213	2470.097329
669.654480	2467.486011
669.994695	2466.863429
670.334859	2465.141875
670.674973	2463.884107
671.015035	2467.538943
671.355047	2466.129941
671.695008	2468.073306
672.034918	2462.883438
672.374777	2467.004581
672.714585	2464.418469
673.054342	2465.076340
673.394049	2465.484673
673.733705	2465.703963
674.073310	2467.463326
674.412864	2465.693881
674.752368	2466.891155
675.091820	2464.879735
675.431223	2464.040383
675.770574	2465.857719
676.109875	2455.268775
676.449125	2462.613736
676.788324	2457.063426
677.127473	2461.693726
677.466571	2454.361367
677.805619	2461.086267
678.144616	2462.349076
678.483562	2462.522995
678.822458	2459.311780
679.161303	2459.871348
679.500098	2457.413786
679.838842	2460.705659
680.177535	2458.222891
680.516179	2459.584003
680.854771	2460.640124
681.193314	2462.643983
681.531805	2460.519137
681.870247	2463.347224
682.208638	2464.163891
682.546978	2468.751341
682.885268	2466.142544
683.223508	2466.515589
683.561697	2465.338480
683.899836	2464.216823
684.237925	2463.206072
684.575963	2464.799076
684.913951	2464.418469
685.251889	2461.600464
685.589776	2461.454271
685.927614	2464.433593
686.265401	2466.021556
686.603137	2460.846812
686.940824	2462.510392
687.278460	2466.371916
687.616046	2467.745631
687.953582	2467.541464
688.291068	2468.320322
688.628504	2469.167236
688.965889	2469.441979
689.303224	2468.895014
689.640510	2463.982409
689.977745	2463.284210
690.314930	2461.330762
690.652065	2462.812862
690.989150	2458.187603
691.326185	2459.175669
691.663170	2457.660802
692.000105	2459.538632
692.336990	2451.835749
692.673825	2452.700307
693.010610	2456.435802
693.347345	2448.695110
693.684030	2446.608073
694.020665	2446.908021
694.357251	2444.720161
694.693786	2448.430450
695.030272	2449.025306
695.366707	2448.947168
695.703093	2447.245779
696.039429	2448.352312
696.375716	2447.308793
696.711952	2447.414657
697.048139	2445.768721
697.384276	2444.977259
697.720363	2444.367280
698.056400	2446.799637
698.392388	2446.345933
698.728326	2445.531786
699.064214	2444.742846
699.400053	2443.981632
699.735842	2446.935748
700.071581	2441.687907
700.407270	2441.398040
700.742910	2443.805191
701.078501	2443.691765
701.414042	2440.805705
701.749533	2440.283945
702.084974	2438.741352
702.420366	2443.220417
702.755709	2439.820159
703.091002	2439.590787
703.426246	2440.561209
703.761440	2439.908379
704.096584	2440.495674
704.431679	2436.235899
704.766725	2441.559357
705.101721	2438.877463
705.436668	2438.872422
705.771565	2440.067176
706.106413	2441.546754
706.441212	2442.040787
706.775961	2439.847885
707.110661	2440.490633
707.445311	2440.982145
707.779913	2441.266970
708.114465	2439.550457
708.448967	2440.672114
708.783421	2443.777465
709.117825	2442.713781
709.452180	2445.322578
709.786485	2443.759821
710.120742	2445.110850
710.454949	2447.346602
710.789107	2443.369131
711.123216	2441.887032
711.457275	2447.719647
711.791286	2446.492126
712.125247	2447.573454
712.459159	2449.768876
712.793023	2450.000769
713.126837	2446.295521
713.460602	2452.034875
713.794318	2448.440532
714.127985	2447.013886
714.461602	2444.841148
714.795171	2445.554472
715.128691	2443.001127
715.462162	2442.638164
715.795584	2442.875098
716.128957	2439.157247
716.462281	2438.569953
716.795556	2439.855447
717.128782	2436.704726
717.461960	2438.121290
717.795088	2438.358224
718.128167	2436.195569
718.461198	2436.089705
718.794180	2435.421752
719.127113	2436.251022
719.459997	2435.129365
719.792833	2430.781370
720.125619	2434.479057
720.458357	2433.493511
720.791046	2432.208017
721.123686	2432.737338
721.456278	2432.253387
721.788821	2435.910744
722.121315	2433.831268
722.453761	2432.699529
722.786158	2434.741197
723.118506	2432.606268
723.450805	2432.470157
723.783056	2432.618871
724.115259	2433.531320
724.447412	2432.243305
724.779518	2433.521237
725.111574	2431.469488
725.443582	2436.445107
725.775542	2430.945208
726.107453	2434.658017
726.439315	2436.455189
726.771129	2437.838986
727.102895	2432.807914
727.434612	2438.842175
727.766281	2437.889397
728.097901	2437.614654
728.429473	2431.829930
728.760996	2437.029880
729.092471	2433.256577
729.423897	2437.725560
729.755276	2436.346804
730.086606	2440.679676
730.417887	2438.612803
730.749120	2440.722526
731.080305	2439.923503
731.411442	2439.784871
731.742530	2438.426280
732.073570	2441.874429
732.404562	2442.973401
732.735506	2442.441559
733.066401	2440.296548
733.397249	2438.005344
733.728048	2439.721857
734.058798	2438.847216
734.389501	2434.675662
734.720156	2432.782708
735.050762	2432.946546
735.381320	2433.443099
735.711831	2432.129879
736.042293	2430.549477
736.372707	2431.507296
736.703073	2430.922523
737.033391	2431.038469
737.363661	2430.357913
737.693883	2436.011567
738.024056	2434.610127
738.354182	2431.136772
738.684260	2431.804724
739.014290	2433.105342
739.344272	2435.860333
739.674207	2433.619540
740.004093	2435.328491
740.333931	2435.915785
740.663722	2436.649273
740.993464	2434.093408
741.323159	2436.200611
741.652806	2434.582400
741.982405	2434.935281
742.311956	2431.542584
742.641460	2434.350507
742.970915	2433.901844
743.300323	2430.952769
743.629683	2431.408994
743.958996	2431.688778
744.288260	2428.616195
744.617477	2428.530495
744.946647	2425.387336
745.275768	2425.946904
745.604842	2424.101841
745.933869	2425.956986
746.262847	2423.940524
746.591778	2428.046544
746.920662	2426.609815
747.249498	2429.221133
747.578286	2427.754157
747.907027	2427.814651
748.235720	2429.533685
748.564365	2430.398242
748.892963	2427.239960
749.221514	2430.990578
749.550017	2427.860022
749.878473	2430.315063
750.206881	2425.566297
750.535242	2429.281627
750.863555	2425.972109
751.191821	2425.914136
751.520039	2427.761719
751.848210	2427.481935
752.176334	2428.686771
752.504411	2426.582089
752.832440	2427.121493
753.160421	2428.454878
753.488356	2427.764240
753.816243	2425.901533
754.144082	2425.866245
754.471875	2424.182500
754.799620	2429.755495
755.127318	2425.344486
755.454969	2424.608477
755.782572	2428.780032
756.110129	2426.428334
756.437638	2425.858683
756.765100	2425.830957
757.092515	2425.152922
757.419882	2428.056627
757.747203	2426.972778
758.074477	2427.096287
758.401703	2427.360947
758.728882	2425.397418
759.056014	2430.322625
759.383099	2426.791297
759.710138	2427.844898
760.037129	2426.345155
760.364073	2426.761050
760.690970	2429.097625
761.017820	2427.391194
761.344623	2427.192069
761.671379	2431.774478
761.998088	2425.321801
762.324751	2434.542071
762.651366	2439.245468
762.977935	2450.583023
763.304456	2454.184927
763.630931	2457.910340
763.957359	2457.053343
764.283740	2453.559824
764.610074	2449.380707
764.936362	2443.404419
765.262602	2435.288162
765.588796	2435.567946
765.914943	2431.043510
766.241044	2428.676688
766.567097	2427.401277
766.893104	2423.960689
767.219064	2424.890782
767.544978	2421.724937
767.870845	2423.385997
768.196665	2423.043199
768.522438	2424.187541
768.848165	2419.214443
769.173846	2422.045051
769.499479	2420.232756
769.825066	2419.552200
770.150607	2418.271747
770.476101	2420.966244
770.801548	2417.694535
771.126949	2418.677560
771.452303	2419.718558
771.777611	2416.492220
772.102872	2419.171593
772.428087	2419.000194
772.753256	2416.940882
773.078378	2417.041705
773.403453	2418.208732
773.728482	2416.305697
774.053465	2416.915677
774.378401	2418.886768
774.703291	2416.477096
775.028135	2415.599935
775.352932	2417.271078
775.677683	2417.381983
776.002388	2411.917372
776.327046	2414.228742
776.651658	2415.627662
776.976224	2414.531211
777.300743	2413.338978
777.625216	2415.552044
777.949643	2417.008938
778.274024	2415.516756
778.598359	2413.248237
778.922647	2409.447207
779.246889	2412.267733
779.571086	2409.079203
779.895236	2414.677404
780.219339	2412.517270
780.543397	2415.398289
780.867409	2415.504153
781.191374	2412.182033
781.515294	2412.557599
781.839167	2417.404668
782.162995	2413.467527
782.486776	2411.534245
782.810511	2412.744122
783.134201	2415.859555
783.457844	2412.527352
783.781441	2413.734708
784.104993	2413.036509
784.428498	2413.318813
784.751958	2413.059194
785.075372	2413.621282
785.398739	2412.978535
785.722061	2412.444173
786.045337	2414.122877
786.368568	2412.774369
786.691752	2415.055491
787.014891	2414.881571
787.337983	2414.634554
787.661030	2416.988773
787.984031	2421.029258
788.306987	2419.327869
788.629897	2423.229722
788.952760	2422.198806
789.275579	2419.279978
789.598351	2419.718558
789.921078	2418.884247
790.243759	2419.423651
790.566395	2414.334606
790.888984	2414.826118
791.211529	2413.734708
791.534027	2415.131108
791.856480	2413.800243
792.178888	2413.124729
792.501249	2410.762948
792.823566	2412.938206
793.145836	2412.229924
793.468062	2411.609862
793.790241	2414.148083
794.112375	2415.355439
794.434464	2412.973494
794.756507	2412.940727
795.078505	2414.029616
795.400457	2415.005079
795.722364	2411.153638
796.044226	2413.684297
796.366042	2414.024575
796.687812	2412.098854
797.009538	2415.733526
797.331218	2413.540624
797.652852	2413.649009
797.974442	2416.724113
798.295986	2413.303690
798.617484	2414.637075
798.938938	2416.151942
799.260346	2416.093968
799.581709	2415.320151
799.903026	2416.214956
800.224299	2413.006262
800.545526	2414.652198
800.866708	2413.638927
801.187845	2414.813515
801.508936	2413.036509
801.829983	2411.564492
802.150984	2413.044070
802.471940	2412.202198
802.792851	2413.505336
803.113717	2413.016344
803.434538	2409.048956
803.755314	2411.423339
804.076045	2410.394944
804.396731	2411.214132
804.717372	2411.216652
805.037967	2414.165727
805.358518	2412.771848
805.679024	2411.904770
805.999485	2410.636919
806.319901	2414.019534
806.640272	2413.681776
806.960598	2414.695048
807.280879	2411.877043
807.601115	2411.201529
807.921306	2412.257650
808.241453	2414.135480
808.561554	2412.446694
808.881611	2414.276632
809.201623	2415.252096
809.521590	2409.729512
809.841513	2413.482651
810.161390	2412.638257
810.481223	2410.536096
810.801011	2412.378638
811.120755	2412.686148
811.440453	2412.350912
811.760107	2410.231107
812.079716	2408.789337
812.399281	2407.856723
812.718801	2411.176323
813.038276	2406.520817
813.357707	2411.085582
813.677093	2411.337640
813.996434	2413.306210
814.315731	2408.688513
814.634983	2413.114647
814.954191	2413.414595
815.273354	2410.271436
815.592473	2409.676580
815.911547	2411.786303
816.230577	2412.300500
816.549562	2412.570202
816.868502	2413.152455
817.187399	2412.260171
817.506250	2412.832342
817.825058	2415.211767
818.143821	2414.503484
818.462539	2420.676377
818.781213	2416.734195
819.099843	2419.688311
819.418429	2420.487334
819.736970	2426.168714
820.055466	2427.552511
820.373919	2432.949066
820.692327	2440.851075
821.010691	2453.605194
821.329011	2479.504122
821.647286	2528.236956
821.965517	2574.716395
822.283704	2602.818307
822.601847	2612.971191
822.919945	2592.201637
823.237999	2567.109294
823.556010	2543.977959
823.873976	2519.659433
824.191897	2504.021774
824.509775	2485.863538
824.827609	2474.503297
825.145398	2466.273614
825.463144	2463.863942
825.780845	2465.769498
826.098502	2471.579428
826.416116	2478.526138
826.733685	2489.465442
827.051210	2491.423930
827.368692	2487.673312
827.686129	2474.321816
828.003522	2464.599951
828.320872	2447.903649
828.638177	2443.404419
828.955439	2435.560384
829.272656	2430.373037
829.589830	2424.253076
829.906960	2429.430341
830.224046	2420.043713
830.541088	2420.051274
830.858086	2417.293763
831.175041	2419.312745
831.491952	2417.288722
831.808819	2418.899371
832.125642	2418.992632
832.442421	2421.901378
832.759157	2428.346493
833.075849	2432.702050
833.392497	2444.175716
833.709101	2454.580657
834.025662	2449.534462
834.342179	2447.694441
834.658653	2436.349325
834.975083	2434.237081
835.291469	2436.092226
835.607811	2425.556214
835.924110	2419.090934
836.240366	2419.141346
836.556578	2415.428536
836.872746	2415.126067
837.188871	2413.326375
837.504952	2413.091961
837.820990	2410.238668
838.136984	2410.553740
838.452935	2409.903432
838.768842	2413.127249
839.084706	2409.734553
839.400526	2416.703948
839.716303	2423.020514
840.032037	2425.835998
840.347727	2421.883734
840.663373	2421.659402
840.978977	2417.540780
841.294537	2414.193453
841.610054	2411.050294
841.925527	2410.863771
842.240957	2408.544841
842.556344	2411.078020
842.871687	2406.039387
843.186987	2404.930333
843.502244	2403.874212
843.817458	2406.306568
844.132629	2408.055849
844.447756	2405.736918
844.762840	2400.625188
845.077881	2404.413615
845.392879	2401.764489
845.707833	2405.285735
846.022745	2400.922616
846.337613	2405.033677
846.652438	2406.452762
846.967221	2403.556619
847.281960	2402.808008
847.596656	2402.316495
847.911309	2402.732390
848.225919	2403.412946
848.540485	2403.070148
848.855009	2403.554098
849.169490	2402.671896
849.483928	2404.229613
849.798323	2402.865981
850.112675	2403.854047
850.426984	2403.617113
850.741251	2404.569891
851.055474	2403.344890
851.369654	2400.746176
851.683792	2400.375651
851.997887	2405.389078
852.311938	2401.711557
852.625947	2405.439490
852.939914	2400.030332
853.253837	2406.336815
853.567718	2403.453275
853.881555	2403.100394
854.195350	2403.513769
854.509103	2401.008316
854.822812	2401.315826
855.136479	2402.573594
855.450103	2403.806156
855.763685	2399.795918
856.077224	2404.005282
856.390720	2401.882956
856.704173	2401.552760
857.017584	2400.494118
857.330953	2404.022926
857.644278	2401.197359
857.957561	2403.622154
858.270802	2402.828172
858.584000	2401.908162
858.897155	2406.084757
859.210268	2404.648029
859.523339	2401.361196
859.836367	2402.845816
860.149352	2404.879922
860.462295	2403.496125
860.775195	2399.054868
861.088054	2399.574107
861.400869	2402.664335
861.713642	2398.495300
862.026373	2402.238357
862.339062	2402.140055
862.651708	2403.594427
862.964312	2402.598800
863.276873	2403.503687
863.589392	2403.407905
863.901869	2403.690209
864.214303	2402.969324
864.526696	2404.895045
864.839045	2403.624674
865.151353	2401.983779
865.463619	2405.396640
865.775842	2403.402864
866.088023	2403.899417
866.400162	2404.431259
866.712258	2402.626526
867.024313	2405.043759
867.336325	2403.433111
867.648296	2405.981414
867.960224	2404.582494
868.272110	2403.047462
868.583954	2404.131310
868.895755	2401.769530
869.207515	2405.472257
869.519233	2405.827659
869.830909	2405.439490
870.142542	2405.873029
870.454134	2404.650549
870.765684	2403.085271
871.077191	2404.605179
871.388657	2405.633574
871.700081	2407.297155
872.011463	2404.159037
872.322803	2403.055024
872.634101	2403.486043
872.945357	2404.075858
873.256571	2406.503173
873.567744	2404.025446
873.878874	2406.515776
874.189963	2403.985117
874.501010	2406.024264
874.812015	2405.651218
875.122979	2409.406878
875.433900	2405.063924
875.744780	2408.154151
876.055618	2404.731208
876.366415	2407.324881
876.677169	2408.491908
876.987882	2407.793709
877.298554	2403.780950
877.609183	2405.719274
877.919771	2404.723646
878.230317	2406.893863
878.540822	2409.542989
878.851285	2410.959553
879.161707	2416.131777
879.472087	2417.485327
879.782425	2424.918508
880.092722	2433.717842
880.402977	2451.044288
880.713191	2469.550364
881.023363	2487.887561
881.333494	2499.119252
881.643583	2504.886332
881.953631	2501.241577
882.263637	2495.126658
882.573602	2487.867396
882.883526	2479.972949
883.193408	2473.762248
883.503248	2465.381330
883.813048	2457.827161
884.122806	2448.241407
884.432522	2445.115891
884.742197	2435.114242
885.051831	2433.125507
885.361424	2431.895465
885.670975	2427.779363
885.980485	2421.298960
886.289954	2419.363157
886.599382	2416.925759
886.908768	2414.523649
887.218113	2415.892322
887.527417	2415.380645
887.836680	2411.509039
888.145901	2406.891342
888.455082	2408.081054
888.764221	2410.261353
889.073319	2406.314130
889.382376	2407.060221
889.691392	2408.189439
890.000366	2409.515263
890.309300	2405.162226
890.618193	2406.147772
890.927044	2407.662639
891.235855	2407.942423
891.544625	2407.859244
891.853353	2408.595252
892.162041	2409.724471
892.470687	2412.277815
892.779293	2410.941909
893.087858	2409.943761
893.396381	2412.212280
893.704864	2417.813002
894.013306	2420.250400
894.321707	2430.403284
894.630068	2432.563418
894.938387	2434.501742
895.246665	2434.257246
895.554903	2429.390012
895.863100	2427.721390
896.171256	2424.459763
896.479371	2422.153435
896.787446	2421.114958
897.095480	2417.881058
897.403473	2418.891809
897.711425	2414.216139
898.019336	2414.508526
898.327207	2411.781261
898.635038	2412.565161
898.942827	2409.754717
899.250576	2410.087434
899.558284	2406.175498
899.865952	2406.644326
900.173579	2408.789337
900.481165	2409.711868
900.788711	2406.472926
901.096216	2408.348236
901.403681	2404.842113
901.711105	2405.043759
902.018489	2405.686506
902.325832	2407.496281
902.633135	2407.942423
902.940397	2409.230438
903.247619	2412.779410
903.554800	2422.034968
903.861941	2431.691298
904.169041	2439.031218
904.476101	2441.181271
904.783121	2439.837803
905.090100	2434.955446
905.397039	2431.971082
905.703938	2425.470515
906.010796	2421.150246
906.317614	2417.593712
906.624391	2417.571027
906.931129	2416.303176
907.237826	2412.557599
907.544483	2411.844276
907.851099	2410.158010
908.157675	2408.708678
908.464211	2405.399161
908.770707	2400.466392
909.077163	2403.231464
909.383578	2400.526885
909.689954	2399.276679
909.996289	2398.404560
910.302584	2404.587535
910.608839	2400.983110
910.915054	2402.878584
911.221229	2400.799108
911.527363	2402.770199
911.833458	2401.094015
912.139513	2402.886145
912.445527	2402.598800
912.751502	2400.383212
913.057436	2403.617113
913.363331	2406.132648
913.669186	2404.411094
913.975000	2405.472257
914.280775	2410.392423
914.586510	2409.485016
914.892205	2415.612538
915.197859	2421.142684
915.503475	2429.042172
915.809050	2437.748245
916.114585	2437.717998
916.420081	2439.595828
916.725536	2440.793102
917.030952	2438.161619
917.336328	2432.626433
917.641665	2432.772626
917.946961	2426.481266
918.252218	2428.699374
918.557435	2426.771132
918.862612	2422.707962
919.167750	2420.893147
919.472848	2421.946748
919.777906	2411.829152
920.082925	2413.507857
920.387904	2411.284708
920.692843	2409.681621
920.997743	2406.616599
921.302603	2408.005437
921.607423	2408.338153
921.912204	2408.302865
922.216946	2405.605848
922.521647	2405.099212
922.826310	2402.079561
923.130932	2406.447721
923.435516	2402.765158
923.740059	2400.904972
924.044564	2401.855229
924.349028	2401.464540
924.653454	2397.083777
924.957840	2400.597462
925.262186	2398.225599
925.566493	2400.731052
925.870761	2396.032697
926.174989	2398.792728
926.479178	2398.117214
926.783328	2400.360527
927.087438	2397.744168
927.391509	2401.923285
927.695541	2397.739127
927.999533	2399.914385
928.303486	2397.282903
928.607400	2402.248439
928.911275	2399.115362
929.215110	2396.864487
929.518906	2398.664179
929.822663	2397.058572
930.126381	2397.154353
930.430060	2397.698798
930.733699	2399.019580
931.037299	2398.525547
931.340861	2398.686864
931.644383	2397.787018
931.947866	2398.896072
932.251309	2398.613767
932.554714	2397.030845
932.858080	2402.802966
933.161407	2397.489590
933.464694	2397.202244
933.767943	2398.701988
934.071153	2398.717111
934.374323	2395.752913
934.677455	2399.813562
934.980548	2396.713253
935.283602	2400.736093
935.586617	2396.874569
935.889593	2397.179559
936.192530	2398.021432
936.495428	2396.010012
936.798287	2399.858932
937.101108	2399.314488
937.403890	2397.386247
937.706632	2400.189128
938.009336	2399.311967
938.312002	2398.623850
938.614628	2399.637122
938.917216	2399.939591
939.219765	2400.592420
939.522275	2401.167112
939.824747	2401.580487
940.127179	2399.311967
940.429573	2396.269631
940.731929	2398.200393
941.034246	2396.209137
941.336524	2401.648542
941.638763	2398.815414
941.940964	2399.052348
942.243126	2401.056207
942.545250	2399.369941
942.847335	2399.501011
943.149381	2399.390105
943.451389	2396.622512
943.753359	2396.577141
944.055290	2400.017729
944.357182	2398.109652
944.659036	2396.128479
944.960851	2398.507903
945.262628	2395.624363
945.564367	2399.450599
945.866067	2397.534961
946.167729	2398.079405
946.469352	2399.248953
946.770937	2398.374313
947.072484	2399.853891
947.373992	2397.035886
947.675462	2397.212327
947.976893	2397.900444
948.278286	2397.663510
948.579641	2399.387585
948.880958	2399.027142
949.182236	2395.621843
949.483476	2399.347255
949.784678	2399.440517
950.085841	2397.320712
950.386967	2400.562173
950.688054	2397.837430
950.989103	2397.960938
951.290114	2397.971020
951.591087	2396.183931
951.892021	2398.460012
952.192917	2400.471433
952.493776	2399.427914
952.794596	2399.921947
953.095378	2399.664848
953.396122	2400.055537
953.696828	2399.367420
953.997496	2398.898593
954.298126	2398.744838
954.598718	2400.594941
954.899272	2399.057389
955.199788	2400.226937
955.500266	2397.212327
955.800706	2397.502193
956.101108	2392.773591
956.401472	2392.677809
956.701798	2393.761657
957.002087	2394.169990
957.302337	2395.974723
957.602550	2396.257028
957.902724	2392.052706
958.202861	2396.917419
958.502960	2395.253838
958.803022	2394.210320
959.103045	2394.414486
959.403031	2399.301885
959.702979	2395.702501
960.002889	2395.800804
960.302762	2393.509599
960.602596	2394.845505
960.902393	2393.776780
961.202153	2394.298540
961.501875	2396.229302
961.801559	2397.381205
962.101205	2394.674106
962.400814	2394.313663
962.700385	2394.817779
962.999918	2395.362223
963.299414	2394.250649
963.598873	2394.517830
963.898293	2395.455485
964.197677	2395.117727
964.497022	2393.227295
964.796331	2393.363406
965.095601	2396.735938
965.394835	2395.228633
965.694030	2396.153684
965.993189	2394.966493
966.292309	2393.539846
966.591393	2393.968344
966.890439	2395.773077
967.189447	2396.216699
967.488419	2396.642676
967.787353	2394.999260
968.086249	2393.713766
968.385108	2394.361554
968.683930	2395.432799
968.982714	2396.010012
969.281462	2396.869528
969.580172	2395.246277
969.878844	2394.459857
970.177480	2394.298540
970.476078	2396.768705
970.774639	2394.774929
971.073162	2393.620505
971.371649	2390.716800
971.670098	2391.750237
971.968510	2389.602705
972.266885	2391.525905
972.565223	2394.134702
972.863524	2396.332645
973.161788	2395.241236
973.460014	2394.875752
973.758204	2395.158057
974.056356	2394.737120
974.354471	2395.906668
974.652550	2396.052861
974.950591	2396.708211
975.248595	2398.162584
975.546563	2395.236194
975.844493	2395.745351
976.142386	2394.159908
976.440243	2392.423231
976.738062	2391.992212
977.035845	2397.320712
977.333590	2395.231153
977.631299	2393.456667
977.928971	2395.957079
978.226606	2394.810217
978.524204	2395.309291
978.821765	2396.471277
979.119290	2395.127810
979.416777	2395.122768
979.714228	2391.664537
980.011642	2395.334497
980.309020	2395.924312
980.606360	2394.986657
980.903664	2394.464898
981.200931	2392.372819
981.498162	2398.056720
981.795356	2395.281565
982.092513	2396.786349
982.389633	2398.712070
982.686717	2399.009498
982.983764	2398.918757
983.280775	2398.916237
983.577749	2397.184600
983.874686	2400.768861
984.171587	2398.971689
984.468451	2400.181566
984.765279	2398.679303
985.062070	2396.299878
985.358824	2396.478839
985.655543	2397.174518
985.952224	2395.808365
986.248869	2393.703684
986.545478	2391.316697
986.842050	2393.902809
987.138586	2389.753940
987.435086	2389.963148
987.731549	2389.670761
988.027975	2394.084291
988.324366	2393.015566
988.620719	2392.967675
988.917037	2391.795607
989.213318	2395.090001
989.509563	2391.286450
989.805772	2394.238046
990.101944	2393.948180
990.398080	2395.415155
990.694180	2392.975237
990.990244	2394.288457
991.286271	2391.702346
991.582262	2392.652603
991.878217	2394.066647
992.174136	2392.443395
992.470019	2390.195041
992.765865	2395.720145
993.061676	2394.190155
993.357450	2393.252500
993.653188	2394.197717
993.948890	2396.788870
994.244556	2394.903478
994.540186	2394.664023
994.835780	2397.267779
995.131337	2394.144785
995.426859	2393.595299
995.722345	2397.282903
996.017795	2394.737120
996.313208	2395.125289
996.608586	2395.241236
996.903928	2396.488921
997.199234	2398.044117
997.494504	2396.375495
997.789738	2398.054199
998.084936	2396.327604
998.380099	2395.410114
998.675225	2394.517830
998.970316	2393.441544
999.265371	2396.115876
999.560390	2395.241236
999.855373	2394.359034
1000.150320	2393.933056
1000.445232	2396.612429
1000.740108	2394.394322
1001.034948	2394.404404
1001.329752	2394.764847
1001.624521	2393.965824
1001.919254	2390.923487
1002.213951	2392.808879
1002.508613	2388.299567
1002.803239	2394.555639
1003.097829	2390.414331
1003.392384	2393.819630
1003.686903	2394.255690
1003.981386	2395.021945
1004.275834	2393.053375
1004.570246	2390.174876
1004.864623	2392.398025
1005.158964	2393.491955
1005.453270	2391.909033
1005.747540	2394.543036
1006.041775	2394.540515
1006.335974	2391.377191
1006.630138	2393.650752
1006.924266	2391.205792
1007.218359	2394.658982
1007.512416	2390.643703
1007.806438	2394.454816
1008.100425	2393.348282
1008.394376	2391.838457
1008.688292	2394.936246
1008.982172	2389.834598
1009.276017	2393.023128
1009.569827	2392.708056
1009.863602	2395.011863
1010.157341	2391.490617
1010.451045	2390.812582
1010.744714	2391.609084
1011.038347	2394.601009
1011.331945	2391.117572
1011.625508	2395.979765
1011.919036	2393.197048
1012.212528	2393.108828
1012.505986	2390.106820
1012.799408	2394.298540
1013.092795	2393.050854
1013.386147	2390.376522
1013.679464	2391.856101
1013.972745	2391.299053
1014.265992	2391.712428
1014.559204	2391.856101
1014.852380	2391.104969
1015.145521	2393.754095
1015.438628	2391.614125
1015.731699	2393.479352
1016.024736	2393.020607
1016.317737	2392.208982
1016.610703	2394.840464
1016.903635	2390.999105
1017.196531	2387.500544
1017.489393	2391.921636
1017.782219	2386.192364
1018.075011	2391.437685
1018.367768	2390.810061
1018.660490	2392.975237
1018.953177	2392.975237
1019.245829	2392.975237
