Dividing Wavelength (nm)	Counts (n)	Blue Motor Position (mm): 0.000000	Red Motor Position (mm): 38.200000	
326.493990	1991.175111
326.888308	1991.175111
327.282561	1991.175111
327.676750	1969.195680
328.070874	1968.696606
328.464933	1975.111474
328.858929	1984.742598
329.252859	1996.720380
329.646726	2011.357370
330.040528	2025.822961
330.434265	2047.174768
330.827938	2068.271997
331.221547	2083.723134
331.615091	2105.052256
332.008571	2127.215688
332.401986	2147.155973
332.795338	2166.244302
333.188625	2188.533763
333.581847	2209.262988
333.975006	2224.676316
334.368100	2241.599469
334.761129	2259.092273
335.154095	2274.422422
335.546996	2300.187759
335.939833	2342.213338
336.332606	2357.556090
336.725315	2368.084540
337.117960	2376.089892
337.510540	2383.195398
337.903056	2394.885834
338.295508	2397.981103
338.687896	2408.743966
339.080220	2417.497930
339.472480	2417.823084
339.864676	2426.491348
340.256807	2426.377922
340.648875	2431.320774
341.040879	2432.966710
341.432818	2432.389498
341.824694	2431.875301
342.216506	2433.833789
342.608253	2433.909406
342.999937	2429.848757
343.391557	2429.470670
343.783113	2430.441092
344.174605	2429.206010
344.566033	2425.856163
344.957397	2425.415062
345.348697	2424.308529
345.739934	2421.563620
346.131106	2422.193765
346.522215	2419.363157
346.913260	2415.647826
347.304241	2418.528846
347.695159	2417.119843
348.086012	2413.160017
348.476802	2411.655233
348.867528	2411.640109
349.258191	2407.566857
349.648789	2407.198853
350.039324	2408.020561
350.429796	2410.780592
350.820203	2405.275652
351.210548	2406.261198
351.600828	2406.601476
351.991045	2405.222720
352.381198	2404.171640
352.771288	2406.931671
353.161314	2403.198697
353.551276	2406.172978
353.941175	2406.684655
354.331010	2406.644326
354.720782	2407.211455
355.110490	2408.330592
355.500135	2407.425704
355.889717	2408.960736
356.279235	2406.455282
356.668689	2408.484347
357.058080	2408.353277
357.447408	2407.201373
357.836672	2407.113153
358.225873	2411.299831
358.615010	2407.584501
359.004084	2414.604307
359.393095	2412.789492
359.782043	2413.124729
360.170927	2414.168248
360.559748	2415.904925
360.948505	2419.842066
361.337199	2417.785276
361.725830	2420.199988
362.114398	2420.484813
362.502903	2419.153949
362.891344	2422.287026
363.279722	2420.268044
363.668037	2421.803075
364.056289	2424.608477
364.444478	2426.665268
364.832603	2424.356420
365.220665	2429.584096
365.608665	2427.096287
365.996601	2429.004363
366.384474	2427.189548
366.772284	2427.933118
367.160031	2431.540064
367.547715	2431.373706
367.935336	2434.733635
368.322893	2431.313212
368.710388	2432.994437
369.097820	2437.725560
369.485189	2437.304623
369.872495	2439.018616
370.259738	2438.965683
370.646918	2444.987342
371.034035	2443.505243
371.421090	2448.760645
371.808081	2452.707869
372.195010	2456.360185
372.581875	2463.206072
372.968678	2470.220837
373.355418	2477.386837
373.742096	2486.755822
374.128710	2500.445075
374.515262	2512.949657
374.901751	2525.698735
375.288177	2544.945861
375.674540	2564.949159
376.060841	2586.484968
376.447079	2610.833742
376.833254	2636.629326
377.219367	2662.916422
377.605417	2698.179294
377.991404	2726.596278
378.377329	2766.071033
378.763191	2802.992444
379.148991	2851.700072
379.534727	2900.947104
379.920402	2948.712037
380.306013	3001.742455
380.691563	3066.785942
381.077049	3121.938686
381.462474	3180.171575
381.847835	3260.905653
382.233134	3330.077846
382.618371	3390.682598
383.003545	3478.343222
383.388657	3559.770459
383.773706	3656.880726
384.158693	3732.414855
384.543618	3829.986388
384.928480	3907.514293
385.313280	4017.441693
385.698017	4125.990339
386.082692	4246.700768
386.467305	4309.543791
386.851856	4441.853915
387.236344	4601.860138
387.620770	4661.164272
388.005133	4788.284528
388.389435	4939.015028
388.773674	5022.660373
389.157851	5158.763965
389.541965	5296.354698
389.926018	5320.572401
390.310008	5507.621894
390.693936	5630.555472
391.077802	5755.956694
391.461606	5885.897476
391.845348	6001.793603
392.229027	6126.534434
392.612645	6356.504311
392.996200	6473.058308
393.379694	6651.099259
393.763125	6882.636935
394.146494	6980.785679
394.529801	7125.809593
394.913047	7370.744135
395.296230	7370.010647
395.679351	7422.317660
396.062410	7704.304682
396.445408	7595.362827
396.828343	7754.330573
397.211217	7894.991368
397.594028	7771.367152
397.976778	7983.138463
398.359466	8155.240935
398.742092	8124.434444
399.124656	8278.192157
399.507158	8469.793812
399.889598	8493.560331
400.271977	8706.715439
400.654294	8740.783557
401.036549	8939.301675
401.418742	8973.039597
401.800874	9279.224158
402.182944	9356.721816
402.564952	9739.476463
402.946898	9553.067197
403.328783	9613.392164
403.710606	9817.891611
404.092367	10083.303320
404.474067	10451.877201
404.855705	10238.132278
405.237282	10182.432569
405.618797	10629.066197
406.000250	10880.924764
406.381642	11249.929664
406.762972	11195.459997
407.144240	10995.416930
407.525447	11254.083575
407.906593	11189.239213
408.287677	11460.289452
408.668700	11620.409101
409.049661	11593.592683
409.430560	11750.402815
409.811399	11715.273534
410.192176	11890.483877
410.572891	11971.512864
410.953545	12470.700520
411.334138	11930.639188
411.714669	12551.540463
412.095139	11845.683143
412.475547	12359.076771
412.855894	12196.839838
413.236180	12534.894573
413.616405	12209.039430
413.996568	12495.243378
414.376670	12462.261629
414.756711	12338.024913
415.136691	12634.467444
415.516609	12817.297491
415.896466	12892.907237
416.276262	13184.785004
416.655997	13621.754740
417.035670	13657.131037
417.415283	14321.759281
417.794834	14421.959775
418.174324	14166.695909
418.553753	14063.022059
418.933121	14565.778853
419.312428	14373.307599
419.691674	14279.015337
420.070859	14747.056225
420.449983	14401.361620
420.829045	14953.357884
421.208047	14695.976733
421.586988	15163.458053
421.965867	15422.343988
422.344686	15424.194092
422.723444	15991.573437
423.102141	14658.810827
423.480777	15870.840323
423.859352	15367.657551
424.237866	16503.419431
424.616319	16189.317737
424.994712	16873.810648
425.373044	16657.363666
425.751314	17348.624326
426.129524	16461.966022
426.507673	17588.686592
426.885762	17268.149866
427.263789	17476.868759
427.641756	17640.403790
428.019662	17706.654633
428.397508	17748.967558
428.775292	18068.261640
429.153016	18015.377416
429.530679	18109.389894
429.908282	18122.791801
430.285824	17833.674066
430.663305	18561.712464
431.040726	18146.147467
431.418086	17966.132904
431.795385	18631.640829
432.172624	19050.774963
432.549802	18616.930742
432.926920	18794.820459
433.303977	18677.714455
433.680974	18939.884702
434.057910	19229.327591
434.434786	19263.869577
434.811601	19174.840280
435.188355	20227.531505
435.565050	19879.278515
435.941683	19821.136367
436.318257	20715.447142
436.694770	20531.387053
437.071222	21133.610853
437.447614	20183.320586
437.823946	20216.171265
438.200218	20368.651045
438.576429	20140.639657
438.952580	20414.858262
439.328670	20373.248578
439.704700	20794.620984
440.080670	20358.798110
440.456580	20957.057043
440.832429	21144.242647
441.208218	20117.326841
441.583947	20578.746173
441.959616	20678.104795
442.335224	20920.334758
442.710773	21055.669574
443.086261	21601.266093
443.461689	20969.576748
443.837057	21075.819066
444.212365	21740.172567
444.587612	21735.365826
444.962800	21295.628497
445.337927	21732.071432
445.712995	20443.323137
446.088002	22325.337102
446.462949	22532.435264
446.837837	22710.965207
447.212664	22660.646930
447.587431	25546.425202
447.962139	28525.573205
448.336786	30949.415427
448.711374	29370.273985
449.085901	25627.912933
449.460369	25578.794451
449.834776	25492.986451
450.209124	28021.195681
450.583412	27538.938739
450.957640	28066.417351
451.331808	26707.150875
451.705917	25306.173892
452.079965	25361.636667
452.453954	25710.038371
452.827883	25613.036488
453.201752	25393.058178
453.575562	25570.481588
453.949311	26707.155916
454.323001	26768.504238
454.696632	26519.398141
455.070202	28105.400594
455.443713	28242.784639
455.817164	28860.187353
456.190556	29377.228257
456.563888	28819.185129
456.937160	29265.170968
457.310373	27569.268841
457.683526	28039.989102
458.056619	28023.033181
458.429653	27949.896121
458.802628	28533.150059
459.175542	28652.212031
459.548398	29963.340529
459.921194	31555.790617
460.293930	32225.419686
460.666607	34295.677897
461.039224	36059.315488
461.411782	36466.124001
461.784280	35263.342502
462.156719	34799.929393
462.529099	34237.029114
462.901419	32931.085442
463.273680	31852.908663
463.645882	31922.330393
464.018024	31904.736766
464.390106	32751.942999
464.762130	35482.423486
465.134094	39568.961755
465.505999	44884.997117
465.877845	49517.656185
466.249631	50709.160623
466.621358	49026.199138
466.993026	46931.766073
467.364634	44874.841713
467.736184	42862.660114
468.107674	41600.135901
468.479105	40799.890536
468.850477	40103.361871
469.221790	38638.367275
469.593043	36876.005097
469.964238	35976.617880
470.335373	35885.962810
470.706449	37629.564335
471.077467	40250.480384
471.448425	44839.064644
471.819324	47686.661217
472.190164	45827.057701
472.560945	42233.612334
472.931667	39105.445303
473.302330	37994.785849
473.672934	37145.742115
474.043479	37646.651326
474.413965	36847.295725
474.784393	36466.048383
475.154761	37380.443115
475.525070	37408.058556
475.895321	36934.777389
476.265513	37540.706437
476.635645	38522.743371
477.005719	38342.469189
477.375734	38814.238010
477.745691	39527.790651
478.115588	40872.465508
478.485427	42849.233001
478.855207	46236.825371
479.224928	48859.163026
479.594591	50516.593587
479.964194	49518.593840
480.333739	49683.099292
480.703226	49723.448688
481.072653	50358.709690
481.442022	50822.999959
481.811333	51094.665219
482.180584	49802.773764
482.549777	49275.138876
482.918912	48753.815513
483.287988	48468.098037
483.657005	47630.994276
484.025964	46990.039291
484.394864	47001.757453
484.763706	46565.964826
485.132489	45696.738833
485.501213	45515.605134
485.869879	45678.114290
486.238487	45257.747594
486.607036	45456.406865
486.975527	44916.267395
487.343959	45114.452796
487.712333	45193.114961
488.080648	45114.815759
488.448905	45561.580457
488.817104	45381.429783
489.185244	46341.464601
489.553326	48029.956232
489.921350	50746.908783
490.289315	53589.842289
490.657222	54180.239542
491.025070	54450.394977
491.392861	53570.254885
491.760593	52357.370914
492.128267	50687.982736
492.495883	49184.481286
492.863440	47790.153585
493.230939	46418.755572
493.598380	45318.324620
493.965763	44987.133415
494.333088	44142.442718
494.700354	43674.172457
495.067563	43373.707085
495.434713	43225.988675
495.801805	43308.041015
496.168839	42906.941609
496.535815	42574.543048
496.902733	42599.355608
497.269593	42181.184334
497.636395	42112.478448
498.003139	42511.221115
498.369825	41956.116980
498.736453	42275.494240
499.103023	41811.882006
499.469535	41675.659947
499.835989	41763.466765
500.202385	41436.850407
500.568723	41459.956536
500.935003	41629.513225
501.301226	41428.913110
501.667390	42059.344687
502.033497	42311.384735
502.399546	41724.299520
502.765537	41042.120499
503.131470	41431.882350
503.497345	41790.058851
503.863163	40433.554928
504.228923	41058.529455
504.594625	41462.666156
504.960269	40742.524726
505.325856	41448.550925
505.691385	40782.750613
506.056856	40930.353077
506.422270	41382.458878
506.787625	40941.625097
507.152924	41138.456949
507.518164	41243.512075
507.883347	40439.851329
508.248472	40699.690042
508.613540	41178.077898
508.978550	41484.290185
509.343503	41211.162991
509.708398	41409.650862
510.073236	41956.056486
510.438016	41950.092801
510.802738	41391.658983
511.167403	42024.074254
511.532010	42251.742844
511.896561	42557.604771
512.261053	43416.897171
512.625488	42950.111530
512.989866	42810.579954
513.354186	42651.123216
513.718449	42632.478509
514.082655	43322.919981
514.446803	43011.797609
514.810894	43516.054146
515.174927	43448.056543
515.538904	43342.683824
515.902822	44011.937327
516.266684	43430.155405
516.630488	43876.080751
516.994235	43737.638064
517.357925	44303.870546
517.721558	44472.235002
518.085133	44791.992870
518.448651	44905.799439
518.812112	44665.449826
519.175516	44773.121311
519.538863	45104.521723
519.902152	45070.539305
520.265385	45519.373397
520.628560	45570.601602
520.991678	45344.795718
521.354739	45587.403768
521.717743	45904.615853
522.080690	45797.645089
522.443580	46351.297372
522.806413	46380.442803
523.169189	46315.343863
523.531908	46509.408121
523.894569	46364.248096
524.257174	46529.925617
524.619722	46836.238728
524.982213	46809.815520
525.344647	46736.711227
525.707025	46757.480781
526.069345	47140.043864
526.431608	47071.204388
526.793815	47385.779950
527.155964	46917.179494
527.518057	47061.444714
527.880093	46835.966506
528.242072	47363.505612
528.603995	47056.292655
528.965860	47079.035821
529.327669	47153.007192
529.689421	47049.277889
530.051117	46990.649270
530.412755	47128.595404
530.774337	47194.105198
531.135862	46990.911410
531.497331	47179.019545
531.858743	47100.420395
532.220098	47419.104497
532.581396	47125.863099
532.942638	46763.457069
533.303824	47062.082420
533.664953	46996.433994
534.026025	46707.618729
534.387040	47184.521965
534.747999	47132.162020
535.108902	47274.917415
535.469748	46794.303890
535.830537	46883.033238
536.191270	47072.996518
536.551947	46726.303765
536.912567	47023.096657
537.273131	47135.232083
537.633638	46584.912003
537.994089	46933.394365
538.354483	46517.572270
538.714821	47067.746157
539.075103	47412.162828
539.435328	47154.854774
539.795497	47033.577216
540.155609	46998.347112
540.515665	47439.755584
540.875665	46888.218065
541.235609	47191.367852
541.595496	47143.547466
541.955328	47796.961663
542.315102	47152.462747
542.674821	46926.780372
543.034483	46951.560163
543.394090	46898.875064
543.753640	46819.524782
544.113134	47822.369079
544.472571	46805.409552
544.831953	48025.525058
545.191278	47216.699650
545.550548	46895.442039
545.909761	47346.557252
546.268918	47527.819501
546.628019	47794.224317
546.987064	47336.389245
547.346053	46578.683657
547.704986	47418.343283
548.063863	46943.091025
548.422684	47119.402860
548.781449	46930.775486
549.140158	47299.225859
549.498811	47118.908827
549.857408	46504.961823
550.215949	47299.303997
550.574434	47188.091102
550.932864	46918.371727
551.291237	47602.746170
551.649555	47147.784556
552.007817	47338.239348
552.366022	46932.318079
552.724173	47069.813030
553.082267	47420.959642
553.440305	47668.981891
553.798288	46936.479552
554.156215	47192.721402
554.514086	47336.797578
554.871902	47042.691622
555.229661	47000.812236
555.587365	46759.779547
555.945014	46812.928433
556.302606	46652.980183
556.660143	46829.786051
557.017625	46843.931529
557.375050	46592.819053
557.732421	46861.777213
558.089735	46777.761343
558.446994	46644.629511
558.804197	47031.217956
559.161345	46892.999600
559.518437	46095.552076
559.875474	46312.001578
560.232455	46368.210443
560.589381	46500.414703
560.946251	46119.474871
561.303065	46701.496247
561.659825	46428.840400
562.016528	46032.464556
562.373177	45685.686103
562.729770	46056.299131
563.086307	45503.050141
563.442789	45840.257963
563.799216	45812.168653
564.155587	45514.543971
564.511904	45442.301716
564.868164	45427.349654
565.224370	45569.883238
565.580520	45195.365836
565.936615	45296.738399
566.292654	44938.486280
566.648638	45062.821299
567.004567	44910.744811
567.360441	44841.839799
567.716260	44589.388897
568.072023	44720.373197
568.427732	44604.247698
568.783385	44052.264037
569.138982	44316.586857
569.494525	44148.308100
569.850013	43812.340402
570.205445	43645.450483
570.560823	43489.605733
570.916145	43263.920837
571.271412	43158.154908
571.626625	42800.240547
571.981782	42726.556522
572.336884	42315.629387
572.691931	42463.420894
573.046923	41954.027421
573.401860	41699.295397
573.756743	41543.150698
574.111570	41522.635722
574.466342	41215.584082
574.821059	41190.529548
575.175722	40619.311364
575.530330	40503.269044
575.884882	40118.911310
576.239380	39942.158374
576.593823	39765.715469
576.948211	39548.325792
577.302544	38967.990681
577.656823	38831.327521
578.011047	38884.347857
578.365216	38474.590269
578.719330	38163.210799
579.073389	37884.132522
579.427394	37788.128788
579.781344	37605.341591
580.135239	37150.226222
580.489080	37045.675212
580.842866	36461.907076
581.196597	36668.231420
581.550273	36441.268592
581.903895	36165.262898
582.257463	36331.265574
582.610975	35663.831928
582.964434	35710.893620
583.317837	35259.266729
583.671186	34944.103873
584.024481	34964.782686
584.377721	34414.825569
584.730906	34479.180939
585.084037	34335.858414
585.437113	33910.541305
585.790135	33768.519399
586.143103	33292.664723
586.496016	33210.866960
586.848874	33066.047213
587.201679	32877.591238
587.554428	32318.282781
587.907124	32253.413213
588.259765	31900.308113
588.612352	31916.311255
588.964884	31282.749122
589.317362	31307.387762
589.669786	31071.552503
590.022155	30736.691338
590.374470	30863.249505
590.726731	30338.989670
591.078937	29827.980507
591.431090	29723.457223
591.783188	29312.736775
592.135232	28918.979810
592.487222	28914.261290
592.839157	28792.449369
593.191038	28372.836326
593.542866	28026.587195
593.894639	27459.056615
594.246358	27471.472977
594.598022	27286.281149
594.949633	26847.567174
595.301190	26631.712528
595.652692	26366.071447
596.004141	26392.688739
596.355535	25611.844255
596.706876	25413.585757
597.058162	25138.464786
597.409395	25261.179073
597.760573	25129.239474
598.111698	24692.889800
598.462768	24529.506004
598.813785	24382.999991
599.164748	23882.453743
599.515657	23935.801754
599.866511	23462.956647
600.217312	23650.608557
600.568060	22875.500907
600.918753	23128.813846
601.269392	22929.685749
601.619978	22574.067633
601.970510	22515.144106
602.320988	22437.553187
602.671412	22436.252569
603.021783	22126.662708
603.372100	21777.393926
603.722363	21660.381183
604.072572	21544.482536
604.422728	21380.481198
604.772830	21116.874223
605.122878	20992.642548
605.472872	20808.421142
605.822813	20765.094946
606.172701	20511.103971
606.522534	20471.684668
606.872314	20427.975344
607.222041	20140.788371
607.571714	20158.175311
607.921333	19736.891125
608.270899	19707.619665
608.620411	19702.507935
608.969870	19444.620148
609.319276	19277.253841
609.668627	19138.801071
610.017926	19196.895328
610.367171	19099.540565
610.716362	18974.010793
611.065500	18802.339340
611.414585	18708.415082
611.763616	18679.554476
612.112594	18482.430237
612.461518	18420.431607
612.810389	18368.129635
613.159207	18149.343558
613.507971	18032.764355
613.856682	18059.442141
614.205340	17848.797528
614.553945	17974.312176
614.902496	17586.113083
615.250994	17622.578270
615.599439	17482.592989
615.947830	17413.352741
616.296169	17273.914426
616.644454	17166.232859
616.992686	17077.158191
617.340864	17105.774301
617.688990	16860.126436
618.037063	16931.700738
618.385082	16766.292918
618.733048	16727.324799
619.080961	16582.807521
619.428821	16437.667661
619.776628	16339.037486
620.124382	16143.092877
620.472083	16035.111362
620.819731	15942.777588
621.167326	15703.635332
621.514868	15550.147321
621.862357	15276.135403
622.209793	15144.190763
622.557176	14911.133180
622.904506	14700.783474
623.251783	14461.305981
623.599007	14269.424542
623.946179	14063.112800
624.293297	13926.739506
624.640363	13637.778047
624.987376	13511.010672
625.334336	13316.306187
625.681243	13107.020165
626.028097	12959.289151
626.374899	12795.882670
626.721647	12672.492868
627.068343	12517.293385
627.414987	12352.659383
627.761577	12186.470184
628.108115	12153.541367
628.454600	11913.421127
628.801032	11852.125738
629.147412	11737.202553
629.493739	11638.647996
629.840014	11454.189656
630.186236	11432.608476
630.532405	11251.396640
630.878521	11207.553725
631.224585	11080.309960
631.570597	10927.900756
631.916556	10881.065916
632.262462	10771.998032
632.608316	10681.474033
632.954117	10576.486963
633.299866	10482.363579
633.645562	10371.808555
633.991206	10182.006592
634.336797	10004.215178
634.682336	9914.021374
635.027823	9780.009861
635.373257	9650.563112
635.718639	9518.316003
636.063968	9411.962780
636.409245	9218.107730
636.754470	9145.273139
637.099642	9015.140793
637.444762	8851.336061
637.789829	8795.268348
638.134845	8662.194489
638.479808	8580.948733
638.824719	8494.487904
639.169577	8351.931635
639.514383	8291.263869
639.859137	8172.325405
640.203839	8138.574880
640.548489	8014.650716
640.893086	7960.395298
641.237632	7847.924635
641.582125	7807.970970
641.926566	7729.898620
642.270955	7663.471336
642.615292	7602.266687
642.959576	7536.449383
643.303809	7472.053683
643.647990	7439.994466
643.992118	7372.208590
644.336195	7312.246586
644.680219	7271.569516
645.024192	7259.768174
645.368112	7278.017151
645.711981	7224.744758
646.055797	7296.334184
646.399562	7244.274188
646.743274	7318.706825
647.086935	7339.204156
647.430544	7274.367356
647.774101	7242.489620
648.117606	7219.905250
648.461059	7203.592077
648.804460	7103.542817
649.147810	6963.449151
649.491108	6877.832715
649.834354	6778.035513
650.177548	6627.241998
650.520690	6523.802563
650.863781	6470.633513
651.206820	6406.663791
651.549807	6306.624614
651.892742	6208.546445
652.235626	6134.353263
652.578458	6082.255459
652.921238	5976.802082
653.263967	5968.214477
653.606644	5893.373507
653.949269	5846.137895
654.291843	5767.029588
654.634365	5771.168376
654.976836	5687.412125
655.319255	5650.972145
655.661622	5610.491679
656.003938	5556.695006
656.346203	5505.612994
656.688416	5489.047762
657.030577	5439.692346
657.372687	5390.415067
657.714746	5373.786821
658.056753	5351.527606
658.398708	5265.719606
658.740612	5244.128344
659.082465	5230.872630
659.424266	5186.255898
659.766016	5168.228732
660.107715	5130.999811
660.449362	5110.815031
660.790958	5080.341256
661.132503	5052.899735
661.473996	5029.082803
661.815438	5006.911809
662.156829	4995.533924
662.498168	4947.080874
662.839456	4919.914096
663.180693	4905.461108
663.521879	4886.531575
663.863013	4854.623592
664.204097	4830.945292
664.545129	4839.600954
664.886110	4808.895286
665.227040	4792.125887
665.567918	4776.921767
665.908746	4756.709261
666.249522	4744.103856
666.590248	4722.875557
666.930922	4709.602199
667.271545	4682.198487
667.612118	4666.714582
667.952639	4624.547851
668.293109	4603.662351
668.633528	4573.478442
668.973896	4547.755955
669.314213	4520.629506
669.654480	4486.140452
669.994695	4456.090134
670.334859	4430.975105
670.674973	4397.728696
671.015035	4387.502715
671.355047	4364.149570
671.695008	4347.014688
672.034918	4315.704081
672.374777	4301.162873
672.714585	4279.281745
673.054342	4271.362092
673.394049	4239.010487
673.733705	4235.557297
674.073310	4203.258624
674.412864	4184.376983
674.752368	4143.742762
675.091820	4138.104231
675.431223	4096.305504
675.770574	4064.636976
676.109875	4032.907953
676.449125	4000.019466
676.788324	3977.752689
677.127473	3934.570165
677.466571	3911.045621
677.805619	3884.871950
678.144616	3861.876727
678.483562	3843.121114
678.822458	3813.058193
679.161303	3797.329793
679.500098	3774.334570
679.838842	3755.445366
680.177535	3745.632760
680.516179	3745.400867
680.854771	3741.020105
681.193314	3764.993312
681.531805	3800.987150
681.870247	3828.269875
682.208638	3847.514480
682.546978	3845.066999
682.885268	3833.421934
683.223508	3799.144608
683.561697	3771.133437
683.899836	3749.191815
684.237925	3719.771641
684.575963	3701.668858
684.913951	3673.677851
685.251889	3668.949249
685.589776	3656.192609
685.927614	3644.476967
686.265401	3641.510248
686.603137	3637.545381
686.940824	3650.501146
687.278460	3654.339985
687.616046	3660.734688
687.953582	3675.427131
688.291068	3660.601098
688.628504	3661.074966
688.965889	3652.147083
689.303224	3624.778659
689.640510	3595.429061
689.977745	3560.254410
690.314930	3520.560365
690.652065	3486.199860
690.989150	3446.964560
691.326185	3401.142992
691.663170	3368.191490
692.000105	3329.664471
692.336990	3298.762198
692.673825	3269.669699
693.010610	3248.121287
693.347345	3212.986966
693.684030	3186.079807
694.020665	3167.856036
694.357251	3141.717653
694.693786	3134.513844
695.030272	3123.438429
695.366707	3098.472115
695.703093	3079.167016
696.039429	3076.094433
696.375716	3064.149419
696.711952	3057.157338
697.048139	3046.797767
697.384276	3038.603372
697.720363	3033.537012
698.056400	3025.798841
698.392388	3012.129752
698.728326	3006.460975
699.064214	2995.448574
699.400053	2992.466732
699.735842	2977.456696
700.071581	2961.473718
700.407270	2948.255813
700.742910	2939.456478
701.078501	2925.323604
701.414042	2914.139804
701.749533	2898.902916
702.084974	2891.610887
702.420366	2887.945968
702.755709	2874.574308
703.091002	2860.834643
703.426246	2859.360106
703.761440	2852.126050
704.096584	2844.778568
704.431679	2835.586024
704.766725	2835.560818
705.101721	2827.152174
705.436668	2826.728717
705.771565	2815.557520
706.106413	2818.488951
706.441212	2813.586429
706.775961	2814.478713
707.110661	2814.629947
707.445311	2816.782520
707.779913	2809.535862
708.114465	2812.242961
708.448967	2812.878147
708.783421	2823.240238
709.117825	2824.349292
709.452180	2827.898264
709.786485	2834.373627
710.120742	2848.917355
710.454949	2848.141018
710.789107	2854.248376
711.123216	2863.052751
711.457275	2869.570963
711.791286	2878.821480
712.125247	2883.963457
712.459159	2877.472971
712.793023	2883.938251
713.126837	2865.154912
713.460602	2864.673482
713.794318	2854.760053
714.127985	2840.952332
714.461602	2822.640341
714.795171	2818.604897
715.128691	2797.424489
715.462162	2786.374280
715.795584	2775.122425
716.128957	2764.515837
716.462281	2756.308839
716.795556	2748.626120
717.128782	2739.037846
717.461960	2732.741444
717.795088	2724.206771
718.128167	2717.718806
718.461198	2708.803525
718.794180	2704.921837
719.127113	2699.444623
719.459997	2690.821730
719.792833	2688.616225
720.125619	2685.432736
720.458357	2680.462158
720.791046	2676.530058
721.123686	2672.960922
721.456278	2668.655776
721.788821	2665.389108
722.121315	2661.956083
722.453761	2660.804179
722.786158	2662.903820
723.118506	2656.982984
723.450805	2656.677995
723.783056	2655.538694
724.115259	2656.597336
724.447412	2654.505257
724.779518	2657.242604
725.111574	2658.896102
725.443582	2657.182110
725.775542	2658.112203
726.107453	2663.481032
726.439315	2662.087153
726.771129	2670.450427
727.102895	2669.369099
727.434612	2674.707681
727.766281	2675.501663
728.097901	2673.845644
728.429473	2674.266580
728.760996	2676.308248
729.092471	2674.548885
729.423897	2676.736746
729.755276	2674.173319
730.086606	2673.737259
730.417887	2679.814370
730.749120	2684.482479
731.080305	2689.571523
731.411442	2692.039168
731.742530	2694.179138
732.073570	2692.288705
732.404562	2694.405990
732.735506	2692.757533
733.066401	2689.150587
733.397249	2683.333096
733.728048	2671.589728
734.058798	2660.395846
734.389501	2652.302273
734.720156	2644.561581
735.050762	2636.044552
735.381320	2632.248563
735.711831	2625.566514
736.042293	2622.171297
736.372707	2622.259517
736.703073	2617.830863
737.033391	2619.935545
737.363661	2617.462859
737.693883	2621.427726
738.024056	2625.357306
738.354182	2624.253293
738.684260	2626.970475
739.014290	2629.891824
739.344272	2633.241670
739.674207	2632.810652
740.004093	2639.200314
740.333931	2636.218472
740.663722	2638.441621
740.993464	2639.280973
741.323159	2635.656383
741.652806	2629.619601
741.982405	2627.996350
742.311956	2623.605505
742.641460	2622.705659
742.970915	2615.587550
743.300323	2615.315327
743.629683	2609.974225
743.958996	2603.758482
744.288260	2601.323605
744.617477	2598.359406
744.946647	2591.332038
745.275768	2586.598394
745.604842	2582.875502
745.933869	2586.850452
746.262847	2581.380800
746.591778	2583.636717
746.920662	2582.636047
747.249498	2583.009093
747.578286	2584.097982
747.907027	2586.999166
748.235720	2587.679722
748.564365	2586.376584
748.892963	2585.708631
749.221514	2589.618046
749.550017	2585.106213
749.878473	2585.227201
750.206881	2579.959195
750.535242	2581.179154
750.863555	2582.081521
751.191821	2578.114133
751.520039	2578.492219
751.848210	2578.444328
752.176334	2575.651529
752.504411	2576.261508
752.832440	2572.180694
753.160421	2572.919223
753.488356	2570.081054
753.816243	2574.093812
754.144082	2571.361507
754.471875	2565.775908
754.799620	2567.739438
755.127318	2565.203737
755.454969	2565.657441
755.782572	2566.940415
756.110129	2568.145251
756.437638	2565.460836
756.765100	2561.828685
757.092515	2562.612584
757.419882	2563.552760
757.747203	2566.587534
758.074477	2565.428069
758.401703	2567.626012
758.728882	2570.222206
759.056014	2566.801783
759.383099	2571.061558
759.710138	2570.875036
760.037129	2570.985941
760.364073	2572.087433
760.690970	2574.522310
761.017820	2570.290262
761.344623	2576.029615
761.671379	2580.894329
761.998088	2584.339958
762.324751	2607.635129
762.651366	2642.222486
762.977935	2686.418282
763.304456	2716.266954
763.630931	2726.886144
763.957359	2712.241592
764.283740	2691.938345
764.610074	2668.633091
764.936362	2640.778195
765.262602	2620.232973
765.588796	2601.951228
765.914943	2584.110585
766.241044	2572.518452
766.567097	2560.994374
766.893104	2554.128322
767.219064	2552.225287
767.544978	2542.281611
767.870845	2540.401261
768.196665	2536.229706
768.522438	2533.673841
768.848165	2531.062523
769.173846	2529.610671
769.499479	2527.445495
769.825066	2524.824095
770.150607	2520.395442
770.476101	2523.374763
770.801548	2520.085411
771.126949	2518.547859
771.452303	2513.786489
771.777611	2514.177178
772.102872	2516.191119
772.428087	2512.712723
772.753256	2514.741788
773.078378	2509.506549
773.403453	2509.506549
773.728482	2506.691065
774.053465	2505.859274
774.378401	2502.884994
774.703291	2502.680827
775.028135	2500.745024
775.352932	2499.756958
775.677683	2500.066989
776.002388	2500.273676
776.327046	2493.899137
776.651658	2498.186638
776.976224	2495.222440
777.300743	2494.574652
777.625216	2493.064826
777.949643	2497.508603
778.274024	2495.081288
778.598359	2491.247490
778.922647	2488.489979
779.246889	2491.330669
779.571086	2486.186172
779.895236	2494.972903
780.219339	2488.928559
780.543397	2494.211688
780.867409	2494.282265
781.191374	2493.604229
781.515294	2492.969044
781.839167	2494.506596
782.162995	2494.970382
782.486776	2493.276554
782.810511	2491.411327
783.134201	2491.839826
783.457844	2491.544918
783.781441	2490.052737
784.104993	2490.203971
784.428498	2489.225987
784.751958	2489.704897
785.075372	2489.314208
785.398739	2487.514516
785.722061	2490.725731
786.045337	2486.750781
786.368568	2491.106338
786.691752	2491.726400
787.014891	2494.917450
787.337983	2498.242091
787.661030	2504.813235
787.984031	2509.083092
788.306987	2515.255985
788.629897	2514.560306
788.952760	2517.292611
789.275579	2510.978566
789.598351	2510.131652
789.921078	2506.607886
790.243759	2502.690909
790.566395	2500.535816
790.888984	2496.200424
791.211529	2494.577172
791.534027	2490.713128
791.856480	2490.340082
792.178888	2490.140957
792.501249	2485.578713
792.823566	2486.536532
793.145836	2485.951758
793.468062	2485.755153
793.790241	2485.714824
794.112375	2484.351192
794.434464	2488.568117
794.756507	2487.678353
795.078505	2491.106338
795.400457	2489.916625
795.722364	2491.854949
796.044226	2496.477687
796.366042	2497.949704
796.687812	2499.593120
797.009538	2499.769561
797.331218	2500.876094
797.652852	2498.479025
797.974442	2497.753099
798.295986	2495.348469
798.617484	2493.493324
798.938938	2490.564414
799.260346	2492.785042
799.581709	2486.975112
799.903026	2492.495176
800.224299	2488.651296
800.545526	2487.214567
800.866708	2485.429998
801.187845	2482.911942
801.508936	2483.428660
801.829983	2482.357415
802.150984	2481.341623
802.471940	2481.989411
802.792851	2481.218114
803.113717	2482.427991
803.434538	2478.879019
803.755314	2481.482775
804.076045	2476.618062
804.396731	2477.180150
804.717372	2478.750470
805.037967	2479.335243
805.358518	2481.873464
805.679024	2480.207363
805.999485	2484.653661
806.319901	2482.937148
806.640272	2481.850779
806.960598	2482.591829
807.280879	2483.499237
807.601115	2484.903198
807.921306	2481.293732
808.241453	2485.997128
808.561554	2482.052425
808.881611	2480.502271
809.201623	2480.996304
809.521590	2481.797847
809.841513	2483.312714
810.161390	2479.579739
810.481223	2481.991932
810.801011	2482.599391
811.120755	2481.525625
811.440453	2477.873309
811.760107	2478.256437
812.079716	2476.824749
812.399281	2475.166209
812.718801	2474.767958
813.038276	2473.265694
813.357707	2476.239975
813.677093	2475.055304
813.996434	2477.137300
814.315731	2477.664101
814.634983	2475.370376
814.954191	2476.902887
815.273354	2479.630151
815.592473	2477.452373
815.911547	2481.145018
816.230577	2481.145018
816.549562	2486.723054
816.868502	2484.923363
817.187399	2487.764053
817.506250	2489.193220
817.825058	2487.988384
818.143821	2494.246977
818.462539	2494.861997
818.781213	2499.215034
819.099843	2507.805160
819.418429	2520.576923
819.736970	2535.957483
820.055466	2547.446273
820.373919	2564.132492
820.692327	2592.388160
821.010691	2647.190543
821.329011	2758.012749
821.647286	2927.148501
821.965517	3114.654219
822.283704	3223.964078
822.601847	3261.782814
822.919945	3184.499405
823.237999	3093.627566
823.556010	3001.109790
823.873976	2915.362284
824.191897	2840.670028
824.509775	2783.029475
824.827609	2729.401680
825.145398	2699.457226
825.463144	2684.008610
825.780845	2683.068435
826.098502	2708.654811
826.416116	2746.143352
826.733685	2782.815226
827.051210	2796.012966
827.368692	2778.462189
827.686129	2732.638101
828.003522	2688.074301
828.320872	2643.059317
828.638177	2611.869699
828.955439	2583.029258
829.272656	2560.621329
829.589830	2542.069882
829.906960	2529.958510
830.224046	2521.910308
830.541088	2510.837414
830.858086	2504.626712
831.175041	2502.713594
831.491952	2500.119921
831.808819	2500.737462
832.125642	2504.893893
832.442421	2518.895698
832.759157	2543.529297
833.075849	2579.248392
833.392497	2614.818774
833.709101	2638.945736
834.025662	2633.513893
834.342179	2613.994545
834.658653	2587.500761
834.975083	2568.888821
835.291469	2550.478527
835.607811	2532.164015
835.924110	2522.111954
836.240366	2510.056035
836.556578	2498.753768
836.872746	2492.147336
837.188871	2484.003352
837.504952	2481.192909
837.820990	2476.769296
838.136984	2476.965901
838.452935	2469.207565
838.768842	2472.133955
839.084706	2479.010089
839.400526	2495.882831
839.716303	2513.794051
840.032037	2529.915661
840.347727	2526.636390
840.663373	2514.157014
840.978977	2501.196207
841.294537	2491.204640
841.610054	2481.220635
841.925527	2479.312558
842.240957	2473.495067
842.556344	2468.204376
842.871687	2462.291102
843.186987	2461.779425
843.502244	2458.159877
843.817458	2454.895730
844.132629	2450.706531
844.447756	2453.345575
844.762840	2448.596808
845.077881	2448.881633
845.392879	2446.343412
845.707833	2448.990018
846.022745	2445.078083
846.337613	2445.677980
846.652438	2447.328958
846.967221	2447.389452
847.281960	2446.368618
847.596656	2446.577826
847.911309	2445.418360
848.225919	2446.812239
848.540485	2444.579008
848.855009	2444.697475
849.169490	2444.354677
849.483928	2445.877105
849.798323	2445.178906
850.112675	2445.292332
850.426984	2445.410799
850.741251	2446.492126
851.055474	2445.012548
851.369654	2445.362908
851.683792	2443.585901
851.997887	2444.395006
852.311938	2445.811570
852.625947	2444.294183
852.939914	2440.959460
853.253837	2443.578339
853.567718	2443.601024
853.881555	2442.930551
854.195350	2444.163113
854.509103	2443.916097
854.822812	2444.218566
855.136479	2446.870213
855.450103	2443.525407
855.763685	2444.490788
856.077224	2446.494647
856.390720	2445.168823
856.704173	2443.490119
857.017584	2446.406427
857.330953	2445.476334
857.644278	2444.518514
857.957561	2446.494647
858.270802	2446.580346
858.584000	2444.331992
858.897155	2446.257712
859.210268	2443.361570
859.523339	2445.037753
859.836367	2444.654626
860.149352	2447.137394
860.462295	2443.011209
860.775195	2442.988524
861.088054	2438.537185
861.400869	2440.475509
861.713642	2442.073555
862.026373	2447.606221
862.339062	2444.211004
862.651708	2445.549430
862.964312	2446.429112
863.276873	2448.226283
863.589392	2445.819132
863.901869	2448.516149
864.214303	2447.989349
864.526696	2449.668053
864.839045	2452.150821
865.151353	2447.838114
865.463619	2451.946655
865.775842	2450.706531
866.088023	2449.499174
866.400162	2451.114864
866.712258	2448.352312
867.024313	2451.553445
867.336325	2448.932045
867.648296	2450.310800
867.960224	2450.807354
868.272110	2450.827518
868.583954	2450.426747
868.895755	2448.821139
869.207515	2451.452622
869.519233	2449.791561
869.830909	2451.384566
870.142542	2453.345575
870.454134	2452.286933
870.765684	2452.652416
871.077191	2455.404886
871.388657	2455.472942
871.700081	2455.077211
872.011463	2457.507047
872.322803	2455.117540
872.634101	2456.541666
872.945357	2457.766667
873.256571	2458.696760
873.567744	2458.439661
873.878874	2458.800103
874.189963	2459.125258
874.501010	2461.270269
874.812015	2460.995526
875.122979	2462.533078
875.433900	2458.011163
875.744780	2462.764971
876.055618	2461.202213
876.366415	2463.057358
876.677169	2463.049796
876.987882	2462.666668
877.298554	2460.027624
877.609183	2465.277986
877.919771	2463.251442
878.230317	2471.047587
878.540822	2477.061683
878.851285	2479.743577
879.161707	2487.761532
879.472087	2504.593945
879.782425	2529.270393
880.092722	2566.264900
880.402977	2624.674229
880.713191	2690.025227
881.023363	2752.036461
881.333494	2794.782925
881.643583	2811.101140
881.953631	2806.460758
882.263637	2785.295473
882.573602	2759.875455
882.883526	2735.597258
883.193408	2709.438711
883.503248	2678.271777
883.813048	2653.363436
884.122806	2627.847636
884.432522	2606.064810
884.742197	2582.391552
885.051831	2564.883624
885.361424	2547.060625
885.670975	2529.562780
885.980485	2520.357633
886.289954	2510.063597
886.599382	2500.011536
886.908768	2495.040958
887.218113	2488.328662
887.527417	2485.034268
887.836680	2478.236272
888.145901	2475.609831
888.455082	2473.288379
888.764221	2472.418780
889.073319	2469.273100
889.382376	2465.066257
889.691392	2467.765795
890.000366	2465.333439
890.309300	2466.371916
890.618193	2468.121197
890.927044	2469.570528
891.235855	2465.222533
891.544625	2466.538274
891.853353	2468.980713
892.162041	2468.388378
892.470687	2473.852989
892.779293	2478.763073
893.087858	2483.620224
893.396381	2491.388642
893.704864	2506.754079
894.013306	2525.751667
894.321707	2548.020965
894.630068	2561.029662
894.938387	2567.137020
895.246665	2560.563355
895.554903	2551.746377
895.863100	2541.598535
896.171256	2529.676206
896.479371	2520.536594
896.787446	2516.168434
897.095480	2504.556136
897.403473	2502.910199
897.711425	2492.969044
898.019336	2493.889055
898.327207	2485.238435
898.635038	2480.197281
898.942827	2478.291725
899.250576	2473.174953
899.558284	2469.855354
899.865952	2471.115642
900.173579	2465.404015
900.481165	2463.311936
900.788711	2462.036524
901.096216	2461.328242
901.403681	2461.441668
901.711105	2460.347737
902.018489	2460.214147
902.325832	2460.655248
902.633135	2462.366720
902.940397	2474.435242
903.247619	2487.219608
903.554800	2520.523991
903.861941	2553.687222
904.169041	2583.266192
904.476101	2590.497727
904.783121	2586.051429
905.090100	2567.507545
905.397039	2552.999104
905.703938	2536.108718
906.010796	2526.243180
906.317614	2515.608866
906.624391	2508.909173
906.931129	2498.116062
907.237826	2487.154073
907.544483	2481.523104
907.851099	2474.977166
908.157675	2466.218161
908.464211	2462.230608
908.770707	2454.421861
909.077163	2451.271140
909.383578	2448.954730
909.689954	2447.737291
909.996289	2444.195881
910.302584	2446.963474
910.608839	2445.463731
910.915054	2446.575305
911.221229	2445.128494
911.527363	2446.189657
911.833458	2447.797785
912.139513	2445.254523
912.445527	2450.141922
912.751502	2448.606890
913.057436	2450.958588
913.363331	2453.940431
913.669186	2459.223560
913.975000	2463.493418
914.280775	2471.952474
914.586510	2485.117447
914.892205	2502.232164
915.197859	2520.874351
915.503475	2543.335212
915.809050	2567.752041
916.114585	2580.291911
916.420081	2583.228383
916.725536	2582.610842
917.030952	2571.411918
917.336328	2565.060065
917.641665	2557.644527
917.946961	2545.374359
918.252218	2543.710778
918.557435	2526.623787
918.862612	2519.886285
919.167750	2513.665501
919.472848	2504.876249
919.777906	2493.770587
920.082925	2486.586943
920.387904	2479.864565
920.692843	2476.923051
920.997743	2473.643781
921.302603	2465.162039
921.607423	2463.422841
921.912204	2460.660289
922.216946	2458.875721
922.521647	2455.863631
922.826310	2454.494958
923.130932	2453.844649
923.435516	2449.095882
923.740059	2449.216870
924.044564	2445.292332
924.349028	2447.533124
924.653454	2436.067020
924.957840	2440.674635
925.262186	2439.336208
925.566493	2440.014243
925.870761	2431.323294
926.174989	2440.820828
926.479178	2437.062648
926.783328	2438.872422
927.087438	2437.546599
927.391509	2437.755807
927.695541	2434.869746
927.999533	2434.935281
928.303486	2435.114242
928.607400	2436.684561
928.911275	2434.171546
929.215110	2432.288675
929.518906	2429.528643
929.822663	2434.262287
930.126381	2433.029725
930.430060	2433.410332
930.733699	2433.896803
931.037299	2431.187183
931.340861	2432.702050
931.644383	2433.062492
931.947866	2432.704570
932.251309	2431.948397
932.554714	2433.818665
932.858080	2434.537030
933.161407	2432.142482
933.464694	2432.011412
933.767943	2431.224992
934.071153	2432.586103
934.374323	2432.694488
934.677455	2432.427307
934.980548	2430.854467
935.283602	2433.536361
935.586617	2430.620053
935.889593	2433.281782
936.192530	2432.303799
936.495428	2432.815476
936.798287	2433.223809
937.101108	2434.756320
937.403890	2434.592482
937.706632	2437.486105
938.009336	2437.249171
938.312002	2439.573143
938.614628	2438.063317
938.917216	2439.890735
939.219765	2442.262598
939.522275	2443.016251
939.824747	2442.955757
940.127179	2437.143306
940.429573	2439.968873
940.731929	2442.681014
941.034246	2435.867894
941.336524	2443.545572
941.638763	2440.994748
941.940964	2442.832248
942.243126	2440.853596
942.545250	2443.429625
942.847335	2436.412339
943.149381	2442.391147
943.451389	2438.786723
943.753359	2439.255550
944.055290	2437.022319
944.357182	2437.077771
944.659036	2437.778492
944.960851	2436.631629
945.262628	2437.617175
945.564367	2434.262287
945.866067	2436.997113
946.167729	2435.086516
946.469352	2434.166505
946.770937	2435.958635
947.072484	2433.090219
947.373992	2436.442586
947.675462	2435.492328
947.976893	2435.741866
948.278286	2434.083326
948.579641	2431.240115
948.880958	2433.884200
949.182236	2432.901175
949.483476	2431.330856
949.784678	2432.926381
950.085841	2433.299427
950.386967	2434.332863
950.688054	2432.810435
950.989103	2433.753130
951.290114	2435.083995
951.591087	2435.031063
951.892021	2434.957966
952.192917	2437.012236
952.493776	2434.138779
952.794596	2438.108687
953.095378	2435.421752
953.396122	2440.246137
953.696828	2436.041814
953.997496	2438.660694
954.298126	2433.140630
954.598718	2433.450661
954.899272	2434.564756
955.199788	2432.530651
955.500266	2433.417894
955.800706	2427.786925
956.101108	2426.549322
956.401472	2428.510330
956.701798	2425.712490
957.002087	2427.035793
957.302337	2426.715680
957.602550	2428.323808
957.902724	2425.873807
958.202861	2426.924888
958.502960	2424.850453
958.803022	2426.980340
959.103045	2424.210226
959.403031	2424.396749
959.702979	2422.886923
960.002889	2426.027562
960.302762	2422.319793
960.602596	2421.263672
960.902393	2422.155956
961.202153	2421.856007
961.501875	2423.335586
961.801559	2424.159815
962.101205	2422.881882
962.400814	2418.798548
962.700385	2419.620256
962.999918	2422.221491
963.299414	2418.959864
963.598873	2422.599578
963.898293	2421.417427
964.197677	2421.210740
964.497022	2418.768301
964.796331	2420.230235
965.095601	2421.780390
965.394835	2417.417271
965.694030	2420.623445
965.993189	2420.641089
966.292309	2417.409710
966.591393	2419.660585
966.890439	2418.140677
967.189447	2419.466500
967.488419	2419.874834
967.787353	2417.606315
968.086249	2419.738723
968.385108	2419.847108
968.683930	2420.835174
968.982714	2422.198806
969.281462	2420.507499
969.580172	2419.355595
969.878844	2418.422982
970.177480	2420.126892
970.476078	2422.700401
970.774639	2419.625297
971.073162	2419.758887
971.371649	2417.593712
971.670098	2416.784607
971.968510	2419.597570
972.266885	2415.675553
972.565223	2422.103024
972.863524	2421.077149
973.161788	2423.665782
973.460014	2419.879875
973.758204	2421.402303
974.056356	2420.860379
974.354471	2422.193765
974.652550	2418.241500
974.950591	2422.201326
975.248595	2421.656882
975.546563	2419.093455
975.844493	2421.175452
976.142386	2423.910278
976.440243	2420.792324
976.738062	2422.216450
977.035845	2418.586819
977.333590	2419.141346
977.631299	2417.939031
977.928971	2419.582447
978.226606	2419.736202
978.524204	2419.774011
978.821765	2417.392066
979.119290	2417.903743
979.416777	2418.974988
979.714228	2419.552200
980.011642	2419.360636
980.309020	2420.804927
980.606360	2421.142684
980.903664	2423.504465
981.200931	2422.385328
981.498162	2425.369692
981.795356	2423.839701
982.092513	2428.243149
982.389633	2430.362954
982.686717	2434.438727
982.983764	2433.243974
983.280775	2436.755138
983.577749	2436.868563
983.874686	2439.250509
984.171587	2436.457709
984.468451	2435.404108
984.765279	2432.477718
985.062070	2431.973603
985.358824	2430.065526
985.655543	2430.342790
985.952224	2425.830957
986.248869	2423.925401
986.545478	2421.563620
986.842050	2420.167221
987.138586	2417.301325
987.435086	2418.170924
987.731549	2416.041036
988.027975	2414.997517
988.324366	2417.039185
988.620719	2415.993145
988.917037	2418.541449
989.213318	2418.339803
989.509563	2416.966088
989.805772	2414.284194
990.101944	2413.714544
990.398080	2418.274268
990.694180	2416.325862
990.990244	2413.999369
991.286271	2414.947106
991.582262	2411.745973
991.878217	2416.582960
992.174136	2413.253278
992.470019	2416.585481
992.765865	2416.300656
993.061676	2415.103382
993.357450	2418.259144
993.653188	2415.332754
993.948890	2415.867117
994.244556	2415.788979
994.540186	2419.088414
994.835780	2417.558424
995.131337	2419.267375
995.426859	2419.844587
995.722345	2429.095104
996.017795	2422.158477
996.313208	2425.972109
996.608586	2424.545463
996.903928	2428.507810
997.199234	2425.435227
997.494504	2426.042686
997.789738	2424.900864
998.084936	2422.241656
998.380099	2423.068405
998.675225	2424.432037
998.970316	2419.395924
999.265371	2420.711665
999.560390	2420.026068
999.855373	2418.720410
1000.150320	2416.124215
1000.445232	2418.390214
1000.740108	2418.609504
1001.034948	2418.412899
1001.329752	2412.779410
1001.624521	2416.119174
1001.919254	2411.360325
1002.213951	2411.730850
1002.508613	2410.707496
1002.803239	2412.860068
1003.097829	2409.996693
1003.392384	2415.254616
1003.686903	2411.614903
1003.981386	2413.386869
1004.275834	2413.696900
1004.570246	2416.530028
1004.864623	2413.875861
1005.158964	2411.098185
1005.453270	2412.250089
1005.747540	2412.653381
1006.041775	2413.341498
1006.335974	2413.936355
1006.630138	2410.997362
1006.924266	2410.747825
1007.218359	2410.639440
1007.512416	2411.980387
1007.806438	2408.733884
1008.100425	2411.178843
1008.394376	2410.039543
1008.688292	2411.738412
1008.982172	2409.971487
1009.276017	2411.952661
1009.569827	2409.706827
1009.863602	2412.393762
1010.157341	2410.523493
1010.451045	2408.731363
1010.744714	2411.012485
1011.038347	2412.434091
1011.331945	2410.205901
1011.625508	2412.376118
1011.919036	2408.083575
1012.212528	2410.954512
1012.505986	2409.016188
1012.799408	2411.529204
1013.092795	2410.384862
1013.386147	2408.887639
1013.679464	2412.096333
1013.972745	2410.150448
1014.265992	2410.470561
1014.559204	2409.898390
1014.852380	2412.020716
1015.145521	2410.851168
1015.438628	2410.707496
1015.731699	2410.082392
1016.024736	2410.185736
1016.317737	2411.090623
1016.610703	2413.026426
1016.903635	2407.556774
1017.196531	2407.226579
1017.489393	2407.564336
1017.782219	2405.106774
1018.075011	2411.751014
1018.367768	2408.733884
1018.660490	2409.265726
1018.953177	2409.265726
1019.245829	2409.265726
