Dividing Wavelength (nm)	Counts (n)	Blue Motor Position (mm): 0.000000	Red Motor Position (mm): 23.200000	
326.493990	1985.841570
326.888308	1985.841570
327.282561	1985.841570
327.676750	1962.445575
328.070874	1961.833075
328.464933	1969.412450
328.858929	1977.410240
329.252859	1989.183855
329.646726	2004.216576
330.040528	2017.802485
330.434265	2040.805270
330.827938	2057.645245
331.221547	2076.433625
331.615091	2098.178642
332.008571	2120.705038
332.401986	2139.130456
332.795338	2159.370688
333.188625	2179.540345
333.581847	2198.863088
333.975006	2216.181972
334.368100	2234.660321
334.761129	2251.147415
335.154095	2267.596700
335.546996	2283.577157
335.939833	2303.688841
336.332606	2317.352888
336.725315	2328.468632
337.117960	2337.842658
337.510540	2344.204594
337.903056	2353.001408
338.295508	2359.748992
338.687896	2367.832482
339.080220	2376.011754
339.472480	2382.315717
339.864676	2384.301932
340.256807	2387.314021
340.648875	2388.549104
341.040879	2390.464742
341.432818	2391.157901
341.824694	2390.631100
342.216506	2392.440875
342.608253	2392.574465
342.999937	2388.705380
343.391557	2390.547921
343.783113	2391.835936
344.174605	2388.677653
344.566033	2385.763866
344.957397	2386.396531
345.348697	2384.178423
345.739934	2380.427805
346.131106	2378.549975
346.522215	2379.391848
346.913260	2377.919831
347.304241	2372.538399
347.695159	2375.479913
348.086012	2371.608306
348.476802	2369.049921
348.867528	2370.597555
349.258191	2368.205528
349.648789	2366.602441
350.039324	2365.135465
350.429796	2368.419777
350.820203	2361.377285
351.210548	2364.855681
351.600828	2362.909795
351.991045	2363.113962
352.381198	2363.204703
352.771288	2362.992974
353.161314	2364.134796
353.551276	2363.106400
353.941175	2364.535567
354.331010	2361.263859
354.720782	2368.986906
355.110490	2364.409539
355.500135	2362.110773
355.889717	2367.051103
356.279235	2363.555063
356.668689	2363.338293
357.058080	2365.072450
357.447408	2367.298120
357.836672	2363.328211
358.225873	2366.340301
358.615010	2366.068078
359.004084	2372.288862
359.393095	2371.880529
359.782043	2371.366331
360.170927	2372.246012
360.559748	2374.103678
360.948505	2373.362628
361.337199	2373.584439
361.725830	2376.372197
362.114398	2374.622916
362.502903	2375.401775
362.891344	2376.392361
363.279722	2377.158617
363.668037	2379.943854
364.056289	2377.166178
364.444478	2380.493340
364.832603	2381.872096
365.220665	2380.606766
365.608665	2383.228166
365.996601	2384.216232
366.384474	2382.928217
366.772284	2386.227652
367.160031	2384.985008
367.547715	2388.879299
367.935336	2387.303939
368.322893	2386.719165
368.710388	2387.664381
369.097820	2393.560011
369.485189	2389.748898
369.872495	2394.288457
370.259738	2396.645197
370.646918	2398.308778
371.034035	2399.551422
371.421090	2401.726680
371.808081	2406.641805
372.195010	2411.420819
372.581875	2414.624472
372.968678	2422.957499
373.355418	2426.758529
373.742096	2437.269335
374.128710	2449.781479
374.515262	2460.199023
374.901751	2475.501446
375.288177	2492.149857
375.674540	2510.038391
376.060841	2533.545291
376.447079	2556.860628
376.833254	2582.618403
377.219367	2606.896600
377.605417	2643.838176
377.991404	2668.025632
378.377329	2706.812270
378.763191	2740.446848
379.148991	2790.364353
379.534727	2838.406550
379.920402	2882.073024
380.306013	2934.657300
380.691563	2996.686178
381.077049	3053.404199
381.462474	3111.291769
381.847835	3182.987059
382.233134	3252.617997
382.618371	3312.874908
383.003545	3399.277765
383.388657	3474.156543
383.773706	3570.666913
384.158693	3642.669714
384.543618	3734.940473
384.928480	3814.784788
385.313280	3918.561981
385.698017	4023.579298
386.082692	4144.093122
386.467305	4206.600909
386.851856	4333.703521
387.236344	4489.076924
387.620770	4548.179412
388.005133	4671.581817
388.389435	4820.482378
388.773674	4906.222322
389.157851	5039.220564
389.541965	5169.650337
389.926018	5195.002300
390.310008	5371.268765
390.693936	5494.492209
391.077802	5612.182986
391.461606	5746.557463
391.845348	5859.323033
392.229027	5979.562114
392.612645	6204.994952
392.996200	6318.199103
393.379694	6491.861812
393.763125	6716.747685
394.146494	6807.223794
394.529801	6944.149094
394.913047	7190.976589
395.296230	7184.770929
395.679351	7239.270843
396.062410	7494.416242
396.445408	7398.760348
396.828343	7549.541259
397.211217	7679.063625
397.594028	7563.205307
397.976778	7770.921010
398.359466	7929.117459
398.742092	7908.922596
399.124656	8056.590595
399.507158	8245.316272
399.889598	8264.633973
400.271977	8471.792629
400.654294	8505.172629
401.036549	8702.780819
401.418742	8728.631856
401.800874	9027.136219
402.182944	9105.453065
402.564952	9470.848498
402.946898	9297.858783
403.328783	9354.528914
403.710606	9546.332215
404.092367	9803.312594
404.474067	10161.879785
404.855705	9954.214494
405.237282	9910.840406
405.618797	10334.824130
406.000250	10583.763868
406.381642	10940.561614
406.762972	10890.810467
407.144240	10698.871055
407.525447	10944.387850
407.906593	10883.974662
408.287677	11140.947479
408.668700	11292.918103
409.049661	11272.982860
409.430560	11430.569330
409.811399	11398.731923
410.192176	11559.272508
410.572891	11633.511060
410.953545	12114.137188
411.334138	11598.220462
411.714669	12183.125379
412.095139	11497.170534
412.475547	12002.142914
412.855894	11847.538288
413.236180	12176.319821
413.616405	11862.863395
413.996568	12130.904066
414.376670	12109.426230
414.756711	11980.770943
415.136691	12257.195052
415.516609	12435.404882
415.896466	12503.740243
416.276262	12796.021302
416.655997	13237.316348
417.035670	13279.714972
417.415283	13914.383638
417.794834	14005.537782
418.174324	13743.818718
418.553753	13657.073064
418.933121	14134.765240
419.312428	13940.847175
419.691674	13862.028735
420.070859	14311.671932
420.449983	13965.241319
420.829045	14507.548485
421.208047	14255.145474
421.586988	14702.797415
421.965867	14959.061950
422.344686	14952.084993
422.723444	15515.030643
423.102141	14215.247262
423.480777	15393.173352
423.859352	14900.503907
424.237866	15999.372102
424.616319	15698.120309
424.994712	16348.824886
425.373044	16129.459077
425.751314	16813.420145
426.129524	15939.160560
426.507673	17014.650404
426.885762	16718.648973
427.263789	16915.266576
427.641756	17072.936225
428.019662	17125.568391
428.397508	17175.324580
428.775292	17464.971636
429.153016	17429.098785
429.530679	17504.524529
429.908282	17525.828445
430.285824	17244.368223
430.663305	17926.307789
431.040726	17534.350516
431.418086	17352.808483
431.795385	17991.003437
432.172624	18399.868740
432.549802	17950.228064
432.926920	18121.478581
433.303977	18003.082041
433.680974	18244.268485
434.057910	18514.186986
434.434786	18525.398512
434.811601	18433.120191
435.188355	19429.209341
435.565050	19074.307069
435.941683	19000.098764
436.318257	19841.611014
436.694770	19631.226020
437.071222	20177.969401
437.447614	19236.909486
437.823946	19224.069667
438.200218	19338.879426
438.576429	19081.974664
438.952580	19307.094951
439.328670	19227.467405
439.704700	19577.472196
440.080670	19116.632597
440.456580	19620.581623
440.832429	19730.110773
441.208218	18703.930975
441.583947	19069.160051
441.959616	19094.680892
442.335224	19241.849817
442.710773	19283.393966
443.086261	19701.555157
443.461689	19022.776394
443.837057	19044.135763
444.212365	19536.633809
444.587612	19445.973698
444.962800	18948.041289
445.337927	19237.849662
445.712995	17984.255852
446.088002	19522.410193
446.462949	19566.487522
446.837837	19589.097097
447.212664	19419.374050
447.587431	21705.013039
447.962139	24042.298649
448.336786	25900.543574
448.711374	24416.042234
449.085901	21166.108652
449.460369	20932.753640
449.834776	20682.472955
450.209124	22493.872958
450.583412	21948.959515
450.957640	22177.175070
451.331808	20930.079308
451.705917	19655.337858
452.079965	19479.522577
452.453954	19566.563139
452.827883	19272.192522
453.201752	18917.741433
453.575562	18845.743674
453.949311	19440.751063
454.323001	19270.173540
454.696632	18884.288337
455.070202	19736.576053
455.443713	19618.981057
455.817164	19756.566748
456.190556	19877.257013
456.563888	19264.386295
456.937160	19295.654052
457.310373	17979.370974
457.683526	17992.563674
458.056619	17726.945278
458.429653	17437.008355
458.802628	17535.018468
459.175542	17359.873660
459.548398	17849.679730
459.921194	18501.838679
460.293930	18611.703066
460.666607	19469.218458
461.039224	20138.751745
461.411782	20027.521206
461.784280	19074.622141
462.156719	18475.927149
462.529099	17852.812807
462.901419	16886.418573
463.273680	16073.421610
463.645882	15821.308465
464.018024	15529.947417
464.390106	15628.345699
464.762130	16548.706636
465.134094	18117.604454
465.505999	20198.262566
465.877845	21906.253380
466.249631	21989.046770
466.621358	20765.641911
466.993026	19391.559483
467.364634	18119.504969
467.736184	16947.540043
468.107674	16138.021476
468.479105	15512.840262
468.850477	14939.577890
469.221790	14146.601870
469.593043	13281.600363
469.964238	12690.222606
470.335373	12389.396791
470.706449	12628.231537
471.077467	13124.003812
471.448425	14191.606771
471.819324	14770.212765
472.190164	13954.334783
472.560945	12665.609172
472.931667	11565.798282
473.302330	10998.534883
473.672934	10557.491895
474.043479	10433.182082
474.413965	10031.707111
474.784393	9725.880471
475.154761	9703.656545
475.525070	9496.991922
475.895321	9191.946662
476.265513	9101.604144
476.635645	9076.345442
477.005719	8852.346812
477.375734	8727.424499
477.745691	8646.536665
478.115588	8675.707302
478.485427	8807.198238
478.855207	9154.962237
479.224928	9382.973625
479.594591	9413.873378
479.964194	9019.203963
480.333739	8791.910939
480.703226	8573.465140
481.072653	8456.520453
481.442022	8330.733583
481.811333	8153.932756
482.180584	7794.793394
482.549777	7526.765326
482.918912	7282.725589
483.287988	7078.813437
483.657005	6812.448950
484.025964	6575.650830
484.394864	6411.468011
484.763706	6215.160439
485.132489	5992.170040
485.501213	5836.940310
485.869879	5707.740578
486.238487	5554.965890
486.607036	5438.212767
486.975527	5279.187048
487.343959	5182.550650
487.712333	5070.626952
488.080648	4961.705262
488.448905	4877.288620
488.817104	4767.588071
489.185244	4719.976893
489.553326	4719.324064
489.921350	4773.113176
490.289315	4838.227239
490.657222	4779.679278
491.025070	4707.913412
491.392861	4561.150300
491.760593	4411.206220
492.128267	4252.518259
492.495883	4120.732415
492.863440	3994.103672
493.230939	3885.396230
493.598380	3792.785193
493.965763	3721.770459
494.333088	3651.393430
494.700354	3585.578646
495.067563	3534.645348
495.434713	3488.780931
495.801805	3459.471662
496.168839	3408.737490
496.535815	3366.855584
496.902733	3337.828620
497.269593	3296.980150
497.636395	3268.835388
498.003139	3248.716143
498.369825	3210.534444
498.736453	3194.062474
499.103023	3163.069460
499.469535	3140.830410
499.835989	3124.058491
500.202385	3098.184769
500.568723	3083.041143
500.935003	3070.518917
501.301226	3050.886143
501.667390	3048.032850
502.033497	3039.669576
502.399546	3017.218797
502.765537	2995.821620
503.131470	2995.128461
503.497345	2986.918942
503.863163	2960.702421
504.228923	2958.159159
504.594625	2958.945579
504.960269	2937.631581
505.325856	2938.569235
505.691385	2921.600712
506.056856	2923.143305
506.422270	2918.999476
506.787625	2908.808784
507.152924	2906.247878
507.518164	2903.926426
507.883347	2890.075856
508.248472	2889.120557
508.613540	2893.629869
508.978550	2891.094169
509.343503	2881.460524
509.708398	2881.959598
510.073236	2883.739126
510.438016	2880.840462
510.802738	2874.082795
511.167403	2880.411964
511.532010	2875.355687
511.896561	2877.407436
512.261053	2883.310628
512.625488	2876.063969
512.989866	2868.101466
513.354186	2866.299254
513.718449	2858.369519
514.082655	2873.165305
514.446803	2865.648945
514.810894	2868.545088
515.174927	2865.878317
515.538904	2863.304808
515.902822	2865.008718
516.266684	2863.519057
516.630488	2862.530991
516.994235	2860.300281
517.357925	2864.955786
517.721558	2865.674151
518.085133	2869.596168
518.448651	2868.174563
518.812112	2863.766074
519.175516	2862.730117
519.538863	2863.955117
519.902152	2859.929756
520.265385	2864.796990
520.628560	2865.570807
520.991678	2863.612319
521.354739	2861.996629
521.717743	2865.008718
522.080690	2863.156094
522.443580	2865.386805
522.806413	2866.710108
523.169189	2864.980992
523.531908	2868.305633
523.894569	2864.759181
524.257174	2866.329501
524.619722	2868.419059
524.982213	2865.613657
525.344647	2864.287833
525.707025	2862.919160
526.069345	2867.746065
526.431608	2864.597864
526.793815	2868.061137
527.155964	2863.692977
527.518057	2865.381764
527.880093	2861.394211
528.242072	2864.802031
528.603995	2859.435723
528.965860	2861.437061
529.327669	2860.171731
529.689421	2859.612163
530.051117	2861.144674
530.412755	2859.385311
530.774337	2861.875641
531.135862	2860.396063
531.497331	2858.465301
531.858743	2854.094620
532.220098	2858.770291
532.581396	2852.403313
532.942638	2851.400124
533.303824	2855.319621
533.664953	2854.008921
534.026025	2853.358612
534.387040	2855.382635
534.747999	2853.650999
535.108902	2855.218798
535.469748	2851.143025
535.830537	2851.521111
536.191270	2854.306349
536.551947	2849.519773
536.912567	2853.235104
537.273131	2853.905577
537.633638	2847.818384
537.994089	2850.197808
538.354483	2844.531552
538.714821	2849.134125
539.075103	2850.966584
539.435328	2849.731502
539.795497	2848.874506
540.155609	2849.146728
540.515665	2848.859382
540.875665	2845.088599
541.235609	2847.452900
541.595496	2844.544154
541.955328	2853.507326
542.315102	2847.936851
542.674821	2843.724967
543.034483	2844.697910
543.394090	2842.555419
543.753640	2841.126252
544.113134	2848.418281
544.472571	2839.475274
544.831953	2848.514063
545.191278	2844.811336
545.550548	2837.859584
545.909761	2843.026767
546.268918	2842.346211
546.628019	2845.615400
546.987064	2841.826972
547.346053	2832.546208
547.704986	2841.075841
548.063863	2834.832372
548.422684	2835.664162
548.781449	2833.874552
549.140158	2836.435458
549.498811	2832.478153
549.857408	2829.473625
550.215949	2831.288440
550.574434	2831.633759
550.932864	2830.439006
551.291237	2830.015549
551.649555	2834.865139
552.007817	2832.266424
552.366022	2831.505210
552.724173	2829.965137
553.082267	2834.068637
553.440305	2834.134172
553.798288	2828.800631
554.156215	2828.183090
554.514086	2831.759788
554.871902	2825.627225
555.229661	2824.659323
555.587365	2824.520691
555.945014	2822.978098
556.302606	2822.453818
556.660143	2821.783345
557.017625	2822.123623
557.375050	2817.783189
557.732421	2820.520536
558.089735	2816.149855
558.446994	2818.582212
558.804197	2816.716985
559.161345	2816.162458
559.518437	2807.756334
559.875474	2807.889925
560.232455	2807.360604
560.589381	2810.246664
560.946251	2804.340952
561.303065	2806.291879
561.659825	2802.624440
562.016528	2796.653193
562.373177	2797.144705
562.729770	2796.164201
563.086307	2791.191103
563.442789	2790.520629
563.799216	2790.266051
564.155587	2784.015020
564.511904	2782.989145
564.868164	2779.679628
565.224370	2777.612755
565.580520	2775.349277
565.936615	2773.204266
566.292654	2768.866353
566.648638	2768.800818
567.004567	2764.843512
567.360441	2760.276227
567.716260	2757.193561
568.072023	2754.894795
568.427732	2753.987387
568.783385	2747.600245
569.138982	2744.656212
569.494525	2745.583784
569.850013	2739.115983
570.205445	2739.229409
570.560823	2734.979717
570.916145	2728.859756
571.271412	2728.751371
571.626625	2726.331617
571.981782	2721.222408
572.336884	2713.990873
572.691931	2713.214535
573.046923	2711.480378
573.401860	2706.426621
573.756743	2706.487115
574.111570	2700.036959
574.466342	2695.126875
574.821059	2697.856660
575.175722	2691.955989
575.530330	2689.468180
575.884882	2685.979701
576.239380	2679.406037
576.593823	2678.546520
576.948211	2673.298679
577.302544	2673.152485
577.656823	2668.257525
578.011047	2667.957576
578.365216	2662.487924
578.719330	2660.582368
579.073389	2655.878972
579.427394	2657.441729
579.781344	2655.820998
580.135239	2650.361429
580.489080	2649.474186
580.842866	2643.210552
581.196597	2644.818680
581.550273	2645.413536
581.903895	2640.011940
582.257463	2641.425984
582.610975	2637.642598
582.964434	2636.785602
583.317837	2636.868781
583.671186	2634.955663
584.024481	2630.229581
584.377721	2629.811165
584.730906	2628.762605
585.084037	2625.551390
585.437113	2621.561317
585.790135	2620.651389
586.143103	2618.645009
586.496016	2617.162910
586.848874	2613.440018
587.201679	2613.203084
587.554428	2609.863319
587.907124	2611.668052
588.259765	2606.964656
588.612352	2611.153855
588.964884	2607.468771
589.317362	2607.751076
589.669786	2606.677310
590.022155	2603.418204
590.374470	2604.060951
590.726731	2603.529110
591.078937	2600.096084
591.431090	2601.063985
591.783188	2599.145826
592.135232	2596.784046
592.487222	2597.351176
592.839157	2597.434355
593.191038	2592.688108
593.542866	2593.794642
593.894639	2589.489496
594.246358	2591.236256
594.598022	2592.113417
594.949633	2587.939341
595.301190	2587.220977
595.652692	2585.449011
596.004141	2588.211564
596.355535	2582.537745
596.706876	2582.895667
597.058162	2576.876529
597.409395	2583.132601
597.760573	2582.903229
598.111698	2581.181675
598.462768	2581.219483
598.813785	2581.161510
599.164748	2578.875347
599.515657	2578.431725
599.866511	2575.873340
600.217312	2577.791499
600.568060	2574.544996
600.918753	2577.000037
601.269392	2577.352918
601.619978	2575.948957
601.970510	2576.362332
602.320988	2575.608679
602.671412	2577.907445
603.021783	2576.203535
603.372100	2575.122208
603.722363	2574.905438
604.072572	2573.342680
604.422728	2575.079358
604.772830	2569.463512
605.122878	2570.675910
605.472872	2570.381002
605.822813	2566.360682
606.172701	2570.713719
606.522534	2572.226065
606.872314	2576.264029
607.222041	2569.773543
607.571714	2571.255643
607.921333	2572.899059
608.270899	2573.987948
608.620411	2570.718760
608.969870	2573.861919
609.319276	2570.910324
609.668627	2572.044583
610.017926	2575.712023
610.367171	2571.979048
610.716362	2574.383679
611.065500	2572.750345
611.414585	2573.929975
611.763616	2575.286045
612.112594	2572.347052
612.461518	2574.257650
612.810389	2573.811508
613.159207	2573.262022
613.507971	2570.905282
613.856682	2575.543144
614.205340	2572.662125
614.553945	2574.045921
614.902496	2574.706312
615.250994	2577.060531
615.599439	2572.397464
615.947830	2573.816549
616.296169	2573.738411
616.644454	2575.485171
616.992686	2576.022054
617.340864	2577.506673
617.688990	2573.181363
618.037063	2577.093299
618.385082	2576.856365
618.733048	2576.989955
619.080961	2574.895356
619.428821	2576.987435
619.776628	2578.293093
620.124382	2572.757907
620.472083	2570.648184
620.819731	2575.487691
621.167326	2574.658422
621.514868	2574.872671
621.862357	2568.407391
622.209793	2574.119018
622.557176	2567.449572
622.904506	2567.578121
623.251783	2561.647203
623.599007	2564.286247
623.946179	2560.407080
624.293297	2559.658468
624.640363	2558.317521
624.987376	2560.409600
625.334336	2558.743499
625.681243	2557.757953
626.028097	2556.550597
626.374899	2555.035730
626.721647	2554.735782
627.068343	2555.184444
627.414987	2550.181099
627.761577	2555.335679
628.108115	2553.266285
628.454600	2552.610935
628.801032	2548.293187
629.147412	2549.992056
629.493739	2549.203115
629.840014	2548.358722
630.186236	2551.522046
630.532405	2547.141283
630.878521	2546.775800
631.224585	2545.724719
631.570597	2544.414019
631.916556	2548.482230
632.262462	2545.218083
632.608316	2547.100954
632.954117	2545.896118
633.299866	2546.216232
633.645562	2545.628937
633.991206	2540.925541
634.336797	2540.960829
634.682336	2540.862526
635.027823	2538.054603
635.373257	2539.728267
635.718639	2537.421939
636.063968	2535.060158
636.409245	2531.395239
636.754470	2536.675848
637.099642	2530.870959
637.444762	2529.071267
637.789829	2532.058151
638.134845	2527.977337
638.479808	2530.502955
638.824719	2526.984230
639.169577	2528.708304
639.514383	2525.575227
639.859137	2527.279137
640.203839	2527.669827
640.548489	2525.366019
640.893086	2522.048940
641.237632	2521.635565
641.582125	2520.012314
641.926566	2518.452077
642.270955	2523.140350
642.615292	2519.223373
642.959576	2521.340658
643.303809	2521.582633
643.647990	2522.154804
643.992118	2521.403672
644.336195	2523.727644
644.680219	2522.185051
645.024192	2525.638242
645.368112	2524.377953
645.711981	2527.211082
646.055797	2524.337624
646.399562	2525.378622
646.743274	2527.831143
647.086935	2530.157636
647.430544	2529.144364
647.774101	2530.568490
648.117606	2527.183355
648.461059	2527.445495
648.804460	2530.820548
649.147810	2528.254600
649.491108	2523.921729
649.834354	2525.403828
650.177548	2521.910308
650.520690	2522.220339
650.863781	2520.339989
651.206820	2521.199506
651.549807	2517.610204
651.892742	2518.452077
652.235626	2515.525687
652.578458	2516.312107
652.921238	2513.166427
653.263967	2513.237003
653.606644	2513.221880
653.949269	2511.853206
654.291843	2511.346570
654.634365	2511.470079
654.976836	2511.573422
655.319255	2510.650891
655.661622	2510.615603
656.003938	2509.980418
656.346203	2505.609737
656.688416	2511.147445
657.030577	2509.960253
657.372687	2507.502691
657.714746	2507.911024
658.056753	2508.662156
658.398708	2504.306599
658.740612	2502.529592
659.082465	2506.630571
659.424266	2505.571929
659.766016	2500.303923
660.107715	2506.751559
660.449362	2507.119563
660.790958	2506.123935
661.132503	2506.517145
661.473996	2506.988493
661.815438	2505.569408
662.156829	2507.835407
662.498168	2505.924809
662.839456	2508.901611
663.180693	2507.926148
663.521879	2507.898421
663.863013	2505.438338
664.204097	2506.025632
664.545129	2507.369100
664.886110	2506.902793
665.227040	2507.485047
665.567918	2507.568226
665.908746	2506.255005
666.249522	2510.754235
666.590248	2507.797598
666.930922	2508.407578
667.271545	2506.428925
667.612118	2510.242558
667.952639	2508.422701
668.293109	2507.774913
668.633528	2507.275839
668.973896	2508.841117
669.314213	2507.348935
669.654480	2503.772237
669.994695	2507.127125
670.334859	2506.360869
670.674973	2502.721156
671.015035	2503.545385
671.355047	2504.430107
671.695008	2507.177536
672.034918	2502.862308
672.374777	2506.817094
672.714585	2502.839623
673.054342	2503.741990
673.394049	2504.543533
673.733705	2503.434479
674.073310	2503.041269
674.412864	2503.195025
674.752368	2500.124962
675.091820	2503.991527
675.431223	2502.816938
675.770574	2503.230313
676.109875	2496.744868
676.449125	2497.226298
676.788324	2497.702687
677.127473	2496.122286
677.466571	2494.977944
677.805619	2497.473315
678.144616	2497.369971
678.483562	2497.133037
678.822458	2496.611278
679.161303	2496.016422
679.500098	2493.826040
679.838842	2496.785198
680.177535	2493.120279
680.516179	2495.650938
680.854771	2494.650269
681.193314	2497.866525
681.531805	2498.557163
681.870247	2502.370796
682.208638	2504.730056
682.546978	2505.834069
682.885268	2503.830210
683.223508	2502.065806
683.561697	2505.602176
683.899836	2502.060765
684.237925	2500.949191
684.575963	2498.710918
684.913951	2499.308295
685.251889	2502.713594
685.589776	2501.145796
685.927614	2498.569766
686.265401	2500.956752
686.603137	2501.609582
686.940824	2500.714777
687.278460	2502.804335
687.616046	2501.947339
687.953582	2505.816425
688.291068	2502.945487
688.628504	2509.841786
688.965889	2503.716784
689.303224	2503.323574
689.640510	2503.031187
689.977745	2501.392812
690.314930	2500.550939
690.652065	2497.707729
690.989150	2496.384426
691.326185	2491.116420
691.663170	2492.550628
692.000105	2487.622900
692.336990	2488.757160
692.673825	2485.374546
693.010610	2484.073928
693.347345	2481.923876
693.684030	2477.790130
694.020665	2479.662918
694.357251	2474.397433
694.693786	2480.310707
695.030272	2479.194091
695.366707	2479.083186
695.703093	2475.498925
696.039429	2474.833493
696.375716	2475.193936
696.711952	2475.962712
697.048139	2474.576394
697.384276	2472.000365
697.720363	2474.606641
698.056400	2475.483802
698.392388	2473.490026
698.728326	2473.500108
699.064214	2472.791826
699.400053	2472.438945
699.735842	2471.859212
700.071581	2469.094139
700.407270	2472.015488
700.742910	2469.905765
701.078501	2467.223871
701.414042	2468.552215
701.749533	2464.499128
702.084974	2467.191104
702.420366	2465.290589
702.755709	2465.383850
703.091002	2464.148768
703.426246	2462.729683
703.761440	2461.159363
704.096584	2464.625157
704.431679	2463.904272
704.766725	2464.834364
705.101721	2464.579786
705.436668	2463.783284
705.771565	2461.240022
706.106413	2464.894858
706.441212	2463.924436
706.775961	2462.853191
707.110661	2463.009467
707.445311	2466.891155
707.779913	2463.213633
708.114465	2465.504838
708.448967	2463.425362
708.783421	2468.854685
709.117825	2467.788481
709.452180	2469.255456
709.786485	2466.208079
710.120742	2475.335088
710.454949	2471.413070
710.789107	2471.939871
711.123216	2473.260653
711.457275	2473.767289
711.791286	2477.177630
712.125247	2475.972794
712.459159	2478.942033
712.793023	2480.348515
713.126837	2475.176292
713.460602	2478.793319
713.794318	2477.459934
714.127985	2477.061683
714.461602	2473.230406
714.795171	2474.205869
715.128691	2470.067082
715.462162	2468.073306
715.795584	2467.430559
716.128957	2466.102215
716.462281	2464.403346
716.795556	2464.673048
717.128782	2464.544498
717.461960	2461.328242
717.795088	2465.396453
718.128167	2460.224229
718.461198	2460.705659
718.794180	2462.346555
719.127113	2458.308591
719.459997	2456.251800
719.792833	2452.624690
720.125619	2456.352623
720.458357	2454.537808
720.791046	2453.532097
721.123686	2454.739454
721.456278	2453.121243
721.788821	2452.639813
722.121315	2452.478496
722.453761	2450.381376
722.786158	2453.695935
723.118506	2450.777107
723.450805	2452.665019
723.783056	2452.183589
724.115259	2453.156532
724.447412	2452.607046
724.779518	2450.580502
725.111574	2452.780966
725.443582	2453.827005
725.775542	2455.341872
726.107453	2454.724330
726.439315	2455.646862
726.771129	2461.416462
727.102895	2455.886316
727.434612	2459.815896
727.766281	2457.638117
728.097901	2456.695422
728.429473	2455.319187
728.760996	2458.575772
729.092471	2456.327417
729.423897	2460.251956
729.755276	2460.761112
730.086606	2459.757923
730.417887	2460.937553
730.749120	2462.013839
731.080305	2463.344703
731.411442	2464.231947
731.742530	2464.627677
732.073570	2464.766309
732.404562	2468.156485
732.735506	2467.791001
733.066401	2464.678089
733.397249	2463.674899
733.728048	2459.699949
734.058798	2460.098200
734.389501	2458.996708
734.720156	2455.979578
735.050762	2453.890019
735.381320	2453.809361
735.711831	2450.913218
736.042293	2451.230811
736.372707	2452.143260
736.703073	2451.066973
737.033391	2450.875409
737.363661	2450.139401
737.693883	2450.797272
738.024056	2456.304732
738.354182	2454.152159
738.684260	2452.836418
739.014290	2455.362036
739.344272	2457.844805
739.674207	2457.292798
740.004093	2460.246914
740.333931	2454.948662
740.663722	2458.762295
740.993464	2454.971347
741.323159	2458.749692
741.652806	2455.818261
741.982405	2456.564352
742.311956	2451.142591
742.641460	2455.702314
742.970915	2452.889350
743.300323	2449.312652
743.629683	2453.416151
743.958996	2451.641665
744.288260	2446.333330
744.617477	2447.608742
744.946647	2443.601024
745.275768	2447.328958
745.604842	2441.803853
745.933869	2443.031374
746.262847	2442.413833
746.591778	2444.382403
746.920662	2443.981632
747.249498	2444.112702
747.578286	2444.921807
747.907027	2447.180244
748.235720	2446.252671
748.564365	2447.540686
748.892963	2446.184616
749.221514	2448.422888
749.550017	2445.776282
749.878473	2445.357867
750.206881	2447.737291
750.535242	2445.362908
750.863555	2444.326951
751.191821	2446.081272
751.520039	2444.450459
751.848210	2447.868361
752.176334	2447.812908
752.504411	2446.207301
752.832440	2443.469954
753.160421	2445.156220
753.488356	2442.040787
753.816243	2442.275201
754.144082	2442.406271
754.471875	2442.444080
754.799620	2442.529779
755.127318	2447.724688
755.454969	2444.160593
755.782572	2444.347115
756.110129	2439.931064
756.437638	2442.517176
756.765100	2440.372165
757.092515	2441.677824
757.419882	2442.242433
757.747203	2442.943154
758.074477	2442.396189
758.401703	2445.602362
758.728882	2444.485747
759.056014	2445.274688
759.383099	2444.372321
759.710138	2448.455656
760.037129	2444.770572
760.364073	2443.442228
760.690970	2445.551951
761.017820	2444.299224
761.344623	2447.099585
761.671379	2449.854576
761.998088	2446.252671
762.324751	2454.023610
762.651366	2465.000722
762.977935	2478.919348
763.304456	2487.123826
763.630931	2492.452326
763.957359	2487.474186
764.283740	2483.920173
764.610074	2474.684779
764.936362	2464.806638
765.262602	2459.344548
765.588796	2456.254321
765.914943	2448.856427
766.241044	2447.076900
766.567097	2441.697989
766.893104	2439.477361
767.219064	2440.714964
767.544978	2439.184974
767.870845	2437.614654
768.196665	2439.139603
768.522438	2436.271187
768.848165	2437.188677
769.173846	2434.486618
769.499479	2434.582400
769.825066	2434.658017
770.150607	2432.911258
770.476101	2431.414035
770.801548	2434.869746
771.126949	2431.025866
771.452303	2430.801535
771.777611	2426.813982
772.102872	2430.564601
772.428087	2429.700043
772.753256	2430.914961
773.078378	2426.599733
773.403453	2428.991761
773.728482	2425.548652
774.053465	2425.261307
774.378401	2426.020000
774.703291	2424.757191
775.028135	2426.224167
775.352932	2426.682912
775.677683	2426.665268
776.002388	2429.148036
776.327046	2423.544794
776.651658	2425.601585
776.976224	2423.902716
777.300743	2426.894641
777.625216	2424.903385
777.949643	2425.490679
778.274024	2423.499423
778.598359	2421.495565
778.922647	2422.103024
779.246889	2425.210895
779.571086	2416.015831
779.895236	2425.367171
780.219339	2425.941863
780.543397	2425.760381
780.867409	2423.874989
781.191374	2426.879517
781.515294	2423.612849
781.839167	2427.854980
782.162995	2424.013621
782.486776	2426.682912
782.810511	2421.238466
783.134201	2421.009093
783.457844	2427.973447
783.781441	2424.366502
784.104993	2422.735689
784.428498	2423.895154
784.751958	2422.997829
785.075372	2421.387180
785.398739	2423.496903
785.722061	2425.657037
786.045337	2424.154773
786.368568	2424.651327
786.691752	2423.988415
787.014891	2425.099990
787.337983	2426.730803
787.661030	2429.211051
787.984031	2429.836154
788.306987	2431.323294
788.629897	2431.635846
788.952760	2432.757503
789.275579	2430.201637
789.598351	2431.141813
789.921078	2428.790114
790.243759	2428.636359
790.566395	2427.749116
790.888984	2424.631163
791.211529	2428.069229
791.534027	2426.337593
791.856480	2422.458425
792.178888	2424.006059
792.501249	2422.365164
792.823566	2423.144022
793.145836	2423.549835
793.468062	2422.879362
793.790241	2421.886254
794.112375	2421.490524
794.434464	2419.705955
794.756507	2423.635535
795.078505	2421.293919
795.400457	2423.282654
795.722364	2422.960020
796.044226	2426.204003
796.366042	2421.621594
796.687812	2425.102510
797.009538	2429.815989
797.331218	2428.850608
797.652852	2427.229877
797.974442	2423.227201
798.295986	2429.213571
798.617484	2425.344486
798.938938	2426.367840
799.260346	2424.779877
799.581709	2425.803231
799.903026	2426.418252
800.224299	2424.076636
800.545526	2423.242325
800.866708	2418.717889
801.187845	2421.233425
801.508936	2422.534043
801.829983	2422.355082
802.150984	2420.343661
802.471940	2422.740730
802.792851	2422.329876
803.113717	2419.340472
803.434538	2417.296284
803.755314	2420.751995
804.076045	2421.258631
804.396731	2418.962385
804.717372	2418.458270
805.037967	2422.385328
805.358518	2421.835843
805.679024	2421.160328
805.999485	2422.309711
806.319901	2422.166038
806.640272	2418.498599
806.960598	2419.698393
807.280879	2419.857190
807.601115	2422.420617
807.921306	2422.362643
808.241453	2420.696542
808.561554	2420.648651
808.881611	2423.466656
809.201623	2422.624783
809.521590	2425.218457
809.841513	2421.150246
810.161390	2420.096645
810.481223	2421.488003
810.801011	2420.751995
811.120755	2422.886923
811.440453	2423.098652
811.760107	2422.450863
812.079716	2419.287539
812.399281	2414.626993
812.718801	2418.478434
813.038276	2416.482137
813.357707	2417.417271
813.677093	2418.417940
813.996434	2418.382652
814.315731	2416.461973
814.634983	2421.447674
814.954191	2420.744433
815.273354	2419.746284
815.592473	2420.830132
815.911547	2420.323497
816.230577	2422.791141
816.549562	2424.812644
816.868502	2424.656368
817.187399	2423.940524
817.506250	2422.960020
817.825058	2426.322470
818.143821	2425.432706
818.462539	2427.988571
818.781213	2429.357244
819.099843	2429.488314
819.418429	2435.237750
819.736970	2440.452824
820.055466	2446.388782
820.373919	2453.753908
820.692327	2462.376802
821.010691	2481.185347
821.329011	2523.770494
821.647286	2587.105030
821.965517	2655.127840
822.283704	2697.559232
822.601847	2706.603062
822.919945	2680.399144
823.237999	2646.646098
823.556010	2613.082096
823.873976	2580.155800
824.191897	2552.048847
824.509775	2529.966072
824.827609	2512.039729
825.145398	2499.580517
825.463144	2493.790752
825.780845	2493.516009
826.098502	2502.063286
826.416116	2518.883095
826.733685	2532.317770
827.051210	2536.811959
827.368692	2531.566638
827.686129	2515.928979
828.003522	2494.909888
828.320872	2477.328864
828.638177	2467.443162
828.955439	2456.224074
829.272656	2451.024123
829.589830	2440.747731
829.906960	2436.288831
830.224046	2434.224478
830.541088	2433.881680
830.858086	2430.269693
831.175041	2430.799014
831.491952	2427.726431
831.808819	2429.876483
832.125642	2431.993768
832.442421	2435.739345
832.759157	2443.737136
833.075849	2457.963272
833.392497	2468.302678
833.709101	2480.469503
834.025662	2475.322485
834.342179	2470.150261
834.658653	2458.842953
834.975083	2452.712910
835.291469	2452.133177
835.607811	2438.164140
835.924110	2434.146340
836.240366	2431.519899
836.556578	2427.887748
836.872746	2424.858014
837.188871	2420.890626
837.504952	2419.385842
837.820990	2420.494896
838.136984	2420.260482
838.452935	2419.411048
838.768842	2419.093455
839.084706	2419.950451
839.400526	2428.154929
839.716303	2432.384457
840.032037	2440.228492
840.347727	2437.788574
840.663373	2434.779005
840.978977	2428.154929
841.294537	2425.639393
841.610054	2422.884403
841.925527	2418.745615
842.240957	2417.651685
842.556344	2417.757549
842.871687	2413.921231
843.186987	2415.166396
843.502244	2412.073648
843.817458	2409.164902
844.132629	2411.292269
844.447756	2411.256981
844.762840	2405.116856
845.077881	2408.113822
845.392879	2406.233472
845.707833	2407.534089
846.022745	2404.204407
846.337613	2410.415109
846.652438	2410.894018
846.967221	2409.870664
847.281960	2409.142217
847.596656	2410.347053
847.911309	2405.920920
848.225919	2409.328740
848.540485	2407.975190
848.855009	2408.378483
849.169490	2404.431259
849.483928	2407.256826
849.798323	2408.577608
850.112675	2407.816394
850.426984	2412.043401
850.741251	2403.594427
851.055474	2406.548544
851.369654	2406.626682
851.683792	2407.196332
851.997887	2407.340005
852.311938	2408.428894
852.625947	2405.878070
852.939914	2408.691034
853.253837	2408.751528
853.567718	2407.481157
853.881555	2404.978224
854.195350	2408.323030
854.509103	2410.596590
854.822812	2407.995355
855.136479	2408.693555
855.450103	2408.333112
855.763685	2406.276321
856.077224	2406.745149
856.390720	2408.469223
856.704173	2407.032494
857.017584	2409.553071
857.330953	2409.669018
857.644278	2408.383524
857.957561	2409.245561
858.270802	2408.912845
858.584000	2407.380334
858.897155	2409.903432
859.210268	2409.079203
859.523339	2408.055849
859.836367	2407.130797
860.149352	2406.480488
860.462295	2410.558782
860.775195	2405.010992
861.088054	2403.914541
861.400869	2403.380178
861.713642	2403.145765
862.026373	2409.865623
862.339062	2407.292114
862.651708	2408.713719
862.964312	2406.548544
863.276873	2408.275139
863.589392	2409.651374
863.901869	2413.432239
864.214303	2408.184398
864.526696	2410.190777
864.839045	2409.777403
865.151353	2407.715571
865.463619	2409.328740
865.775842	2410.168092
866.088023	2409.127094
866.400162	2412.963412
866.712258	2410.321847
867.024313	2411.498957
867.336325	2408.796898
867.648296	2410.077351
867.960224	2410.251271
868.272110	2408.749007
868.583954	2410.704975
868.895755	2410.742784
869.207515	2412.010634
869.519233	2410.904101
869.830909	2412.131622
870.142542	2411.173802
870.454134	2413.084400
870.765684	2413.157496
871.077191	2408.325550
871.388657	2411.713206
871.700081	2410.992321
872.011463	2411.814029
872.322803	2413.517939
872.634101	2413.591036
872.945357	2410.135325
873.256571	2415.514236
873.567744	2410.828483
873.878874	2416.187230
874.189963	2413.344019
874.501010	2414.019534
874.812015	2414.105233
875.122979	2413.323854
875.433900	2415.567168
875.744780	2414.145562
876.055618	2410.936868
876.366415	2414.352250
876.677169	2415.405851
876.987882	2412.050963
877.298554	2410.652043
877.609183	2412.749163
877.919771	2411.698082
878.230317	2414.924421
878.540822	2416.741757
878.851285	2421.246028
879.161707	2426.514033
879.472087	2432.298757
879.782425	2435.144489
880.092722	2452.042437
880.402977	2475.080510
880.713191	2503.842813
881.023363	2530.122348
881.333494	2546.543907
881.643583	2549.976932
881.953631	2547.224462
882.263637	2540.338246
882.573602	2528.879703
882.883526	2517.529546
883.193408	2507.525376
883.503248	2496.112203
883.813048	2487.325472
884.122806	2476.834831
884.432522	2466.137503
884.742197	2460.733386
885.051831	2450.371294
885.361424	2444.768052
885.670975	2441.753442
885.980485	2433.405291
886.289954	2434.136258
886.599382	2427.880186
886.908768	2426.710638
887.218113	2424.162335
887.527417	2424.782397
887.836680	2418.712848
888.145901	2420.232756
888.455082	2420.245359
888.764221	2416.918197
889.073319	2413.013823
889.382376	2415.015162
889.691392	2417.316448
890.000366	2414.516087
890.309300	2416.981212
890.618193	2416.182189
890.927044	2415.494071
891.235855	2415.196643
891.544625	2416.104051
891.853353	2417.679411
892.162041	2416.991294
892.470687	2416.608166
892.779293	2419.897519
893.087858	2417.248393
893.396381	2419.592529
893.704864	2427.970927
894.013306	2435.217586
894.321707	2446.605552
894.630068	2452.160904
894.938387	2453.632921
895.246665	2450.681325
895.554903	2448.669905
895.863100	2443.119594
896.171256	2439.512649
896.479371	2435.320929
896.787446	2433.097780
897.095480	2432.109714
897.403473	2427.965886
897.711425	2426.776173
898.019336	2423.938004
898.327207	2422.357602
898.635038	2422.135791
898.942827	2417.928948
899.250576	2419.637900
899.558284	2418.216294
899.865952	2415.655388
900.173579	2416.845100
900.481165	2417.281160
900.788711	2414.080028
901.096216	2411.251940
901.403681	2412.285377
901.711105	2413.412075
902.018489	2413.001221
902.325832	2414.906777
902.633135	2414.684966
902.940397	2419.227046
903.247619	2425.485638
903.554800	2434.569797
903.861941	2446.645881
904.169041	2459.836060
904.476101	2461.716411
904.783121	2462.447378
905.090100	2454.192489
905.397039	2446.852569
905.703938	2444.863833
906.010796	2438.978286
906.317614	2433.075095
906.624391	2429.906730
906.931129	2428.671647
907.237826	2424.273241
907.544483	2421.722417
907.851099	2421.107396
908.157675	2414.405182
908.464211	2413.102044
908.770707	2407.796229
909.077163	2408.315468
909.383578	2407.415622
909.689954	2405.578122
909.996289	2402.747514
910.302584	2404.753893
910.608839	2408.859913
910.915054	2406.112484
911.221229	2406.687175
911.527363	2407.193811
911.833458	2404.874881
912.139513	2409.815211
912.445527	2407.337484
912.751502	2407.075344
913.057436	2409.288411
913.363331	2412.671025
913.669186	2408.988462
913.975000	2414.148083
914.280775	2418.838877
914.586510	2421.258631
914.892205	2429.203489
915.197859	2436.979469
915.503475	2444.810901
915.809050	2454.426902
916.114585	2457.239866
916.420081	2460.693057
916.725536	2459.021914
917.030952	2455.092335
917.336328	2452.637293
917.641665	2452.538990
917.946961	2445.904832
918.252218	2446.141766
918.557435	2439.316044
918.862612	2435.691454
919.167750	2432.147523
919.472848	2428.769950
919.777906	2426.476225
920.082925	2423.015473
920.387904	2421.979516
920.692843	2419.653023
920.997743	2415.713361
921.302603	2416.855183
921.607423	2411.433422
921.912204	2411.045253
922.216946	2410.463000
922.521647	2412.532393
922.826310	2408.602814
923.130932	2410.878895
923.435516	2405.550395
923.740059	2407.135838
924.044564	2408.582649
924.349028	2403.969993
924.653454	2401.492266
924.957840	2403.327246
925.262186	2400.254663
925.566493	2404.106105
925.870761	2401.767009
926.174989	2403.344890
926.479178	2405.159706
926.783328	2403.559139
927.087438	2401.580487
927.391509	2403.256670
927.695541	2401.209962
927.999533	2401.754406
928.303486	2401.789694
928.607400	2401.751886
928.911275	2401.978738
929.215110	2401.535116
929.518906	2401.784653
929.822663	2398.734755
930.126381	2399.059910
930.430060	2403.864129
930.733699	2401.280538
931.037299	2403.443193
931.340861	2404.269942
931.644383	2401.845147
931.947866	2402.306413
932.251309	2402.061917
932.554714	2405.111815
932.858080	2405.542833
933.161407	2401.590569
933.464694	2398.371792
933.767943	2403.566701
934.071153	2402.228275
934.374323	2398.429765
934.677455	2402.717267
934.980548	2401.741803
935.283602	2400.075702
935.586617	2401.361196
935.889593	2400.922616
936.192530	2401.451937
936.495428	2400.665517
936.798287	2403.057545
937.101108	2402.475291
937.403890	2400.189128
937.706632	2405.071486
938.009336	2405.096691
938.312002	2408.512073
938.614628	2404.501835
938.917216	2406.737587
939.219765	2403.743142
939.522275	2408.234810
939.824747	2405.696589
940.127179	2401.409087
940.429573	2401.167112
940.731929	2404.733728
941.034246	2400.620147
941.336524	2406.724984
941.638763	2404.980745
941.940964	2405.570560
942.243126	2405.557957
942.545250	2405.021074
942.847335	2401.857750
943.149381	2404.237175
943.451389	2402.752555
943.753359	2404.509397
944.055290	2403.049983
944.357182	2404.295148
944.659036	2401.898079
944.960851	2403.697771
945.262628	2401.474622
945.564367	2401.386402
945.866067	2403.012174
946.167729	2401.482184
946.469352	2403.110477
946.770937	2402.568553
947.072484	2403.203738
947.373992	2404.484191
947.675462	2400.554612
947.976893	2400.932698
948.278286	2401.136865
948.579641	2401.469581
948.880958	2402.399674
949.182236	2403.390261
949.483476	2402.828172
949.784678	2402.135013
950.085841	2404.005282
950.386967	2402.961763
950.688054	2400.121072
950.989103	2401.802297
951.290114	2403.420508
951.591087	2403.589386
951.892021	2402.122411
952.192917	2403.861609
952.493776	2401.399005
952.794596	2402.001423
953.095378	2404.554767
953.396122	2403.385220
953.696828	2403.014695
953.997496	2403.261711
954.298126	2405.328584
954.598718	2404.340518
954.899272	2402.830693
955.199788	2403.715415
955.500266	2401.575445
955.800706	2399.251473
956.101108	2399.445558
956.401472	2397.908006
956.701798	2397.219888
957.002087	2398.765002
957.302337	2397.398849
957.602550	2400.395815
957.902724	2402.427400
958.202861	2404.529562
958.502960	2398.951525
958.803022	2397.565208
959.103045	2399.536299
959.403031	2399.659807
959.702979	2397.469426
960.002889	2400.421021
960.302762	2397.829868
960.602596	2398.986813
960.902393	2397.837430
961.202153	2397.925650
961.501875	2398.961607
961.801559	2399.473284
962.101205	2398.089487
962.400814	2396.730897
962.700385	2398.233160
962.999918	2398.336504
963.299414	2398.253325
963.598873	2398.883469
963.898293	2398.611247
964.197677	2398.641494
964.497022	2399.173336
964.796331	2397.787018
965.095601	2398.149981
965.394835	2396.466236
965.694030	2400.786505
965.993189	2397.943294
966.292309	2399.720301
966.591393	2399.138047
966.890439	2395.894065
967.189447	2397.557646
967.488419	2396.430948
967.787353	2399.196021
968.086249	2397.280382
968.385108	2396.814076
968.683930	2396.935063
968.982714	2400.010167
969.281462	2398.147461
969.580172	2396.534292
969.878844	2395.642007
970.177480	2399.417832
970.476078	2398.018911
970.774639	2398.107132
971.073162	2397.983623
971.371649	2393.189486
971.670098	2393.396173
971.968510	2395.581513
972.266885	2393.428941
972.565223	2397.406411
972.863524	2396.456154
973.161788	2399.458161
973.460014	2400.095867
973.758204	2396.514127
974.056356	2397.280382
974.354471	2398.223078
974.652550	2400.335322
974.950591	2397.033366
975.248595	2395.533623
975.546563	2397.605537
975.844493	2397.590413
976.142386	2396.476318
976.440243	2395.246277
976.738062	2397.345917
977.035845	2400.075702
977.333590	2398.162584
977.631299	2399.914385
977.928971	2399.483367
978.226606	2400.726011
978.524204	2397.787018
978.821765	2397.837430
979.119290	2396.597306
979.416777	2396.128479
979.714228	2397.164436
980.011642	2398.724673
980.309020	2400.791546
980.606360	2398.061761
980.903664	2396.345248
981.200931	2396.473798
981.498162	2402.487894
981.795356	2399.919426
982.092513	2400.524365
982.389633	2400.579817
982.686717	2402.971845
982.983764	2403.889335
983.280775	2405.530231
983.577749	2404.942936
983.874686	2402.016546
984.171587	2403.024777
984.468451	2404.194325
984.765279	2402.470250
985.062070	2401.822462
985.358824	2401.204921
985.655543	2402.815569
985.952224	2398.565877
986.248869	2397.595454
986.545478	2394.386760
986.842050	2393.796945
987.138586	2392.385422
987.435086	2392.476163
987.731549	2394.323746
988.027975	2396.902296
988.324366	2397.834909
988.620719	2395.619322
988.917037	2396.980434
989.213318	2394.444733
989.509563	2393.174363
989.805772	2396.569580
990.101944	2394.936246
990.398080	2395.553787
990.694180	2393.590258
990.990244	2393.270144
991.286271	2397.260218
991.582262	2394.041441
991.878217	2396.922460
992.174136	2396.773746
992.470019	2392.813920
992.765865	2396.519168
993.061676	2394.976575
993.357450	2396.947666
993.653188	2396.012532
993.948890	2399.130486
994.244556	2395.538664
994.540186	2396.660320
994.835780	2394.321225
995.131337	2397.981103
995.426859	2397.565208
995.722345	2400.075702
996.017795	2398.883469
996.313208	2399.798439
996.608586	2399.274159
996.903928	2400.259704
997.199234	2400.632750
997.494504	2399.924467
997.789738	2399.697616
998.084936	2399.566546
998.380099	2397.308109
998.675225	2398.079405
998.970316	2398.921278
999.265371	2400.567215
999.560390	2396.834240
999.855373	2398.853222
1000.150320	2398.170146
1000.445232	2396.982954
1000.740108	2396.047820
1001.034948	2395.916750
1001.329752	2396.378016
1001.624521	2400.216854
1001.919254	2393.088663
1002.213951	2394.026318
1002.508613	2394.532953
1002.803239	2394.225443
1003.097829	2392.627397
1003.392384	2397.381205
1003.686903	2396.420866
1003.981386	2395.445402
1004.275834	2395.120248
1004.570246	2398.255846
1004.864623	2395.037069
1005.158964	2396.085629
1005.453270	2393.227295
1005.747540	2394.127141
1006.041775	2393.464229
1006.335974	2395.528581
1006.630138	2394.837943
1006.924266	2394.187634
1007.218359	2394.323746
1007.512416	2396.357851
1007.806438	2393.766698
1008.100425	2394.805176
1008.394376	2394.905999
1008.688292	2393.451626
1008.982172	2391.046996
1009.276017	2396.456154
1009.569827	2392.942469
1009.863602	2397.915568
1010.157341	2393.950700
1010.451045	2394.447254
1010.744714	2394.721997
1011.038347	2396.599827
1011.331945	2395.667213
1011.625508	2398.064282
1011.919036	2393.562531
1012.212528	2393.355844
1012.505986	2394.558159
1012.799408	2397.202244
1013.092795	2393.010525
1013.386147	2394.031359
1013.679464	2393.922974
1013.972745	2394.076729
1014.265992	2394.469939
1014.559204	2394.056564
1014.852380	2394.916081
1015.145521	2395.836092
1015.438628	2394.222922
1015.731699	2394.106976
1016.024736	2395.037069
1016.317737	2395.518499
1016.610703	2394.139743
1016.903635	2392.539177
1017.196531	2391.026831
1017.489393	2394.303581
1017.782219	2389.108672
1018.075011	2395.233674
1018.367768	2391.783004
1018.660490	2392.665206
1018.953177	2392.665206
1019.245829	2392.665206
