Dividing Wavelength (nm)	Counts (n)	Blue Motor Position (mm): 0.000000	Red Motor Position (mm): 26.400000	
326.493990	1987.237970
326.888308	1987.237970
327.282561	1987.237970
327.676750	1963.804166
328.070874	1963.995730
328.464933	1972.127111
328.858929	1980.392083
329.252859	1991.863228
329.646726	2004.461072
330.040528	2023.083094
330.434265	2039.282842
330.827938	2059.555842
331.221547	2080.953020
331.615091	2102.120825
332.008571	2120.856273
332.401986	2142.969294
332.795338	2161.727428
333.188625	2183.913546
333.581847	2198.611030
333.975006	2219.080635
334.368100	2239.537637
334.761129	2254.250245
335.154095	2270.127359
335.546996	2286.735440
335.939833	2314.189564
336.332606	2325.002839
336.725315	2339.682679
337.117960	2346.392455
337.510540	2353.994515
337.903056	2362.642614
338.295508	2368.439941
338.687896	2379.906046
339.080220	2383.434853
339.472480	2390.459701
339.864676	2388.551624
340.256807	2397.456823
340.648875	2397.744168
341.040879	2399.140568
341.432818	2399.579148
341.824694	2403.125600
342.216506	2400.796587
342.608253	2401.141906
342.999937	2401.580487
343.391557	2400.980589
343.783113	2398.152502
344.174605	2396.057903
344.566033	2394.180073
344.957397	2396.067985
345.348697	2390.389125
345.739934	2388.292005
346.131106	2388.624721
346.522215	2387.256048
346.913260	2384.916953
347.304241	2383.311345
347.695159	2383.470141
348.086012	2381.849410
348.476802	2380.846221
348.867528	2377.057794
349.258191	2378.965870
349.648789	2374.900180
350.039324	2375.477392
350.429796	2375.631147
350.820203	2373.952443
351.210548	2373.586959
351.600828	2374.678369
351.991045	2372.646784
352.381198	2372.266177
352.771288	2372.944212
353.161314	2370.078316
353.551276	2373.770961
353.941175	2372.934130
354.331010	2373.309696
354.720782	2372.792977
355.110490	2374.789274
355.500135	2373.160982
355.889717	2376.581405
356.279235	2375.835314
356.668689	2376.382279
357.058080	2373.914634
357.447408	2373.249202
357.836672	2373.017309
358.225873	2375.258102
358.615010	2373.211393
359.004084	2379.089379
359.393095	2382.066180
359.782043	2378.239944
360.170927	2382.131715
360.559748	2382.182127
360.948505	2383.961654
361.337199	2381.975439
361.725830	2384.921994
362.114398	2386.202447
362.502903	2383.659185
362.891344	2385.272354
363.279722	2387.268651
363.668037	2387.530791
364.056289	2391.112531
364.444478	2391.687222
364.832603	2391.036913
365.220665	2388.332334
365.608665	2393.081101
365.996601	2395.006822
366.384474	2392.977758
366.772284	2396.899775
367.160031	2394.963972
367.547715	2398.396998
367.935336	2398.986813
368.322893	2397.020763
368.710388	2398.689385
369.097820	2401.933367
369.485189	2403.007133
369.872495	2404.378327
370.259738	2404.763975
370.646918	2406.155334
371.034035	2410.891498
371.421090	2409.986611
371.808081	2417.079514
372.195010	2420.036151
372.581875	2424.242994
372.968678	2430.609971
373.355418	2437.939809
373.742096	2453.340534
374.128710	2459.268931
374.515262	2473.061527
374.901751	2484.318424
375.288177	2503.782319
375.674540	2522.626152
376.060841	2545.011396
376.447079	2567.439489
376.833254	2594.107193
377.219367	2620.084259
377.605417	2654.134732
377.991404	2681.024247
378.377329	2720.587222
378.763191	2756.208016
379.148991	2803.897331
379.534727	2852.148735
379.920402	2898.930643
380.306013	2950.829322
380.691563	3011.398785
381.077049	3068.328535
381.462474	3123.216618
381.847835	3199.249821
382.233134	3271.451747
382.618371	3333.604133
383.003545	3416.299221
383.388657	3500.123527
383.773706	3592.754729
384.158693	3663.351047
384.543618	3756.720778
384.928480	3837.706915
385.313280	3943.077112
385.698017	4044.270714
386.082692	4166.884179
386.467305	4232.540166
386.851856	4358.145556
387.236344	4516.677241
387.620770	4583.684258
388.005133	4699.139284
388.389435	4850.308364
388.773674	4930.951703
389.157851	5069.681736
389.541965	5201.770049
389.926018	5220.971804
390.310008	5402.612139
390.693936	5526.662332
391.077802	5645.870497
391.461606	5779.514006
391.845348	5899.208642
392.229027	6016.092835
392.612645	6241.235807
392.996200	6359.105546
393.379694	6534.215066
393.763125	6763.658142
394.146494	6855.260949
394.529801	6993.955694
394.913047	7237.428301
395.296230	7233.544092
395.679351	7292.636498
396.062410	7554.171559
396.445408	7446.792462
396.828343	7604.935978
397.211217	7742.267091
397.594028	7625.297199
397.976778	7829.242119
398.359466	7992.061306
398.742092	7963.140206
399.124656	8116.156869
399.507158	8302.306516
399.889598	8325.894075
400.271977	8533.115745
400.654294	8567.899707
401.036549	8765.621322
401.418742	8797.189028
401.800874	9099.108773
402.182944	9184.364766
402.564952	9548.908245
402.946898	9366.153815
403.328783	9421.667001
403.710606	9621.682342
404.092367	9877.992247
404.474067	10243.985058
404.855705	10030.068736
405.237282	9985.653650
405.618797	10411.822713
406.000250	10661.271609
406.381642	11031.496468
406.762972	10982.506535
407.144240	10781.682089
407.525447	11029.719461
407.906593	10973.808024
408.287677	11228.078782
408.668700	11382.930426
409.049661	11350.389778
409.430560	11523.525686
409.811399	11491.670635
410.192176	11650.950932
410.572891	11731.838766
410.953545	12206.768390
411.334138	11685.470233
411.714669	12289.319805
412.095139	11593.363311
412.475547	12102.862648
412.855894	11946.949842
413.236180	12268.759459
413.616405	11956.011316
413.996568	12236.697721
414.376670	12211.393649
414.756711	12083.812127
415.136691	12359.578366
415.516609	12549.657592
415.896466	12616.155453
416.276262	12906.828384
416.655997	13349.829860
417.035670	13392.840985
417.415283	14033.894273
417.794834	14125.781904
418.174324	13869.310682
418.553753	13773.811063
418.933121	14256.274692
419.312428	14074.523452
419.691674	13978.491992
420.070859	14427.131999
420.449983	14096.565897
420.829045	14642.661490
421.208047	14379.624165
421.586988	14840.720863
421.965867	15097.819709
422.344686	15092.869296
422.723444	15660.941800
423.102141	14342.659904
423.480777	15538.013263
423.859352	15044.227203
424.237866	16143.778474
424.616319	15855.928589
424.994712	16502.020510
425.373044	16293.503264
425.751314	16963.543186
426.129524	16099.013028
426.507673	17192.799740
426.885762	16890.149027
427.263789	17073.715083
427.641756	17245.583141
428.019662	17310.006567
428.397508	17349.506527
428.775292	17647.907547
429.153016	17606.232328
429.530679	17690.094443
429.908282	17709.044140
430.285824	17431.763035
430.663305	18145.429102
431.040726	17741.579747
431.418086	17563.354794
431.795385	18219.299650
432.172624	18631.948340
432.549802	18187.605916
432.926920	18368.164923
433.303977	18254.202079
433.680974	18522.441875
434.057910	18805.048960
434.434786	18828.651642
434.811601	18736.254854
435.188355	19780.998700
435.565050	19429.862170
435.941683	19382.064470
436.318257	20262.519633
436.694770	20065.970086
437.071222	20665.741365
437.447614	19719.388239
437.823946	19768.675600
438.200218	19905.956301
438.576429	19683.709472
438.952580	19951.558579
439.328670	19911.640202
439.704700	20334.212403
440.080670	19900.083357
440.456580	20489.789972
440.832429	20667.717497
441.208218	19661.528395
441.583947	20099.748338
441.959616	20203.661642
442.335224	20433.019018
442.710773	20570.478681
443.086261	21095.945873
443.461689	20465.695777
443.837057	20581.959909
444.212365	21222.650233
444.587612	21215.665715
444.962800	20784.702513
445.337927	21212.855271
445.712995	19947.147569
446.088002	21805.110190
446.462949	21978.021767
446.837837	22148.811018
447.212664	22102.223195
447.587431	24940.299549
447.962139	27855.649229
448.336786	30223.012884
448.711374	28635.684608
449.085901	24960.953156
449.460369	24893.870522
449.834776	24800.709999
450.209124	27267.260876
450.583412	26782.518646
450.957640	27305.341752
451.331808	25946.385307
451.705917	24563.969852
452.079965	24578.778242
452.453954	24917.475725
452.827883	24777.636638
453.201752	24565.000768
453.575562	24695.387692
453.949311	25778.572857
454.323001	25816.578116
454.696632	25547.186416
455.070202	27029.436882
455.443713	27132.036965
455.817164	27660.750660
456.190556	28130.636610
456.563888	27541.502166
456.937160	27909.715604
457.310373	26248.940237
457.683526	26621.393286
458.056619	26548.856124
458.429653	26418.323007
458.802628	26915.658039
459.175542	26949.287577
459.548398	28124.473799
459.921194	29533.637616
460.293930	30093.369531
460.666607	31900.688720
461.039224	33451.481233
461.411782	33691.109961
461.784280	32465.066057
462.156719	31900.658473
462.529099	31241.613307
462.901419	29947.438209
463.273680	28835.422685
463.645882	28789.591035
464.018024	28649.013419
464.390106	29292.930082
464.762130	31592.318818
465.134094	35091.429073
465.505999	39723.848686
465.877845	43751.365126
466.249631	44628.533457
466.621358	42803.066114
466.993026	40662.261995
467.364634	38574.332019
467.736184	36606.663808
468.107674	35301.367925
468.479105	34414.510497
468.850477	33606.708442
469.221790	32171.015553
469.593043	30503.023775
469.964238	29565.283460
470.335373	29297.394024
470.706449	30503.316162
471.077467	32379.220248
471.448425	35915.098159
471.819324	38070.516583
472.190164	36294.795346
472.560945	33142.639984
472.931667	30425.498390
473.302330	29299.002152
473.672934	28430.706252
474.043479	28577.948273
474.413965	27739.309481
474.784393	27209.607720
475.154761	27672.148709
475.525070	27457.897150
475.895321	26874.237399
476.265513	27075.916320
476.635645	27537.093677
477.005719	27154.568402
477.375734	27248.916117
477.745691	27473.577659
478.115588	28155.965887
478.485427	29284.206365
478.855207	31332.076813
479.224928	32872.940774
479.594591	33729.972216
479.964194	32669.005936
480.333739	32415.385486
480.703226	32078.848138
481.072653	32164.192352
481.442022	32158.546259
481.811333	31982.564620
482.180584	30760.281417
482.549777	30061.872402
482.918912	29353.907879
483.287988	28835.218518
483.657005	27961.868862
484.025964	27226.961892
484.394864	26893.829843
484.763706	26308.677910
485.132489	25476.108668
485.501213	25048.785179
485.869879	24796.233454
486.238487	24256.275466
486.607036	24042.467528
486.975527	23421.820831
487.343959	23208.995919
487.712333	22935.609104
488.080648	22566.049678
488.448905	22468.856232
488.817104	22057.724930
489.185244	22193.117719
489.553326	22676.166122
489.921350	23667.251927
490.289315	24809.111082
490.657222	24772.040957
491.025070	24560.241919
491.392861	23706.366239
491.760593	22711.053427
492.128267	21562.454249
492.495883	20535.387209
492.863440	19613.803792
493.230939	18758.083050
493.598380	18007.014141
493.965763	17560.604845
494.333088	16972.254300
494.700354	16504.588978
495.067563	16132.224149
495.434713	15809.950746
495.801805	15559.554114
496.168839	15168.484083
496.535815	14803.542354
496.902733	14553.591864
497.269593	14166.895034
497.636395	13897.702460
498.003139	13765.573818
498.369825	13365.341491
498.736453	13211.745095
499.103023	12825.179335
499.469535	12542.458825
499.835989	12328.310609
500.202385	12019.592868
500.568723	11800.285032
500.935003	11619.239553
501.301226	11353.260715
501.667390	11275.984867
502.033497	11119.951074
502.399546	10772.875193
502.765537	10424.168499
503.131470	10290.744280
503.497345	10160.208643
503.863163	9703.268376
504.228923	9617.218400
504.594625	9503.555504
504.960269	9180.697327
505.325856	9115.089230
505.691385	8824.277668
506.056856	8665.067947
506.422270	8558.245897
506.787625	8314.669946
507.152924	8168.854571
507.518164	8019.971654
507.883347	7735.930361
508.248472	7606.173582
508.613540	7512.161103
508.978550	7388.902371
509.343503	7201.436983
509.708398	7078.188333
510.073236	6992.541650
510.438016	6851.364137
510.802738	6642.499051
511.167403	6569.543472
511.532010	6461.599765
511.896561	6358.467840
512.261053	6307.559748
512.625488	6134.527183
512.989866	5990.866902
513.354186	5861.682293
513.718449	5738.806689
514.082655	5685.604872
514.446803	5546.955497
514.810894	5480.513089
515.174927	5370.888158
515.538904	5254.470271
515.902822	5203.932704
516.266684	5075.380760
516.630488	5004.902909
516.994235	4905.723248
517.357925	4854.598386
517.721558	4782.482160
518.085133	4718.272983
518.448651	4646.779340
518.812112	4559.494281
519.175516	4490.004496
519.538863	4434.176238
519.902152	4363.479096
520.265385	4318.877488
520.628560	4260.629476
520.991678	4193.256975
521.354739	4141.043224
521.717743	4101.165177
522.080690	4043.504459
522.443580	4011.662011
522.806413	3963.405565
523.169189	3916.792536
523.531908	3879.054459
523.894569	3832.902695
524.257174	3798.348106
524.619722	3766.099845
524.982213	3729.480903
525.344647	3691.455480
525.707025	3660.906088
526.069345	3638.195690
526.431608	3607.048921
526.793815	3584.353646
527.155964	3545.589693
527.518057	3524.989018
527.880093	3494.779904
528.242072	3481.138542
528.603995	3454.067545
528.965860	3430.628701
529.327669	3411.996596
529.689421	3390.450704
530.051117	3374.770195
530.412755	3356.894264
530.774337	3340.747448
531.135862	3322.611897
531.497331	3309.371307
531.858743	3289.022689
532.220098	3284.984725
532.581396	3263.282557
532.942638	3246.082141
533.303824	3240.403281
533.664953	3227.059347
534.026025	3215.278170
534.387040	3208.943960
534.747999	3196.557845
535.108902	3193.651620
535.469748	3172.483815
535.830537	3165.055675
536.191270	3163.621467
536.551947	3147.285607
536.912567	3143.141779
537.273131	3139.643218
537.633638	3121.469859
537.994089	3120.607821
538.354483	3106.028804
538.714821	3107.853702
539.075103	3108.846809
539.435328	3097.567228
539.795497	3087.376535
540.155609	3080.689445
540.515665	3081.443097
540.875665	3071.050758
541.235609	3064.933318
541.595496	3061.878379
541.955328	3064.182186
542.315102	3047.959753
542.674821	3042.827859
543.034483	3039.588917
543.394090	3031.137423
543.753640	3028.372350
544.113134	3035.117414
544.472571	3020.223325
544.831953	3026.733975
545.191278	3017.128056
545.550548	3004.583145
545.909761	3008.177488
546.268918	3006.720594
546.628019	3006.680265
546.987064	2999.869666
547.346053	2987.440701
547.704986	2992.983450
548.063863	2985.525063
548.422684	2984.471462
548.781449	2978.028867
549.140158	2977.081130
549.498811	2973.519555
549.857408	2962.481949
550.215949	2967.263483
550.574434	2963.820375
550.932864	2956.775363
551.291237	2960.160497
551.649555	2956.170424
552.007817	2956.046916
552.366022	2951.172120
552.724173	2949.296811
553.082267	2948.956533
553.440305	2953.347378
553.798288	2938.997733
554.156215	2941.304061
554.514086	2946.095678
554.871902	2937.717280
555.229661	2938.168464
555.587365	2931.012546
555.945014	2929.038934
556.302606	2926.687236
556.660143	2927.309818
557.017625	2923.970054
557.375050	2922.112389
557.732421	2922.039292
558.089735	2922.238418
558.446994	2920.849580
558.804197	2918.021492
559.161345	2917.189702
559.518437	2906.525141
559.875474	2909.454051
560.232455	2908.352559
560.589381	2908.385327
560.946251	2905.960532
561.303065	2907.876170
561.659825	2904.838875
562.016528	2901.688154
562.373177	2895.842936
562.729770	2897.105745
563.086307	2890.506875
563.442789	2893.813872
563.799216	2894.179355
564.155587	2887.535114
564.511904	2885.659805
564.868164	2884.782644
565.224370	2888.402193
565.580520	2882.781306
565.936615	2884.122253
566.292654	2876.283259
566.648638	2879.018085
567.004567	2877.447766
567.360441	2875.622868
567.716260	2874.402909
568.072023	2872.978783
568.427732	2869.485263
568.783385	2864.544932
569.138982	2865.384284
569.494525	2863.569469
569.850013	2858.755167
570.205445	2862.558718
570.560823	2856.842049
570.916145	2855.072604
571.271412	2852.796523
571.626625	2851.838704
571.981782	2847.946933
572.336884	2844.574401
572.691931	2841.910152
573.046923	2837.998216
573.401860	2833.924964
573.756743	2832.649552
574.111570	2835.281034
574.466342	2828.830878
574.821059	2828.914057
575.175722	2823.197388
575.530330	2820.180258
575.884882	2817.291677
576.239380	2812.825214
576.593823	2810.954946
576.948211	2808.580563
577.302544	2803.483956
577.656823	2802.213586
578.011047	2801.800211
578.365216	2796.658234
578.719330	2791.480969
579.073389	2790.301339
579.427394	2789.817388
579.781344	2786.596091
580.135239	2782.066614
580.489080	2777.925306
580.842866	2774.305758
581.196597	2776.589401
581.550273	2771.555808
581.903895	2765.864346
582.257463	2768.463061
582.610975	2761.654982
582.964434	2761.806217
583.317837	2755.933273
583.671186	2753.344640
584.024481	2752.351533
584.377721	2748.048908
584.730906	2744.807446
585.084037	2744.857858
585.437113	2739.050448
585.790135	2736.812176
586.143103	2733.626167
586.496016	2734.281517
586.848874	2726.876062
587.201679	2725.182234
587.554428	2719.268961
587.907124	2719.321893
588.259765	2716.491285
588.612352	2716.602190
588.964884	2711.765203
589.317362	2710.509956
589.669786	2710.610779
590.022155	2704.926878
590.374470	2704.861343
590.726731	2701.755992
591.078937	2697.418079
591.431090	2694.302646
591.783188	2691.535053
592.135232	2689.778211
592.487222	2689.508509
592.839157	2688.505319
593.191038	2683.920390
593.542866	2681.470389
593.894639	2675.753721
594.246358	2675.637774
594.598022	2670.939419
594.949633	2670.984789
595.301190	2668.151661
595.652692	2665.058913
596.004141	2665.797442
596.355535	2660.388284
596.706876	2657.640855
597.058162	2656.665392
597.409395	2656.937614
597.760573	2654.341420
598.111698	2654.341420
598.462768	2651.689773
598.813785	2652.440905
599.164748	2646.724236
599.515657	2650.318579
599.866511	2644.077631
600.217312	2646.575522
600.568060	2643.056797
600.918753	2643.928917
601.269392	2640.664769
601.619978	2638.663431
601.970510	2637.471198
602.320988	2637.325005
602.671412	2639.588483
603.021783	2633.735703
603.372100	2634.428862
603.722363	2634.018008
604.072572	2631.905765
604.422728	2632.856022
604.772830	2627.053654
605.122878	2627.174642
605.472872	2628.308901
605.822813	2624.162552
606.172701	2625.574075
606.522534	2627.676237
606.872314	2629.238994
607.222041	2627.076339
607.571714	2629.697739
607.921333	2623.590381
608.270899	2627.104066
608.620411	2626.095835
608.969870	2625.112810
609.319276	2624.235649
609.668627	2622.176338
610.017926	2625.001904
610.367171	2625.395114
610.716362	2625.695063
611.065500	2623.111472
611.414585	2625.624487
611.763616	2623.497120
612.112594	2624.061729
612.461518	2623.832357
612.810389	2624.089456
613.159207	2624.767491
613.507971	2623.388735
613.856682	2625.435444
614.205340	2624.654065
614.553945	2627.782101
614.902496	2623.577778
615.250994	2624.142388
615.599439	2625.324538
615.947830	2625.425361
616.296169	2623.297994
616.644454	2626.536936
616.992686	2625.246400
617.340864	2624.013838
617.688990	2624.979219
618.037063	2626.365537
618.385082	2625.266565
618.733048	2628.094652
619.080961	2629.175980
619.428821	2627.066257
619.776628	2626.620115
620.124382	2624.674229
620.472083	2623.968468
620.819731	2626.063067
621.167326	2623.355968
621.514868	2623.386215
621.862357	2619.915380
622.209793	2617.782972
622.557176	2616.754577
622.904506	2613.210646
623.251783	2609.555809
623.599007	2609.485233
623.946179	2607.393154
624.293297	2606.793257
624.640363	2606.006837
624.987376	2607.158740
625.334336	2606.498349
625.681243	2605.848040
626.028097	2603.637494
626.374899	2601.598348
626.721647	2602.014243
627.068343	2601.552977
627.414987	2598.651793
627.761577	2599.476022
628.108115	2598.394694
628.454600	2596.332862
628.801032	2596.237081
629.147412	2596.867225
629.493739	2594.528129
629.840014	2592.113417
630.186236	2596.075764
630.532405	2593.633325
630.878521	2592.685588
631.224585	2592.504106
631.570597	2590.714497
631.916556	2592.615012
632.262462	2591.243818
632.608316	2590.439754
632.954117	2586.028744
633.299866	2591.785742
633.645562	2587.601584
633.991206	2585.905236
634.336797	2583.200657
634.682336	2584.052612
635.027823	2581.421129
635.373257	2579.752507
635.718639	2579.848289
636.063968	2577.194122
636.409245	2578.159503
636.754470	2578.091447
637.099642	2573.055335
637.444762	2572.647001
637.789829	2571.910993
638.134845	2571.666497
638.479808	2570.607854
638.824719	2569.332443
639.169577	2566.930333
639.514383	2565.906978
639.859137	2563.613253
640.203839	2568.112483
640.548489	2563.620815
640.893086	2561.463201
641.237632	2558.864487
641.582125	2561.095197
641.926566	2557.392470
642.270955	2562.292471
642.615292	2564.382029
642.959576	2562.393294
643.303809	2561.884138
643.647990	2563.363716
643.992118	2564.077040
644.336195	2561.034703
644.680219	2561.833726
645.024192	2563.167111
645.368112	2562.937739
645.711981	2560.676781
646.055797	2567.401681
646.399562	2566.746331
646.743274	2569.065261
647.086935	2569.644994
647.430544	2570.885118
647.774101	2570.668348
648.117606	2570.708678
648.461059	2573.561971
648.804460	2572.498287
649.147810	2570.388564
649.491108	2567.341187
649.834354	2567.847823
650.177548	2562.443706
650.520690	2558.430947
650.863781	2556.883313
651.206820	2561.511092
651.549807	2557.861297
651.892742	2558.715772
652.235626	2553.452808
652.578458	2555.101265
652.921238	2547.544576
653.263967	2553.205791
653.606644	2550.153373
653.949269	2550.266799
654.291843	2551.050698
654.634365	2549.558517
654.976836	2550.733105
655.319255	2546.216232
655.661622	2548.807385
656.003938	2551.504402
656.346203	2550.213867
656.688416	2547.080789
657.030577	2545.414688
657.372687	2544.010727
657.714746	2546.196067
658.056753	2542.276570
658.398708	2540.479398
658.740612	2543.756148
659.082465	2539.551826
659.424266	2542.826056
659.766016	2542.342105
660.107715	2541.535520
660.449362	2547.108516
660.790958	2543.650284
661.132503	2545.235727
661.473996	2544.829914
661.815438	2540.723894
662.156829	2546.039791
662.498168	2542.992414
662.839456	2540.968390
663.180693	2545.253371
663.521879	2544.845038
663.863013	2542.541230
664.204097	2543.173895
664.545129	2546.135573
664.886110	2545.462579
665.227040	2548.078938
665.567918	2545.260933
665.908746	2547.877292
666.249522	2548.252858
666.590248	2545.840666
666.930922	2548.416695
667.271545	2545.996941
667.612118	2546.838814
667.952639	2544.771941
668.293109	2544.172044
668.633528	2544.477033
668.973896	2544.814791
669.314213	2544.983669
669.654480	2544.847558
669.994695	2541.525438
670.334859	2545.875954
670.674973	2544.996272
671.015035	2546.047353
671.355047	2544.552651
671.695008	2544.035932
672.034918	2544.532486
672.374777	2541.101981
672.714585	2542.707588
673.054342	2543.209183
673.394049	2539.778678
673.733705	2544.958464
674.073310	2544.461910
674.412864	2540.514687
674.752368	2540.244985
675.091820	2542.168185
675.431223	2540.565098
675.770574	2539.481250
676.109875	2534.563604
676.449125	2534.054448
676.788324	2533.678882
677.127473	2534.009077
677.466571	2531.342307
677.805619	2532.227030
678.144616	2532.456402
678.483562	2532.282482
678.822458	2530.767616
679.161303	2530.127389
679.500098	2530.686957
679.838842	2531.886752
680.177535	2532.668131
680.516179	2532.496731
680.854771	2534.603934
681.193314	2535.677699
681.531805	2539.660211
681.870247	2542.848741
682.208638	2543.614996
682.546978	2545.737322
682.885268	2547.476520
683.223508	2544.671118
683.561697	2541.323792
683.899836	2539.287166
684.237925	2539.677855
684.575963	2540.474357
684.913951	2538.220962
685.251889	2541.976621
685.589776	2537.676517
685.927614	2540.330684
686.265401	2538.440252
686.603137	2542.581560
686.940824	2540.013092
687.278460	2543.151210
687.616046	2541.159954
687.953582	2546.730429
688.291068	2543.806560
688.628504	2547.163968
688.965889	2546.054915
689.303224	2544.640871
689.640510	2542.614327
689.977745	2541.354039
690.314930	2538.316743
690.652065	2536.201979
690.989150	2532.234591
691.326185	2528.615043
691.663170	2524.420803
692.000105	2524.113293
692.336990	2524.229239
692.673825	2519.094824
693.010610	2520.546676
693.347345	2512.740449
693.684030	2510.386231
694.020665	2510.741632
694.357251	2506.451610
694.693786	2511.026457
695.030272	2509.234327
695.366707	2508.193329
695.703093	2506.265087
696.039429	2508.407578
696.375716	2506.149141
696.711952	2506.025633
697.048139	2505.370283
697.384276	2504.195694
697.720363	2504.548574
698.056400	2504.288955
698.392388	2504.223420
698.728326	2501.090343
699.064214	2502.953049
699.400053	2502.484222
699.735842	2499.368789
700.071581	2498.489108
700.407270	2499.023470
700.742910	2497.049858
701.078501	2496.886021
701.414042	2493.929384
701.749533	2490.650113
702.084974	2494.191524
702.420366	2491.907881
702.755709	2489.273878
703.091002	2488.442088
703.426246	2489.165493
703.761440	2488.386635
704.096584	2489.132726
704.431679	2489.495689
704.766725	2491.406286
705.101721	2485.666933
705.436668	2491.018117
705.771565	2488.618528
706.106413	2488.671460
706.441212	2487.149032
706.775961	2489.195740
707.110661	2490.186327
707.445311	2492.399394
707.779913	2491.396204
708.114465	2492.477532
708.448967	2493.949548
708.783421	2496.361741
709.117825	2496.321411
709.452180	2499.315857
709.786485	2497.624550
710.120742	2500.361896
710.454949	2501.765858
710.789107	2502.771568
711.123216	2503.870539
711.457275	2505.836589
711.791286	2504.891373
712.125247	2509.395644
712.459159	2509.307424
712.793023	2511.628875
713.126837	2506.880108
713.460602	2509.173833
713.794318	2509.115860
714.127985	2502.199397
714.461602	2501.927174
714.795171	2500.737462
715.128691	2497.254025
715.462162	2497.450630
715.795584	2496.336535
716.128957	2494.181442
716.462281	2490.196409
716.795556	2489.485607
717.128782	2493.780670
717.461960	2486.627273
717.795088	2488.857983
718.128167	2485.999649
718.461198	2483.489154
718.794180	2483.365646
719.127113	2478.112764
719.459997	2481.563433
719.792833	2478.178299
720.125619	2480.411530
720.458357	2479.178968
720.791046	2477.769965
721.123686	2478.258957
721.456278	2475.788792
721.788821	2476.313072
722.121315	2477.656539
722.453761	2473.946250
722.786158	2476.582773
723.118506	2473.648822
723.450805	2477.049080
723.783056	2476.940695
724.115259	2479.088227
724.447412	2472.693523
724.779518	2475.221662
725.111574	2477.180150
725.443582	2477.558237
725.775542	2480.053608
726.107453	2481.505460
726.439315	2478.611838
726.771129	2485.490492
727.102895	2481.820532
727.434612	2484.109216
727.766281	2482.314565
728.097901	2482.470841
728.429473	2481.744915
728.760996	2483.597539
729.092471	2480.419092
729.423897	2485.210708
729.755276	2482.075111
730.086606	2485.341778
730.417887	2487.345637
730.749120	2489.067191
731.080305	2489.891420
731.411442	2492.376708
731.742530	2494.579693
732.073570	2493.848725
732.404562	2495.484580
732.735506	2494.166318
733.066401	2492.656492
733.397249	2488.258086
733.728048	2488.802530
734.058798	2484.676346
734.389501	2484.242807
734.720156	2482.402786
735.050762	2476.613020
735.381320	2476.325675
735.711831	2475.756024
736.042293	2474.614203
736.372707	2472.655715
736.703073	2470.964408
737.033391	2474.304172
737.363661	2473.777371
737.693883	2476.353401
738.024056	2480.827425
738.354182	2474.367186
738.684260	2478.155613
739.014290	2476.998669
739.344272	2481.386993
739.674207	2480.154431
740.004093	2482.712817
740.333931	2479.146200
740.663722	2481.434884
740.993464	2481.124853
741.323159	2481.124853
741.652806	2477.452372
741.982405	2482.296921
742.311956	2477.094451
742.641460	2478.662249
742.970915	2473.822742
743.300323	2474.528503
743.629683	2473.724439
743.958996	2474.024388
744.288260	2469.300827
744.617477	2468.544654
744.946647	2464.438634
745.275768	2468.320322
745.604842	2463.092646
745.933869	2464.965434
746.262847	2462.853191
746.591778	2464.153809
746.920662	2465.867801
747.249498	2466.301340
747.578286	2463.780763
747.907027	2466.848305
748.235720	2467.110445
748.564365	2469.653708
748.892963	2466.581124
749.221514	2466.664303
749.550017	2467.052472
749.878473	2468.663121
750.206881	2464.887297
750.535242	2466.026597
750.863555	2461.648355
751.191821	2467.075157
751.520039	2461.978551
751.848210	2464.547019
752.176334	2463.851339
752.504411	2465.777060
752.832440	2462.515434
753.160421	2466.134982
753.488356	2465.419138
753.816243	2463.100207
754.144082	2462.245732
754.471875	2462.689353
754.799620	2463.052317
755.127318	2463.241360
755.454969	2463.261524
755.782572	2462.754888
756.110129	2462.134827
756.437638	2461.068622
756.765100	2461.202213
757.092515	2459.427727
757.419882	2461.744137
757.747203	2461.905454
758.074477	2463.170784
758.401703	2462.891000
758.728882	2465.482153
759.056014	2462.381843
759.383099	2465.434262
759.710138	2465.262863
760.037129	2465.371247
760.364073	2465.653552
760.690970	2466.868470
761.017820	2465.119190
761.344623	2466.598768
761.671379	2469.583131
761.998088	2468.499283
762.324751	2479.776344
762.651366	2488.719351
762.977935	2513.478978
763.304456	2523.110103
763.630931	2531.133099
763.957359	2524.201513
764.283740	2514.870337
764.610074	2506.088647
764.936362	2492.101966
765.262602	2485.195585
765.588796	2476.751652
765.914943	2471.302165
766.241044	2465.454426
766.567097	2464.486525
766.893104	2459.031996
767.219064	2457.118878
767.544978	2457.328086
767.870845	2453.118723
768.196665	2454.497478
768.522438	2450.225101
768.848165	2451.994546
769.173846	2450.794751
769.499479	2449.088320
769.825066	2450.726695
770.150607	2448.818619
770.476101	2446.315686
770.801548	2444.962136
771.126949	2446.149328
771.452303	2443.979111
771.777611	2443.356528
772.102872	2445.763679
772.428087	2443.474996
772.753256	2444.654626
773.078378	2442.686055
773.403453	2444.299224
773.728482	2442.756631
774.053465	2443.003648
774.378401	2438.937957
774.703291	2438.481733
775.028135	2437.680189
775.352932	2440.886363
775.677683	2438.577515
776.002388	2439.560540
776.327046	2438.413677
776.651658	2437.934767
776.976224	2438.665735
777.300743	2440.281425
777.625216	2435.567946
777.949643	2435.288162
778.274024	2437.642381
778.598359	2433.715322
778.922647	2434.083326
779.246889	2434.375713
779.571086	2433.566608
779.895236	2436.997113
780.219339	2435.525096
780.543397	2437.768409
780.867409	2434.763882
781.191374	2437.448296
781.515294	2434.108532
781.839167	2439.474840
782.162995	2435.235230
782.486776	2437.259253
782.810511	2434.761361
783.134201	2439.802515
783.457844	2436.321598
783.781441	2435.787236
784.104993	2435.313367
784.428498	2434.738676
784.751958	2436.024170
785.075372	2435.386464
785.398739	2434.194231
785.722061	2434.688264
786.045337	2438.728749
786.368568	2437.201280
786.691752	2434.789088
787.014891	2438.083482
787.337983	2437.765889
787.661030	2440.687237
787.984031	2444.707558
788.306987	2446.827363
788.629897	2446.078752
788.952760	2448.687549
789.275579	2448.780810
789.598351	2444.147990
789.921078	2442.423915
790.243759	2440.795622
790.566395	2441.995417
790.888984	2438.574994
791.211529	2437.486105
791.534027	2435.925868
791.856480	2434.937802
792.178888	2438.902669
792.501249	2434.519386
792.823566	2431.681216
793.145836	2434.448810
793.468062	2435.464602
793.790241	2434.141299
794.112375	2437.513831
794.434464	2435.356217
794.756507	2435.492328
795.078505	2436.162802
795.400457	2437.602051
795.722364	2435.560384
796.044226	2437.355035
796.366042	2437.370158
796.687812	2439.963832
797.009538	2438.927875
797.331218	2443.104471
797.652852	2439.852927
797.974442	2439.316044
798.295986	2440.157916
798.617484	2437.670107
798.938938	2437.365117
799.260346	2438.668255
799.581709	2435.245312
799.903026	2437.886877
800.224299	2435.883018
800.545526	2432.520568
800.866708	2435.225147
801.187845	2433.717842
801.508936	2434.290013
801.829983	2435.562905
802.150984	2429.997471
802.471940	2434.668100
802.792851	2432.192893
803.113717	2432.812955
803.434538	2432.810435
803.755314	2433.165836
804.076045	2432.568459
804.396731	2432.097111
804.717372	2431.676175
805.037967	2432.074426
805.358518	2429.127872
805.679024	2430.743562
805.999485	2432.240784
806.319901	2435.257915
806.640272	2432.659200
806.960598	2433.992585
807.280879	2436.185487
807.601115	2433.186001
807.921306	2431.908068
808.241453	2433.695157
808.561554	2431.227512
808.881611	2434.973090
809.201623	2433.904365
809.521590	2433.496032
809.841513	2432.389498
810.161390	2434.516865
810.481223	2431.340938
810.801011	2429.700043
811.120755	2430.675506
811.440453	2433.871597
811.760107	2431.436720
812.079716	2428.767429
812.399281	2427.915474
812.718801	2426.902202
813.038276	2423.721234
813.357707	2430.451175
813.677093	2428.848088
813.996434	2433.997626
814.315731	2429.700043
814.634983	2429.969744
814.954191	2430.902358
815.273354	2430.360434
815.592473	2431.260280
815.911547	2435.411670
816.230577	2433.488470
816.549562	2433.213727
816.868502	2434.627771
817.187399	2437.849068
817.506250	2437.501228
817.825058	2436.639191
818.143821	2435.527617
818.462539	2439.550457
818.781213	2441.866868
819.099843	2446.776951
819.418429	2452.488579
819.736970	2457.040741
820.055466	2461.761781
820.373919	2473.845427
820.692327	2486.720534
821.010691	2513.920079
821.329011	2570.449058
821.647286	2653.000473
821.965517	2745.407343
822.283704	2798.702422
822.601847	2813.977118
822.919945	2778.525204
823.237999	2732.706156
823.556010	2688.969106
823.873976	2649.592653
824.191897	2611.841972
824.509775	2577.514235
824.827609	2554.201419
825.145398	2538.319264
825.463144	2528.604961
825.780845	2530.260980
826.098502	2543.950233
826.416116	2563.646021
826.733685	2587.094948
827.051210	2591.090062
827.368692	2582.918352
827.686129	2559.446740
828.003522	2530.823068
828.320872	2506.703668
828.638177	2492.802686
828.955439	2480.058649
829.272656	2469.943574
829.589830	2457.842284
829.906960	2457.282716
830.224046	2453.179217
830.541088	2445.773762
830.858086	2445.372990
831.175041	2441.297217
831.491952	2440.775458
831.808819	2442.048349
832.125642	2447.109668
832.442421	2451.770214
832.759157	2464.287399
833.075849	2477.964050
833.392497	2497.342245
833.709101	2510.650891
834.025662	2509.930006
834.342179	2499.761999
834.658653	2483.965543
834.975083	2472.645632
835.291469	2467.506176
835.607811	2457.592747
835.924110	2452.728033
836.240366	2447.323917
836.556578	2440.901487
836.872746	2437.821342
837.188871	2431.053592
837.504952	2429.659713
837.820990	2429.022007
838.136984	2431.903027
838.452935	2427.076122
838.768842	2428.674168
839.084706	2432.170208
839.400526	2440.170519
839.716303	2446.242589
840.032037	2453.406069
840.347727	2454.351285
840.663373	2447.969184
840.978977	2441.299738
841.294537	2438.038111
841.610054	2433.443099
841.925527	2431.298088
842.240957	2427.227357
842.556344	2426.496389
842.871687	2425.596543
843.186987	2421.818199
843.502244	2421.296439
843.817458	2416.784607
844.132629	2417.583629
844.447756	2419.824422
844.762840	2414.024575
845.077881	2414.281674
845.392879	2412.204718
845.707833	2414.178330
846.022745	2411.506518
846.337613	2418.042374
846.652438	2414.884092
846.967221	2412.885274
847.281960	2416.487178
847.596656	2414.664801
847.911309	2414.402661
848.225919	2415.015162
848.540485	2415.718402
848.855009	2413.800243
849.169490	2414.705131
849.483928	2413.608680
849.798323	2416.532549
850.112675	2412.918042
850.426984	2411.670356
850.741251	2417.152611
851.055474	2414.959709
851.369654	2413.230593
851.683792	2415.491551
851.997887	2415.741088
852.311938	2414.150604
852.625947	2416.041036
852.939914	2415.012641
853.253837	2415.428536
853.567718	2411.869482
853.881555	2413.470048
854.195350	2416.020872
854.509103	2416.131777
854.822812	2414.354770
855.136479	2414.531211
855.450103	2409.696744
855.763685	2413.243196
856.077224	2412.532393
856.390720	2412.708834
856.704173	2415.705800
857.017584	2415.788979
857.330953	2414.523649
857.644278	2414.949627
857.957561	2420.852818
858.270802	2415.204205
858.584000	2414.090110
858.897155	2416.290573
859.210268	2415.688156
859.523339	2414.783268
859.836367	2415.209246
860.149352	2414.251427
860.462295	2417.195461
860.775195	2409.913514
861.088054	2410.732701
861.400869	2413.691859
861.713642	2409.361507
862.026373	2414.306879
862.339062	2414.004410
862.651708	2415.012641
862.964312	2413.908628
863.276873	2415.325192
863.589392	2416.595563
863.901869	2413.865778
864.214303	2412.398803
864.526696	2416.991294
864.839045	2415.299987
865.151353	2415.836870
865.463619	2417.523136
865.775842	2418.428023
866.088023	2415.604977
866.400162	2417.760070
866.712258	2413.162537
867.024313	2415.262178
867.336325	2413.686818
867.648296	2416.086407
867.960224	2414.616910
868.272110	2416.829977
868.583954	2415.995666
868.895755	2417.313928
869.207515	2418.120512
869.519233	2418.604463
869.830909	2418.488517
870.142542	2420.041192
870.454134	2416.900553
870.765684	2421.934145
871.077191	2417.881057
871.388657	2419.968095
871.700081	2417.432395
872.011463	2419.320307
872.322803	2418.748136
872.634101	2421.707293
872.945357	2419.753846
873.256571	2420.429361
873.567744	2418.672519
873.878874	2423.575041
874.189963	2421.321645
874.501010	2420.600760
874.812015	2421.976995
875.122979	2422.503796
875.433900	2420.338620
875.744780	2421.543456
876.055618	2421.417427
876.366415	2423.154104
876.677169	2417.636562
876.987882	2421.513209
877.298554	2419.017838
877.609183	2423.552356
877.919771	2421.762746
878.230317	2423.638055
878.540822	2430.471339
878.851285	2430.877152
879.161707	2434.660538
879.472087	2442.776796
879.782425	2453.479165
880.092722	2475.788792
880.402977	2503.628564
880.713191	2541.366642
881.023363	2578.227558
881.333494	2598.072061
881.643583	2602.833430
881.953631	2604.156733
882.263637	2591.722727
882.573602	2578.645974
882.883526	2560.359189
883.193408	2549.384597
883.503248	2534.077133
883.813048	2519.987108
884.122806	2505.617299
884.432522	2494.567090
884.742197	2481.732312
885.051831	2472.829634
885.361424	2463.095166
885.670975	2456.922273
885.980485	2450.487241
886.289954	2444.440377
886.599382	2442.703699
886.908768	2436.946701
887.218113	2437.685230
887.527417	2435.094077
887.836680	2428.850608
888.145901	2427.630649
888.455082	2426.942532
888.764221	2426.042686
889.073319	2424.469846
889.382376	2425.712490
889.691392	2425.268868
890.000366	2423.653179
890.309300	2425.178128
890.618193	2423.133940
890.927044	2423.186872
891.235855	2423.789290
891.544625	2422.231573
891.853353	2421.861048
892.162041	2428.026380
892.470687	2428.250711
892.779293	2428.379260
893.087858	2430.231884
893.396381	2433.876639
893.704864	2442.943154
894.013306	2450.968671
894.321707	2467.455764
894.630068	2471.420632
894.938387	2473.076651
895.246665	2470.755200
895.554903	2469.217648
895.863100	2462.694395
896.171256	2457.134002
896.479371	2451.762653
896.787446	2448.846345
897.095480	2444.198401
897.403473	2442.673452
897.711425	2438.922834
898.019336	2438.025508
898.327207	2435.351176
898.635038	2432.356731
898.942827	2429.163160
899.250576	2424.734506
899.558284	2425.591502
899.865952	2426.778694
900.173579	2423.711152
900.481165	2423.696028
900.788711	2420.255441
901.096216	2418.609504
901.403681	2422.143353
901.711105	2420.709145
902.018489	2419.453897
902.325832	2425.228539
902.633135	2424.333734
902.940397	2425.142840
903.247619	2434.526947
903.554800	2449.814247
903.861941	2467.170939
904.169041	2480.842548
904.476101	2485.593836
904.783121	2481.424802
905.090100	2479.146200
905.397039	2466.891155
905.703938	2463.758078
906.010796	2452.793568
906.317614	2449.300049
906.624391	2442.000458
906.931129	2441.597166
907.237826	2437.488625
907.544483	2433.511155
907.851099	2428.167532
908.157675	2425.480597
908.464211	2419.688311
908.770707	2413.565830
909.077163	2416.925759
909.383578	2412.550037
909.689954	2413.525501
909.996289	2408.081054
910.302584	2414.261509
910.608839	2412.706313
910.915054	2415.214287
911.221229	2412.572723
911.527363	2414.790830
911.833458	2416.131777
912.139513	2416.572878
912.445527	2415.441139
912.751502	2415.909966
913.057436	2414.790830
913.363331	2419.501788
913.669186	2416.517425
913.975000	2425.404980
914.280775	2427.189548
914.586510	2433.284303
914.892205	2438.592638
915.197859	2451.709720
915.503475	2464.496607
915.809050	2474.944398
916.114585	2482.803557
916.420081	2485.344299
916.725536	2484.656181
917.030952	2476.877681
917.336328	2474.523462
917.641665	2470.427525
917.946961	2465.905610
918.252218	2462.631380
918.557435	2454.421861
918.862612	2451.480348
919.167750	2448.095213
919.472848	2442.721343
919.777906	2438.988369
920.082925	2434.647935
920.387904	2431.633325
920.692843	2431.224992
920.997743	2427.023190
921.302603	2423.978333
921.607423	2421.029258
921.912204	2420.792324
922.216946	2418.450708
922.521647	2422.269382
922.826310	2419.219484
923.130932	2417.240831
923.435516	2416.136818
923.740059	2414.992476
924.044564	2413.349060
924.349028	2413.132291
924.653454	2408.121384
924.957840	2410.231107
925.262186	2407.897052
925.566493	2409.709347
925.870761	2406.079716
926.174989	2409.847979
926.479178	2409.772362
926.783328	2409.321178
927.087438	2410.243709
927.391509	2410.452917
927.695541	2406.019223
927.999533	2409.790006
928.303486	2406.467885
928.607400	2407.680283
928.911275	2409.094326
929.215110	2403.536454
929.518906	2403.203738
929.822663	2406.132648
930.126381	2406.800601
930.430060	2405.454613
930.733699	2407.433266
931.037299	2405.119377
931.340861	2407.256826
931.644383	2407.980231
931.947866	2406.170457
932.251309	2406.999727
932.554714	2404.022926
932.858080	2409.263205
933.161407	2405.701630
933.464694	2407.700447
933.767943	2408.010478
934.071153	2407.145920
934.374323	2408.370921
934.677455	2406.036867
934.980548	2408.368400
935.283602	2407.239182
935.586617	2407.710530
935.889593	2406.447721
936.192530	2405.517628
936.495428	2405.454613
936.798287	2406.266239
937.101108	2409.346384
937.403890	2407.760941
937.706632	2409.875705
938.009336	2408.363359
938.312002	2411.231776
938.614628	2408.751528
938.917216	2413.553227
939.219765	2413.291087
939.522275	2412.557599
939.824747	2411.877043
940.127179	2408.176836
940.429573	2405.283214
940.731929	2411.519121
941.034246	2406.944274
941.336524	2412.890315
941.638763	2410.697413
941.940964	2412.214801
942.243126	2410.306724
942.545250	2408.053328
942.847335	2411.761097
943.149381	2415.204205
943.451389	2409.847979
943.753359	2408.887639
944.055290	2408.025602
944.357182	2410.972156
944.659036	2406.591393
944.960851	2408.605334
945.262628	2406.919068
945.564367	2406.770354
945.866067	2406.896383
946.167729	2405.593245
946.469352	2406.215827
946.770937	2410.233627
947.072484	2406.984603
947.373992	2406.661970
947.675462	2408.242371
947.976893	2406.919068
948.278286	2405.573080
948.579641	2405.701630
948.880958	2405.560478
949.182236	2406.765313
949.483476	2401.746845
949.784678	2404.658111
950.085841	2409.500139
950.386967	2408.340674
950.688054	2407.992834
950.989103	2405.371434
951.290114	2406.034346
951.591087	2410.059707
951.892021	2408.088616
952.192917	2407.471075
952.493776	2408.552402
952.794596	2411.400654
953.095378	2409.429563
953.396122	2409.036353
953.696828	2409.752197
953.997496	2406.916548
954.298126	2409.454769
954.598718	2409.822773
954.899272	2408.441497
955.199788	2406.082237
955.500266	2407.067782
955.800706	2405.409243
956.101108	2403.110477
956.401472	2404.327915
956.701798	2401.381361
957.002087	2403.188615
957.302337	2402.434962
957.602550	2403.309602
957.902724	2403.412946
958.202861	2402.407236
958.502960	2402.376989
958.803022	2406.530900
959.103045	2403.652401
959.403031	2405.764644
959.702979	2401.951011
960.002889	2402.109808
960.302762	2402.240878
960.602596	2399.616957
960.902393	2404.146434
961.202153	2401.363717
961.501875	2403.357493
961.801559	2400.794067
962.101205	2400.388254
962.400814	2400.811711
962.700385	2405.671383
962.999918	2399.753068
963.299414	2400.284910
963.598873	2402.485374
963.898293	2399.052348
964.197677	2400.312636
964.497022	2400.146278
964.796331	2398.785167
965.095601	2401.681310
965.394835	2398.482698
965.694030	2400.118552
965.993189	2399.231309
966.292309	2401.577966
966.591393	2402.744993
966.890439	2399.029663
967.189447	2402.190466
967.488419	2398.500342
967.787353	2402.810528
968.086249	2399.473284
968.385108	2401.656104
968.683930	2401.729201
968.982714	2400.632750
969.281462	2401.976217
969.580172	2398.102090
969.878844	2402.586197
970.177480	2401.696433
970.476078	2399.972358
970.774639	2402.802966
971.073162	2401.424211
971.371649	2399.432955
971.670098	2396.335166
971.968510	2399.196021
972.266885	2395.629404
972.565223	2404.413615
972.863524	2399.160733
973.161788	2400.224416
973.460014	2402.427400
973.758204	2402.722308
974.056356	2401.893038
974.354471	2401.580487
974.652550	2400.804149
974.950591	2403.506207
975.248595	2403.236506
975.546563	2400.627708
975.844493	2402.152657
976.142386	2402.334139
976.440243	2401.250291
976.738062	2403.992679
977.035845	2398.923798
977.333590	2400.168963
977.631299	2400.849519
977.928971	2401.217523
978.226606	2403.849006
978.524204	2400.673079
978.821765	2402.087122
979.119290	2404.219531
979.416777	2401.333470
979.714228	2403.367576
980.011642	2400.204252
980.309020	2404.239695
980.606360	2399.090157
980.903664	2401.671227
981.200931	2399.843809
981.498162	2402.089643
981.795356	2404.138872
982.092513	2405.300858
982.389633	2406.513256
982.686717	2408.280180
982.983764	2409.164903
983.280775	2408.426373
983.577749	2408.953174
983.874686	2408.141548
984.171587	2409.931158
984.468451	2409.096847
984.765279	2409.232958
985.062070	2404.343039
985.358824	2406.553585
985.655543	2406.704819
985.952224	2406.072155
986.248869	2401.832544
986.545478	2398.654097
986.842050	2402.636608
987.138586	2395.997409
987.435086	2397.527399
987.731549	2397.184600
988.027975	2401.131824
988.324366	2399.601834
988.620719	2398.281051
988.917037	2399.853891
989.213318	2397.620660
989.509563	2400.741134
989.805772	2399.949673
990.101944	2399.818603
990.398080	2398.989333
990.694180	2397.565208
990.990244	2401.043604
991.286271	2399.677451
991.582262	2398.699467
991.878217	2399.233829
992.174136	2400.282389
992.470019	2398.792728
992.765865	2399.299364
993.061676	2399.876577
993.357450	2401.547719
993.653188	2398.457492
993.948890	2400.826834
994.244556	2400.257184
994.540186	2402.077040
994.835780	2400.720970
995.131337	2401.280538
995.426859	2404.113666
995.722345	2405.285735
996.017795	2404.151475
996.313208	2406.178019
996.608586	2404.297668
996.903928	2403.216341
997.199234	2403.612072
997.494504	2405.048800
997.789738	2403.528893
998.084936	2402.271125
998.380099	2406.566188
998.675225	2405.477298
998.970316	2403.039901
999.265371	2402.951680
999.560390	2401.451937
999.855373	2403.130641
1000.150320	2400.264745
1000.445232	2401.295661
1000.740108	2398.807852
1001.034948	2399.281720
1001.329752	2398.591082
1001.624521	2400.294992
1001.919254	2393.272665
1002.213951	2397.192162
1002.508613	2395.851215
1002.803239	2394.989178
1003.097829	2396.065464
1003.392384	2399.133006
1003.686903	2400.683161
1003.981386	2398.853222
1004.275834	2396.766185
1004.570246	2396.347769
1004.864623	2396.912378
1005.158964	2396.118396
1005.453270	2401.416649
1005.747540	2400.007647
1006.041775	2398.654097
1006.335974	2394.956410
1006.630138	2397.512275
1006.924266	2398.001267
1007.218359	2395.321894
1007.512416	2398.631412
1007.806438	2397.262738
1008.100425	2398.828017
1008.394376	2398.051679
1008.688292	2399.077554
1008.982172	2396.783829
1009.276017	2397.585372
1009.569827	2396.788870
1009.863602	2397.078736
1010.157341	2398.089487
1010.451045	2395.611760
1010.744714	2396.602347
1011.038347	2399.725342
1011.331945	2397.456823
1011.625508	2399.485887
1011.919036	2396.869528
1012.212528	2395.500855
1012.505986	2394.956410
1012.799408	2399.753068
1013.092795	2398.197872
1013.386147	2399.828686
1013.679464	2394.969013
1013.972745	2400.461350
1014.265992	2399.077554
1014.559204	2397.902965
1014.852380	2397.844992
1015.145521	2397.603016
1015.438628	2397.524878
1015.731699	2398.911196
1016.024736	2396.559497
1016.317737	2398.855743
1016.610703	2400.012688
1016.903635	2395.689898
1017.196531	2397.207286
1017.489393	2395.165618
1017.782219	2391.846018
1018.075011	2398.601165
1018.367768	2396.567059
1018.660490	2397.880280
1018.953177	2397.880280
1019.245829	2397.880280
