Dividing Wavelength (nm)	Counts (n)	Blue Motor Position (mm): 0.000000	Red Motor Position (mm): 43.200000	
326.493990	1995.392036
326.888308	1995.392036
327.282561	1995.392036
327.676750	1970.355145
328.070874	1974.730867
328.464933	1979.267905
328.858929	1989.274596
329.252859	2004.226658
329.646726	2017.361384
330.040528	2030.397808
330.434265	2049.944882
330.827938	2068.047666
331.221547	2090.803434
331.615091	2109.853955
332.008571	2129.660648
332.401986	2150.543628
332.795338	2171.623213
333.188625	2191.629032
333.581847	2212.264995
333.975006	2226.937273
334.368100	2244.916548
334.761129	2263.755340
335.154095	2277.303441
335.546996	2312.783082
335.939833	2374.627958
336.332606	2391.354506
336.725315	2401.081412
337.117960	2410.914183
337.510540	2419.385842
337.903056	2429.710125
338.295508	2433.725404
338.687896	2441.655139
339.080220	2446.386262
339.472480	2455.553600
339.864676	2456.113168
340.256807	2460.199023
340.648875	2459.347068
341.040879	2462.737244
341.432818	2464.146247
341.824694	2466.719756
342.216506	2463.488376
342.608253	2467.259159
342.999937	2464.839406
343.391557	2465.688840
343.783113	2462.316308
344.174605	2461.098869
344.566033	2457.202057
344.957397	2457.779270
345.348697	2456.113168
345.739934	2453.484207
346.131106	2455.614094
346.522215	2451.397169
346.913260	2449.325255
347.304241	2450.572940
347.695159	2445.675459
348.086012	2449.642847
348.476802	2443.265788
348.867528	2445.302414
349.258191	2443.333843
349.648789	2440.382248
350.039324	2439.484922
350.429796	2441.342587
350.820203	2440.039449
351.210548	2439.235385
351.600828	2435.956115
351.991045	2437.768409
352.381198	2438.257401
352.771288	2439.091712
353.161314	2436.029211
353.551276	2439.414346
353.941175	2437.009716
354.331010	2439.815118
354.720782	2441.463575
355.110490	2442.426436
355.500135	2438.517021
355.889717	2441.047680
356.279235	2441.924841
356.668689	2440.800663
357.058080	2442.905345
357.447408	2439.343770
357.836672	2438.247319
358.225873	2442.544903
358.615010	2443.679162
359.004084	2444.964657
359.393095	2445.065480
359.782043	2445.002465
360.170927	2449.917590
360.559748	2448.627055
360.948505	2451.140070
361.337199	2453.302725
361.725830	2453.085955
362.114398	2452.972529
362.502903	2455.656944
362.891344	2454.749536
363.279722	2454.515122
363.668037	2454.837756
364.056289	2456.279526
364.444478	2457.222222
364.832603	2457.444033
365.220665	2462.023921
365.608665	2461.285392
365.996601	2460.919908
366.384474	2461.209775
366.772284	2462.424693
367.160031	2466.142544
367.547715	2464.078191
367.935336	2462.976699
368.322893	2465.918213
368.710388	2470.031794
369.097820	2472.764099
369.485189	2469.799901
369.872495	2474.573874
370.259738	2471.347535
370.646918	2476.055973
371.034035	2477.792650
371.421090	2479.960347
371.808081	2487.285143
372.195010	2488.371512
372.581875	2495.308139
372.968678	2507.273318
373.355418	2508.674759
373.742096	2522.510206
374.128710	2532.489170
374.515262	2545.165151
374.901751	2560.833057
375.288177	2579.770152
375.674540	2597.172215
376.060841	2620.638786
376.447079	2644.576705
376.833254	2670.079902
377.219367	2694.960517
377.605417	2729.036196
377.991404	2755.192223
378.377329	2797.174952
378.763191	2835.119717
379.148991	2881.548744
379.534727	2933.535643
379.920402	2981.749239
380.306013	3027.633821
380.691563	3097.418514
381.077049	3153.486227
381.462474	3213.428067
381.847835	3288.200981
382.233134	3363.719986
382.618371	3424.072680
383.003545	3512.915455
383.388657	3594.640120
383.773706	3688.118236
384.158693	3760.809154
384.543618	3860.850852
384.928480	3946.656332
385.313280	4050.347825
385.698017	4154.520749
386.082692	4278.785191
386.467305	4349.419318
386.851856	4475.929595
387.236344	4633.170745
387.620770	4702.221950
388.005133	4824.537986
388.389435	4977.874763
388.773674	5068.302980
389.157851	5197.595973
389.541965	5336.570503
389.926018	5358.512125
390.310008	5544.235794
390.693936	5673.246483
391.077802	5791.514473
391.461606	5928.381800
391.845348	6046.843874
392.229027	6171.849366
392.612645	6395.328757
392.996200	6519.106728
393.379694	6698.526434
393.763125	6930.321209
394.146494	7024.754623
394.529801	7164.460120
394.913047	7416.303563
395.296230	7422.978051
395.679351	7474.849003
396.062410	7749.975016
396.445408	7638.867985
396.828343	7801.140207
397.211217	7946.075900
397.594028	7821.640059
397.976778	8037.225003
398.359466	8204.729942
398.742092	8166.860795
399.124656	8324.162439
399.507158	8511.799226
399.889598	8541.650418
400.271977	8755.307121
400.654294	8793.496382
401.036549	8989.037699
401.418742	9020.456690
401.800874	9332.292385
402.182944	9412.550075
402.564952	9793.283219
402.946898	9604.113921
403.328783	9665.565586
403.710606	9864.744095
404.092367	10129.134970
404.474067	10502.172793
404.855705	10287.480133
405.237282	10237.280323
405.618797	10674.320635
406.000250	10929.942423
406.381642	11304.003601
406.762972	11250.879921
407.144240	11046.415762
407.525447	11313.165898
407.906593	11244.391956
408.287677	11513.108142
408.668700	11679.017556
409.049661	11648.480766
409.430560	11808.923049
409.811399	11779.734768
410.192176	11949.548556
410.572891	12021.614371
410.953545	12532.018595
411.334138	11993.487253
411.714669	12614.176800
412.095139	11892.462530
412.475547	12417.980133
412.855894	12258.954415
413.236180	12589.086977
413.616405	12269.969336
413.996568	12561.721074
414.376670	12522.410156
414.756711	12391.660269
415.136691	12695.624202
415.516609	12878.683622
415.896466	12950.237759
416.276262	13245.223397
416.655997	13692.663610
417.035670	13723.749885
417.415283	14387.528694
417.794834	14486.053005
418.174324	14221.488210
418.553753	14128.489004
418.933121	14625.203975
419.312428	14430.013018
419.691674	14350.934958
420.070859	14807.950843
420.449983	14459.274396
420.829045	15023.195509
421.208047	14753.730713
421.586988	15238.316667
421.965867	15492.834442
422.344686	15487.175747
422.723444	16068.110755
423.102141	14716.406009
423.480777	15940.592248
423.859352	15438.901658
424.237866	16573.471304
424.616319	16266.470076
424.994712	16956.223431
425.373044	16726.737505
425.751314	17418.426662
426.129524	16532.451436
426.507673	17654.539185
426.885762	17333.619331
427.263789	17546.103966
427.641756	17713.039255
428.019662	17781.631715
428.397508	17825.036049
428.775292	18139.258730
429.153016	18105.886292
429.530679	18182.960493
429.908282	18197.322740
430.285824	17913.276406
430.663305	18642.905288
431.040726	18232.058811
431.418086	18051.948466
431.795385	18719.850939
432.172624	19128.116345
432.549802	18687.643007
432.926920	18867.801243
433.303977	18757.755375
433.680974	19030.713691
434.057910	19320.532146
434.434786	19340.681638
434.811601	19251.831302
435.188355	20320.079528
435.565050	19957.179466
435.941683	19904.000334
436.318257	20798.641304
436.694770	20603.296592
437.071222	21217.909028
437.447614	20269.972979
437.823946	20304.817435
438.200218	20450.816812
438.576429	20231.619881
438.952580	20504.580718
439.328670	20471.629216
439.704700	20884.608100
440.080670	20443.267684
440.456580	21055.294008
440.832429	21240.095146
441.208218	20202.890345
441.583947	20658.308184
441.959616	20756.688822
442.335224	21016.908142
442.710773	21155.975933
443.086261	21696.710259
443.461689	21055.954399
443.837057	21166.766522
444.212365	21828.614570
444.587612	21829.315290
444.962800	21397.129609
445.337927	21833.476762
445.712995	20537.552384
446.088002	22439.998146
446.462949	22628.444039
446.837837	22817.769613
447.212664	22772.235391
447.587431	25677.114595
447.962139	28662.445573
448.336786	31066.047562
448.711374	29487.483332
449.085901	25732.973100
449.460369	25682.294380
449.834776	25600.305054
450.209124	28137.124575
450.583412	27650.655749
450.957640	28184.450927
451.331808	26812.367318
451.705917	25419.294864
452.079965	25461.373375
452.453954	25832.538409
452.827883	25709.877054
453.201752	25507.893143
453.575562	25685.850914
453.949311	26839.120721
454.323001	26894.091983
454.696632	26641.517572
455.070202	28230.282578
455.443713	28367.843063
455.817164	28978.122627
456.190556	29501.137298
456.563888	28935.799620
456.937160	29380.850326
457.310373	27683.846706
457.683526	28151.872471
458.056619	28139.801428
458.429653	28066.664368
458.802628	28668.741974
459.175542	28779.659962
459.548398	30092.883059
459.921194	31699.944932
460.293930	32361.588813
460.666607	34424.779327
461.039224	36199.023505
461.411782	36620.393391
461.784280	35407.123771
462.156719	34938.583809
462.529099	34379.522368
462.901419	33075.418718
463.273680	31987.668788
463.645882	32071.306572
464.018024	32045.637016
464.390106	32905.204158
464.762130	35636.697917
465.134094	39741.245708
465.505999	45072.775057
465.877845	49678.043015
466.249631	50867.967051
466.621358	49204.799657
466.993026	47115.737941
467.364634	45029.305187
467.736184	43038.571178
468.107674	41768.270984
468.479105	40954.815276
468.850477	40263.935224
469.221790	38813.910335
469.593043	37030.448406
469.964238	36130.766282
470.335373	36058.178708
470.706449	37826.572627
471.077467	40432.947468
471.448425	45033.343152
471.819324	47853.689768
472.190164	45991.933679
472.560945	42404.199939
472.931667	39249.224052
473.302330	38145.554158
473.672934	37322.459763
474.043479	37825.665220
474.413965	37008.942844
474.784393	36640.434498
475.154761	37548.406799
475.525070	37576.470903
475.895321	37103.114118
476.265513	37715.243786
476.635645	38700.562511
477.005719	38518.967547
477.375734	38983.678752
477.745691	39689.402482
478.115588	41047.839688
478.485427	43043.176272
478.855207	46437.289374
479.224928	49049.983302
479.594591	50694.216122
479.964194	49698.941118
480.333739	49892.516385
480.703226	49912.807029
481.072653	50566.511092
481.442022	51020.076307
481.811333	51279.186573
482.180584	50002.219454
482.549777	49496.233802
482.918912	48938.283935
483.287988	48673.323410
483.657005	47825.582814
484.025964	47191.705609
484.394864	47219.570587
484.763706	46782.013557
485.132489	45904.187355
485.501213	45744.135762
485.869879	45889.348719
486.238487	45478.696326
486.607036	45669.761098
486.975527	45129.346885
487.343959	45325.107492
487.712333	45419.893787
488.080648	45327.252503
488.448905	45796.563762
488.817104	45597.468432
489.185244	46570.438850
489.553326	48250.441178
489.921350	50975.467137
490.289315	53805.943951
490.657222	54379.347475
491.025070	54659.116390
491.392861	53782.550477
491.760593	52574.160694
492.128267	50939.483380
492.495883	49419.444426
492.863440	48026.891211
493.230939	46672.592792
493.598380	45559.548872
493.965763	45225.600156
494.333088	44403.539199
494.700354	43915.500054
495.067563	43624.111279
495.434713	43488.637831
495.801805	43558.868666
496.168839	43153.769105
496.535815	42831.772964
496.902733	42862.889487
497.269593	42448.362967
497.636395	42369.794064
498.003139	42780.083493
498.369825	42227.671334
498.736453	42542.970302
499.103023	42059.332084
499.469535	41929.557661
499.835989	42036.180585
500.202385	41694.125694
500.568723	41721.438665
500.935003	41911.792634
501.301226	41687.229395
501.667390	42335.902387
502.033497	42600.968777
502.399546	42015.007739
502.765537	41330.708913
503.131470	41716.379867
503.497345	42088.873246
503.863163	40725.480585
504.228923	41334.726712
504.594625	41769.914401
504.960269	41046.523947
505.325856	41743.952458
505.691385	41103.504109
506.056856	41247.809658
506.422270	41679.644979
506.787625	41249.037179
507.152924	41435.680859
507.518164	41556.040928
507.883347	40737.228994
508.248472	41014.308453
508.613540	41494.740497
508.978550	41795.241157
509.343503	41551.105638
509.708398	41760.684048
510.073236	42280.716876
510.438016	42281.263841
510.802738	41735.962229
511.167403	42363.051521
511.532010	42594.561470
511.896561	42901.189653
512.261053	43781.788489
512.625488	43292.622646
512.989866	43162.664221
513.354186	43010.580171
513.718449	42991.080988
514.082655	43687.907081
514.446803	43354.429713
514.810894	43866.981468
515.174927	43794.426662
515.538904	43683.075135
515.902822	44383.573709
516.266684	43807.992407
516.630488	44250.784675
516.994235	44103.381337
517.357925	44691.648703
517.721558	44838.731928
518.085133	45149.781202
518.448651	45293.887626
518.812112	45050.321758
519.175516	45155.089537
519.538863	45500.753895
519.902152	45458.851824
520.265385	45915.343428
520.628560	45961.487630
520.991678	45739.795328
521.354739	45973.677140
521.717743	46305.437995
522.080690	46194.386417
522.443580	46751.718743
522.806413	46785.834751
523.169189	46733.991525
523.531908	46913.408711
523.894569	46762.690814
524.257174	46941.853422
524.619722	47243.677385
524.982213	47237.925428
525.344647	47140.547980
525.707025	47171.848504
526.069345	47562.311075
526.431608	47490.232657
526.793815	47816.864139
527.155964	47340.386880
527.518057	47491.533275
527.880093	47289.985424
528.242072	47809.100762
528.603995	47496.740787
528.965860	47496.032505
529.327669	47579.143488
529.689421	47480.861152
530.051117	47439.243907
530.412755	47576.640555
530.774337	47647.725865
531.135862	47442.934032
531.497331	47639.599525
531.858743	47546.801965
532.220098	47887.851147
532.581396	47604.026623
532.942638	47265.520704
533.303824	47552.838747
533.664953	47534.902322
534.026025	47220.364569
534.387040	47723.338132
534.747999	47642.961975
535.108902	47819.823296
535.469748	47328.605703
535.830537	47437.829863
536.191270	47627.422618
536.551947	47279.651058
536.912567	47591.209490
537.273131	47721.064572
537.633638	47180.315122
537.994089	47540.848363
538.354483	47120.811863
538.714821	47687.891259
539.075103	48044.232780
539.435328	47792.689285
539.795497	47682.771967
540.155609	47667.285542
540.515665	48129.582035
540.875665	47585.271010
541.235609	47914.576824
541.595496	47861.722846
541.955328	48563.358200
542.315102	47915.010363
542.674821	47703.957416
543.034483	47751.946680
543.394090	47700.970532
543.753640	47670.867282
544.113134	48685.754895
544.472571	47682.751802
544.831953	48936.630437
545.191278	48142.487389
545.550548	47858.390643
545.909761	48321.622270
546.268918	48530.726811
546.628019	48830.982976
546.987064	48395.575997
547.346053	47654.770878
547.704986	48555.670441
548.063863	48103.022716
548.422684	48296.993713
548.781449	48148.156167
549.140158	48545.648627
549.498811	48393.451151
549.857408	47816.748192
550.215949	48651.439761
550.574434	48591.160164
550.932864	48347.737968
551.291237	49076.855172
551.649555	48667.102626
552.007817	48907.374100
552.366022	48552.532322
552.724173	48727.107480
553.082267	49139.244492
553.440305	49433.726015
553.798288	48753.475235
554.156215	49054.989167
554.514086	49248.350185
554.871902	49019.171769
555.229661	49042.245130
555.587365	48850.595585
555.945014	48946.569072
556.302606	48869.751969
556.660143	49094.857133
557.017625	49176.816212
557.375050	48959.792018
557.732421	49322.434982
558.089735	49310.058949
558.446994	49233.178832
558.804197	49704.965297
559.161345	49642.785185
559.518437	48892.399353
559.875474	49193.673830
560.232455	49343.960709
560.589381	49534.493639
560.946251	49231.578266
561.303065	49930.970307
561.659825	49731.156612
562.016528	49385.908150
562.373177	49109.562178
562.729770	49602.748341
563.086307	49105.375500
563.442789	49581.237738
563.799216	49630.295727
564.155587	49422.121278
564.511904	49446.094486
564.868164	49546.831863
565.224370	49774.145052
565.580520	49517.600732
565.936615	49729.394729
566.292654	49444.498960
566.648638	49691.074398
567.004567	49642.197891
567.360441	49680.276246
567.716260	49540.585873
568.072023	49825.993319
568.427732	49816.084931
568.783385	49357.896978
569.138982	49746.965671
569.494525	49705.723991
569.850013	49490.897740
570.205445	49457.154777
570.560823	49425.156053
570.916145	49309.065842
571.271412	49316.962809
571.626625	49076.119164
571.981782	49119.581472
572.336884	48826.851750
572.691931	49147.431326
573.046923	48732.088140
573.401860	48597.093602
573.756743	48586.119010
574.111570	48711.298422
574.466342	48547.397907
574.821059	48655.230708
575.175722	48175.053243
575.530330	48187.023463
575.884882	47896.794153
576.239380	47877.078201
576.593823	47851.683388
576.948211	47758.875746
577.302544	47282.569887
577.656823	47304.251889
578.011047	47510.278806
578.365216	47240.806448
578.719330	47038.509985
579.073389	46895.865496
579.427394	46974.920870
579.781344	46936.477031
580.135239	46589.628002
580.489080	46677.137392
580.842866	46153.749676
581.196597	46605.061495
581.550273	46521.612755
581.903895	46391.182981
582.257463	46812.653690
582.610975	46175.847574
582.964434	46455.041798
583.317837	46086.432628
583.671186	45927.734585
584.024481	46159.851993
584.377721	45685.338264
584.730906	45977.916751
585.084037	45995.477610
585.437113	45706.949690
585.790135	45735.593526
586.143103	45330.824161
586.496016	45445.248271
586.848874	45466.426158
587.201679	45483.185474
587.554428	44951.918435
587.907124	45127.832019
588.259765	44862.526174
588.612352	45118.087468
588.964884	44495.005894
589.317362	44779.989883
589.669786	44721.199947
590.022155	44474.735414
590.374470	44906.016208
590.726731	44426.214309
591.078937	43912.924024
591.431090	44008.211914
591.783188	43670.961242
592.135232	43335.825335
592.487222	43566.516096
592.839157	43659.127134
593.191038	43319.481914
593.542866	43053.823188
593.894639	42448.604943
594.246358	42709.668657
594.598022	42683.187475
594.949633	42262.803136
595.301190	42221.692526
595.652692	42037.395503
596.004141	42361.624874
596.355535	41358.838551
596.706876	41313.707622
597.058162	41127.263067
597.409395	41605.441715
597.760573	41677.245390
598.111698	41241.137691
598.462768	41238.354974
598.813785	41264.919335
599.164748	40698.157531
599.515657	41077.748854
599.866511	40525.228310
600.217312	41135.346557
600.568060	40083.048542
600.918753	40820.229072
601.269392	40753.280028
601.619978	40403.663406
601.970510	40602.209250
602.320988	40767.765783
602.671412	41051.371017
603.021783	40790.675307
603.372100	40434.414444
603.722363	40524.686386
604.072572	40596.910997
604.422728	40589.192991
604.772830	40377.041072
605.122878	40455.229368
605.472872	40377.358665
605.822813	40639.307101
606.172701	40460.058794
606.522534	40668.293736
606.872314	40920.117014
607.222041	40645.593420
607.571714	41019.019412
607.921333	40417.329974
608.270899	40703.072656
608.620411	41040.706456
608.969870	40818.477271
609.319276	40782.145675
609.668627	40802.852214
610.017926	41281.471963
610.367171	41420.842223
610.716362	41460.780764
611.065500	41387.928530
611.414585	41548.166646
611.763616	41795.664614
612.112594	41686.682430
612.461518	41884.804817
612.810389	42149.858604
613.159207	41983.535815
613.507971	42027.151878
613.856682	42474.912204
614.205340	42327.166067
614.553945	43002.289993
614.902496	42412.361567
615.250994	42837.731608
615.599439	42873.322154
615.947830	43032.967935
616.296169	43043.317424
616.644454	43114.475831
616.992686	43265.796146
617.340864	43716.671905
617.688990	43393.481011
618.037063	43955.733503
618.385082	43873.421542
618.733048	44108.646822
619.080961	44100.165081
619.428821	44056.004573
619.776628	44136.980627
620.124382	43938.656594
620.472083	44051.026434
620.819731	44146.997400
621.167326	43796.279286
621.514868	43748.116102
621.862357	43299.478615
622.209793	43303.503977
622.557176	42959.251142
622.904506	42702.099364
623.251783	42343.333048
623.599007	42103.883281
623.946179	41853.658048
624.293297	41781.844291
624.640363	41160.267501
624.987376	41116.222940
625.334336	40855.141582
625.681243	40475.091515
626.028097	40387.047763
626.374899	40215.323378
626.721647	40134.554011
627.068343	39986.812915
627.414987	39710.270338
627.761577	39459.712389
628.108115	39727.959747
628.454600	39137.330601
628.801032	39289.034043
629.147412	39199.475425
629.493739	39171.202113
629.840014	38765.280844
630.186236	39029.339003
630.532405	38607.764951
630.878521	38758.223229
631.224585	38579.849562
631.570597	38275.918396
631.916556	38381.989314
632.262462	38277.100547
632.608316	38241.734332
632.954117	38106.336501
633.299866	38044.723519
633.645562	37944.606204
633.991206	37450.827705
634.336797	37016.948196
634.682336	36991.036666
635.027823	36710.791362
635.373257	36525.062651
635.718639	36255.418893
636.063968	36093.222289
636.409245	35542.831633
636.754470	35558.620527
637.099642	35293.975073
637.444762	34785.965397
637.789829	34881.328904
638.134845	34537.930546
638.479808	34433.314000
638.824719	34302.062519
639.169577	33900.209461
639.514383	33912.857716
639.859137	33591.161524
640.203839	33785.777789
640.548489	33378.661766
640.893086	33412.646705
641.237632	33133.767553
641.582125	33189.275698
641.926566	33103.598768
642.270955	33012.162320
642.615292	32973.607575
642.959576	32918.144800
643.303809	32873.820455
643.647990	32957.669967
643.992118	32868.532285
644.336195	32818.173678
644.680219	32843.235775
645.024192	33067.763726
645.368112	33477.891838
645.711981	33406.292330
646.055797	34126.491733
646.399562	33976.714011
646.743274	34767.965957
647.086935	35115.848423
647.430544	34934.487872
647.774101	35003.874313
648.117606	35175.276065
648.461059	35416.195327
648.804460	35043.402001
649.147810	34455.474913
649.491108	34222.145107
649.834354	33847.206769
650.177548	33068.378747
650.520690	32633.793477
650.863781	32619.650519
651.206820	32433.621860
651.549807	32006.454648
651.892742	31550.935986
652.235626	31320.829998
652.578458	31157.733548
652.921238	30573.365515
653.263967	30801.192901
653.606644	30480.086525
653.949269	30378.537522
654.291843	29968.371601
654.634365	30280.295515
654.976836	29861.274808
655.319255	29812.831840
655.661622	29773.168041
656.003938	29535.530570
656.346203	29365.179899
656.688416	29513.783032
657.030577	29302.465424
657.372687	29126.143507
657.714746	29311.121086
658.056753	29366.445228
658.398708	28845.426855
658.740612	28831.740122
659.082465	29020.977476
659.424266	28815.351331
659.766016	28860.336067
660.107715	28703.409989
660.449362	28764.158414
660.790958	28710.641525
661.132503	28653.747062
661.473996	28644.201638
661.815438	28692.571509
662.156829	28808.712132
662.498168	28560.364728
662.839456	28521.008440
663.180693	28598.422919
663.521879	28680.465178
663.863013	28591.803884
664.204097	28537.561069
664.545129	28853.913637
664.886110	28764.254196
665.227040	28748.593851
665.567918	28793.359297
665.908746	28770.883313
666.249522	28865.321769
666.590248	28811.557863
666.930922	28846.808131
667.271545	28768.087993
667.612118	28793.281160
667.952639	28546.788901
668.293109	28549.095229
668.633528	28417.909283
668.973896	28317.686103
669.314213	28290.126115
669.654480	28028.104582
669.994695	28014.037242
670.334859	27845.970214
670.674973	27713.529020
671.015035	27798.893399
671.355047	27708.387043
671.695008	27602.696732
672.034918	27470.742010
672.374777	27449.917003
672.714585	27278.979038
673.054342	27385.302014
673.394049	27140.589283
673.733705	27311.328122
674.073310	26998.811872
674.412864	27006.050969
674.752368	26637.693857
675.091820	26834.200555
675.431223	26465.644318
675.770574	26206.922220
676.109875	26048.612345
676.449125	25784.990246
676.788324	25678.795820
677.127473	25214.956734
677.466571	25116.379491
677.805619	24802.335771
678.144616	24743.528191
678.483562	24632.365707
678.822458	24330.110725
679.161303	24217.009918
679.500098	24106.054122
679.838842	23970.252999
680.177535	24024.475650
680.516179	24170.429657
680.854771	24274.216932
681.193314	24830.757796
681.531805	25577.095582
681.870247	26047.692335
682.208638	26544.850927
682.546978	26656.681363
682.885268	26687.142535
683.223508	26252.912667
683.561697	25965.203934
683.899836	25770.517093
684.237925	25350.783062
684.575963	25167.748848
684.913951	24779.350630
685.251889	24835.335164
685.589776	24743.802933
685.927614	24663.590614
686.265401	24696.592528
686.603137	24686.530385
686.940824	24964.580266
687.278460	25169.488047
687.616046	25190.507137
687.953582	25561.019342
688.291068	25396.745783
688.628504	25574.222124
688.965889	25467.987369
689.303224	25166.289434
689.640510	24896.398660
689.977745	24354.406566
690.314930	23768.208594
690.652065	23370.955589
690.989150	22831.705882
691.326185	22168.521929
691.663170	21635.377060
692.000105	21087.645613
692.336990	20573.483208
692.673825	20212.884433
693.010610	19821.766512
693.347345	19379.143122
693.684030	18879.867245
694.020665	18645.579620
694.357251	18149.058733
694.693786	18058.360814
695.030272	17845.757712
695.366707	17435.561544
695.703093	17190.805963
696.039429	17147.225188
696.375716	16923.523986
696.711952	16867.247065
697.048139	16704.886623
697.384276	16550.148406
697.720363	16604.101355
698.056400	16427.703820
698.392388	16247.427118
698.728326	16190.429312
699.064214	16034.216557
699.400053	15950.682117
699.735842	15698.916812
700.071581	15475.631505
700.407270	15259.315593
700.742910	15110.097440
701.078501	14897.562393
701.414042	14691.646382
701.749533	14469.071878
702.084974	14221.321852
702.420366	14307.210511
702.755709	14005.391589
703.091002	13790.144402
703.426246	13774.600004
703.761440	13677.172144
704.096584	13466.759424
704.431679	13399.943971
704.766725	13311.416268
705.101721	13237.487747
705.436668	13263.931119
705.771565	13027.616950
706.106413	13204.395092
706.441212	13165.295903
706.775961	13203.984238
707.110661	13215.465466
707.445311	13384.858318
707.779913	13255.056168
708.114465	13351.317001
708.448967	13491.226664
708.783421	13862.674003
709.117825	13980.780676
709.452180	14080.214915
709.786485	14266.336835
710.120742	14702.812538
710.454949	14683.557851
710.789107	14916.842286
711.123216	15302.175483
711.457275	15352.561816
711.791286	15645.979655
712.125247	15670.739282
712.459159	15470.781915
712.793023	15834.181052
713.126837	15173.920968
713.460602	15293.673577
713.794318	15049.538058
714.127985	14805.705009
714.461602	14262.553449
714.795171	14204.242423
715.128691	13606.996762
715.462162	13266.413888
715.795584	12985.538439
716.128957	12790.518882
716.462281	12519.806400
716.795556	12353.498735
717.128782	12039.200436
717.461960	11721.224616
717.795088	11641.130764
718.128167	11394.469627
718.461198	11114.529313
718.794180	11011.566266
719.127113	10791.340940
719.459997	10657.891515
719.792833	10447.483836
720.125619	10402.758719
720.458357	10202.163646
720.791046	10090.572664
721.123686	9979.964708
721.456278	9828.193209
721.788821	9783.203432
722.121315	9620.628741
722.453761	9639.308736
722.786158	9576.808511
723.118506	9556.449811
723.450805	9471.801276
723.783056	9531.997694
724.115259	9458.787538
724.447412	9393.857476
724.779518	9499.124330
725.111574	9484.711671
725.443582	9565.168487
725.775542	9541.192759
726.107453	9754.249565
726.439315	9682.776085
726.771129	9859.040030
727.102895	10027.956492
727.434612	10108.325087
727.766281	10150.043156
728.097901	10261.346792
728.429473	10264.084138
728.760996	10238.686805
729.092471	10255.713302
729.423897	10177.426704
729.755276	10088.551161
730.086606	10116.053176
730.417887	10334.128450
730.749120	10543.845492
731.080305	10609.945101
731.411442	10743.893600
731.742530	10755.500856
732.073570	10781.596389
732.404562	10906.896789
732.735506	10804.087497
733.066401	10644.592951
733.397249	10369.590447
733.728048	10038.875631
734.058798	9619.502043
734.389501	9269.187221
734.720156	9028.066312
735.050762	8753.003314
735.381320	8554.102068
735.711831	8421.421420
736.042293	8234.906289
736.372707	8211.447280
736.703073	8097.060978
737.033391	8160.332500
737.363661	8129.334445
737.693883	8152.717838
738.024056	8219.482879
738.354182	8289.869990
738.684260	8414.084020
739.014290	8507.771344
739.344272	8582.624917
739.674207	8702.218730
740.004093	8744.450997
740.333931	8730.950787
740.663722	8738.673834
740.993464	8722.058191
741.323159	8621.560269
741.652806	8482.623548
741.982405	8369.184984
742.311956	8197.702574
742.641460	8119.179041
742.970915	7961.199362
743.300323	7788.433978
743.629683	7669.734970
743.958996	7523.864142
744.288260	7383.258800
744.617477	7234.874957
744.946647	7177.849424
745.275768	7046.557614
745.604842	6948.923067
745.933869	6862.666404
746.262847	6824.991340
746.591778	6782.398632
746.920662	6725.037863
747.249498	6708.099586
747.578286	6744.489155
747.907027	6793.794160
748.235720	6871.697631
748.564365	6874.790379
748.892963	6824.482184
749.221514	6829.999727
749.550017	6757.623881
749.878473	6729.121197
750.206881	6623.506503
750.535242	6573.389873
750.863555	6525.743407
751.191821	6472.155942
751.520039	6466.083872
751.848210	6417.913126
752.176334	6420.413538
752.504411	6372.333534
752.832440	6302.589170
753.160421	6314.967723
753.488356	6258.468992
753.816243	6211.946703
754.144082	6146.487321
754.471875	6113.525736
754.799620	6078.895530
755.127318	6061.392644
755.454969	6034.969436
755.782572	6006.991032
756.110129	6001.002141
756.437638	5958.727025
756.765100	5950.855263
757.092515	5938.446463
757.419882	5943.583399
757.747203	5932.444970
758.074477	5953.610254
758.401703	5934.597542
758.728882	5987.690975
759.056014	6002.174210
759.383099	6037.558068
759.710138	6071.893367
760.037129	6092.645277
760.364073	6092.456234
760.690970	6076.551393
761.017820	6060.704526
761.344623	6118.206448
761.671379	6227.281893
761.998088	6432.411485
762.324751	6994.364027
762.651366	8053.439874
762.977935	9379.512873
763.304456	10182.336787
763.630931	10327.857255
763.957359	9884.707064
764.283740	9169.511007
764.610074	8483.167993
764.936362	7699.445010
765.262602	7132.264791
765.588796	6587.590803
765.914943	6207.061825
766.241044	5890.202621
766.567097	5648.360827
766.893104	5441.154280
767.219064	5295.653977
767.544978	5149.231143
767.870845	5026.695817
768.196665	4953.059683
768.522438	4873.268300
768.848165	4804.496879
769.173846	4735.400304
769.499479	4686.851472
769.825066	4625.092296
770.150607	4550.354669
770.476101	4521.897356
770.801548	4479.765913
771.126949	4421.893467
771.452303	4380.387126
771.777611	4323.001152
772.102872	4304.558090
772.428087	4260.294239
772.753256	4214.240778
773.078378	4175.718801
773.403453	4124.906491
773.728482	4084.451231
774.053465	4058.960637
774.378401	4024.075852
774.703291	3989.009586
775.028135	3954.119760
775.352932	3931.321142
775.677683	3900.098755
776.002388	3869.892162
776.327046	3864.485524
776.651658	3836.066019
776.976224	3800.667037
777.300743	3791.713948
777.625216	3764.816871
777.949643	3750.184922
778.274024	3748.352463
778.598359	3721.344481
778.922647	3716.111763
779.246889	3702.503169
779.571086	3704.161708
779.895236	3705.563149
780.219339	3703.355124
780.543397	3697.275492
780.867409	3711.867112
781.191374	3706.281513
781.515294	3694.331458
781.839167	3704.010474
782.162995	3693.058567
782.486776	3676.440403
782.810511	3655.471724
783.134201	3630.144967
783.457844	3623.626755
783.781441	3605.791153
784.104993	3588.434460
784.428498	3574.956935
784.751958	3566.437385
785.075372	3553.590005
785.398739	3539.487377
785.722061	3544.175650
786.045337	3540.276317
786.368568	3569.126841
786.691752	3577.149837
787.014891	3651.940396
787.337983	3738.464240
787.661030	3882.479923
787.984031	4009.121269
788.306987	4083.997527
788.629897	4095.282150
788.952760	4059.910894
789.275579	3997.735823
789.598351	3897.860483
789.921078	3813.131290
790.243759	3729.259093
790.566395	3660.888444
790.888984	3603.154629
791.211529	3555.535890
791.534027	3505.358765
791.856480	3464.969041
792.178888	3439.866615
792.501249	3419.707041
792.823566	3386.279150
793.145836	3383.340157
793.468062	3373.880432
793.790241	3359.621528
794.112375	3373.351111
794.434464	3396.008577
794.756507	3405.654824
795.078505	3441.691513
795.400457	3506.760206
795.722364	3576.244950
796.044226	3635.407932
796.366042	3680.054911
796.687812	3659.358453
797.009538	3661.092610
797.331218	3634.293837
797.652852	3610.592852
797.974442	3571.332346
798.295986	3547.948953
798.617484	3502.190400
798.938938	3472.339207
799.260346	3452.217442
799.581709	3412.263777
799.903026	3393.051940
800.224299	3369.900441
800.545526	3337.246367
800.866708	3317.301042
801.187845	3301.837302
801.508936	3282.408695
801.829983	3274.650359
802.150984	3241.792119
802.471940	3235.374730
802.792851	3229.774008
803.113717	3222.849983
803.434538	3212.122408
803.755314	3204.888352
804.076045	3198.355017
804.396731	3190.216074
804.717372	3195.816796
805.037967	3194.233873
805.358518	3201.132692
805.679024	3218.073490
805.999485	3218.413768
806.319901	3226.424161
806.640272	3226.734192
806.960598	3239.944536
807.280879	3235.568814
807.601115	3245.736822
807.921306	3233.902713
808.241453	3231.997157
808.561554	3231.112434
808.881611	3221.219170
809.201623	3216.699775
809.521590	3205.513455
809.841513	3195.461394
810.161390	3199.557332
810.481223	3173.328208
810.801011	3166.694050
811.120755	3160.213647
811.440453	3144.699496
811.760107	3134.198772
812.079716	3124.943214
812.399281	3106.845471
812.718801	3103.349431
813.038276	3092.493306
813.357707	3083.411668
813.677093	3090.181937
813.996434	3070.188721
814.315731	3072.739545
814.634983	3072.273238
814.954191	3071.189390
815.273354	3086.070876
815.592473	3093.015066
815.911547	3112.821759
816.230577	3124.802061
816.549562	3146.491626
816.868502	3159.142401
817.187399	3167.863597
817.506250	3185.351360
817.825058	3189.696835
818.143821	3221.693038
818.462539	3258.526229
818.781213	3319.115857
819.099843	3402.272210
819.418429	3561.353382
819.736970	3711.284859
820.055466	3873.829303
820.373919	4085.615737
820.692327	4439.229995
821.010691	5151.547554
821.329011	6984.090156
821.647286	10085.894473
821.965517	13561.336511
822.283704	15361.643455
822.601847	15503.446071
822.919945	13679.813709
823.237999	11850.603309
823.556010	10246.266180
823.873976	8882.596256
824.191897	7719.004687
824.509775	6856.133068
824.827609	6098.339260
825.145398	5650.977186
825.463144	5424.042084
825.780845	5484.581300
826.098502	5815.777546
826.416116	6433.686897
826.733685	6972.235883
827.051210	7063.183339
827.368692	6665.925293
827.686129	6031.097830
828.003522	5423.245581
828.320872	4890.032657
828.638177	4496.056401
828.955439	4184.898742
829.272656	3931.653858
829.589830	3726.597363
829.906960	3550.030950
830.224046	3419.543203
830.541088	3315.932368
830.858086	3252.249992
831.175041	3203.799463
831.491952	3183.571833
831.808819	3183.859179
832.125642	3233.083525
832.442421	3357.070704
832.759157	3618.426805
833.075849	4042.239129
833.392497	4482.122652
833.709101	4743.050255
834.025662	4667.556455
834.342179	4407.624481
834.658653	4100.474538
834.975083	3848.179912
835.291469	3644.456803
835.607811	3469.453147
835.924110	3348.110053
836.240366	3239.626943
836.556578	3138.468629
836.872746	3053.124415
837.188871	2990.871207
837.504952	2942.065276
837.820990	2901.935170
838.136984	2875.945502
838.452935	2862.573841
838.768842	2870.087681
839.084706	2942.234154
839.400526	3115.748149
839.716303	3320.895384
840.032037	3449.540589
840.347727	3403.230029
840.663373	3264.754574
840.978977	3133.200624
841.294537	3037.527085
841.610054	2960.064715
841.925527	2904.957342
842.240957	2862.354551
842.556344	2815.323106
842.871687	2778.772220
843.186987	2749.384814
843.502244	2721.343396
843.817458	2700.951928
844.132629	2683.864937
844.447756	2674.034687
844.762840	2661.678819
845.077881	2653.948210
845.392879	2643.790285
845.707833	2641.007568
846.022745	2633.274438
846.337613	2633.642442
846.652438	2627.154477
846.967221	2625.337141
847.281960	2621.213477
847.596656	2618.161059
847.911309	2615.781634
848.225919	2613.981942
848.540485	2611.380707
848.855009	2610.995058
849.169490	2604.045828
849.483928	2605.046497
849.798323	2602.152875
850.112675	2599.770929
850.426984	2600.406115
850.741251	2598.175404
851.055474	2595.962338
851.369654	2596.927719
851.683792	2598.314036
851.997887	2596.297574
852.311938	2595.803541
852.625947	2597.971238
852.939914	2594.782708
853.253837	2594.414703
853.567718	2593.724065
853.881555	2593.887903
854.195350	2593.232553
854.509103	2593.961000
854.822812	2592.249528
855.136479	2592.824219
855.450103	2593.930753
855.763685	2589.653334
856.077224	2592.307501
856.390720	2592.809096
856.704173	2594.248345
857.017584	2595.947214
857.330953	2599.851588
857.644278	2601.583224
857.957561	2603.032556
858.270802	2597.177256
858.584000	2598.797987
858.897155	2596.937801
859.210268	2596.163984
859.523339	2593.164497
859.836367	2592.103334
860.149352	2591.957141
860.462295	2590.883375
860.775195	2585.348188
861.088054	2583.356932
861.400869	2584.760894
861.713642	2580.501119
862.026373	2587.215936
862.339062	2589.892788
862.651708	2587.266347
862.964312	2594.875969
863.276873	2593.509816
863.589392	2601.666403
863.901869	2608.318206
864.214303	2612.930862
864.526696	2615.567385
864.839045	2619.839763
865.151353	2621.568879
865.463619	2620.651389
865.775842	2622.025103
866.088023	2623.381173
866.400162	2621.195833
866.712258	2621.087448
867.024313	2619.713734
867.336325	2619.864969
867.648296	2617.498147
867.960224	2616.827673
868.272110	2618.070318
868.583954	2620.994187
868.895755	2620.364043
869.207515	2618.713065
869.519233	2624.056688
869.830909	2622.874538
870.142542	2623.640793
870.454134	2628.939046
870.765684	2632.724952
871.077191	2633.566825
871.388657	2637.493884
871.700081	2638.970942
872.011463	2645.227014
872.322803	2650.242962
872.634101	2653.307983
872.945357	2657.713952
873.256571	2667.723163
873.567744	2665.585713
873.878874	2667.544202
874.189963	2671.660304
874.501010	2670.621826
874.812015	2668.880108
875.122979	2671.993020
875.433900	2671.924964
875.744780	2673.417146
876.055618	2673.780109
876.366415	2674.017043
876.677169	2674.639626
876.987882	2675.383196
877.298554	2679.007786
877.609183	2686.693025
877.919771	2696.276258
878.230317	2710.169678
878.540822	2729.527709
878.851285	2761.221443
879.161707	2800.129068
879.472087	2877.672097
879.782425	3004.053824
880.092722	3257.712082
880.402977	3746.320878
880.713191	4445.773412
881.023363	5162.161703
881.333494	5556.274070
881.643583	5600.389207
881.953631	5380.655393
882.263637	5090.564716
882.573602	4810.788239
882.883526	4559.388417
883.193408	4324.417716
883.503248	4105.311526
883.813048	3910.927154
884.122806	3732.172880
884.432522	3551.477761
884.742197	3391.716034
885.051831	3257.207967
885.361424	3141.929382
885.670975	3049.777089
885.980485	2979.301758
886.289954	2919.034764
886.599382	2872.116745
886.908768	2832.722649
887.218113	2798.422638
887.527417	2769.650252
887.836680	2744.033629
888.145901	2722.583519
888.455082	2707.432332
888.764221	2695.595702
889.073319	2679.027950
889.382376	2674.024605
889.691392	2665.250477
890.000366	2666.052020
890.309300	2666.530930
890.618193	2666.127637
890.927044	2664.965652
891.235855	2663.723007
891.544625	2668.824655
891.853353	2675.368072
892.162041	2685.498271
892.470687	2707.026519
892.779293	2731.899572
893.087858	2761.317225
893.396381	2819.386276
893.704864	2904.483474
894.013306	3018.882378
894.321707	3131.106024
894.630068	3198.380222
894.938387	3198.763350
895.246665	3166.056344
895.554903	3097.957917
895.863100	3035.535830
896.171256	2985.245279
896.479371	2935.133689
896.787446	2892.568707
897.095480	2852.675536
897.403473	2822.915084
897.711425	2794.833336
898.019336	2772.634615
898.327207	2745.704772
898.635038	2727.644838
898.942827	2706.345963
899.250576	2689.632017
899.558284	2672.653411
899.865952	2663.700322
900.173579	2649.340595
900.481165	2640.304327
900.788711	2633.949952
901.096216	2623.204733
901.403681	2622.067953
901.711105	2616.699124
902.018489	2619.242386
902.325832	2627.840074
902.633135	2636.876342
902.940397	2669.447237
903.247619	2752.132243
903.554800	2910.132087
903.861941	3111.105246
904.169041	3256.769387
904.476101	3301.106335
904.783121	3241.020822
905.090100	3157.693070
905.397039	3074.579566
905.703938	3002.181035
906.010796	2934.430448
906.317614	2885.004455
906.624391	2836.564008
906.931129	2793.562966
907.237826	2759.421751
907.544483	2722.230639
907.851099	2688.147397
908.157675	2652.955102
908.464211	2623.134157
908.770707	2599.652462
909.077163	2583.440112
909.383578	2570.829665
909.689954	2560.250804
909.996289	2556.049002
910.302584	2551.655637
910.608839	2547.842004
910.915054	2548.467107
911.221229	2546.148176
911.527363	2546.861499
911.833458	2547.786551
912.139513	2550.387786
912.445527	2556.318704
912.751502	2561.339693
913.057436	2567.830179
913.363331	2583.258630
913.669186	2601.989037
913.975000	2624.563324
914.280775	2660.675630
914.586510	2714.343753
914.892205	2791.395269
915.197859	2891.099210
915.503475	3006.980214
915.809050	3101.219544
916.114585	3154.559992
916.420081	3163.077022
916.725536	3150.940444
917.030952	3105.176849
917.336328	3065.593709
917.641665	3023.633665
917.946961	2982.167654
918.252218	2943.365893
918.557435	2899.596075
918.862612	2858.883717
919.167750	2827.058912
919.472848	2786.959054
919.777906	2752.737181
920.082925	2723.226267
920.387904	2689.695032
920.692843	2670.047135
920.997743	2653.920483
921.302603	2631.217647
921.607423	2618.193826
921.912204	2604.277721
922.216946	2593.615681
922.521647	2582.699062
922.826310	2575.601117
923.130932	2567.870508
923.435516	2558.350289
923.740059	2553.324258
924.044564	2546.929555
924.349028	2542.800850
924.653454	2531.062523
924.957840	2526.177645
925.262186	2521.963240
925.566493	2518.936027
925.870761	2512.251458
926.174989	2512.886643
926.479178	2510.000582
926.783328	2503.386588
927.087438	2502.897597
927.391509	2500.054386
927.695541	2496.717142
927.999533	2493.964672
928.303486	2493.016935
928.607400	2494.567090
928.911275	2492.906030
929.215110	2493.213540
929.518906	2487.958137
929.822663	2486.402941
930.126381	2490.244300
930.430060	2490.319918
930.733699	2486.624752
931.037299	2492.127171
931.340861	2488.752119
931.644383	2492.979126
931.947866	2487.267499
932.251309	2490.942500
932.554714	2490.514002
932.858080	2488.855463
933.161407	2490.065339
933.464694	2487.877479
933.767943	2487.912767
934.071153	2487.597695
934.374323	2485.097282
934.677455	2485.283805
934.980548	2484.956130
935.283602	2485.442601
935.586617	2484.971253
935.889593	2484.578043
936.192530	2484.073928
936.495428	2484.749443
936.798287	2486.362612
937.101108	2489.969557
937.403890	2496.374343
937.706632	2499.925836
938.009336	2503.769716
938.312002	2511.686848
938.614628	2513.458814
938.917216	2519.878723
939.219765	2518.822602
939.522275	2523.208405
939.824747	2523.021883
940.127179	2522.290915
940.429573	2517.617766
940.731929	2520.201357
941.034246	2514.514936
941.336524	2518.326048
941.638763	2515.324041
941.940964	2515.921418
942.243126	2512.758093
942.545250	2514.300687
942.847335	2509.257012
943.149381	2507.827845
943.451389	2500.734942
943.753359	2499.683861
944.055290	2498.713439
944.357182	2498.010198
944.659036	2495.464415
944.960851	2496.210506
945.262628	2495.686226
945.564367	2494.340238
945.866067	2494.667913
946.167729	2492.840495
946.469352	2493.488283
946.770937	2493.949548
947.072484	2488.953765
947.373992	2492.565752
947.675462	2489.823364
947.976893	2488.386635
948.278286	2491.043323
948.579641	2487.033085
948.880958	2487.726244
949.182236	2484.744402
949.483476	2485.863538
949.784678	2486.327324
950.085841	2485.883702
950.386967	2488.389156
950.688054	2486.362612
950.989103	2490.846718
951.290114	2490.052737
951.591087	2494.446102
951.892021	2494.367964
952.192917	2496.480208
952.493776	2500.205620
952.794596	2499.023470
953.095378	2497.654797
953.396122	2500.717298
953.696828	2497.427945
953.997496	2499.555312
954.298126	2497.364930
954.598718	2498.463902
954.899272	2494.100783
955.199788	2489.349496
955.500266	2486.443270
955.800706	2483.385811
956.101108	2479.078145
956.401472	2476.665953
956.701798	2473.916003
957.002087	2470.614047
957.302337	2471.561784
957.602550	2471.569346
957.902724	2466.888635
958.202861	2466.276134
958.502960	2466.024077
958.803022	2464.186576
959.103045	2461.996195
959.403031	2461.018211
959.702979	2460.314970
960.002889	2458.709363
960.302762	2457.524691
960.602596	2455.520833
960.902393	2457.980916
961.202153	2453.380863
961.501875	2452.733075
961.801559	2453.090997
962.101205	2452.654937
962.400814	2450.663681
962.700385	2449.322734
962.999918	2452.317179
963.299414	2450.588064
963.598873	2451.185440
963.898293	2450.824998
964.197677	2449.347940
964.497022	2450.192333
964.796331	2448.274174
965.095601	2448.942127
965.394835	2449.209308
965.694030	2447.994390
965.993189	2447.197888
966.292309	2448.861468
966.591393	2446.179575
966.890439	2448.811057
967.189447	2443.628751
967.488419	2448.818619
967.787353	2449.148814
968.086249	2446.436673
968.385108	2447.278546
968.683930	2445.998093
968.982714	2446.197219
969.281462	2446.615634
969.580172	2446.013217
969.878844	2448.211160
970.177480	2448.717796
970.476078	2450.847683
970.774639	2450.358691
971.073162	2451.770214
971.371649	2446.507250
971.670098	2448.274174
971.968510	2445.050356
972.266885	2446.585387
972.565223	2448.841304
972.863524	2450.227621
973.161788	2450.872889
973.460014	2452.244083
973.758204	2451.266099
974.056356	2453.496809
974.354471	2454.220215
974.652550	2452.173507
974.950591	2450.572940
975.248595	2454.452108
975.546563	2451.298866
975.844493	2449.746191
976.142386	2451.316510
976.440243	2448.097734
976.738062	2449.264761
977.035845	2447.495316
977.333590	2447.142435
977.631299	2447.563371
977.928971	2446.855089
978.226606	2448.314503
978.524204	2446.658484
978.821765	2448.067487
979.119290	2447.432301
979.416777	2445.136056
979.714228	2446.318206
980.011642	2444.536158
980.309020	2448.190995
980.606360	2446.408947
980.903664	2452.410441
981.200931	2452.329782
981.498162	2458.853035
981.795356	2464.065588
982.092513	2470.183029
982.389633	2482.521253
982.686717	2488.268168
982.983764	2497.639673
983.280775	2500.016577
983.577749	2500.059427
983.874686	2498.726042
984.171587	2491.365957
984.468451	2493.379898
984.765279	2487.242293
985.062070	2480.255254
985.358824	2477.664101
985.655543	2473.356435
985.952224	2467.967442
986.248869	2463.324539
986.545478	2453.310287
986.842050	2453.327931
987.138586	2446.103957
987.435086	2445.599842
987.731549	2439.595828
988.027975	2443.449790
988.324366	2440.281425
988.620719	2440.072217
988.917037	2439.489963
989.213318	2435.537699
989.509563	2436.503080
989.805772	2439.305961
990.101944	2438.421239
990.398080	2437.682710
990.694180	2438.063317
990.990244	2436.833275
991.286271	2438.275045
991.582262	2435.341094
991.878217	2435.273038
992.174136	2435.499890
992.470019	2438.247319
992.765865	2438.206990
993.061676	2438.217072
993.357450	2437.246650
993.653188	2439.343770
993.948890	2439.880653
994.244556	2441.163627
994.540186	2443.207814
994.835780	2446.396344
995.131337	2448.889195
995.426859	2451.641665
995.722345	2457.920422
996.017795	2458.232973
996.313208	2460.720783
996.608586	2464.418469
996.903928	2467.251598
997.199234	2465.968624
997.494504	2462.850670
997.789738	2463.826134
998.084936	2461.030814
998.380099	2457.141564
998.675225	2456.708024
998.970316	2452.947324
999.265371	2450.746860
999.560390	2448.125460
999.855373	2444.362239
1000.150320	2440.016764
1000.445232	2441.929882
1000.740108	2437.987700
1001.034948	2436.281269
1001.329752	2433.221289
1001.624521	2436.719849
1001.919254	2430.274734
1002.213951	2431.535023
1002.508613	2430.005033
1002.803239	2433.435538
1003.097829	2428.137285
1003.392384	2432.956628
1003.686903	2430.239446
1003.981386	2431.414035
1004.275834	2431.240115
1004.570246	2428.699374
1004.864623	2431.285486
1005.158964	2430.496545
1005.453270	2431.003181
1005.747540	2429.440423
1006.041775	2429.450506
1006.335974	2429.377409
1006.630138	2426.476225
1006.924266	2430.113417
1007.218359	2429.556370
1007.512416	2428.853129
1007.806438	2427.091246
1008.100425	2429.687440
1008.394376	2428.285999
1008.688292	2429.077460
1008.982172	2427.048396
1009.276017	2426.750968
1009.569827	2430.753644
1009.863602	2427.842378
1010.157341	2427.991092
1010.451045	2425.042017
1010.744714	2428.966555
1011.038347	2427.025711
1011.331945	2425.619229
1011.625508	2429.001843
1011.919036	2426.423293
1012.212528	2427.975968
1012.505986	2428.341452
1012.799408	2427.136616
1013.092795	2423.847263
1013.386147	2422.700401
1013.679464	2426.753488
1013.972745	2425.301636
1014.265992	2425.291554
1014.559204	2427.068560
1014.852380	2428.921184
1015.145521	2425.641914
1015.438628	2422.866759
1015.731699	2424.716862
1016.024736	2425.291554
1016.317737	2424.726944
1016.610703	2425.047058
1016.903635	2423.101172
1017.196531	2422.092942
1017.489393	2420.381470
1017.782219	2420.925914
1018.075011	2425.173087
1018.367768	2424.096800
1018.660490	2425.614187
1018.953177	2425.614187
1019.245829	2425.614187
