Dividing Wavelength (nm)	Counts (n)	Blue Motor Position (mm): 0.000000	Red Motor Position (mm): 50.000000	
326.493990	2000.334887
326.888308	2000.334887
327.282561	2000.334887
327.676750	1975.371093
328.070874	1977.901753
328.464933	1983.346199
328.858929	1991.598568
329.252859	2001.945536
329.646726	2020.469256
330.040528	2033.616585
330.434265	2053.897147
330.827938	2074.366752
331.221547	2094.039855
331.615091	2113.654985
332.008571	2134.905969
332.401986	2156.794659
332.795338	2176.321568
333.188625	2197.343180
333.581847	2212.174254
333.975006	2233.584035
334.368100	2250.499626
334.761129	2266.727101
335.154095	2281.215377
335.546996	2325.396049
335.939833	2417.560944
336.332606	2429.493355
336.725315	2440.956939
337.117960	2452.770883
337.510540	2455.762808
337.903056	2466.114817
338.295508	2471.410550
338.687896	2481.598722
339.080220	2487.998466
339.472480	2493.200937
339.864676	2498.234529
340.256807	2502.685868
340.648875	2499.953563
341.040879	2502.643018
341.432818	2504.188132
341.824694	2505.299706
342.216506	2505.093019
342.608253	2506.033194
342.999937	2502.935405
343.391557	2504.382216
343.783113	2502.098574
344.174605	2501.465909
344.566033	2493.205978
344.957397	2494.748571
345.348697	2494.627584
345.739934	2491.461739
346.131106	2494.519199
346.522215	2490.468632
346.913260	2487.690956
347.304241	2489.881337
347.695159	2484.865389
348.086012	2484.348671
348.476802	2483.453866
348.867528	2484.661223
349.258191	2480.124184
349.648789	2481.969246
350.039324	2478.291725
350.429796	2480.078814
350.820203	2476.562609
351.210548	2479.123515
351.600828	2473.240488
351.991045	2476.557568
352.381198	2476.197125
352.771288	2473.172433
353.161314	2473.240488
353.551276	2477.797692
353.941175	2473.626137
354.331010	2476.305510
354.720782	2479.937661
355.110490	2481.235758
355.500135	2476.542444
355.889717	2477.374235
356.279235	2476.998669
356.668689	2478.604276
357.058080	2476.834831
357.447408	2477.830459
357.836672	2479.073103
358.225873	2480.870275
358.615010	2478.072434
359.004084	2485.283805
359.393095	2483.647951
359.782043	2486.750781
360.170927	2486.158445
360.559748	2487.557365
360.948505	2486.314721
361.337199	2489.041985
361.725830	2491.338231
362.114398	2493.387460
362.502903	2490.592140
362.891344	2494.015083
363.279722	2492.006184
363.668037	2498.796618
364.056289	2492.664054
364.444478	2496.124806
364.832603	2496.533140
365.220665	2498.612616
365.608665	2497.720332
365.996601	2496.273520
366.384474	2499.414159
366.772284	2501.821310
367.160031	2501.299551
367.547715	2502.711074
367.935336	2501.768378
368.322893	2506.615448
368.710388	2502.930364
369.097820	2509.352794
369.485189	2509.635099
369.872495	2511.402023
370.259738	2513.368073
370.646918	2515.797909
371.034035	2516.561644
371.421090	2522.910977
371.808081	2521.580113
372.195010	2529.497245
372.581875	2533.457071
372.968678	2542.359749
373.355418	2549.669422
373.742096	2561.405228
374.128710	2568.233471
374.515262	2584.350040
374.901751	2599.445775
375.288177	2617.611573
375.674540	2636.523462
376.060841	2656.506595
376.447079	2681.326716
376.833254	2708.417877
377.219367	2731.879407
377.605417	2768.064809
377.991404	2792.123716
378.377329	2834.229954
378.763191	2875.648074
379.148991	2920.327820
379.534727	2974.495018
379.920402	3021.803727
380.306013	3071.600244
380.691563	3139.171870
381.077049	3194.841332
381.462474	3250.107502
381.847835	3329.200685
382.233134	3403.308167
382.618371	3466.889720
383.003545	3553.622772
383.388657	3634.077067
383.773706	3732.616501
384.158693	3804.510917
384.543618	3905.795259
384.928480	3985.551354
385.313280	4092.970781
385.698017	4200.675033
386.082692	4328.143128
386.467305	4387.046491
386.851856	4521.824259
387.236344	4677.237991
387.620770	4744.106376
388.005133	4863.795972
388.389435	5019.388664
388.773674	5104.619453
389.157851	5238.230194
389.541965	5379.228747
389.926018	5403.965688
390.310008	5588.887814
390.693936	5711.677719
391.077802	5834.119784
391.461606	5975.330065
391.845348	6087.888948
392.229027	6209.937804
392.612645	6441.903977
392.996200	6562.463172
393.379694	6744.897488
393.763125	6966.718340
394.146494	7064.751138
394.529801	7213.442491
394.913047	7458.210675
395.296230	7464.146634
395.679351	7523.861622
396.062410	7797.495452
396.445408	7687.820109
396.828343	7847.087803
397.211217	7988.892940
397.594028	7868.336267
397.976778	8078.512053
398.359466	8248.696366
398.742092	8216.576654
399.124656	8374.631950
399.507158	8564.534736
399.889598	8585.082479
400.271977	8805.842168
400.654294	8839.416253
401.036549	9041.132983
401.418742	9067.578876
401.800874	9382.451866
402.182944	9466.939083
402.564952	9837.587399
402.946898	9660.262292
403.328783	9716.294717
403.710606	9918.555892
404.092367	10184.133959
404.474067	10552.768334
404.855705	10339.348565
405.237282	10290.766966
405.618797	10727.272915
406.000250	10987.948460
406.381642	11352.623009
406.762972	11311.656072
407.144240	11102.231418
407.525447	11367.486851
407.906593	11306.950155
408.287677	11570.438664
408.668700	11729.550082
409.049661	11695.807119
409.430560	11870.215918
409.811399	11836.351967
410.192176	12009.921415
410.572891	12083.857498
410.953545	12595.496804
411.334138	12042.643544
411.714669	12679.409331
412.095139	11952.205244
412.475547	12481.019762
412.855894	12310.785038
413.236180	12662.776044
413.616405	12324.262563
413.996568	12624.294396
414.376670	12586.642018
414.756711	12450.694701
415.136691	12756.667534
415.516609	12938.751490
415.896466	13008.337058
416.276262	13301.691882
416.655997	13746.732505
417.035670	13777.617134
417.415283	14452.249548
417.794834	14545.094999
418.174324	14285.994815
418.553753	14192.259600
418.933121	14694.305591
419.312428	14492.780425
419.691674	14403.075613
420.070859	14876.308889
420.449983	14528.524726
420.829045	15096.080511
421.208047	14826.749305
421.586988	15297.814885
421.965867	15561.016048
422.344686	15562.546038
422.723444	16139.705222
423.102141	14793.553307
423.480777	16012.905079
423.859352	15513.097360
424.237866	16646.333622
424.616319	16337.245356
424.994712	17011.388777
425.373044	16802.674926
425.751314	17499.967326
426.129524	16595.014675
426.507673	17746.124348
426.885762	17411.890806
427.263789	17629.038508
427.641756	17789.523641
428.019662	17862.194394
428.397508	17889.323364
428.775292	18217.169763
429.153016	18172.404317
429.530679	18262.376310
429.908282	18283.846584
430.285824	17988.631574
430.663305	18715.944045
431.040726	18314.796748
431.418086	18129.856978
431.795385	18785.317884
432.172624	19206.849086
432.549802	18774.497047
432.926920	18947.189334
433.303977	18838.640688
433.680974	19101.108363
434.057910	19397.089629
434.434786	19410.851979
434.811601	19330.740483
435.188355	20394.222298
435.565050	20034.359531
435.941683	19981.692076
436.318257	20881.540558
436.694770	20686.662153
437.071222	21294.055657
437.447614	20346.326296
437.823946	20377.808301
438.200218	20533.136334
438.576429	20302.034718
438.952580	20561.555838
439.328670	20549.051256
439.704700	20976.878860
440.080670	20537.718742
440.456580	21130.732355
440.832429	21322.737302
441.208218	20278.288363
441.583947	20742.964280
441.959616	20842.237202
442.335224	21088.807599
442.710773	21231.746995
443.086261	21781.225203
443.461689	21126.379318
443.837057	21250.240468
444.212365	21913.046335
444.587612	21908.804204
444.962800	21469.011422
445.337927	21911.632291
445.712995	20618.062132
446.088002	22520.424715
446.462949	22704.573024
446.837837	22899.264906
447.212664	22857.193956
447.587431	25768.664469
447.962139	28759.848227
448.336786	31171.700065
448.711374	29558.984538
449.085901	25808.726519
449.460369	25756.870690
449.834776	25688.724372
450.209124	28232.480521
450.583412	27731.208347
450.957640	28262.772814
451.331808	26896.337817
451.705917	25502.209242
452.079965	25539.768358
452.453954	25915.624186
452.827883	25785.181810
453.201752	25591.024290
453.575562	25759.769353
453.949311	26920.043843
454.323001	26974.296741
454.696632	26728.618629
455.070202	28313.680906
455.443713	28451.012019
455.817164	29061.951974
456.190556	29597.667832
456.563888	29018.656025
456.937160	29476.254162
457.310373	27775.043700
457.683526	28258.470189
458.056619	28231.147135
458.429653	28165.765891
458.802628	28755.386806
459.175542	28866.539207
459.548398	30179.084270
459.921194	31798.401188
460.293930	32460.634883
460.666607	34520.165519
461.039224	36311.347975
461.411782	36700.877932
461.784280	35491.510166
462.156719	35020.116911
462.529099	34466.424299
462.901419	33158.144053
463.273680	32080.471389
463.645882	32159.874603
464.018024	32154.389828
464.390106	33009.424973
464.762130	35757.201659
465.134094	39867.118278
465.505999	45210.993413
465.877845	49806.277366
466.249631	50977.728094
466.621358	49300.788267
466.993026	47210.002477
467.364634	45129.503161
467.736184	43141.380469
468.107674	41887.680796
468.479105	41062.406102
468.850477	40372.113344
469.221790	38928.420144
469.593043	37138.586198
469.964238	36232.108598
470.335373	36157.096229
470.706449	37939.312992
471.077467	40571.541391
471.448425	45163.205795
471.819324	47959.284297
472.190164	46075.087512
472.560945	42484.066940
472.931667	39352.602993
473.302330	38245.681555
473.672934	37412.908146
474.043479	37928.527443
474.413965	37112.508309
474.784393	36719.958700
475.154761	37640.980028
475.525070	37661.152205
475.895321	37196.052831
476.265513	37807.794329
476.635645	38783.754152
477.005719	38612.193605
477.375734	39081.406561
477.745691	39780.191142
478.115588	41165.253202
478.485427	43157.005525
478.855207	46535.385187
479.224928	49166.295324
479.594591	50776.192846
479.964194	49808.578653
480.333739	49980.063583
480.703226	50019.530777
481.072653	50657.718168
481.442022	51122.593212
481.811333	51383.346894
482.180584	50096.335276
482.549777	49574.507797
482.918912	49048.165966
483.287988	48764.689282
483.657005	47933.367725
484.025964	47273.210984
484.394864	47304.415727
484.763706	46880.610964
485.132489	45993.935017
485.501213	45817.444221
485.869879	45969.765205
486.238487	45579.116111
486.607036	45762.543535
486.975527	45214.726387
487.343959	45406.932981
487.712333	45500.922774
488.080648	45412.979845
488.448905	45867.583537
488.817104	45701.734617
489.185244	46675.622525
489.553326	48371.804436
489.921350	51069.245201
490.289315	53897.163630
490.657222	54474.111085
491.025070	54755.024342
491.392861	53865.898394
491.760593	52671.102083
492.128267	51023.474045
492.495883	49510.923724
492.863440	48123.033576
493.230939	46754.758558
493.598380	45655.222411
493.965763	45333.553945
494.333088	44512.856620
494.700354	44011.004713
495.067563	43715.943458
495.434713	43583.182151
495.801805	43654.285105
496.168839	43263.867905
496.535815	42924.441975
496.902733	42965.691216
497.269593	42540.457287
497.636395	42464.726553
498.003139	42891.823189
498.369825	42343.441432
498.736453	42656.373578
499.103023	42165.823938
499.469535	42047.644169
499.835989	42137.175061
500.202385	41800.483957
500.568723	41826.975221
500.935003	42012.366174
501.301226	41803.795996
501.667390	42424.888835
502.033497	42709.651013
502.399546	42125.257773
502.765537	41451.784825
503.131470	41830.108298
503.497345	42183.740199
503.863163	40824.642602
504.228923	41460.934520
504.594625	41878.435319
504.960269	41174.317197
505.325856	41880.086297
505.691385	41207.810623
506.056856	41352.453930
506.422270	41806.785400
506.787625	41365.936496
507.152924	41573.954668
507.518164	41674.712210
507.883347	40850.551612
508.248472	41140.793524
508.613540	41602.900974
508.978550	41931.203597
509.343503	41656.309478
509.708398	41870.873589
510.073236	42417.707711
510.438016	42401.631471
510.802738	41864.494008
511.167403	42502.096626
511.532010	42735.257553
511.896561	43028.670351
512.261053	43898.181170
512.625488	43425.681381
512.989866	43303.158658
513.354186	43143.318793
513.718449	43140.536076
514.082655	43834.423176
514.446803	43491.473480
514.810894	44017.187688
515.174927	43938.190287
515.538904	43841.266543
515.902822	44522.999421
516.266684	43951.662771
516.630488	44394.744906
516.994235	44250.794758
517.357925	44819.661243
517.721558	45007.658473
518.085133	45311.566953
518.448651	45449.266070
518.812112	45218.391306
519.175516	45322.473489
519.538863	45656.664181
519.902152	45607.875894
520.265385	46086.508246
520.628560	46129.468959
520.991678	45919.590601
521.354739	46165.077149
521.717743	46479.395612
522.080690	46369.710186
522.443580	46920.209227
522.806413	46966.665981
523.169189	46906.993843
523.531908	47099.507946
523.894569	46959.439487
524.257174	47116.612581
524.619722	47443.443188
524.982213	47420.634487
525.344647	47330.216352
525.707025	47372.267137
526.069345	47773.076676
526.431608	47696.015078
526.793815	48032.186943
527.155964	47538.950368
527.518057	47700.108495
527.880093	47487.765013
528.242072	47994.700923
528.603995	47708.340699
528.965860	47706.349443
529.327669	47805.743353
529.689421	47704.942962
530.051117	47667.351077
530.412755	47799.457034
530.774337	47862.456334
531.135862	47662.151127
531.497331	47871.331285
531.858743	47753.219571
532.220098	48119.368657
532.581396	47823.881425
532.942638	47460.598235
533.303824	47791.610478
533.664953	47734.887415
534.026025	47444.002756
534.387040	47927.860264
534.747999	47873.007469
535.108902	48040.477120
535.469748	47555.669355
535.830537	47656.016043
536.191270	47846.881689
536.551947	47497.252464
536.912567	47829.071293
537.273131	47932.848486
537.633638	47404.197805
537.994089	47763.944626
538.354483	47351.764764
538.714821	47923.408925
539.075103	48275.422616
539.435328	48017.179428
539.795497	47902.036953
540.155609	47898.603928
540.515665	48371.295280
540.875665	47813.854570
541.235609	48151.163215
541.595496	48116.404459
541.955328	48797.240012
542.315102	48158.054472
542.674821	47932.886294
543.034483	48005.960340
543.394090	47964.282601
543.753640	47906.251358
544.113134	48917.824412
544.472571	47927.933361
544.831953	49191.354899
545.191278	48374.473727
545.550548	48089.779605
545.909761	48581.796220
546.268918	48780.059760
546.628019	49071.037681
546.987064	48632.905959
547.346053	47896.408505
547.704986	48797.166916
548.063863	48334.963684
548.422684	48548.413700
548.781449	48406.598480
549.140158	48786.449422
549.498811	48630.977717
549.857408	48069.098271
550.215949	48923.707439
550.574434	48837.765848
550.932864	48591.727293
551.291237	49327.584520
551.649555	48926.991751
552.007817	49144.086520
552.366022	48811.438422
552.724173	48978.764401
553.082267	49399.496580
553.440305	49673.402633
553.798288	48997.920785
554.156215	49311.377211
554.514086	49525.790087
554.871902	49261.799983
555.229661	49298.050921
555.587365	49126.901227
555.945014	49206.440552
556.302606	49114.008476
556.660143	49376.478672
557.017625	49451.596905
557.375050	49244.329865
557.732421	49596.499831
558.089735	49582.563561
558.446994	49503.939205
558.804197	49959.732610
559.161345	49915.987997
559.518437	49164.132669
559.875474	49455.413058
560.232455	49604.295976
560.589381	49805.783333
560.946251	49495.132310
561.303065	50198.038034
561.659825	50000.392036
562.016528	49651.745836
562.373177	49382.656606
562.729770	49874.958046
563.086307	49384.461339
563.442789	49827.190593
563.799216	49901.461912
564.155587	49667.645635
564.511904	49693.048010
564.868164	49802.345266
565.224370	50036.524506
565.580520	49762.318505
565.936615	49985.477783
566.292654	49723.199151
566.648638	49958.240428
567.004567	49914.810888
567.360441	49955.624069
567.716260	49818.781948
568.072023	50083.770200
568.427732	50078.900446
568.783385	49622.915477
569.138982	50029.323218
569.494525	49988.520119
569.850013	49761.017887
570.205445	49712.743798
570.560823	49683.968892
570.916145	49565.882383
571.271412	49599.741293
571.626625	49354.930259
571.981782	49424.407442
572.336884	49100.115056
572.691931	49435.220717
573.046923	49026.781391
573.401860	48873.295900
573.756743	48880.174555
574.111570	48980.997632
574.466342	48825.725052
574.821059	48944.376170
575.175722	48459.288620
575.530330	48502.977780
575.884882	48204.037357
576.239380	48170.211215
576.593823	48150.785128
576.948211	48069.123477
577.302544	47587.894931
577.656823	47611.984085
578.011047	47834.162858
578.365216	47557.398471
578.719330	47348.062037
579.073389	47205.999801
579.427394	47281.412942
579.781344	47244.236953
580.135239	46890.048004
580.489080	47002.518667
580.842866	46480.456775
581.196597	46921.575380
581.550273	46867.728295
581.903895	46730.684528
582.257463	47165.557144
582.610975	46535.402831
582.964434	46804.245045
583.317837	46447.328832
583.671186	46285.212886
584.024481	46515.943977
584.377721	46053.735704
584.730906	46345.956269
585.084037	46377.735703
585.437113	46089.537979
585.790135	46123.898484
586.143103	45726.786631
586.496016	45855.961157
586.848874	45876.087963
587.201679	45921.506239
587.554428	45390.682821
587.907124	45566.992136
588.259765	45321.850907
588.612352	45585.798160
588.964884	44954.993538
589.317362	45259.569972
589.669786	45198.012442
590.022155	44949.720492
590.374470	45396.520478
590.726731	44898.804838
591.078937	44425.969813
591.431090	44521.164441
591.783188	44186.699007
592.135232	43848.056977
592.487222	44099.466881
592.839157	44183.626424
593.191038	43858.577865
593.542866	43620.549704
593.894639	43000.165147
594.246358	43284.365236
594.598022	43265.791105
594.949633	42862.667676
595.301190	42817.922394
595.652692	42632.289466
596.004141	42981.764935
596.355535	41967.336068
596.706876	41908.722572
597.058162	41766.667897
597.409395	42246.875610
597.760573	42316.584685
598.111698	41889.631722
598.462768	41911.553180
598.813785	41947.481483
599.164748	41383.784701
599.515657	41767.908021
599.866511	41237.525705
600.217312	41867.407795
600.568060	40795.101440
600.918753	41564.822618
601.269392	41499.718637
601.619978	41172.681343
601.970510	41384.913920
602.320988	41575.522467
602.671412	41879.677964
603.021783	41619.448561
603.372100	41267.545776
603.722363	41388.478015
604.072572	41449.458333
604.422728	41479.097797
604.772830	41274.610953
605.122878	41371.895140
605.472872	41312.616212
605.822813	41590.169540
606.172701	41417.661255
606.522534	41659.193018
606.872314	41954.097997
607.222041	41670.916221
607.571714	42072.154259
607.921333	41489.013747
608.270899	41787.681947
608.620411	42144.661175
608.969870	41939.690380
609.319276	41929.053545
609.668627	41982.905671
610.017926	42485.740603
610.367171	42659.020184
610.716362	42732.353849
611.065500	42661.760051
611.414585	42847.392980
611.763616	43154.769774
612.112594	43085.511882
612.461518	43298.437617
612.810389	43590.131382
613.159207	43449.697438
613.507971	43538.134400
613.856682	44007.652346
614.205340	43879.934713
614.553945	44590.566006
614.902496	44031.023135
615.250994	44507.152554
615.599439	44579.379686
615.947830	44796.134178
616.296169	44828.788252
616.644454	44951.043794
616.992686	45133.442823
617.340864	45631.319780
617.688990	45336.369430
618.037063	45963.337734
618.385082	45917.228820
618.733048	46224.156951
619.080961	46234.634990
619.428821	46232.817654
619.776628	46353.870881
620.124382	46185.657659
620.472083	46333.423961
620.819731	46484.376272
621.167326	46141.585372
621.514868	46116.820704
621.862357	45688.975456
622.209793	45703.609926
622.557176	45381.646553
622.904506	45146.186860
623.251783	44794.306760
623.599007	44574.588069
623.946179	44338.208365
624.293297	44311.490250
624.640363	43670.714226
624.987376	43663.278524
625.334336	43405.035336
625.681243	43028.728325
626.028097	42980.852487
626.374899	42835.137935
626.721647	42794.150833
627.068343	42676.021475
627.414987	42446.056640
627.761577	42202.480689
628.108115	42528.645863
628.454600	41967.615852
628.801032	42139.471307
629.147412	42093.881632
629.493739	42117.108748
629.840014	41729.340674
630.186236	42060.284862
630.532405	41662.421877
630.878521	41880.303067
631.224585	41741.898188
631.570597	41470.903401
631.916556	41624.867802
632.262462	41564.263050
632.608316	41579.431882
632.954117	41467.876188
633.299866	41456.977214
633.645562	41382.474001
633.991206	40888.451007
634.336797	40442.538264
634.682336	40448.683430
635.027823	40195.670439
635.373257	40038.557838
635.718639	39773.435996
636.063968	39631.635900
636.409245	39050.930265
636.754470	39098.155794
637.099642	38836.865229
637.444762	38320.903132
637.789829	38473.367789
638.134845	38126.917012
638.479808	38078.789116
638.824719	37958.499624
639.169577	37553.304280
639.514383	37619.298025
639.859137	37300.939078
640.203839	37542.392703
640.548489	37174.990890
640.893086	37240.495643
641.237632	36959.385781
641.582125	37078.336847
641.926566	37008.095930
642.270955	36957.351676
642.615292	36985.735892
642.959576	36948.978319
643.303809	36921.622498
643.647990	37088.257838
643.992118	37050.469349
644.336195	37023.738631
644.680219	37106.413554
645.024192	37404.733915
645.368112	37928.590458
645.711981	37922.394880
646.055797	38816.952671
646.399562	38716.081703
646.743274	39689.941885
647.086935	40147.411473
647.430544	40036.427951
647.774101	40165.602477
648.117606	40398.208877
648.461059	40751.634091
648.804460	40389.338967
649.147810	39736.673382
649.491108	39501.254017
649.834354	39118.201942
650.177548	38256.762012
650.520690	37811.900349
650.863781	37830.408946
651.206820	37666.669748
651.549807	37217.903712
651.892742	36719.923412
652.235626	36510.549169
652.578458	36361.396550
652.921238	35751.913488
653.263967	36068.613897
653.606644	35724.842492
653.949269	35671.993556
654.291843	35266.619252
654.634365	35669.548596
654.976836	35244.891879
655.319255	35240.410293
655.661622	35256.186584
656.003938	35010.170714
656.346203	34867.488417
656.688416	35088.855564
657.030577	34892.444649
657.372687	34721.143720
657.714746	35007.264489
658.056753	35118.091736
658.398708	34563.678239
658.740612	34597.842138
659.082465	34884.177156
659.424266	34692.202456
659.766016	34807.990198
660.107715	34697.601532
660.449362	34824.530224
660.790958	34806.871062
661.132503	34822.962425
661.473996	34847.129717
661.815438	34953.840861
662.156829	35164.152759
662.498168	34924.594607
662.839456	34951.761385
663.180693	35093.203559
663.521879	35246.285758
663.863013	35200.323038
664.204097	35198.364549
664.545129	35670.196385
664.886110	35614.360565
665.227040	35687.527872
665.567918	35781.167304
665.908746	35859.889963
666.249522	36034.954112
666.590248	36032.201642
666.930922	36168.660636
667.271545	36099.024657
667.612118	36189.185694
667.952639	35978.561245
668.293109	36030.074275
668.633528	35931.250016
668.973896	35855.660435
669.314213	35890.908182
669.654480	35638.865613
669.994695	35670.582033
670.334859	35533.719747
670.674973	35441.534687
671.015035	35606.219101
671.355047	35545.813475
671.695008	35476.497610
672.034918	35367.979212
672.374777	35450.162622
672.714585	35260.678252
673.054342	35504.226477
673.394049	35249.048310
673.733705	35552.243467
674.073310	35210.186055
674.412864	35290.748735
674.752368	34867.838777
675.091820	35194.752562
675.431223	34773.392759
675.770574	34483.929706
676.109875	34340.990309
676.449125	34046.604568
676.788324	33964.169100
677.127473	33414.292641
677.466571	33343.736652
677.805619	32968.841164
678.144616	32984.889677
678.483562	32871.819117
678.822458	32529.542415
679.161303	32458.016004
679.500098	32365.029400
679.838842	32240.971645
680.177535	32375.693961
680.516179	32657.214677
680.854771	32887.981056
681.193314	33759.382307
681.531805	34892.850462
681.870247	35654.962018
682.208638	36400.551192
682.546978	36621.051261
682.885268	36755.201406
683.223508	36224.561991
683.561697	35888.853912
683.899836	35693.778902
684.237925	35198.084765
684.575963	35036.238521
684.913951	34542.228129
685.251889	34713.801280
685.589776	34657.557126
685.927614	34635.968385
686.265401	34779.295951
686.603137	34839.946072
686.940824	35346.077919
687.278460	35718.001647
687.616046	35846.984609
687.953582	36452.336445
688.291068	36337.965267
688.628504	36628.169371
688.965889	36581.359737
689.303224	36210.822326
689.640510	35899.465541
689.977745	35151.076006
690.314930	34378.514138
690.652065	33853.190619
690.989150	33120.385810
691.326185	32196.062526
691.663170	31480.863948
692.000105	30712.897092
692.336990	30001.020633
692.673825	29544.004749
693.010610	28988.943464
693.347345	28377.522078
693.684030	27689.364249
694.020665	27400.833809
694.357251	26697.827261
694.693786	26622.078883
695.030272	26365.983227
695.366707	25796.136237
695.703093	25499.025753
696.039429	25485.112168
696.375716	25203.263777
696.711952	25157.439689
697.048139	24975.373377
697.384276	24804.248889
697.720363	24920.243318
698.056400	24713.873603
698.392388	24489.343131
698.728326	24454.682678
699.064214	24242.213167
699.400053	24198.158523
699.735842	23836.846424
700.071581	23540.361043
700.407270	23237.954827
700.742910	23043.583058
701.078501	22767.917642
701.414042	22469.037713
701.749533	22171.324811
702.084974	21793.686935
702.420366	22012.079802
702.755709	21554.350595
703.091002	21242.761917
703.426246	21267.836616
703.761440	21145.681896
704.096584	20869.250225
704.431679	20812.627985
704.766725	20712.576205
705.101721	20640.530555
705.436668	20736.257025
705.771565	20385.100330
706.106413	20747.942420
706.441212	20719.999304
706.775961	20838.010195
707.110661	20920.690159
707.445311	21270.757964
707.779913	21092.631314
708.114465	21324.244607
708.448967	21603.096032
708.783421	22324.865754
709.117825	22590.431218
709.452180	22816.229540
709.786485	23208.073388
710.120742	24025.239385
710.454949	24025.325084
710.789107	24502.687066
711.123216	25214.387083
711.457275	25336.670352
711.791286	25906.502218
712.125247	25997.321125
712.459159	25706.736415
712.793023	26427.444974
713.126837	25304.296062
713.460602	25603.632216
713.794318	25240.049077
714.127985	24854.247052
714.461602	23947.126706
714.795171	23930.667339
715.128691	22869.514536
715.462162	22324.936330
715.795584	21888.851317
716.128957	21625.652675
716.462281	21189.597908
716.795556	20942.611617
717.128782	20419.493602
717.461960	19857.437716
717.795088	19774.798081
718.128167	19346.355457
718.461198	18868.328043
718.794180	18729.504749
719.127113	18334.283328
719.459997	18131.994427
719.792833	17754.414525
720.125619	17732.571205
720.458357	17376.995939
720.791046	17191.990634
721.123686	17032.856531
721.456278	16783.967204
721.788821	16727.765900
722.121315	16442.804597
722.453761	16523.536155
722.786158	16447.749969
723.118506	16448.859022
723.450805	16308.553629
723.783056	16466.858462
724.115259	16353.568612
724.447412	16279.980369
724.779518	16523.616813
725.111574	16543.080708
725.443582	16741.382057
725.775542	16725.857823
726.107453	17190.561467
726.439315	17073.147953
726.771129	17486.348649
727.102895	17863.152213
727.434612	18071.281291
727.766281	18205.844811
728.097901	18482.566348
728.429473	18527.039408
728.760996	18521.852060
729.092471	18618.942163
729.423897	18501.352208
729.755276	18375.635913
730.086606	18492.958687
730.417887	19021.518627
730.749120	19527.325318
731.080305	19706.886177
731.411442	20067.883204
731.742530	20152.703138
732.073570	20253.490927
732.404562	20582.390927
732.735506	20415.075031
733.066401	20128.288830
733.397249	19600.782492
733.728048	18939.940154
734.058798	18084.673116
734.389501	17370.999487
734.720156	16890.753966
735.050762	16334.248390
735.381320	15954.926769
735.711831	15691.521439
736.042293	15324.616180
736.372707	15305.288396
736.703073	15081.199025
737.033391	15269.082829
737.363661	15214.897987
737.693883	15322.551827
738.024056	15473.844416
738.354182	15652.397044
738.684260	15938.870694
739.014290	16150.972201
739.344272	16342.742734
739.674207	16636.868855
740.004093	16750.786329
740.333931	16755.766989
740.663722	16813.145402
740.993464	16817.422821
741.323159	16657.492216
741.652806	16381.688168
741.982405	16170.758729
742.311956	15831.990670
742.641460	15722.418671
742.970915	15410.996351
743.300323	15061.314194
743.629683	14848.446432
743.958996	14559.895827
744.288260	14285.989773
744.617477	13980.730264
744.946647	13900.036514
745.275768	13613.525056
745.604842	13428.305502
745.933869	13241.631575
746.262847	13197.871839
746.591778	13110.806071
746.920662	12999.462106
747.249498	12993.657217
747.578286	13119.943162
747.907027	13255.419131
748.235720	13469.022902
748.564365	13499.446265
748.892963	13388.835788
749.221514	13455.343731
749.550017	13296.408753
749.878473	13266.383641
750.206881	13035.314792
750.535242	12945.274743
750.863555	12846.294208
751.191821	12745.788724
751.520039	12774.470369
751.848210	12661.737566
752.176334	12697.126466
752.504411	12593.669386
752.832440	12421.473653
753.160421	12490.925630
753.488356	12357.743386
753.816243	12253.837644
754.144082	12102.411464
754.471875	12052.892210
754.799620	11977.733647
755.127318	11953.359669
755.454969	11920.715677
755.782572	11864.698375
756.110129	11884.779812
756.437638	11786.552929
756.765100	11790.174998
757.092515	11779.545725
757.419882	11792.872015
757.747203	11791.392437
758.074477	11873.091897
758.401703	11819.854791
758.728882	11981.048206
759.056014	12028.682069
759.383099	12142.934780
759.710138	12238.071435
760.037129	12327.791371
760.364073	12351.076460
760.690970	12338.536590
761.017820	12335.080879
761.344623	12540.039071
761.671379	12890.888255
761.998088	13548.852093
762.324751	15163.352189
762.651366	18134.948544
762.977935	21853.399403
763.304456	24135.592763
763.630931	24667.991541
763.957359	23530.780330
764.283740	21589.437025
764.610074	19667.459313
764.936362	17466.254609
765.262602	15891.589712
765.588796	14346.294576
765.914943	13292.017908
766.241044	12381.784649
766.567097	11709.987884
766.893104	11136.226439
767.219064	10751.861143
767.544978	10339.656076
767.870845	10007.900262
768.196665	9815.746600
768.522438	9604.653324
768.848165	9431.774515
769.173846	9256.372608
769.499479	9132.208989
769.825066	8968.207651
770.150607	8773.167929
770.476101	8713.347077
770.801548	8591.774611
771.126949	8449.772869
771.452303	8354.386677
771.777611	8182.538783
772.102872	8165.073706
772.428087	8037.043521
772.753256	7911.012155
773.078378	7815.089079
773.403453	7670.975094
773.728482	7557.203813
774.053465	7480.474931
774.378401	7395.249184
774.703291	7295.472147
775.028135	7193.166970
775.352932	7151.025445
775.677683	7065.038484
776.002388	6973.536500
776.327046	6970.829401
776.651658	6877.013528
776.976224	6801.244985
777.300743	6783.447192
777.625216	6710.322734
777.949643	6663.160220
778.274024	6665.292628
778.598359	6596.395178
778.922647	6595.533141
779.246889	6549.204937
779.571086	6554.041924
779.895236	6567.075827
780.219339	6556.864970
780.543397	6552.784156
780.867409	6605.413802
781.191374	6606.343895
781.515294	6565.750004
781.839167	6618.389732
782.162995	6592.102636
782.486776	6547.410286
782.810511	6509.775552
783.134201	6426.727584
783.457844	6417.570328
783.781441	6371.166507
784.104993	6327.157233
784.428498	6299.292256
784.751958	6282.180059
785.075372	6254.017653
785.398739	6211.165325
785.722061	6232.204580
786.045337	6235.473768
786.368568	6350.875862
786.691752	6372.313369
787.014891	6626.737883
787.337983	6908.848414
787.661030	7354.647731
787.984031	7796.532592
788.306987	8059.161584
788.629897	8155.392170
788.952760	8072.066938
789.275579	7909.272957
789.598351	7598.616892
789.921078	7331.191242
790.243759	7040.677108
790.566395	6828.988975
790.888984	6630.642257
791.211529	6489.197562
791.534027	6313.094935
791.856480	6167.458521
792.178888	6106.019458
792.501249	6030.593714
792.823566	5912.620632
793.145836	5914.107773
793.468062	5888.934771
793.790241	5848.318194
794.112375	5891.979628
794.434464	5986.453371
794.756507	6014.106621
795.078505	6140.503471
795.400457	6355.506162
795.722364	6598.842658
796.044226	6793.721063
796.366042	6960.895807
796.687812	6914.723879
797.009538	6951.950279
797.331218	6858.953594
797.652852	6796.453368
797.974442	6669.738925
798.295986	6593.181443
798.617484	6471.487989
798.938938	6353.247725
799.260346	6286.399505
799.581709	6143.250900
799.903026	6087.619247
800.224299	6012.639645
800.545526	5887.682044
800.866708	5819.243339
801.187845	5768.267192
801.508936	5687.432290
801.829983	5657.717208
802.150984	5540.233118
802.471940	5515.738152
802.792851	5491.517928
803.113717	5467.827025
803.434538	5443.137974
803.755314	5406.438374
804.076045	5392.413884
804.396731	5353.917113
804.717372	5365.632755
805.037967	5365.756263
805.358518	5392.136621
805.679024	5449.908244
805.999485	5459.224296
806.319901	5471.156707
806.640272	5489.612372
806.960598	5534.627355
807.280879	5528.416653
807.601115	5567.553651
807.921306	5531.794227
808.241453	5532.421850
808.561554	5540.485176
808.881611	5515.851577
809.201623	5509.756822
809.521590	5462.677487
809.841513	5447.528819
810.161390	5469.021779
810.481223	5379.377461
810.801011	5365.652919
811.120755	5343.297922
811.440453	5288.056959
811.760107	5253.555302
812.079716	5233.015120
812.399281	5181.073592
812.718801	5176.556718
813.038276	5137.712107
813.357707	5105.035348
813.677093	5130.745232
813.996434	5064.809461
814.315731	5084.727059
814.634983	5081.901493
814.954191	5090.915076
815.273354	5151.224920
815.592473	5195.662691
815.911547	5276.391729
816.230577	5331.302497
816.549562	5426.885294
816.868502	5477.768181
817.187399	5539.348396
817.506250	5628.917097
817.825058	5664.142159
818.143821	5828.171223
818.462539	6009.524212
818.781213	6250.120841
819.099843	6626.382482
819.418429	7283.564941
819.736970	7939.383768
820.055466	8678.008589
820.373919	9662.009052
820.692327	11229.248330
821.010691	14132.302637
821.329011	20707.227541
821.647286	30609.306421
821.965517	41234.034706
822.283704	46759.227541
822.601847	48321.569338
822.919945	43761.245787
823.237999	38619.667115
823.556010	33325.046574
823.873976	28454.906311
824.191897	24036.909656
824.509775	20790.673760
824.827609	17864.838479
825.145398	16191.797985
825.463144	15378.564088
825.780845	15691.024885
826.098502	16994.611817
826.416116	19506.094499
826.733685	21767.563676
827.051210	22223.475547
827.368692	20712.177954
827.686129	18109.858721
828.003522	15548.418205
828.320872	13268.906738
828.638177	11517.083091
828.955439	10205.831085
829.272656	9087.186444
829.589830	8209.254378
829.906960	7432.102539
830.224046	6868.912393
830.541088	6436.572957
830.858086	6158.944012
831.175041	5943.651455
831.491952	5880.241301
831.808819	5915.552063
832.125642	6179.196847
832.442421	6768.169975
832.759157	7931.990916
833.075849	9755.151931
833.392497	11636.717234
833.709101	12795.544912
834.025662	12519.783715
834.342179	11439.701380
834.658653	10106.837947
834.975083	8956.320610
835.291469	8019.147425
835.607811	7240.064825
835.924110	6693.460075
836.240366	6171.786351
836.556578	5695.324216
836.872746	5322.001568
837.188871	5031.212691
837.504952	4800.569820
837.820990	4615.892190
838.136984	4495.764014
838.452935	4441.967341
838.768842	4479.302127
839.084706	4786.764620
839.400526	5553.733328
839.716303	6491.496328
840.032037	7078.437871
840.347727	6917.221771
840.663373	6297.883253
840.978977	5707.047419
841.294537	5243.931739
841.610054	4891.625661
841.925527	4635.242659
842.240957	4414.397271
842.556344	4214.092064
842.871687	4045.165519
843.186987	3887.959657
843.502244	3760.478958
843.817458	3668.127541
844.132629	3592.999225
844.447756	3542.060886
844.762840	3490.696569
845.077881	3446.377265
845.392879	3413.450969
845.707833	3381.686658
846.022745	3356.279243
846.337613	3339.270390
846.652438	3313.129487
846.967221	3305.807211
847.281960	3281.471041
847.596656	3272.432252
847.911309	3264.676437
848.225919	3242.944022
848.540485	3236.251891
848.855009	3226.550190
849.169490	3213.843962
849.483928	3204.916078
849.798323	3198.042465
850.112675	3188.983512
850.426984	3192.164480
850.741251	3178.402130
851.055474	3175.808456
851.369654	3178.316430
851.683792	3176.378106
851.997887	3178.971780
852.311938	3177.383817
852.625947	3174.838034
852.939914	3169.759071
853.253837	3177.323323
853.567718	3173.323167
853.881555	3166.797393
854.195350	3172.108249
854.509103	3170.074143
854.822812	3165.390912
855.136479	3163.346724
855.450103	3168.057682
855.763685	3158.751712
856.077224	3160.705159
856.390720	3171.904082
856.704173	3180.171575
857.017584	3184.433870
857.330953	3190.740354
857.644278	3198.591951
857.957561	3202.324925
858.270802	3198.314687
858.584000	3197.571117
858.897155	3197.455171
859.210268	3182.586287
859.523339	3168.387877
859.836367	3172.017508
860.149352	3163.162722
860.462295	3159.717093
860.775195	3147.260402
861.088054	3144.341574
861.400869	3147.078920
861.713642	3142.887201
862.026373	3153.392965
862.339062	3156.427740
862.651708	3165.133813
862.964312	3181.552851
863.276873	3188.857483
863.589392	3220.137842
863.901869	3248.171699
864.214303	3270.123403
864.526696	3291.757515
864.839045	3307.097746
865.151353	3321.674243
865.463619	3323.594922
865.775842	3324.076352
866.088023	3331.849812
866.400162	3325.039213
866.712258	3327.821930
867.024313	3326.975016
867.336325	3325.558452
867.648296	3328.124399
867.960224	3327.542146
868.272110	3327.771518
868.583954	3327.889985
868.895755	3338.118486
869.207515	3334.216633
869.519233	3354.247658
869.830909	3359.752598
870.142542	3372.249618
870.454134	3378.339332
870.765684	3390.790982
871.077191	3415.031371
871.388657	3428.211467
871.700081	3442.432562
872.011463	3467.119093
872.322803	3487.356805
872.634101	3505.109228
872.945357	3527.015562
873.256571	3555.674522
873.567744	3571.370154
873.878874	3576.759148
874.189963	3597.836212
874.501010	3596.691870
874.812015	3594.551900
875.122979	3612.581587
875.433900	3609.307357
875.744780	3615.213069
876.055618	3622.797485
876.366415	3627.768063
876.677169	3631.745533
876.987882	3651.083399
877.298554	3675.495187
877.609183	3719.474213
877.919771	3771.037655
878.230317	3845.855940
878.540822	3961.081593
878.851285	4122.950523
879.161707	4364.547821
879.472087	4773.962610
879.782425	5457.399399
880.092722	6726.875363
880.402977	8778.287221
880.713191	11256.561302
881.023363	13714.164131
881.333494	15083.853193
881.643583	15582.914821
881.953631	15188.482341
882.263637	14342.997662
882.573602	13308.709168
882.883526	12295.749797
883.193408	11294.967332
883.503248	10334.987967
883.813048	9447.555847
884.122806	8632.544943
884.432522	7816.790469
884.742197	7106.403672
885.051831	6497.618810
885.361424	5965.610721
885.670975	5540.691863
885.980485	5186.583573
886.289954	4896.931476
886.599382	4659.609076
886.908768	4464.685301
887.218113	4287.113177
887.527417	4144.665293
887.836680	4011.601517
888.145901	3908.522523
888.455082	3820.967763
888.764221	3744.889190
889.073319	3680.579191
889.382376	3643.619971
889.691392	3616.990076
890.000366	3607.134620
890.309300	3603.381481
890.618193	3608.425156
890.927044	3599.265379
891.235855	3606.501955
891.544625	3624.266982
891.853353	3651.325375
892.162041	3719.738874
892.470687	3819.767969
892.779293	3942.769602
893.087858	4135.087101
893.396381	4435.731434
893.704864	4879.267273
894.013306	5478.025280
894.321707	6067.013530
894.630068	6421.507469
894.938387	6460.399971
895.246665	6285.144257
895.554903	5950.169667
895.863100	5605.891626
896.171256	5327.314944
896.479371	5071.481428
896.787446	4833.276826
897.095480	4621.134990
897.403473	4463.341833
897.711425	4306.007422
898.019336	4175.053368
898.327207	4046.829100
898.635038	3936.006894
898.942827	3822.971622
899.250576	3728.805389
899.558284	3643.302378
899.865952	3587.937906
900.173579	3515.604910
900.481165	3469.435503
900.788711	3425.917742
901.096216	3389.404665
901.403681	3360.453318
901.711105	3345.208869
902.018489	3343.903210
902.325832	3375.728015
902.633135	3444.416256
902.940397	3629.000625
903.247619	4066.920618
903.554800	4865.396538
903.861941	5882.235077
904.169041	6618.994671
904.476101	6846.718713
904.783121	6569.752680
905.090100	6150.800028
905.397039	5717.303647
905.703938	5338.337427
906.010796	4992.136187
906.317614	4724.302203
906.624391	4460.342347
906.931129	4248.477774
907.237826	4055.560378
907.544483	3869.193962
907.851099	3683.878626
908.157675	3514.407636
908.464211	3362.147146
908.770707	3250.031885
909.077163	3162.729182
909.383578	3099.167794
909.689954	3050.835732
909.996289	3015.955988
910.302584	2992.439005
910.608839	2980.425936
910.915054	2966.275417
911.221229	2959.472380
911.527363	2966.255252
911.833458	2975.619196
912.139513	2985.940958
912.445527	3001.177846
912.751502	3038.621016
913.057436	3089.264447
913.363331	3153.062770
913.669186	3250.508274
913.975000	3378.901421
914.280775	3583.158892
914.586510	3876.647308
914.892205	4279.863998
915.197859	4806.934277
915.503475	5415.257873
915.809050	5922.087919
916.114585	6219.788218
916.420081	6282.558145
916.725536	6215.415017
917.030952	5971.949972
917.336328	5762.810143
917.641665	5538.766142
917.946961	5303.220749
918.252218	5097.518987
918.557435	4853.882542
918.862612	4645.582066
919.167750	4460.037357
919.472848	4253.516408
919.777906	4076.241712
920.082925	3907.942791
920.387904	3744.798449
920.692843	3625.756642
920.997743	3518.508615
921.302603	3417.582194
921.607423	3344.919003
921.912204	3272.853188
922.216946	3222.330744
922.521647	3168.246725
922.826310	3122.097482
923.130932	3082.630289
923.435516	3040.524051
923.740059	3008.484998
924.044564	2977.728918
924.349028	2949.750515
924.653454	2917.083838
924.957840	2888.732388
925.262186	2867.138606
925.566493	2844.173630
925.870761	2814.539207
926.174989	2802.947073
926.479178	2787.180865
926.783328	2766.431476
927.087438	2756.150042
927.391509	2743.222003
927.695541	2731.302195
927.999533	2719.526060
928.303486	2708.022147
928.607400	2704.770602
928.911275	2696.782894
929.215110	2688.996832
929.518906	2685.573888
929.822663	2685.533559
930.126381	2683.890143
930.430060	2687.872655
930.733699	2687.711338
931.037299	2691.711493
931.340861	2693.579241
931.644383	2693.881710
931.947866	2692.059333
932.251309	2689.964733
932.554714	2689.785772
932.858080	2686.564475
933.161407	2684.663960
933.464694	2680.860410
933.767943	2677.331602
934.071153	2671.866991
934.374323	2668.708708
934.677455	2664.728717
934.980548	2665.265600
935.283602	2656.904847
935.586617	2660.113541
935.889593	2662.450116
936.192530	2660.448778
936.495428	2668.678461
936.798287	2675.990655
937.101108	2690.685618
937.403890	2714.474823
937.706632	2739.461302
938.009336	2773.254677
938.312002	2802.821045
938.614628	2829.030003
938.917216	2851.488344
939.219765	2861.800024
939.522275	2874.874257
939.824747	2874.937271
940.127179	2866.286651
940.429573	2860.751464
940.731929	2859.818851
941.034246	2853.346009
941.336524	2851.044722
941.638763	2844.791171
941.940964	2839.255984
942.243126	2822.978098
942.545250	2811.217086
942.847335	2795.133285
943.149381	2782.626182
943.451389	2764.785539
943.753359	2753.579054
944.055290	2745.485481
944.357182	2735.161198
944.659036	2729.547873
944.960851	2726.371947
945.262628	2719.624362
945.564367	2721.275340
945.866067	2719.725185
946.167729	2715.972046
946.469352	2715.435163
946.770937	2712.110522
947.072484	2707.762527
947.373992	2704.266487
947.675462	2702.875128
947.976893	2695.623429
948.278286	2693.947245
948.579641	2690.907429
948.880958	2686.967767
949.182236	2688.457428
949.483476	2682.229083
949.784678	2681.619103
950.085841	2683.812005
950.386967	2687.802078
950.688054	2692.724765
950.989103	2702.378575
951.290114	2709.499205
951.591087	2718.742160
951.892021	2733.676578
952.192917	2746.133270
952.493776	2755.396390
952.794596	2760.760177
953.095378	2762.635487
953.396122	2760.583737
953.696828	2757.634662
953.997496	2752.805237
954.298126	2741.268556
954.598718	2738.077506
954.899272	2724.814230
955.199788	2712.947354
955.500266	2698.328008
955.800706	2682.599608
956.101108	2665.996567
956.401472	2654.167500
956.701798	2640.629481
957.002087	2626.146246
957.302337	2617.120060
957.602550	2605.076744
957.902724	2593.461925
958.202861	2580.647312
958.502960	2575.618761
958.803022	2566.073337
959.103045	2554.604712
959.403031	2548.371325
959.702979	2544.015768
960.002889	2537.973945
960.302762	2534.182997
960.602596	2527.316946
960.902393	2522.429547
961.202153	2522.106913
961.501875	2520.034999
961.801559	2516.710358
962.101205	2514.391427
962.400814	2512.223731
962.700385	2509.710716
962.999918	2505.856754
963.299414	2503.247957
963.598873	2505.024963
963.898293	2500.044303
964.197677	2502.355673
964.497022	2495.625732
964.796331	2498.209323
965.095601	2494.204127
965.394835	2498.471463
965.694030	2494.408293
965.993189	2496.061792
966.292309	2494.899806
966.591393	2492.583396
966.890439	2493.770587
967.189447	2492.409476
967.488419	2490.997953
967.787353	2493.190855
968.086249	2493.211019
968.385108	2495.323263
968.683930	2493.367295
968.982714	2495.565238
969.281462	2498.352996
969.580172	2498.380723
969.878844	2503.172339
970.177480	2504.891373
970.476078	2510.131652
970.774639	2513.085768
971.073162	2513.935203
971.371649	2512.490912
971.670098	2511.270953
971.968510	2514.388907
972.266885	2513.221880
972.565223	2523.145391
972.863524	2524.153622
973.161788	2521.232273
973.460014	2528.907430
973.758204	2526.454908
974.056356	2528.393232
974.354471	2529.847605
974.652550	2528.088242
974.950591	2529.504807
975.248595	2527.609333
975.546563	2526.747295
975.844493	2522.921060
976.142386	2523.856194
976.440243	2518.575585
976.738062	2519.982067
977.035845	2515.807992
977.333590	2511.636437
977.631299	2509.864471
977.928971	2509.178874
978.226606	2506.970849
978.524204	2501.990189
978.821765	2506.723832
979.119290	2501.584376
979.416777	2502.302740
979.714228	2503.371465
980.011642	2504.404902
980.309020	2509.025119
980.606360	2512.821108
980.903664	2522.550535
981.200931	2538.669624
981.498162	2559.018242
981.795356	2591.974785
982.092513	2630.227060
982.389633	2677.200532
982.686717	2724.403376
982.983764	2756.301277
983.280775	2776.854061
983.577749	2777.108639
983.874686	2765.957607
984.171587	2749.979670
984.468451	2733.132134
984.765279	2714.421891
985.062070	2693.180990
985.358824	2675.047959
985.655543	2651.069711
985.952224	2627.232615
986.248869	2596.068202
986.545478	2567.159705
986.842050	2546.188505
987.138586	2527.329549
987.435086	2512.286746
987.731549	2497.501041
988.027975	2494.307470
988.324366	2487.277581
988.620719	2483.569813
988.917037	2479.791468
989.213318	2477.008751
989.509563	2472.141517
989.805772	2473.658904
990.101944	2470.039356
990.398080	2470.425004
990.694180	2470.190590
990.990244	2468.186732
991.286271	2468.985755
991.582262	2469.404170
991.878217	2468.809314
992.174136	2470.850982
992.470019	2471.657566
992.765865	2474.994810
993.061676	2477.051601
993.357450	2479.539410
993.653188	2483.975626
993.948890	2487.466625
994.244556	2496.288644
994.540186	2507.185098
994.835780	2517.224556
995.131337	2533.439427
995.426859	2554.884496
995.722345	2571.235478
996.017795	2591.768098
996.313208	2607.609924
996.608586	2615.595111
996.903928	2623.187089
997.199234	2619.897736
997.494504	2614.637292
997.789738	2609.424739
998.084936	2597.550301
998.380099	2588.166193
998.675225	2571.517783
998.970316	2560.049158
999.265371	2544.088865
999.560390	2527.543798
999.855373	2517.000224
1000.150320	2507.144769
1000.445232	2499.031032
1000.740108	2489.445278
1001.034948	2481.492857
1001.329752	2477.868268
1001.624521	2476.575212
1001.919254	2464.700774
1002.213951	2464.852008
1002.508613	2461.446709
1002.803239	2461.676082
1003.097829	2453.431274
1003.392384	2457.993519
1003.686903	2457.706173
1003.981386	2451.497992
1004.275834	2454.739454
1004.570246	2451.709720
1004.864623	2452.203753
1005.158964	2451.097220
1005.453270	2448.609411
1005.747540	2449.332816
1006.041775	2446.053546
1006.335974	2448.763166
1006.630138	2450.472117
1006.924266	2448.236365
1007.218359	2446.461879
1007.512416	2447.951540
1007.806438	2449.335337
1008.100425	2447.863320
1008.394376	2447.268464
1008.688292	2446.330809
1008.982172	2445.937599
1009.276017	2446.658484
1009.569827	2443.913576
1009.863602	2447.717127
1010.157341	2445.995572
1010.451045	2443.757300
1010.744714	2445.037753
1011.038347	2444.886519
1011.331945	2444.964657
1011.625508	2442.224789
1011.919036	2442.807043
1012.212528	2444.120263
1012.505986	2440.576332
1012.799408	2443.585901
1013.092795	2441.345108
1013.386147	2444.571447
1013.679464	2441.705551
1013.972745	2442.408792
1014.265992	2440.089861
1014.559204	2442.721343
1014.852380	2441.700509
1015.145521	2440.765375
1015.438628	2442.161775
1015.731699	2442.544903
1016.024736	2438.232196
1016.317737	2442.181940
1016.610703	2441.236723
1016.903635	2440.775458
1017.196531	2440.818307
1017.489393	2441.224120
1017.782219	2439.104315
1018.075011	2444.788216
1018.367768	2441.322423
1018.660490	2441.745880
1018.953177	2441.745880
1019.245829	2441.745880
