Dividing Wavelength (nm)	Counts (n)	Blue Motor Position (mm): 0.000000	Red Motor Position (mm): 22.800000	
326.493990	1984.001549
326.888308	1984.001549
327.282561	1984.001549
327.676750	1959.335183
328.070874	1961.863322
328.464933	1969.583849
328.858929	1978.262195
329.252859	1989.065388
329.646726	2005.290342
330.040528	2021.265758
330.434265	2036.137162
330.827938	2060.019628
331.221547	2078.316496
331.615091	2100.036308
332.008571	2119.522888
332.401986	2138.129787
332.795338	2159.237098
333.188625	2181.524039
333.581847	2199.173118
333.975006	2216.156766
334.368100	2232.681668
334.761129	2249.834194
335.154095	2265.691143
335.546996	2283.461211
335.939833	2302.816721
336.332606	2315.558237
336.725315	2327.561225
337.117960	2335.743017
337.510540	2343.040088
337.903056	2352.353619
338.295508	2356.789835
338.687896	2367.983717
339.080220	2375.737011
339.472480	2377.335057
339.864676	2382.857641
340.256807	2388.365102
340.648875	2388.032386
341.040879	2389.436347
341.432818	2389.383415
341.824694	2388.130688
342.216506	2391.125133
342.608253	2391.553632
342.999937	2388.957437
343.391557	2389.549773
343.783113	2388.821326
344.174605	2388.171017
344.566033	2384.692621
344.957397	2384.470810
345.348697	2380.866385
345.739934	2379.926210
346.131106	2378.207177
346.522215	2376.248688
346.913260	2374.998482
347.304241	2375.789943
347.695159	2373.634850
348.086012	2372.586290
348.476802	2368.870960
348.867528	2368.102184
349.258191	2365.148068
349.648789	2366.594879
350.039324	2365.616895
350.429796	2364.681761
350.820203	2361.286544
351.210548	2365.407687
351.600828	2361.760412
351.991045	2363.078674
352.381198	2362.627491
352.771288	2362.783767
353.161314	2362.277131
353.551276	2361.261338
353.941175	2363.812162
354.331010	2366.814169
354.720782	2362.912316
355.110490	2364.775022
355.500135	2366.577235
355.889717	2363.451719
356.279235	2363.497090
356.668689	2365.992461
357.058080	2365.337111
357.447408	2363.214785
357.836672	2362.594723
358.225873	2363.794518
358.615010	2366.055475
359.004084	2366.042873
359.393095	2370.622761
359.782043	2371.457072
360.170927	2372.551002
360.559748	2370.897504
360.948505	2369.662421
361.337199	2372.528317
361.725830	2373.516383
362.114398	2373.949922
362.502903	2374.448997
362.891344	2377.302290
363.279722	2376.967053
363.668037	2376.662063
364.056289	2378.139121
364.444478	2379.086858
364.832603	2378.444111
365.220665	2377.418236
365.608665	2380.694986
365.996601	2381.617517
366.384474	2382.363608
366.772284	2385.746222
367.160031	2384.090203
367.547715	2384.349823
367.935336	2386.671274
368.322893	2387.472818
368.710388	2387.979453
369.097820	2391.374671
369.485189	2389.895092
369.872495	2391.697304
370.259738	2390.799979
370.646918	2394.429610
371.034035	2397.471946
371.421090	2400.521844
371.808081	2405.212638
372.195010	2409.757238
372.581875	2414.127918
372.968678	2421.515729
373.355418	2424.968920
373.742096	2439.374017
374.128710	2449.037909
374.515262	2459.647017
374.901751	2472.176805
375.288177	2491.454177
375.674540	2510.411436
376.060841	2528.738551
376.447079	2554.385421
376.833254	2577.602455
377.219367	2604.280242
377.605417	2640.657208
377.991404	2667.055210
378.377329	2707.177753
378.763191	2738.959708
379.148991	2788.355454
379.534727	2834.638287
379.920402	2882.579660
380.306013	2931.935077
380.691563	2993.280878
381.077049	3048.622665
381.462474	3104.206427
381.847835	3180.703416
382.233134	3250.989704
382.618371	3309.202428
383.003545	3395.343144
383.388657	3477.947491
383.773706	3566.495358
384.158693	3640.519662
384.543618	3731.255390
384.928480	3811.568532
385.313280	3913.510745
385.698017	4021.681304
386.082692	4136.375116
386.467305	4197.685629
386.851856	4327.807892
387.236344	4485.754803
387.620770	4545.633629
388.005133	4664.312473
388.389435	4814.385102
388.773674	4896.505498
389.157851	5027.797309
389.541965	5157.964943
389.926018	5184.005023
390.310008	5364.591756
390.693936	5484.755220
391.077802	5602.554382
391.461606	5734.713272
391.845348	5849.830540
392.229027	5968.159024
392.612645	6190.259660
392.996200	6302.601773
393.379694	6486.314022
393.763125	6704.722013
394.146494	6803.395037
394.529801	6929.585200
394.913047	7170.723753
395.296230	7171.270719
395.679351	7225.730304
396.062410	7482.254458
396.445408	7381.219653
396.828343	7530.372272
397.211217	7668.635998
397.594028	7543.403654
397.976778	7756.863752
398.359466	7918.188237
398.742092	7889.420893
399.124656	8033.504631
399.507158	8221.131336
399.889598	8235.758244
400.271977	8450.637427
400.654294	8480.410482
401.036549	8681.161831
401.418742	8702.921971
401.800874	9003.420111
402.182944	9084.262574
402.564952	9448.231362
402.946898	9264.403166
403.328783	9324.846601
403.710606	9520.251806
404.092367	9773.383264
404.474067	10134.350044
404.855705	9927.146018
405.237282	9882.622547
405.618797	10305.988730
406.000250	10549.940247
406.381642	10916.848026
406.762972	10861.644871
407.144240	10665.501137
407.525447	10905.389484
407.906593	10849.178098
408.287677	11113.737852
408.668700	11258.673545
409.049661	11233.709751
409.430560	11396.342416
409.811399	11366.839063
410.192176	11531.533559
410.572891	11602.528128
410.953545	12076.522619
411.334138	11555.794112
411.714669	12139.637865
412.095139	11472.458797
412.475547	11963.852830
412.855894	11808.978502
413.236180	12138.143163
413.616405	11824.215389
413.996568	12086.183990
414.376670	12068.764283
414.756711	11946.589399
415.136691	12218.436141
415.516609	12395.811659
415.896466	12459.569653
416.276262	12755.777770
416.655997	13193.801107
417.035670	13231.970204
417.415283	13875.929717
417.794834	13965.022029
418.174324	13703.950753
418.553753	13605.562554
418.933121	14089.447788
419.312428	13898.703129
419.691674	13817.623731
420.070859	14259.639662
420.449983	13921.839505
420.829045	14466.899141
421.208047	14206.606724
421.586988	14660.103883
421.965867	14918.702472
422.344686	14905.474484
422.723444	15464.896368
423.102141	14162.340352
423.480777	15334.068343
423.859352	14855.526732
424.237866	15939.435303
424.616319	15640.467153
424.994712	16285.230730
425.373044	16087.410812
425.751314	16741.215699
426.129524	15878.228133
426.507673	16953.972556
426.885762	16648.642470
427.263789	16846.790063
427.641756	17003.758991
428.019662	17061.820480
428.397508	17096.002024
428.775292	17395.426398
429.153016	17348.425200
429.530679	17415.709480
429.908282	17443.932380
430.285824	17157.063000
430.663305	17842.990119
431.040726	17448.338349
431.418086	17249.611023
431.795385	17889.124238
432.172624	18286.835988
432.549802	17832.691041
432.926920	18003.354264
433.303977	17865.004838
433.680974	18094.906659
434.057910	18364.537813
434.434786	18369.611735
434.811601	18256.218541
435.188355	19242.116998
435.565050	18871.020020
435.941683	18786.847874
436.318257	19603.671073
436.694770	19375.838645
437.071222	19903.458410
437.447614	18959.794739
437.823946	18937.122149
438.200218	19027.194966
438.576429	18753.112472
438.952580	18952.916084
439.328670	18862.041725
439.704700	19180.141053
440.080670	18705.622282
440.456580	19176.667698
440.832429	19256.471684
441.208218	18235.423781
441.583947	18560.482422
441.959616	18567.376200
442.335224	18679.748560
442.710773	18702.592549
443.086261	19075.101051
443.461689	18402.722033
443.837057	18399.934275
444.212365	18856.957721
444.587612	18720.891937
444.962800	18223.158654
445.337927	18462.636147
445.712995	17239.410248
446.088002	18686.271813
446.462949	18700.578608
446.837837	18703.331078
447.212664	18503.948402
447.587431	20644.029115
447.962139	22811.163181
448.336786	24533.949781
448.711374	23103.272840
449.085901	20011.754997
449.460369	19753.398383
449.834776	19475.807247
450.209124	21134.281327
450.583412	20600.360120
450.957640	20774.655494
451.331808	19578.964378
451.705917	18356.363582
452.079965	18156.222213
452.453954	18197.887349
452.827883	17890.462664
453.201752	17531.618210
453.575562	17430.638857
453.949311	17952.559598
454.323001	17744.627125
454.696632	17354.857712
455.070202	18111.459287
455.443713	17955.939691
455.817164	18061.718222
456.190556	18125.093088
456.563888	17525.838527
456.937160	17523.259977
457.310373	16305.642362
457.683526	16294.103161
458.056619	16027.353026
458.429653	15737.753861
458.802628	15781.954698
459.175542	15592.818167
459.548398	15994.835063
459.921194	16527.027154
460.293930	16597.421826
460.666607	17301.469372
461.039224	17868.760497
461.411782	17726.678097
461.784280	16845.978437
462.156719	16280.860050
462.529099	15718.146293
462.901419	14872.888466
463.273680	14136.547288
463.645882	13888.083939
464.018024	13611.790899
464.390106	13665.295186
464.762130	14410.385286
465.134094	15686.172775
465.505999	17398.854383
465.877845	18851.999746
466.249631	18855.896558
466.621358	17755.274042
466.993026	16554.652677
467.364634	15461.095338
467.736184	14481.180730
468.107674	13765.813273
468.479105	13225.565418
468.850477	12707.486037
469.221790	12024.260977
469.593043	11291.556992
469.964238	10795.028544
470.335373	10519.136276
470.706449	10678.832468
471.077467	11042.075329
471.448425	11861.373734
471.819324	12302.222638
472.190164	11624.258022
472.560945	10594.952709
472.931667	9690.017703
473.302330	9221.921362
473.672934	8852.528294
474.043479	8727.583296
474.413965	8384.822643
474.784393	8123.567365
475.154761	8084.793331
475.525070	7905.096361
475.895321	7651.080180
476.265513	7554.126189
476.635645	7516.042792
477.005719	7322.911147
477.375734	7212.998870
477.745691	7131.745552
478.115588	7127.889069
478.485427	7215.416103
478.855207	7456.912578
479.224928	7611.093748
479.594591	7622.204451
479.964194	7294.647918
480.333739	7107.875688
480.703226	6929.310457
481.072653	6821.432286
481.442022	6715.557973
481.811333	6576.190233
482.180584	6298.278984
482.549777	6099.947388
482.918912	5911.040230
483.287988	5741.281895
483.657005	5548.006577
484.025964	5367.140060
484.394864	5240.067695
484.763706	5093.972536
485.132489	4925.499695
485.501213	4810.634484
485.869879	4717.027818
486.238487	4598.036423
486.607036	4515.782436
486.975527	4402.406886
487.343959	4326.978622
487.712333	4249.518773
488.080648	4173.425076
488.448905	4116.555819
488.817104	4037.013973
489.185244	4003.258407
489.553326	4000.019466
489.921350	4037.976834
490.289315	4080.256991
490.657222	4041.437586
491.025070	3990.864730
491.392861	3898.999784
491.760593	3795.676295
492.128267	3691.228628
492.495883	3598.010132
492.863440	3520.754449
493.230939	3448.189560
493.598380	3386.730333
493.965763	3344.152748
494.333088	3296.874286
494.700354	3256.464397
495.067563	3225.226887
495.434713	3195.985674
495.801805	3177.237623
496.168839	3144.321409
496.535815	3122.500775
496.902733	3106.036366
497.269593	3078.907397
497.636395	3056.839746
498.003139	3053.099210
498.369825	3026.703728
498.736453	3018.426153
499.103023	2998.954697
499.469535	2981.068683
499.835989	2972.163485
500.202385	2957.624797
500.568723	2949.334619
500.935003	2941.737601
501.301226	2928.764191
501.667390	2931.677978
502.033497	2924.247317
502.399546	2911.770462
502.765537	2895.132133
503.131470	2894.081053
503.497345	2892.054509
503.863163	2871.305120
504.228923	2871.148844
504.594625	2871.224461
504.960269	2858.424972
505.325856	2860.935466
505.691385	2852.103365
506.056856	2847.384845
506.422270	2851.163189
506.787625	2843.568691
507.152924	2839.694564
507.518164	2842.008454
507.883347	2824.961792
508.248472	2830.595282
508.613540	2829.019921
508.978550	2831.336331
509.343503	2827.598316
509.708398	2830.171825
510.073236	2829.264417
510.438016	2829.322390
510.802738	2822.710917
511.167403	2828.359530
511.532010	2828.828357
511.896561	2828.820796
512.261053	2838.462002
512.625488	2830.880107
512.989866	2824.911381
513.354186	2824.407265
513.718449	2818.821667
514.082655	2831.903461
514.446803	2827.580672
514.810894	2830.592761
515.174927	2830.479335
515.538904	2827.341217
515.902822	2832.140395
516.266684	2827.275682
516.630488	2829.526557
516.994235	2829.173676
517.357925	2834.124089
517.721558	2837.410922
518.085133	2836.153154
518.448651	2836.823627
518.812112	2833.960252
519.175516	2835.470077
519.538863	2839.586180
519.902152	2837.413442
520.265385	2839.334122
520.628560	2841.406036
520.991678	2837.622650
521.354739	2839.470233
521.717743	2841.390913
522.080690	2842.847806
522.443580	2846.353929
522.806413	2846.749659
523.169189	2844.831500
523.531908	2845.335616
523.894569	2842.439473
524.257174	2846.444669
524.619722	2847.709999
524.982213	2845.970801
525.344647	2845.179340
525.707025	2846.583301
526.069345	2848.451049
526.431608	2846.590863
526.793815	2850.391893
527.155964	2845.375945
527.518057	2847.495750
527.880093	2845.045749
528.242072	2851.037161
528.603995	2848.735874
528.965860	2846.979032
529.327669	2848.272088
529.689421	2845.479288
530.051117	2843.732529
530.412755	2845.330574
530.774337	2846.154803
531.135862	2846.237982
531.497331	2840.962415
531.858743	2839.807990
532.220098	2846.220338
532.581396	2841.723629
532.942638	2837.128617
533.303824	2839.510562
533.664953	2841.050635
534.026025	2837.252125
534.387040	2844.077848
534.747999	2844.791171
535.108902	2844.728157
535.469748	2838.036025
535.830537	2839.014009
536.191270	2838.996365
536.551947	2837.998216
536.912567	2839.054338
537.273131	2841.479133
537.633638	2835.785150
537.994089	2834.857577
538.354483	2835.394460
538.714821	2838.915706
539.075103	2840.564163
539.435328	2840.097857
539.795497	2836.087619
540.155609	2838.651046
540.515665	2837.494101
540.875665	2834.179542
541.235609	2834.534943
541.595496	2836.443020
541.955328	2841.705985
542.315102	2833.869511
542.674821	2832.563852
543.034483	2831.898420
543.394090	2829.047647
543.753640	2829.680312
544.113134	2835.744820
544.472571	2828.856084
544.831953	2836.889162
545.191278	2829.743327
545.550548	2828.788028
545.909761	2832.021928
546.268918	2833.728359
546.628019	2833.309943
546.987064	2831.384222
547.346053	2826.015393
547.704986	2828.384736
548.063863	2827.994046
548.422684	2826.506906
548.781449	2823.436843
549.140158	2825.433140
549.498811	2825.080259
549.857408	2818.438539
550.215949	2826.413645
550.574434	2818.753611
550.932864	2819.600525
551.291237	2822.302584
551.649555	2820.938952
552.007817	2823.454487
552.366022	2819.875268
552.724173	2821.004487
553.082267	2822.312666
553.440305	2824.767708
553.798288	2815.562561
554.156215	2814.342602
554.514086	2818.574650
554.871902	2820.099599
555.229661	2816.951399
555.587365	2810.367652
555.945014	2811.801860
556.302606	2807.814307
556.660143	2811.544761
557.017625	2808.013433
557.375050	2804.348514
557.732421	2805.354224
558.089735	2803.110911
558.446994	2801.606127
558.804197	2806.821200
559.161345	2799.778708
559.518437	2793.512554
559.875474	2794.258645
560.232455	2796.698563
560.589381	2792.048099
560.946251	2788.925104
561.303065	2790.528191
561.659825	2789.832512
562.016528	2782.293466
562.373177	2778.736932
562.729770	2780.720626
563.086307	2772.622012
563.442789	2772.160747
563.799216	2773.794081
564.155587	2770.413987
564.511904	2764.692277
564.868164	2763.583224
565.224370	2763.492483
565.580520	2756.921339
565.936615	2756.964189
566.292654	2751.769280
566.648638	2751.804568
567.004567	2747.721233
567.360441	2742.793505
567.716260	2739.897362
568.072023	2738.753020
568.427732	2733.064078
568.783385	2728.635425
569.138982	2724.920094
569.494525	2723.168293
569.850013	2717.668394
570.205445	2717.333158
570.560823	2712.904504
570.916145	2710.514997
571.271412	2708.367466
571.626625	2703.601055
571.981782	2701.503935
572.336884	2697.155939
572.691931	2696.147709
573.046923	2692.253417
573.401860	2689.342151
573.756743	2685.195802
574.111570	2682.168589
574.466342	2679.519463
574.821059	2678.604493
575.175722	2673.079389
575.530330	2669.865653
575.884882	2668.575118
576.239380	2666.230981
576.593823	2660.232008
576.948211	2660.060609
577.302544	2656.486431
577.656823	2653.786893
578.011047	2650.966367
578.365216	2647.225831
578.719330	2645.113588
579.073389	2642.560243
579.427394	2641.209214
579.781344	2641.466313
580.135239	2638.519758
580.489080	2635.966414
580.842866	2632.787967
581.196597	2632.798049
581.550273	2632.533388
581.903895	2625.642131
582.257463	2628.918881
582.610975	2621.493261
582.964434	2621.939403
583.317837	2621.838580
583.671186	2620.419496
584.024481	2619.859927
584.377721	2612.749380
584.730906	2616.711727
585.084037	2614.387755
585.437113	2610.170830
585.790135	2612.613269
586.143103	2607.365428
586.496016	2605.961466
586.848874	2603.864346
587.201679	2602.513317
587.554428	2599.165991
587.907124	2601.081629
588.259765	2596.310177
588.612352	2603.077926
588.964884	2596.451330
589.317362	2599.259252
589.669786	2597.835126
590.022155	2598.067019
590.374470	2598.261104
590.726731	2594.810434
591.078937	2590.066708
591.431090	2590.840525
591.783188	2589.582757
592.135232	2588.566965
592.487222	2586.517736
592.839157	2587.813312
593.191038	2586.129567
593.542866	2586.711820
593.894639	2580.637230
594.246358	2582.653692
594.598022	2582.605801
594.949633	2581.153948
595.301190	2581.529514
595.652692	2579.482806
596.004141	2581.345512
596.355535	2578.968608
596.706876	2575.165057
597.058162	2573.791343
597.409395	2574.300500
597.760573	2572.019377
598.111698	2574.411405
598.462768	2572.798236
598.813785	2574.643298
599.164748	2569.455951
599.515657	2573.458627
599.866511	2566.237174
600.217312	2571.353945
600.568060	2570.413770
600.918753	2574.005592
601.269392	2569.176167
601.619978	2567.719273
601.970510	2571.212793
602.320988	2569.982751
602.671412	2571.303534
603.021783	2565.211299
603.372100	2567.290775
603.722363	2567.000909
604.072572	2565.039900
604.422728	2568.636763
604.772830	2563.872873
605.122878	2560.719631
605.472872	2562.559652
605.822813	2563.588048
606.172701	2565.458316
606.522534	2565.894376
606.872314	2565.483522
607.222041	2565.049982
607.571714	2567.865467
607.921333	2567.245405
608.270899	2565.448233
608.620411	2565.972513
608.969870	2565.614592
609.319276	2562.799107
609.668627	2566.461505
610.017926	2568.140210
610.367171	2566.789180
610.716362	2567.230281
611.065500	2566.486711
611.414585	2565.274314
611.763616	2567.021073
612.112594	2566.481670
612.461518	2565.778429
612.810389	2569.365210
613.159207	2566.529561
613.507971	2563.812379
613.856682	2565.851526
614.205340	2567.194993
614.553945	2571.356466
614.902496	2567.142061
615.250994	2566.209448
615.599439	2565.642318
615.947830	2565.760785
616.296169	2568.601475
616.644454	2567.578121
616.992686	2569.236661
617.340864	2566.804304
617.688990	2568.498132
618.037063	2569.397977
618.385082	2568.803121
618.733048	2569.360169
619.080961	2570.350756
619.428821	2567.683985
619.776628	2568.200703
620.124382	2568.130127
620.472083	2568.210786
620.819731	2566.383368
621.167326	2565.120558
621.514868	2565.735579
621.862357	2561.798438
622.209793	2565.763306
622.557176	2559.787018
622.904506	2558.710731
623.251783	2552.126984
623.599007	2558.970351
623.946179	2550.569268
624.293297	2553.707386
624.640363	2553.236038
624.987376	2551.643034
625.334336	2550.312169
625.681243	2552.754608
626.028097	2551.325441
626.374899	2547.834442
626.721647	2550.516336
627.068343	2548.212528
627.414987	2546.589277
627.761577	2546.949719
628.108115	2544.519883
628.454600	2546.299411
628.801032	2545.076931
629.147412	2545.616334
629.493739	2543.320089
629.840014	2545.512991
630.186236	2542.379913
630.532405	2542.115253
630.878521	2542.238761
631.224585	2538.800694
631.570597	2540.227341
631.916556	2541.832948
632.262462	2539.095602
632.608316	2540.323123
632.954117	2542.558874
633.299866	2539.685417
633.645562	2537.656352
633.991206	2536.005374
634.336797	2532.746268
634.682336	2536.600231
635.027823	2531.556556
635.373257	2533.494880
635.718639	2530.818027
636.063968	2529.976154
636.409245	2527.390043
636.754470	2527.173273
637.099642	2526.273427
637.444762	2524.975330
637.789829	2527.125382
638.134845	2524.640093
638.479808	2525.262676
638.824719	2521.353261
639.169577	2522.076666
639.514383	2518.648682
639.859137	2519.324196
640.203839	2521.257479
640.548489	2519.286388
640.893086	2516.160872
641.237632	2512.233813
641.582125	2517.834535
641.926566	2512.745491
642.270955	2518.018537
642.615292	2516.627179
642.959576	2517.615245
643.303809	2513.544513
643.647990	2519.057015
643.992118	2514.204905
644.336195	2517.219515
644.680219	2515.513084
645.024192	2517.032992
645.368112	2517.993332
645.711981	2517.698424
646.055797	2521.388549
646.399562	2519.276305
646.743274	2521.658251
647.086935	2523.082377
647.430544	2522.071625
647.774101	2523.150432
648.117606	2523.105062
648.461059	2524.814013
648.804460	2526.792666
649.147810	2522.800072
649.491108	2522.777387
649.834354	2520.392921
650.177548	2515.785306
650.520690	2514.890502
650.863781	2513.017713
651.206820	2515.298835
651.549807	2512.619462
651.892742	2515.192971
652.235626	2513.463855
652.578458	2511.180212
652.921238	2508.455469
653.263967	2508.556292
653.606644	2505.745848
653.949269	2508.213493
654.291843	2506.176867
654.634365	2506.703668
654.976836	2507.240551
655.319255	2509.743483
655.661622	2506.459172
656.003938	2505.478667
656.346203	2502.970693
656.688416	2505.511435
657.030577	2505.130828
657.372687	2504.135200
657.714746	2505.944974
658.056753	2503.162257
658.398708	2496.828047
658.740612	2499.895589
659.082465	2497.884169
659.424266	2497.919457
659.766016	2498.763850
660.107715	2501.297030
660.449362	2499.865343
660.790958	2499.341062
661.132503	2503.371465
661.473996	2500.467760
661.815438	2500.911382
662.156829	2502.464057
662.498168	2500.694612
662.839456	2502.012874
663.180693	2500.540857
663.521879	2501.100425
663.863013	2500.989520
664.204097	2501.733090
664.545129	2500.407267
664.886110	2501.980107
665.227040	2503.195025
665.567918	2500.172853
665.908746	2502.965652
666.249522	2503.663852
666.590248	2502.827020
666.930922	2504.225941
667.271545	2505.345077
667.612118	2502.453975
667.952639	2500.770230
668.293109	2502.002792
668.633528	2500.293841
668.973896	2504.170488
669.314213	2500.687051
669.654480	2500.760147
669.994695	2498.350476
670.334859	2503.016064
670.674973	2498.105980
671.015035	2497.818634
671.355047	2500.966835
671.695008	2501.120590
672.034918	2499.295692
672.374777	2501.165960
672.714585	2499.172184
673.054342	2500.122441
673.394049	2499.416680
673.733705	2501.455827
674.073310	2500.424911
674.412864	2499.056237
674.752368	2497.062461
675.091820	2497.422903
675.431223	2495.686226
675.770574	2498.088336
676.109875	2490.151039
676.449125	2492.283447
676.788324	2493.042141
677.127473	2491.194558
677.466571	2487.348158
677.805619	2491.605412
678.144616	2489.530977
678.483562	2492.711945
678.822458	2491.260093
679.161303	2490.093066
679.500098	2493.263952
679.838842	2487.569968
680.177535	2490.856801
680.516179	2493.243787
680.854771	2491.262613
681.193314	2496.505413
681.531805	2493.460557
681.870247	2501.332318
682.208638	2497.516165
682.546978	2497.984992
682.885268	2501.090343
683.223508	2501.680158
683.561697	2497.758140
683.899836	2498.375682
684.237925	2497.301916
684.575963	2495.461895
684.913951	2495.300578
685.251889	2498.421052
685.589776	2493.521050
685.927614	2498.693274
686.265401	2493.246308
686.603137	2496.240753
686.940824	2496.790239
687.278460	2498.940291
687.616046	2495.348469
687.953582	2501.254180
688.291068	2497.521206
688.628504	2501.715446
688.965889	2498.718480
689.303224	2498.332832
689.640510	2498.705877
689.977745	2498.327791
690.314930	2493.868890
690.652065	2492.674137
690.989150	2491.958293
691.326185	2488.547952
691.663170	2487.086018
692.000105	2484.731799
692.336990	2482.914463
692.673825	2485.011583
693.010610	2483.247179
693.347345	2475.912300
693.684030	2476.807105
694.020665	2475.849286
694.357251	2471.660087
694.693786	2478.042187
695.030272	2474.304172
695.366707	2473.081692
695.703093	2471.750827
696.039429	2473.255612
696.375716	2470.225878
696.711952	2471.929788
697.048139	2470.009109
697.384276	2467.662452
697.720363	2471.897021
698.056400	2473.474902
698.392388	2469.714201
698.728326	2469.300827
699.064214	2468.247226
699.400053	2467.118007
699.735842	2470.853502
700.071581	2467.596917
700.407270	2468.443831
700.742910	2463.889148
701.078501	2463.569035
701.414042	2466.316464
701.749533	2461.628191
702.084974	2462.749847
702.420366	2465.141875
702.755709	2463.213633
703.091002	2460.894703
703.426246	2460.294805
703.761440	2462.006277
704.096584	2459.626852
704.431679	2461.187090
704.766725	2460.715742
705.101721	2459.137861
705.436668	2460.367902
705.771565	2458.787500
706.106413	2459.024435
706.441212	2456.705504
706.775961	2461.388736
707.110661	2461.313118
707.445311	2462.669189
707.779913	2459.997377
708.114465	2461.900413
708.448967	2462.220526
708.783421	2463.289251
709.117825	2463.649693
709.452180	2467.138172
709.786485	2466.767647
710.120742	2470.732514
710.454949	2467.765795
710.789107	2467.995168
711.123216	2467.475929
711.457275	2471.105560
711.791286	2470.437607
712.125247	2473.144707
712.459159	2472.605303
712.793023	2474.704944
713.126837	2473.243009
713.460602	2474.836014
713.794318	2477.341467
714.127985	2469.303347
714.461602	2469.893162
714.795171	2470.593883
715.128691	2465.275465
715.462162	2464.940229
715.795584	2465.391412
716.128957	2464.741103
716.462281	2461.343365
716.795556	2464.229426
717.128782	2459.538632
717.461960	2458.364043
717.795088	2457.257510
718.128167	2455.437654
718.461198	2455.188117
718.794180	2458.764815
719.127113	2454.641151
719.459997	2452.468414
719.792833	2455.341872
720.125619	2453.315328
720.458357	2455.135184
720.791046	2453.234669
721.123686	2453.620318
721.456278	2452.382714
721.788821	2449.332816
722.121315	2450.572940
722.453761	2449.904987
722.786158	2449.549586
723.118506	2451.346757
723.450805	2448.765687
723.783056	2450.320882
724.115259	2450.981274
724.447412	2449.269802
724.779518	2452.753239
725.111574	2451.467745
725.443582	2451.324072
725.775542	2450.605708
726.107453	2453.338013
726.439315	2451.301387
726.771129	2456.950000
727.102895	2454.094186
727.434612	2458.737089
727.766281	2455.566203
728.097901	2453.277519
728.429473	2453.537139
728.760996	2454.714248
729.092471	2450.439350
729.423897	2455.084773
729.755276	2454.157201
730.086606	2459.548715
730.417887	2458.724486
730.749120	2461.686164
731.080305	2458.943776
731.411442	2462.933849
731.742530	2462.966617
732.073570	2463.901751
732.404562	2462.681792
732.735506	2463.407718
733.066401	2460.627522
733.397249	2461.126596
733.728048	2459.626852
734.058798	2455.251131
734.389501	2453.287602
734.720156	2455.329269
735.050762	2450.063784
735.381320	2451.200564
735.711831	2450.961109
736.042293	2446.920624
736.372707	2448.231324
736.703073	2447.737291
737.033391	2448.798454
737.363661	2448.226283
737.693883	2447.429781
738.024056	2453.965637
738.354182	2450.666202
738.684260	2453.272478
739.014290	2453.423713
739.344272	2453.693414
739.674207	2455.651903
740.004093	2453.879937
740.333931	2453.088476
740.663722	2453.718620
740.993464	2455.011676
741.323159	2454.525205
741.652806	2452.939762
741.982405	2450.779628
742.311956	2450.938424
742.641460	2451.170317
742.970915	2450.381376
743.300323	2451.465224
743.629683	2446.366097
743.958996	2446.393824
744.288260	2446.045984
744.617477	2447.424740
744.946647	2438.698502
745.275768	2442.328133
745.604842	2436.102308
745.933869	2442.393668
746.262847	2437.743204
746.591778	2443.056580
746.920662	2444.909204
747.249498	2443.480037
747.578286	2444.420212
747.907027	2442.839810
748.235720	2447.356684
748.564365	2444.909204
748.892963	2444.926848
749.221514	2444.674790
749.550017	2444.579008
749.878473	2444.072372
750.206881	2440.956939
750.535242	2443.096909
750.863555	2443.628751
751.191821	2442.403750
751.520039	2443.311158
751.848210	2441.909717
752.176334	2446.645881
752.504411	2441.307299
752.832440	2442.600355
753.160421	2443.311158
753.488356	2444.251333
753.816243	2444.563885
754.144082	2442.534820
754.471875	2440.357042
754.799620	2440.596497
755.127318	2445.315017
755.454969	2441.950047
755.782572	2442.857454
756.110129	2442.867537
756.437638	2440.452824
756.765100	2440.606579
757.092515	2441.811415
757.419882	2437.990220
757.747203	2439.142124
758.074477	2442.060952
758.401703	2440.377207
758.728882	2440.036929
759.056014	2444.707558
759.383099	2441.367793
759.710138	2443.989193
760.037129	2444.299224
760.364073	2444.311827
760.690970	2447.323917
761.017820	2441.297217
761.344623	2444.490788
761.671379	2444.594132
761.998088	2440.190684
762.324751	2455.094855
762.651366	2460.869497
762.977935	2476.928093
763.304456	2481.192909
763.630931	2488.041316
763.957359	2487.509474
764.283740	2477.255767
764.610074	2472.063379
764.936362	2461.441668
765.262602	2456.491255
765.588796	2451.127467
765.914943	2450.714092
766.241044	2443.275870
766.567097	2444.039605
766.893104	2438.557350
767.219064	2436.293872
767.544978	2434.141299
767.870845	2435.958635
768.196665	2436.326639
768.522438	2436.119952
768.848165	2433.750610
769.173846	2433.790939
769.499479	2433.039807
769.825066	2430.120979
770.150607	2428.507810
770.476101	2431.524940
770.801548	2433.022163
771.126949	2431.353541
771.452303	2428.303643
771.777611	2429.662234
772.102872	2430.093253
772.428087	2427.759198
772.753256	2430.809097
773.078378	2428.288520
773.403453	2424.852973
773.728482	2425.591502
774.053465	2426.385484
774.378401	2427.648293
774.703291	2426.803900
775.028135	2424.923549
775.352932	2424.963879
775.677683	2422.690318
776.002388	2423.343148
776.327046	2425.334403
776.651658	2423.716193
776.976224	2425.087387
777.300743	2425.470515
777.625216	2422.458425
777.949643	2424.651327
778.274024	2424.797521
778.598359	2421.493044
778.922647	2421.369536
779.246889	2422.002201
779.571086	2419.421130
779.895236	2424.258117
780.219339	2423.912798
780.543397	2421.656882
780.867409	2422.944897
781.191374	2422.135791
781.515294	2422.836512
781.839167	2424.837850
782.162995	2422.793662
782.486776	2422.130750
782.810511	2422.697880
783.134201	2423.602767
783.457844	2421.697211
783.781441	2421.435071
784.104993	2422.057653
784.428498	2422.309711
784.751958	2422.614701
785.075372	2422.287026
785.398739	2423.189392
785.722061	2422.523960
786.045337	2421.699732
786.368568	2422.327355
786.691752	2425.268868
787.014891	2423.786769
787.337983	2424.840370
787.661030	2427.570155
787.984031	2429.833633
788.306987	2432.021494
788.629897	2431.550146
788.952760	2431.320774
789.275579	2429.223654
789.598351	2429.634508
789.921078	2426.461101
790.243759	2427.353386
790.566395	2425.586461
790.888984	2424.237953
791.211529	2423.224681
791.534027	2422.881882
791.856480	2420.746953
792.178888	2423.915319
792.501249	2421.203178
792.823566	2422.390370
793.145836	2420.900709
793.468062	2422.778538
793.790241	2421.167890
794.112375	2423.358271
794.434464	2422.211409
794.756507	2423.572520
795.078505	2421.530853
795.400457	2420.411717
795.722364	2421.944227
796.044226	2426.251893
796.366042	2422.183682
796.687812	2425.984712
797.009538	2423.595205
797.331218	2424.855494
797.652852	2424.784918
797.974442	2425.571338
798.295986	2423.474218
798.617484	2423.007911
798.938938	2421.465318
799.260346	2424.139650
799.581709	2425.178128
799.903026	2425.934301
800.224299	2424.290885
800.545526	2422.463466
800.866708	2421.722417
801.187845	2420.663774
801.508936	2419.393404
801.829983	2420.434402
802.150984	2420.754515
802.471940	2421.130081
802.792851	2419.264854
803.113717	2418.450708
803.434538	2418.057498
803.755314	2419.751326
804.076045	2420.313414
804.396731	2419.002714
804.717372	2421.210740
805.037967	2419.380801
805.358518	2418.710327
805.679024	2418.667478
805.999485	2419.005235
806.319901	2421.467838
806.640272	2420.028589
806.960598	2419.741243
807.280879	2421.498085
807.601115	2420.356264
807.921306	2420.920873
808.241453	2422.105544
808.561554	2420.378949
808.881611	2419.388363
809.201623	2422.092942
809.521590	2421.480441
809.841513	2419.471542
810.161390	2421.099834
810.481223	2420.552869
810.801011	2420.129412
811.120755	2422.110586
811.440453	2420.507499
811.760107	2417.155131
812.079716	2418.125553
812.399281	2415.655388
812.718801	2415.738567
813.038276	2416.141859
813.357707	2418.644792
813.677093	2420.383990
813.996434	2418.745615
814.315731	2416.991294
814.634983	2420.338620
814.954191	2419.169072
815.273354	2420.603281
815.592473	2417.755029
815.911547	2423.817016
816.230577	2420.371387
816.549562	2421.364495
816.868502	2420.331058
817.187399	2422.597057
817.506250	2421.568662
817.825058	2421.142684
818.143821	2422.614701
818.462539	2425.772984
818.781213	2431.061154
819.099843	2429.294230
819.418429	2432.641556
819.736970	2439.111877
820.055466	2443.958946
820.373919	2449.249637
820.692327	2461.426544
821.010691	2478.027064
821.329011	2516.075173
821.647286	2584.392890
821.965517	2645.743732
822.283704	2685.243693
822.601847	2694.549663
822.919945	2668.771723
823.237999	2635.580766
823.556010	2604.925509
823.873976	2575.033987
824.191897	2545.139945
824.509775	2523.664630
824.827609	2507.006137
825.145398	2495.756802
825.463144	2488.605925
825.780845	2489.939311
826.098502	2498.778974
826.416116	2514.434277
826.733685	2530.639066
827.051210	2531.702750
827.368692	2521.149094
827.686129	2510.855058
828.003522	2489.765391
828.320872	2474.142855
828.638177	2464.980558
828.955439	2454.157201
829.272656	2448.692590
829.589830	2438.716146
829.906960	2437.039963
830.224046	2433.327153
830.541088	2431.305650
830.858086	2428.936308
831.175041	2427.348344
831.491952	2425.352048
831.808819	2427.081163
832.125642	2428.278437
832.442421	2431.401432
832.759157	2441.125818
833.075849	2454.424382
833.392497	2465.867801
833.709101	2475.955150
834.025662	2471.849130
834.342179	2466.601289
834.658653	2458.648869
834.975083	2449.718465
835.291469	2445.980449
835.607811	2439.585745
835.924110	2434.910075
836.240366	2429.047213
836.556578	2425.778025
836.872746	2425.750299
837.188871	2422.143353
837.504952	2421.195616
837.820990	2419.821902
838.136984	2420.152097
838.452935	2415.176478
838.768842	2419.305183
839.084706	2422.186203
839.400526	2424.220308
839.716303	2428.258273
840.032037	2437.788574
840.347727	2432.775147
840.663373	2431.923192
840.978977	2426.753488
841.294537	2425.089908
841.610054	2420.570513
841.925527	2419.718558
842.240957	2415.688156
842.556344	2415.799061
842.871687	2414.745460
843.186987	2415.519277
843.502244	2413.608680
843.817458	2409.913514
844.132629	2409.033833
844.447756	2409.333781
844.762840	2405.386558
845.077881	2407.922258
845.392879	2404.983265
845.707833	2405.701630
846.022745	2405.938564
846.337613	2409.661456
846.652438	2410.382341
846.967221	2408.779254
847.281960	2408.628020
847.596656	2405.870508
847.911309	2409.429563
848.225919	2407.788668
848.540485	2409.021230
848.855009	2408.055849
849.169490	2407.463513
849.483928	2409.099368
849.798323	2406.982083
850.112675	2406.488050
850.426984	2408.933009
850.741251	2408.297824
851.055474	2407.249264
851.369654	2408.451579
851.683792	2408.139028
851.997887	2406.200704
852.311938	2407.196332
852.625947	2408.444017
852.939914	2406.195663
853.253837	2407.700447
853.567718	2405.197514
853.881555	2405.207597
854.195350	2404.519479
854.509103	2409.606003
854.822812	2406.248595
855.136479	2404.819428
855.450103	2407.196332
855.763685	2405.948646
856.077224	2407.592063
856.390720	2408.197001
856.704173	2406.414953
857.017584	2407.269429
857.330953	2406.873698
857.644278	2406.934192
857.957561	2412.257650
858.270802	2405.610889
858.584000	2408.479306
858.897155	2407.907135
859.210268	2407.095509
859.523339	2408.151631
859.836367	2408.552402
860.149352	2405.189953
860.462295	2406.591393
860.775195	2404.958060
861.088054	2402.830693
861.400869	2405.252967
861.713642	2402.843296
862.026373	2407.158523
862.339062	2406.782957
862.651708	2406.563667
862.964312	2406.218348
863.276873	2406.669531
863.589392	2408.524676
863.901869	2407.740777
864.214303	2407.874367
864.526696	2407.282032
864.839045	2412.683628
865.151353	2408.015519
865.463619	2412.063566
865.775842	2407.488719
866.088023	2409.059038
866.400162	2407.831517
866.712258	2411.677918
867.024313	2409.606003
867.336325	2407.955026
867.648296	2408.254974
867.960224	2411.788823
868.272110	2408.126425
868.583954	2410.178174
868.895755	2410.843607
869.207515	2411.146076
869.519233	2411.597259
869.830909	2410.273956
870.142542	2408.469223
870.454134	2408.804460
870.765684	2409.525345
871.077191	2408.849830
871.388657	2411.408216
871.700081	2410.334450
872.011463	2412.655902
872.322803	2408.554923
872.634101	2410.364697
872.945357	2411.365366
873.256571	2414.800913
873.567744	2410.735222
873.878874	2411.151117
874.189963	2410.848648
874.501010	2411.435942
874.812015	2412.333268
875.122979	2413.795202
875.433900	2410.647002
875.744780	2414.276632
876.055618	2414.536252
876.366415	2415.173958
876.677169	2415.453742
876.987882	2410.100037
877.298554	2411.884605
877.609183	2412.678587
877.919771	2410.853689
878.230317	2414.720254
878.540822	2418.939700
878.851285	2421.301480
879.161707	2421.795513
879.472087	2428.969075
879.782425	2434.660538
880.092722	2449.688218
880.402977	2471.690334
880.713191	2497.218737
881.023363	2524.529188
881.333494	2539.587114
881.643583	2545.780172
881.953631	2544.010727
882.263637	2534.840868
882.573602	2521.562469
882.883526	2511.316323
883.193408	2504.167967
883.503248	2492.157418
883.813048	2481.729792
884.122806	2474.301651
884.432522	2466.291258
884.742197	2456.148456
885.051831	2451.409772
885.361424	2442.111363
885.670975	2436.624067
885.980485	2434.748758
886.289954	2430.962852
886.599382	2426.619898
886.908768	2426.519075
887.218113	2423.355751
887.527417	2423.421286
887.836680	2420.555390
888.145901	2417.694535
888.455082	2416.789648
888.764221	2412.834863
889.073319	2416.111613
889.382376	2414.964750
889.691392	2415.390727
890.000366	2413.545665
890.309300	2415.020203
890.618193	2415.156314
890.927044	2414.135480
891.235855	2415.257137
891.544625	2414.105233
891.853353	2413.497774
892.162041	2416.590522
892.470687	2416.577919
892.779293	2416.845100
893.087858	2418.077662
893.396381	2421.687129
893.704864	2426.476225
894.013306	2431.686257
894.321707	2444.639502
894.630068	2449.305090
894.938387	2452.082766
895.246665	2448.490944
895.554903	2445.330140
895.863100	2442.645726
896.171256	2440.220931
896.479371	2433.884200
896.787446	2433.173398
897.095480	2429.180804
897.403473	2426.345155
897.711425	2426.075453
898.019336	2422.889444
898.327207	2418.445667
898.635038	2422.947417
898.942827	2415.642785
899.250576	2417.734864
899.558284	2412.580284
899.865952	2415.731005
900.173579	2414.069945
900.481165	2414.730336
900.788711	2410.072310
901.096216	2412.252609
901.403681	2412.920562
901.711105	2411.728329
902.018489	2411.380490
902.325832	2414.105233
902.633135	2414.773186
902.940397	2415.743608
903.247619	2423.547314
903.554800	2432.361772
903.861941	2449.778958
904.169041	2457.307922
904.476101	2459.321863
904.783121	2457.567541
905.090100	2451.044288
905.397039	2447.860799
905.703938	2438.519541
906.010796	2437.518872
906.317614	2431.466967
906.624391	2432.031576
906.931129	2424.996646
907.237826	2421.339289
907.544483	2422.387849
907.851099	2417.906263
908.157675	2414.027095
908.464211	2411.493916
908.770707	2404.368245
909.077163	2408.335633
909.383578	2403.163409
909.689954	2404.350601
909.996289	2404.655590
910.302584	2407.211455
910.608839	2406.120046
910.915054	2406.969480
911.221229	2404.932854
911.527363	2404.791702
911.833458	2407.365211
912.139513	2406.422515
912.445527	2405.565519
912.751502	2409.036353
913.057436	2410.377300
913.363331	2410.034502
913.669186	2409.711868
913.975000	2413.764955
914.280775	2415.015162
914.586510	2423.118816
914.892205	2425.543611
915.197859	2433.415373
915.503475	2443.001127
915.809050	2451.921449
916.114585	2457.388580
916.420081	2456.672736
916.725536	2458.933694
917.030952	2456.488734
917.336328	2451.916408
917.641665	2445.912393
917.946961	2443.603545
918.252218	2440.863678
918.557435	2436.866043
918.862612	2433.680034
919.167750	2430.292378
919.472848	2427.998653
919.777906	2423.900195
920.082925	2425.074784
920.387904	2419.174113
920.692843	2418.649833
920.997743	2416.129257
921.302603	2416.192271
921.607423	2412.658422
921.912204	2416.250244
922.216946	2410.170613
922.521647	2410.919224
922.826310	2407.410581
923.130932	2406.692217
923.435516	2407.513925
923.740059	2407.284552
924.044564	2406.508214
924.349028	2405.210117
924.653454	2404.201887
924.957840	2403.417987
925.262186	2402.475291
925.566493	2401.945970
925.870761	2398.873387
926.174989	2401.383882
926.479178	2403.339849
926.783328	2402.644170
927.087438	2401.381361
927.391509	2403.332288
927.695541	2404.123749
927.999533	2404.340518
928.303486	2400.544529
928.607400	2400.153840
928.911275	2403.100394
929.215110	2403.375137
929.518906	2400.781464
929.822663	2402.704664
930.126381	2400.726011
930.430060	2399.987482
930.733699	2402.359345
931.037299	2401.096536
931.340861	2402.646691
931.644383	2402.291289
931.947866	2400.630229
932.251309	2401.169633
932.554714	2401.472102
932.858080	2405.953687
933.161407	2401.633419
933.464694	2401.051165
933.767943	2402.858419
934.071153	2400.448747
934.374323	2401.310785
934.677455	2401.792215
934.980548	2400.491597
935.283602	2401.557801
935.586617	2400.536968
935.889593	2401.754406
936.192530	2400.337842
936.495428	2400.907493
936.798287	2401.522513
937.101108	2400.791546
937.403890	2404.229613
937.706632	2405.192473
938.009336	2401.351114
938.312002	2405.963770
938.614628	2402.510579
938.917216	2404.171640
939.219765	2406.437638
939.522275	2406.530900
939.824747	2406.878739
940.127179	2404.143913
940.429573	2401.887997
940.731929	2402.916392
941.034246	2399.485887
941.336524	2406.891342
941.638763	2403.286917
941.940964	2404.524520
942.243126	2403.980076
942.545250	2403.201217
942.847335	2403.168450
943.149381	2407.057700
943.451389	2399.281720
943.753359	2402.003943
944.055290	2401.519993
944.357182	2402.634088
944.659036	2404.252298
944.960851	2404.136352
945.262628	2400.990672
945.564367	2402.550909
945.866067	2402.356824
946.167729	2402.671896
946.469352	2404.554767
946.770937	2400.168963
947.072484	2401.373799
947.373992	2403.042421
947.675462	2401.671227
947.976893	2403.105436
948.278286	2403.579304
948.579641	2401.638460
948.880958	2401.386402
949.182236	2403.274314
949.483476	2399.740465
949.784678	2402.601320
950.085841	2403.060065
950.386967	2400.930178
950.688054	2400.025291
950.989103	2402.639129
951.290114	2403.037380
951.591087	2404.181722
951.892021	2401.444375
952.192917	2406.084757
952.493776	2405.169788
952.794596	2403.443193
953.095378	2404.254819
953.396122	2403.299520
953.696828	2403.120559
953.997496	2402.457647
954.298126	2401.701474
954.598718	2405.787329
954.899272	2402.838254
955.199788	2402.757596
955.500266	2403.864129
955.800706	2399.788356
956.101108	2394.580844
956.401472	2399.231309
956.701798	2396.546894
957.002087	2397.981103
957.302337	2399.750548
957.602550	2400.242060
957.902724	2399.725342
958.202861	2400.675599
958.502960	2395.556308
958.803022	2401.144427
959.103045	2398.656617
959.403031	2398.820455
959.702979	2398.928840
960.002889	2401.036042
960.302762	2398.712070
960.602596	2398.734755
960.902393	2398.434807
961.202153	2400.506721
961.501875	2398.180228
961.801559	2396.118396
962.101205	2397.867677
962.400814	2396.882131
962.700385	2400.113511
962.999918	2398.611247
963.299414	2395.581513
963.598873	2397.822306
963.898293	2398.651576
964.197677	2397.285423
964.497022	2396.257028
964.796331	2395.291647
965.095601	2396.073026
965.394835	2398.371792
965.694030	2397.025804
965.993189	2395.553787
966.292309	2396.652759
966.591393	2398.197872
966.890439	2397.207286
967.189447	2399.601834
967.488419	2396.332645
967.787353	2396.957748
968.086249	2398.283572
968.385108	2397.751730
968.683930	2399.133006
968.982714	2396.677964
969.281462	2397.736607
969.580172	2397.575290
969.878844	2397.844992
970.177480	2396.042779
970.476078	2396.045300
970.774639	2397.668551
971.073162	2398.840619
971.371649	2392.861811
971.670098	2394.409445
971.968510	2394.696791
972.266885	2393.232336
972.565223	2396.982954
972.863524	2396.362892
973.161788	2398.467574
973.460014	2397.098901
973.758204	2395.314332
974.056356	2397.335835
974.354471	2397.741648
974.652550	2398.855743
974.950591	2399.611916
975.248595	2396.839281
975.546563	2398.603685
975.844493	2399.009498
976.142386	2399.589231
976.440243	2397.560166
976.738062	2397.960938
977.035845	2397.948335
977.333590	2399.664848
977.631299	2391.901471
977.928971	2398.603685
978.226606	2398.361710
978.524204	2397.204765
978.821765	2397.776936
979.119290	2394.636297
979.416777	2397.953376
979.714228	2398.437327
980.011642	2398.404560
980.309020	2399.740465
980.606360	2397.348438
980.903664	2396.672923
981.200931	2398.331463
981.498162	2398.396998
981.795356	2397.784498
982.092513	2399.064951
982.389633	2401.144427
982.686717	2402.863460
982.983764	2402.709705
983.280775	2401.681310
983.577749	2401.845147
983.874686	2406.432597
984.171587	2404.348080
984.468451	2401.308264
984.765279	2403.584345
985.062070	2401.378840
985.358824	2402.276166
985.655543	2400.829355
985.952224	2399.107801
986.248869	2399.967317
986.545478	2392.337531
986.842050	2395.941956
987.138586	2393.237377
987.435086	2394.575803
987.731549	2392.650083
988.027975	2397.895403
988.324366	2397.272821
988.620719	2396.577141
988.917037	2395.263921
989.213318	2395.518499
989.509563	2395.203427
989.805772	2397.045969
990.101944	2393.398694
990.398080	2398.134858
990.694180	2395.531102
990.990244	2396.879611
991.286271	2395.521020
991.582262	2397.058572
991.878217	2394.890875
992.174136	2397.918088
992.470019	2395.442882
992.765865	2396.897255
993.061676	2394.570762
993.357450	2395.828530
993.653188	2397.073695
993.948890	2397.038407
994.244556	2394.900958
994.540186	2396.100752
994.835780	2394.290978
995.131337	2398.006308
995.426859	2397.794580
995.722345	2400.269787
996.017795	2397.872718
996.313208	2401.951011
996.608586	2401.043604
996.903928	2399.148130
997.199234	2398.623850
997.494504	2399.309447
997.789738	2398.482698
998.084936	2399.967317
998.380099	2399.546381
998.675225	2401.265414
998.970316	2395.725186
999.265371	2397.149312
999.560390	2398.792728
999.855373	2399.869015
1000.150320	2397.744168
1000.445232	2395.205947
1000.740108	2398.283572
1001.034948	2395.662172
1001.329752	2394.593447
1001.624521	2395.400032
1001.919254	2391.094887
1002.213951	2394.326266
1002.508613	2392.206461
1002.803239	2392.060268
1003.097829	2391.278889
1003.392384	2396.846843
1003.686903	2394.588406
1003.981386	2394.739641
1004.275834	2396.166287
1004.570246	2397.257697
1004.864623	2393.791904
1005.158964	2396.751061
1005.453270	2393.875083
1005.747540	2394.006153
1006.041775	2395.760474
1006.335974	2394.124620
1006.630138	2393.610422
1006.924266	2395.705022
1007.218359	2395.775598
1007.512416	2396.287275
1007.806438	2393.779301
1008.100425	2393.933056
1008.394376	2396.584703
1008.688292	2395.349620
1008.982172	2395.296688
1009.276017	2396.516648
1009.569827	2396.249466
1009.863602	2394.016235
1010.157341	2394.913561
1010.451045	2396.904816
1010.744714	2391.911553
1011.038347	2394.353992
1011.331945	2396.272152
1011.625508	2396.488921
1011.919036	2393.262583
1012.212528	2393.653272
1012.505986	2393.512120
1012.799408	2392.987840
1013.092795	2394.868190
1013.386147	2394.316184
1013.679464	2394.555639
1013.972745	2394.043962
1014.265992	2395.989847
1014.559204	2393.174363
1014.852380	2394.361554
1015.145521	2394.666544
1015.438628	2393.779301
1015.731699	2394.152346
1016.024736	2395.362223
1016.317737	2396.040258
1016.610703	2394.457336
1016.903635	2395.228633
1017.196531	2393.159239
1017.489393	2393.156718
1017.782219	2387.311501
1018.075011	2396.665362
1018.367768	2391.682181
1018.660490	2394.172511
1018.953177	2394.172511
1019.245829	2394.172511
