Dividing Wavelength (nm)	Counts (n)	Blue Motor Position (mm): 0.000000	Red Motor Position (mm): 23.600000	
326.493990	1983.885602
326.888308	1983.885602
327.282561	1983.885602
327.676750	1962.339711
328.070874	1960.078753
328.464933	1967.426235
328.858929	1980.555920
329.252859	1990.189565
329.646726	2005.996103
330.040528	2015.796106
330.434265	2037.344518
330.827938	2055.817827
331.221547	2077.008317
331.615091	2098.118148
332.008571	2117.168669
332.401986	2140.796557
332.795338	2159.685760
333.188625	2178.093534
333.581847	2199.704960
333.975006	2215.529142
334.368100	2231.010526
334.761129	2251.230594
335.154095	2265.618047
335.546996	2286.904319
335.939833	2305.173460
336.332606	2319.772642
336.725315	2329.388643
337.117960	2337.784685
337.510540	2345.611076
337.903056	2352.832529
338.295508	2361.528519
338.687896	2368.371886
339.080220	2375.064017
339.472480	2380.427805
339.864676	2382.824874
340.256807	2385.658002
340.648875	2391.412479
341.040879	2389.222098
341.432818	2393.408776
341.824694	2393.733931
342.216506	2392.463560
342.608253	2392.443395
342.999937	2391.180586
343.391557	2390.510113
343.783113	2389.088507
344.174605	2387.059443
344.566033	2386.933414
344.957397	2383.873434
345.348697	2383.167672
345.739934	2380.720192
346.131106	2379.301107
346.522215	2379.280943
346.913260	2377.080479
347.304241	2374.373379
347.695159	2373.158461
348.086012	2375.285828
348.476802	2369.100332
348.867528	2372.198121
349.258191	2368.863398
349.648789	2367.547657
350.039324	2369.128059
350.429796	2367.222502
350.820203	2365.511031
351.210548	2364.888448
351.600828	2362.922398
351.991045	2365.115300
352.381198	2365.155629
352.771288	2362.710670
353.161314	2364.102028
353.551276	2366.249560
353.941175	2364.396936
354.331010	2363.270238
354.720782	2363.187059
355.110490	2366.559591
355.500135	2364.754858
355.889717	2366.814169
356.279235	2365.039683
356.668689	2368.409694
357.058080	2367.688809
357.447408	2365.926926
357.836672	2364.160002
358.225873	2365.863912
358.615010	2363.897862
359.004084	2372.319109
359.393095	2368.833151
359.782043	2375.285828
360.170927	2374.600231
360.559748	2374.340612
360.948505	2373.153420
361.337199	2374.484285
361.725830	2376.712475
362.114398	2375.487474
362.502903	2376.987217
362.891344	2379.338916
363.279722	2376.467979
363.668037	2379.958978
364.056289	2379.452342
364.444478	2380.828577
364.832603	2381.645244
365.220665	2382.333361
365.608665	2383.439894
365.996601	2381.607435
366.384474	2384.455687
366.772284	2384.974926
367.160031	2385.637838
367.547715	2384.735471
367.935336	2388.201264
368.322893	2389.320400
368.710388	2388.576830
369.097820	2388.859135
369.485189	2391.815772
369.872495	2396.660320
370.259738	2394.933725
370.646918	2397.058572
371.034035	2395.694939
371.421090	2399.901782
371.808081	2401.880435
372.195010	2409.805129
372.581875	2415.743608
372.968678	2420.086562
373.355418	2425.599064
373.742096	2440.722526
374.128710	2450.620831
374.515262	2460.604836
374.901751	2474.036991
375.288177	2493.881493
375.674540	2512.800943
376.060841	2531.856505
376.447079	2553.339382
376.833254	2583.503126
377.219367	2606.654625
377.605417	2640.725263
377.991404	2666.271310
378.377329	2708.281766
378.763191	2742.745614
379.148991	2786.356636
379.534727	2836.886642
379.920402	2884.883468
380.306013	2931.544388
380.691563	2993.870693
381.077049	3049.860268
381.462474	3103.356993
381.847835	3177.318282
382.233134	3247.975094
382.618371	3312.794250
383.003545	3396.522774
383.388657	3475.283241
383.773706	3569.109197
384.158693	3637.459681
384.543618	3733.188672
384.928480	3815.263698
385.313280	3912.812545
385.698017	4016.400695
386.082692	4139.697236
386.467305	4201.532029
386.851856	4328.564065
387.236344	4484.189525
387.620770	4541.706570
388.005133	4664.141073
388.389435	4813.286131
388.773674	4896.959202
389.157851	5026.390827
389.541965	5162.307897
389.926018	5183.667265
390.310008	5362.103947
390.693936	5482.932843
391.077802	5600.119505
391.461606	5731.116408
391.845348	5845.648903
392.229027	5968.365711
392.612645	6189.553898
392.996200	6306.962371
393.379694	6480.171376
393.763125	6701.815787
394.146494	6792.712832
394.529801	6927.886332
394.913047	7172.042015
395.296230	7169.836510
395.679351	7218.957513
396.062410	7477.772873
396.445408	7377.010289
396.828343	7528.010491
397.211217	7661.255749
397.594028	7543.267543
397.976778	7743.411433
398.359466	7909.366218
398.742092	7880.051908
399.124656	8030.268211
399.507158	8215.293680
399.889598	8237.452072
400.271977	8440.766848
400.654294	8474.598031
401.036549	8672.206221
401.418742	8697.298564
401.800874	8998.472218
402.182944	9075.513652
402.564952	9443.361607
402.946898	9260.594574
403.328783	9317.501639
403.710606	9505.594651
404.092367	9775.124983
404.474067	10127.466348
404.855705	9915.347197
405.237282	9870.715342
405.618797	10296.148397
406.000250	10542.801973
406.381642	10896.542259
406.762972	10850.463592
407.144240	10654.045115
407.525447	10897.109388
407.906593	10836.923053
408.287677	11096.948289
408.668700	11255.598441
409.049661	11222.629295
409.430560	11385.153575
409.811399	11356.159378
410.192176	11515.853050
410.572891	11590.802405
410.953545	12064.144066
411.334138	11545.056454
411.714669	12136.388841
412.095139	11457.620161
412.475547	11951.824637
412.855894	11803.823922
413.236180	12117.918054
413.616405	11810.097638
413.996568	12081.835995
414.376670	12055.352293
414.756711	11936.512133
415.136691	12204.759490
415.516609	12386.367058
415.896466	12451.879372
416.276262	12741.123136
416.655997	13179.902646
417.035670	13221.976116
417.415283	13853.925080
417.794834	13943.778606
418.174324	13687.312425
418.553753	13594.882869
418.933121	14085.346809
419.312428	13880.101272
419.691674	13800.899703
420.070859	14254.646399
420.449983	13909.559254
420.829045	14451.437922
421.208047	14193.620712
421.586988	14647.619465
421.965867	14894.280602
422.344686	14886.595363
422.723444	15444.814932
423.102141	14157.004291
423.480777	15325.077445
423.859352	14833.597713
424.237866	15923.583395
424.616319	15636.842564
424.994712	16279.753517
425.373044	16075.523772
425.751314	16742.702839
426.129524	15867.626587
426.507673	16950.625229
426.885762	16649.224723
427.263789	16843.878797
427.641756	16997.974267
428.019662	17063.206798
428.397508	17103.417561
428.775292	17396.656439
429.153016	17347.853029
429.530679	17423.112415
429.908282	17441.852904
430.285824	17170.853076
430.663305	17860.019136
431.040726	17459.212117
431.418086	17289.829348
431.795385	17928.810722
432.172624	18336.811467
432.549802	17891.768323
432.926920	18079.130368
433.303977	17949.093804
433.680974	18202.215180
434.057910	18481.326224
434.434786	18507.862858
434.811601	18412.605215
435.188355	19419.139636
435.565050	19070.949661
435.941683	19006.518673
436.318257	19860.727069
436.694770	19657.006480
437.071222	20212.891994
437.447614	19281.720303
437.823946	19296.780750
438.200218	19414.605118
438.576429	19174.426905
438.952580	19404.878212
439.328670	19347.845118
439.704700	19725.828313
440.080670	19275.239900
440.456580	19802.252205
440.832429	19929.354817
441.208218	18927.065048
441.583947	19301.390885
441.959616	19357.574545
442.335224	19534.292193
442.710773	19597.578838
443.086261	20036.048318
443.461689	19387.408093
443.837057	19419.961344
444.212365	19954.550504
444.587612	19885.131295
444.962800	19408.575898
445.337927	19718.569051
445.712995	18464.294686
446.088002	20062.053110
446.462949	20143.452621
446.837837	20200.561332
447.212664	20054.017510
447.587431	22451.237399
447.962139	24926.726242
448.336786	26883.011527
448.711374	25373.092689
449.085901	22007.076457
449.460369	21790.778189
449.834776	21567.278634
450.209124	23532.995917
450.583412	22986.058452
450.957640	23248.032093
451.331808	21966.016259
451.705917	20650.290228
452.079965	20498.579224
452.453954	20631.196858
452.827883	20355.644868
453.201752	20018.021151
453.575562	19957.953283
453.949311	20653.327524
454.323001	20478.429732
454.696632	20114.748291
455.070202	21077.898542
455.443713	20968.876028
455.817164	21174.408912
456.190556	21319.329482
456.563888	20698.423165
456.937160	20778.615320
457.310373	19382.898781
457.683526	19445.567885
458.056619	19206.307162
458.429653	18919.962062
458.802628	19063.609741
459.175542	18900.780471
459.548398	19489.930039
459.921194	20231.627443
460.293930	20392.962010
460.666607	21370.608099
461.039224	22154.479795
461.411782	22088.511256
461.784280	21053.030530
462.156719	20432.283010
462.529099	19793.904054
462.901419	18754.327390
463.273680	17860.424949
463.645882	17609.312473
464.018024	17319.035273
464.390106	17473.758367
464.762130	18598.737218
465.134094	20380.228055
465.505999	22804.614722
465.877845	24814.764736
466.249631	24970.929599
466.621358	23594.422377
466.993026	22082.890370
467.364634	20680.101092
467.736184	19378.926352
468.107674	18455.021484
468.479105	17752.488804
468.850477	17109.429137
469.221790	16204.415993
469.593043	15210.181988
469.964238	14566.706425
470.335373	14246.676335
470.706449	14564.967227
471.077467	15181.039077
471.448425	16508.314391
471.819324	17232.380359
472.190164	16276.796880
472.560945	14771.165543
472.931667	13482.240807
473.302330	12826.391733
473.672934	12296.929427
474.043479	12175.140191
474.413965	11704.823222
474.784393	11368.502643
475.154761	11357.510407
475.525070	11135.157714
475.895321	10785.939343
476.265513	10698.631600
476.635645	10700.048164
477.005719	10436.110993
477.375734	10316.335698
477.745691	10239.362320
478.115588	10304.869593
478.485427	10493.496967
478.855207	10970.092693
479.224928	11283.889397
479.594591	11352.612927
479.964194	10876.891841
480.333739	10616.193611
480.703226	10370.875941
481.072653	10245.157126
481.442022	10104.410631
481.811333	9901.524354
482.180584	9455.903998
482.549777	9142.462696
482.918912	8839.005399
483.287988	8588.301256
483.657005	8264.573480
484.025964	7970.344015
484.394864	7767.404805
484.763706	7518.822988
485.132489	7229.964873
485.501213	7043.716923
485.869879	6888.353603
486.238487	6687.599733
486.607036	6557.164919
486.975527	6347.478125
487.343959	6222.933898
487.712333	6085.507003
488.080648	5936.699703
488.448905	5841.406772
488.817104	5694.268094
489.185244	5641.159539
489.553326	5646.087267
489.921350	5726.634823
490.289315	5828.995452
490.657222	5753.302527
491.025070	5650.745293
491.392861	5455.153565
491.760593	5237.867231
492.128267	5017.147872
492.495883	4822.861802
492.863440	4652.231347
493.230939	4489.923838
493.598380	4359.171430
493.965763	4258.250051
494.333088	4151.796005
494.700354	4061.844177
495.067563	3988.974298
495.434713	3916.691713
495.801805	3868.846122
496.168839	3796.019093
496.535815	3731.847725
496.902733	3685.617824
497.269593	3623.160448
497.636395	3577.515321
498.003139	3546.459293
498.369825	3489.942917
498.736453	3456.663740
499.103023	3410.416194
499.469535	3372.814228
499.835989	3345.962522
500.202385	3310.636636
500.568723	3280.102367
500.935003	3258.213677
501.301226	3228.314594
501.667390	3218.444015
502.033497	3205.760472
502.399546	3169.552384
502.765537	3135.506952
503.131470	3126.359778
503.497345	3113.366204
503.863163	3079.356059
504.228923	3073.077302
504.594625	3064.749316
504.960269	3041.214689
505.325856	3039.425080
505.691385	3021.034951
506.056856	3012.374248
506.422270	3011.197139
506.787625	2993.628718
507.152924	2987.818788
507.518164	2982.061790
507.883347	2959.094293
508.248472	2959.999180
508.613540	2960.503296
508.978550	2956.956844
509.343503	2948.918724
509.708398	2945.853703
510.073236	2944.865637
510.438016	2942.423198
510.802738	2929.701846
511.167403	2932.507248
511.532010	2931.317536
511.896561	2930.949531
512.261053	2938.652414
512.625488	2925.391659
512.989866	2915.470668
513.354186	2915.135432
513.718449	2905.406005
514.082655	2917.789599
514.446803	2910.729463
514.810894	2913.149217
515.174927	2907.999678
515.538904	2905.637898
515.902822	2908.032446
516.266684	2901.121024
516.630488	2902.134296
516.994235	2897.514078
517.357925	2898.240005
517.721558	2899.727145
518.085133	2900.874008
518.448651	2898.308060
518.812112	2894.554921
519.175516	2893.292112
519.538863	2893.234139
519.902152	2891.179869
520.265385	2892.180538
520.628560	2892.016700
520.991678	2890.035527
521.354739	2887.522512
521.717743	2887.918242
522.080690	2886.726009
522.443580	2890.164076
522.806413	2891.268089
523.169189	2886.615104
523.531908	2885.884137
523.894569	2883.499671
524.257174	2883.724002
524.619722	2886.489075
524.982213	2886.138715
525.344647	2881.495812
525.707025	2879.086141
526.069345	2883.713920
526.431608	2883.809702
526.793815	2883.182078
527.155964	2875.464072
527.518057	2878.259391
527.880093	2874.715460
528.242072	2878.672766
528.603995	2872.003319
528.965860	2873.124976
529.327669	2875.640512
529.689421	2872.651108
530.051117	2870.954759
530.412755	2870.785881
530.774337	2874.836448
531.135862	2871.325284
531.497331	2868.920654
531.858743	2861.646269
532.220098	2868.197248
532.581396	2863.929912
532.942638	2860.917822
533.303824	2863.874459
533.664953	2862.823378
534.026025	2859.569313
534.387040	2865.457381
534.747999	2863.554346
535.108902	2861.805065
535.469748	2859.695342
535.830537	2862.329345
536.191270	2860.590147
536.551947	2860.385980
536.912567	2860.559900
537.273131	2857.409179
537.633638	2856.693335
537.994089	2855.589323
538.354483	2852.476410
538.714821	2857.343644
539.075103	2859.355064
539.435328	2858.031762
539.795497	2855.932121
540.155609	2853.285515
540.515665	2858.263655
540.875665	2850.381811
541.235609	2853.472038
541.595496	2855.276771
541.955328	2858.412369
542.315102	2853.066225
542.674821	2850.843076
543.034483	2848.350226
543.394090	2847.858713
543.753640	2849.073631
544.113134	2855.501102
544.472571	2844.622292
544.831953	2855.526308
545.191278	2848.937520
545.550548	2844.261850
545.909761	2848.262005
546.268918	2849.963395
546.628019	2852.960361
546.987064	2845.625482
547.346053	2839.707167
547.704986	2845.660770
548.063863	2841.446365
548.422684	2840.791015
548.781449	2840.629698
549.140158	2843.356963
549.498811	2840.002075
549.857408	2833.032680
550.215949	2839.901252
550.574434	2835.591065
550.932864	2834.812207
551.291237	2838.174657
551.649555	2840.281859
552.007817	2836.619461
552.366022	2835.134841
552.724173	2834.247598
553.082267	2838.300685
553.440305	2840.470902
553.798288	2835.129800
554.156215	2835.701971
554.514086	2837.436127
554.871902	2832.977227
555.229661	2833.282217
555.587365	2829.120744
555.945014	2828.551094
556.302606	2826.907678
556.660143	2828.359530
557.017625	2828.873728
557.375050	2826.481700
557.732421	2825.939776
558.089735	2823.683860
558.446994	2823.504899
558.804197	2827.169818
559.161345	2822.146308
559.518437	2815.728919
559.875474	2816.757314
560.232455	2817.153045
560.589381	2816.921152
560.946251	2815.113898
561.303065	2815.476861
561.659825	2813.951912
562.016528	2809.613999
562.373177	2806.117959
562.729770	2805.462609
563.086307	2799.090591
563.442789	2801.442289
563.799216	2798.818368
564.155587	2795.942390
564.511904	2793.389046
564.868164	2792.426185
565.224370	2791.249076
565.580520	2787.541307
565.936615	2788.103396
566.292654	2782.301028
566.648638	2784.682973
567.004567	2778.346243
567.360441	2777.678290
567.716260	2773.836931
568.072023	2772.485901
568.427732	2764.904006
568.783385	2759.598192
569.138982	2758.290012
569.494525	2756.719693
569.850013	2748.719382
570.205445	2750.178796
570.560823	2748.951275
570.916145	2746.559247
571.271412	2743.181674
571.626625	2738.914337
571.981782	2734.127762
572.336884	2730.286402
572.691931	2730.036865
573.046923	2724.652913
573.401860	2721.295505
573.756743	2719.342057
574.111570	2716.627396
574.466342	2711.737477
574.821059	2710.762014
575.175722	2705.425952
575.530330	2699.353882
575.884882	2698.890096
576.239380	2694.658048
576.593823	2691.701411
576.948211	2688.044054
577.302544	2686.115813
577.656823	2681.697241
578.011047	2682.574402
578.365216	2676.620799
578.719330	2671.839265
579.073389	2669.966476
579.427394	2668.615447
579.781344	2666.190652
580.135239	2662.495486
580.489080	2658.633962
580.842866	2655.611791
581.196597	2655.127840
581.550273	2654.018786
581.903895	2652.982829
582.257463	2651.299083
582.610975	2646.630975
582.964434	2648.092910
583.317837	2646.008392
583.671186	2641.065541
584.024481	2641.080665
584.377721	2636.357103
584.730906	2636.737711
585.084037	2635.059006
585.437113	2635.447175
585.790135	2631.673872
586.143103	2627.562811
586.496016	2628.092132
586.848874	2622.977881
587.201679	2622.413272
587.554428	2617.551079
587.907124	2617.815740
588.259765	2614.972529
588.612352	2618.821450
588.964884	2617.581326
589.317362	2616.678959
589.669786	2617.046964
590.022155	2610.503546
590.374470	2615.322889
590.726731	2611.408433
591.078937	2607.297372
591.431090	2608.045983
591.783188	2604.970880
592.135232	2601.197576
592.487222	2602.462906
592.839157	2605.280911
593.191038	2600.557349
593.542866	2599.377719
593.894639	2595.765733
594.246358	2599.113059
594.598022	2593.673654
594.949633	2593.368664
595.301190	2591.319435
595.652692	2591.097624
596.004141	2593.441761
596.355535	2590.301122
596.706876	2587.616707
597.058162	2583.699731
597.409395	2587.321800
597.760573	2587.830957
598.111698	2584.861717
598.462768	2583.941706
598.813785	2584.544124
599.164748	2579.460121
599.515657	2581.116140
599.866511	2581.342992
600.217312	2580.221335
600.568060	2579.979359
600.918753	2580.949782
601.269392	2582.220152
601.619978	2578.451890
601.970510	2582.585636
602.320988	2578.401478
602.671412	2582.147056
603.021783	2579.881057
603.372100	2578.383834
603.722363	2578.335943
604.072572	2577.209245
604.422728	2579.500450
604.772830	2575.165058
605.122878	2574.970973
605.472872	2572.992320
605.822813	2574.287897
606.172701	2578.265367
606.522534	2578.968608
606.872314	2580.685121
607.222041	2575.769996
607.571714	2577.562126
607.921333	2578.913155
608.270899	2576.460634
608.620411	2574.078689
608.969870	2575.684296
609.319276	2576.795871
609.668627	2576.264029
610.017926	2574.877712
610.367171	2577.965418
610.716362	2573.612382
611.065500	2578.920717
611.414585	2576.760583
611.763616	2579.906263
612.112594	2579.046746
612.461518	2576.392578
612.810389	2576.906776
613.159207	2576.937023
613.507971	2577.274780
613.856682	2577.700758
614.205340	2576.828638
614.553945	2578.262847
614.902496	2577.002558
615.250994	2576.846282
615.599439	2577.690676
615.947830	2577.214287
616.296169	2576.901735
616.644454	2580.165882
616.992686	2580.110429
617.340864	2581.093454
617.688990	2579.008937
618.037063	2579.664287
618.385082	2580.637230
618.733048	2581.277457
619.080961	2579.442477
619.428821	2581.043043
619.776628	2582.986408
620.124382	2579.684452
620.472083	2581.595049
620.819731	2581.118660
621.167326	2578.237641
621.514868	2579.379462
621.862357	2576.017012
622.209793	2575.162537
622.557176	2572.135324
622.904506	2572.261353
623.251783	2567.951166
623.599007	2566.280024
623.946179	2565.463357
624.293297	2562.781463
624.640363	2565.536454
624.987376	2565.586865
625.334336	2562.607543
625.681243	2562.204251
626.028097	2556.543035
626.374899	2560.523026
626.721647	2561.808520
627.068343	2558.942624
627.414987	2557.563869
627.761577	2557.019424
628.108115	2557.394990
628.454600	2559.013201
628.801032	2557.095042
629.147412	2551.506923
629.493739	2554.519012
629.840014	2556.863148
630.186236	2553.752757
630.532405	2552.421892
630.878521	2551.703527
631.224585	2551.305276
631.570597	2550.155893
631.916556	2552.384083
632.262462	2549.813095
632.608316	2552.147149
632.954117	2548.033567
633.299866	2545.923845
633.645562	2549.538352
633.991206	2546.017106
634.336797	2545.351674
634.682336	2546.327137
635.027823	2542.253885
635.373257	2544.098947
635.718639	2537.873122
636.063968	2539.221631
636.409245	2536.900179
636.754470	2539.451003
637.099642	2539.327495
637.444762	2536.144006
637.789829	2536.393543
638.134845	2534.747607
638.479808	2533.454551
638.824719	2533.313398
639.169577	2532.169056
639.514383	2531.879190
639.859137	2529.948428
640.203839	2531.102852
640.548489	2528.189065
640.893086	2528.146216
641.237632	2524.410721
641.582125	2524.463653
641.926566	2525.539939
642.270955	2525.441637
642.615292	2527.838705
642.959576	2526.210412
643.303809	2526.308715
643.647990	2524.995494
643.992118	2525.481966
644.336195	2528.375588
644.680219	2525.834847
645.024192	2526.853160
645.368112	2526.775022
645.711981	2526.477594
646.055797	2527.964734
646.399562	2526.661596
646.743274	2532.350538
647.086935	2533.515044
647.430544	2534.775333
647.774101	2534.674510
648.117606	2531.753161
648.461059	2535.607123
648.804460	2533.141999
649.147810	2533.391536
649.491108	2526.832995
649.834354	2529.038500
650.177548	2522.132119
650.520690	2525.517254
650.863781	2521.383508
651.206820	2524.866945
651.549807	2521.098682
651.892742	2520.682787
652.235626	2515.805471
652.578458	2518.358815
652.921238	2515.326561
653.263967	2519.092303
653.606644	2514.131808
653.949269	2516.990142
654.291843	2511.785151
654.634365	2514.593073
654.976836	2514.590553
655.319255	2516.014679
655.661622	2513.093330
656.003938	2515.510563
656.346203	2510.918072
656.688416	2511.195336
657.030577	2509.322547
657.372687	2512.450583
657.714746	2510.734070
658.056753	2511.487723
658.398708	2506.040756
658.740612	2509.942609
659.082465	2504.846002
659.424266	2508.609224
659.766016	2506.439007
660.107715	2510.285407
660.449362	2511.172651
660.790958	2509.783813
661.132503	2510.038391
661.473996	2510.817249
661.815438	2510.870181
662.156829	2510.068638
662.498168	2509.884636
662.839456	2509.693072
663.180693	2509.372959
663.521879	2508.465551
663.863013	2510.358504
664.204097	2510.240037
664.545129	2512.548886
664.886110	2510.902949
665.227040	2508.410098
665.567918	2511.626354
665.908746	2510.355984
666.249522	2513.040398
666.590248	2512.538803
666.930922	2513.426046
667.271545	2512.329595
667.612118	2510.918072
667.952639	2509.836745
668.293109	2511.918741
668.633528	2509.935047
668.973896	2510.648371
669.314213	2510.114008
669.654480	2508.140397
669.994695	2508.795747
670.334859	2508.571415
670.674973	2509.188957
671.015035	2507.255674
671.355047	2509.698113
671.695008	2507.732063
672.034918	2508.054697
672.374777	2508.382372
672.714585	2506.552433
673.054342	2507.096878
673.394049	2508.455469
673.733705	2507.159892
674.073310	2507.081754
674.412864	2507.590911
674.752368	2503.376506
675.091820	2506.791888
675.431223	2503.179901
675.770574	2506.186949
676.109875	2498.632780
676.449125	2502.781650
676.788324	2498.778974
677.127473	2498.088336
677.466571	2497.627070
677.805619	2498.844509
678.144616	2500.467760
678.483562	2498.877276
678.822458	2499.502379
679.161303	2502.065806
679.500098	2498.968017
679.838842	2501.012205
680.177535	2499.651093
680.516179	2498.234529
680.854771	2497.435506
681.193314	2499.729231
681.531805	2502.332987
681.870247	2507.270798
682.208638	2508.556292
682.546978	2508.697444
682.885268	2508.861282
683.223508	2509.831704
683.561697	2506.917917
683.899836	2507.686693
684.237925	2504.069665
684.575963	2506.018071
684.913951	2504.533451
685.251889	2505.196363
685.589776	2501.798625
685.927614	2503.366424
686.265401	2504.699809
686.603137	2504.798112
686.940824	2504.299037
687.278460	2509.050325
687.616046	2507.762310
687.953582	2508.737773
688.291068	2508.425222
688.628504	2508.647033
688.965889	2509.864471
689.303224	2508.150479
689.640510	2508.069820
689.977745	2506.519666
690.314930	2503.197545
690.652065	2502.605210
690.989150	2499.615805
691.326185	2495.986175
691.663170	2494.967862
692.000105	2490.135916
692.336990	2489.641883
692.673825	2489.036944
693.010610	2487.164155
693.347345	2482.730461
693.684030	2479.393217
694.020665	2483.640389
694.357251	2476.360963
694.693786	2481.588639
695.030272	2481.155100
695.366707	2477.654019
695.703093	2479.778865
696.039429	2476.076138
696.375716	2477.845583
696.711952	2475.945068
697.048139	2478.526138
697.384276	2476.071096
697.720363	2475.536734
698.056400	2475.917341
698.392388	2473.732001
698.728326	2476.292907
699.064214	2477.706951
699.400053	2473.787454
699.735842	2474.115129
700.071581	2474.220993
700.407270	2470.782926
700.742910	2473.306023
701.078501	2469.580611
701.414042	2469.928450
701.749533	2469.315950
702.084974	2470.782926
702.420366	2467.281845
702.755709	2469.371403
703.091002	2467.670013
703.426246	2466.513069
703.761440	2468.491722
704.096584	2465.106587
704.431679	2466.676906
704.766725	2466.087091
705.101721	2464.438634
705.436668	2464.970476
705.771565	2463.848819
706.106413	2465.910651
706.441212	2464.418469
706.775961	2464.897379
707.110661	2465.754375
707.445311	2467.990127
707.779913	2466.077009
708.114465	2470.162864
708.448967	2466.649180
708.783421	2471.463482
709.117825	2473.056486
709.452180	2472.597741
709.786485	2475.756024
710.120742	2475.181333
710.454949	2474.634368
710.789107	2474.059676
711.123216	2472.164202
711.457275	2478.173258
711.791286	2476.665952
712.125247	2479.985552
712.459159	2480.230048
712.793023	2482.997642
713.126837	2478.745428
713.460602	2479.652836
713.794318	2479.488999
714.127985	2480.782055
714.461602	2474.173102
714.795171	2475.088071
715.128691	2472.585138
715.462162	2472.501959
715.795584	2468.400981
716.128957	2469.951136
716.462281	2466.994499
716.795556	2462.664148
717.128782	2465.303192
717.461960	2464.194138
717.795088	2464.892338
718.128167	2461.643314
718.461198	2460.932511
718.794180	2461.297995
719.127113	2458.535443
719.459997	2459.127778
719.792833	2458.152315
720.125619	2455.001594
720.458357	2459.382357
720.791046	2454.787345
721.123686	2455.823302
721.456278	2455.677108
721.788821	2454.804989
722.121315	2456.554269
722.453761	2455.697273
722.786158	2455.220884
723.118506	2453.980760
723.450805	2455.472942
723.783056	2452.670060
724.115259	2457.204578
724.447412	2452.929680
724.779518	2455.644341
725.111574	2454.936059
725.443582	2457.622994
725.775542	2453.453960
726.107453	2456.897068
726.439315	2456.047633
726.771129	2461.918057
727.102895	2458.656430
727.434612	2459.609208
727.766281	2461.078705
728.097901	2457.736420
728.429473	2458.822788
728.760996	2457.970833
729.092471	2456.319856
729.423897	2461.877728
729.755276	2459.710032
730.086606	2462.268417
730.417887	2462.737244
730.749120	2463.770681
731.080305	2466.681947
731.411442	2466.860908
731.742530	2467.859057
732.073570	2468.421145
732.404562	2470.503142
732.735506	2468.869808
733.066401	2465.459468
733.397249	2465.063737
733.728048	2463.992492
734.058798	2461.378653
734.389501	2458.046451
734.720156	2459.455453
735.050762	2456.239197
735.381320	2453.879937
735.711831	2453.892540
736.042293	2454.620987
736.372707	2452.571758
736.703073	2452.244083
737.033391	2451.533280
737.363661	2450.918259
737.693883	2454.681481
738.024056	2455.946810
738.354182	2453.910184
738.684260	2457.254990
739.014290	2455.283898
739.344272	2457.859928
739.674207	2457.136523
740.004093	2459.460494
740.333931	2458.094342
740.663722	2460.380505
740.993464	2458.275823
741.323159	2460.625001
741.652806	2457.179372
741.982405	2459.034517
742.311956	2452.836418
742.641460	2455.291460
742.970915	2452.987653
743.300323	2450.968671
743.629683	2450.658640
743.958996	2451.497992
744.288260	2449.917590
744.617477	2448.059925
744.946647	2446.560182
745.275768	2448.863989
745.604842	2442.305448
745.933869	2444.916766
746.262847	2444.306786
746.591778	2448.374997
746.920662	2445.607404
747.249498	2446.933227
747.578286	2447.971705
747.907027	2448.274174
748.235720	2447.606221
748.564365	2448.352312
748.892963	2449.068156
749.221514	2444.755449
749.550017	2447.243258
749.878473	2448.385079
750.206881	2443.207814
750.535242	2447.976746
750.863555	2448.574123
751.191821	2443.928699
751.520039	2443.888370
751.848210	2448.869030
752.176334	2444.190839
752.504411	2445.751077
752.832440	2447.407096
753.160421	2445.378031
753.488356	2446.910542
753.816243	2443.043977
754.144082	2443.638833
754.471875	2445.892229
754.799620	2446.290480
755.127318	2447.364246
755.454969	2445.390634
755.782572	2443.691765
756.110129	2443.989193
756.437638	2443.747218
756.765100	2446.572785
757.092515	2446.590429
757.419882	2443.381734
757.747203	2440.167999
758.074477	2440.662032
758.401703	2445.730912
758.728882	2445.262085
759.056014	2444.437856
759.383099	2445.166303
759.710138	2448.763166
760.037129	2445.282249
760.364073	2444.614296
760.690970	2446.996242
761.017820	2446.267795
761.344623	2447.696962
761.671379	2449.849535
761.998088	2447.601180
762.324751	2456.569393
762.651366	2463.896710
762.977935	2484.620893
763.304456	2488.300936
763.630931	2494.287306
763.957359	2490.287150
764.283740	2483.700883
764.610074	2479.448669
764.936362	2468.640436
765.262602	2460.904785
765.588796	2457.461677
765.914943	2453.451439
766.241044	2449.254678
766.567097	2443.457352
766.893104	2442.416353
767.219064	2442.542382
767.544978	2441.080448
767.870845	2435.015939
768.196665	2437.198759
768.522438	2433.755651
768.848165	2436.848399
769.173846	2434.884869
769.499479	2433.168357
769.825066	2435.585590
770.150607	2435.101639
770.476101	2433.397729
770.801548	2434.965528
771.126949	2429.679878
771.452303	2431.149374
771.777611	2430.509148
772.102872	2430.920002
772.428087	2431.686257
772.753256	2432.061823
773.078378	2429.498397
773.403453	2428.646442
773.728482	2430.078129
774.053465	2427.623087
774.378401	2427.333221
774.703291	2428.255752
775.028135	2430.007553
775.352932	2428.328849
775.677683	2427.411359
776.002388	2426.405649
776.327046	2426.589651
776.651658	2426.692994
776.976224	2425.311718
777.300743	2426.105700
777.625216	2424.716862
777.949643	2426.297264
778.274024	2425.785587
778.598359	2424.245514
778.922647	2422.103024
779.246889	2423.605288
779.571086	2417.976839
779.895236	2424.674012
780.219339	2424.003539
780.543397	2423.544794
780.867409	2422.256779
781.191374	2426.040165
781.515294	2425.301636
781.839167	2427.091246
782.162995	2424.442119
782.486776	2425.362130
782.810511	2423.789290
783.134201	2424.742068
783.457844	2423.388518
783.781441	2423.975812
784.104993	2422.839032
784.428498	2427.305495
784.751958	2424.316090
785.075372	2422.755853
785.398739	2424.217788
785.722061	2425.241142
786.045337	2426.050247
786.368568	2425.140319
786.691752	2421.717376
787.014891	2424.744588
787.337983	2427.295412
787.661030	2429.016966
787.984031	2430.589806
788.306987	2431.918150
788.629897	2434.985692
788.952760	2437.120621
789.275579	2431.237595
789.598351	2432.356731
789.921078	2428.500248
790.243759	2428.038983
790.566395	2425.377253
790.888984	2427.300453
791.211529	2428.285999
791.534027	2425.722572
791.856480	2424.535381
792.178888	2426.521595
792.501249	2423.622932
792.823566	2423.063364
793.145836	2420.895667
793.468062	2422.365164
793.790241	2423.665782
794.112375	2425.702408
794.434464	2423.728796
794.756507	2425.949424
795.078505	2427.413879
795.400457	2422.012283
795.722364	2422.571851
796.044226	2425.866245
796.366042	2422.899526
796.687812	2427.166863
797.009538	2430.183993
797.331218	2428.901020
797.652852	2426.793818
797.974442	2430.133582
798.295986	2424.421955
798.617484	2426.834147
798.938938	2426.572007
799.260346	2422.445822
799.581709	2424.878179
799.903026	2428.081832
800.224299	2425.263827
800.545526	2423.401121
800.866708	2424.253076
801.187845	2423.128899
801.508936	2422.166038
801.829983	2422.894485
802.150984	2419.726120
802.471940	2420.270564
802.792851	2421.513209
803.113717	2421.568662
803.434538	2420.691501
803.755314	2423.224681
804.076045	2421.440112
804.396731	2421.929104
804.717372	2423.161666
805.037967	2420.918353
805.358518	2420.371388
805.679024	2423.373395
805.999485	2421.470359
806.319901	2423.131419
806.640272	2421.533373
806.960598	2423.577561
807.280879	2422.839032
807.601115	2424.149732
807.921306	2422.594536
808.241453	2421.737540
808.561554	2422.632345
808.881611	2420.578075
809.201623	2423.917839
809.521590	2424.396749
809.841513	2423.196954
810.161390	2422.115627
810.481223	2420.799886
810.801011	2420.457087
811.120755	2419.267375
811.440453	2421.006573
811.760107	2420.724268
812.079716	2420.527663
812.399281	2417.334092
812.718801	2418.669998
813.038276	2417.215625
813.357707	2420.270564
813.677093	2421.351892
813.996434	2422.118147
814.315731	2419.774011
814.634983	2418.564134
814.954191	2419.532035
815.273354	2419.897519
815.592473	2420.510019
815.911547	2422.108065
816.230577	2424.605957
816.549562	2425.137798
816.868502	2421.485483
817.187399	2425.397418
817.506250	2425.543611
817.825058	2427.197110
818.143821	2427.628128
818.462539	2428.706935
818.781213	2430.562080
819.099843	2431.676175
819.418429	2436.956784
819.736970	2441.660180
820.055466	2445.988011
820.373919	2451.631582
820.692327	2466.132462
821.010691	2483.244658
821.329011	2526.885927
821.647286	2596.708428
821.965517	2661.537667
822.283704	2705.781354
822.601847	2716.758466
822.919945	2688.129753
823.237999	2654.258241
823.556010	2620.401852
823.873976	2586.628641
824.191897	2557.200906
824.509775	2534.966897
824.827609	2516.322189
825.145398	2503.081599
825.463144	2494.955259
825.780845	2498.494149
826.098502	2509.032681
826.416116	2523.528519
826.733685	2538.621733
827.051210	2541.543082
827.368692	2533.487318
827.686129	2513.698269
828.003522	2499.991371
828.320872	2479.703248
828.638177	2467.256639
828.955439	2457.978395
829.272656	2448.715275
829.589830	2443.124635
829.906960	2443.175047
830.224046	2438.343101
830.541088	2432.951587
830.858086	2431.366144
831.175041	2430.012594
831.491952	2429.279106
831.808819	2428.901020
832.125642	2430.615012
832.442421	2437.806218
832.759157	2445.234358
833.075849	2456.692901
833.392497	2471.516414
833.709101	2479.804071
834.025662	2477.419605
834.342179	2471.191259
834.658653	2460.935032
834.975083	2455.906481
835.291469	2451.538321
835.607811	2438.978286
835.924110	2434.610127
836.240366	2433.324632
836.556578	2430.521751
836.872746	2426.819023
837.188871	2422.075298
837.504952	2420.142015
837.820990	2420.633528
838.136984	2423.002870
838.452935	2415.864596
838.768842	2419.789134
839.084706	2421.152766
839.400526	2427.015628
839.716303	2434.161464
840.032037	2441.082968
840.347727	2438.511980
840.663373	2434.254725
840.978977	2430.453695
841.294537	2425.316759
841.610054	2422.334917
841.925527	2420.230235
842.240957	2419.680749
842.556344	2418.571696
842.871687	2415.063053
843.186987	2414.198495
843.502244	2413.137332
843.817458	2412.426529
844.132629	2411.866961
844.447756	2412.565161
844.762840	2408.370921
845.077881	2406.263718
845.392879	2408.408729
845.707833	2407.466034
846.022745	2406.006620
846.337613	2411.103226
846.652438	2411.753535
846.967221	2408.479306
847.281960	2411.004924
847.596656	2408.766651
847.911309	2409.250602
848.225919	2410.188257
848.540485	2410.566343
848.855009	2406.979562
849.169490	2408.779254
849.483928	2407.828997
849.798323	2408.204563
850.112675	2408.842269
850.426984	2407.206414
850.741251	2408.648184
851.055474	2406.205745
851.369654	2409.754718
851.683792	2408.857392
851.997887	2407.476116
852.311938	2408.237330
852.625947	2412.925603
852.939914	2406.838410
853.253837	2407.556774
853.567718	2409.270767
853.881555	2407.869326
854.195350	2408.297824
854.509103	2408.247412
854.822812	2408.955695
855.136479	2407.362690
855.450103	2408.204563
855.763685	2409.265726
856.077224	2410.309244
856.390720	2406.379665
856.704173	2408.295303
857.017584	2407.234141
857.330953	2408.378482
857.644278	2409.873185
857.957561	2411.768658
858.270802	2409.502660
858.584000	2408.741446
858.897155	2410.170613
859.210268	2408.895201
859.523339	2407.397978
859.836367	2409.270767
860.149352	2410.417629
860.462295	2406.591393
860.775195	2404.890004
861.088054	2403.607030
861.400869	2407.579460
861.713642	2405.429407
862.026373	2410.294121
862.339062	2408.050808
862.651708	2407.047618
862.964312	2407.733215
863.276873	2406.727505
863.589392	2406.664490
863.901869	2410.513411
864.214303	2409.235479
864.526696	2407.927299
864.839045	2407.773544
865.151353	2409.873185
865.463619	2408.575087
865.775842	2410.977197
866.088023	2408.312948
866.400162	2410.117681
866.712258	2408.383524
867.024313	2413.301169
867.336325	2408.587690
867.648296	2408.043246
867.960224	2409.283370
868.272110	2407.140879
868.583954	2410.442835
868.895755	2408.479306
869.207515	2409.573236
869.519233	2409.343863
869.830909	2410.311765
870.142542	2411.231776
870.454134	2412.368556
870.765684	2410.828483
871.077191	2412.824780
871.388657	2411.987949
871.700081	2410.299162
872.011463	2412.265212
872.322803	2410.510891
872.634101	2412.648340
872.945357	2411.085582
873.256571	2413.432239
873.567744	2414.866447
873.878874	2412.834863
874.189963	2413.928793
874.501010	2412.870151
874.812015	2412.565161
875.122979	2411.093144
875.433900	2411.824111
875.744780	2414.352250
876.055618	2412.366035
876.366415	2415.978022
876.677169	2414.569019
876.987882	2413.417116
877.298554	2412.187074
877.609183	2413.666653
877.919771	2411.783782
878.230317	2414.080028
878.540822	2420.777200
878.851285	2420.041192
879.161707	2424.477407
879.472087	2431.756833
879.782425	2437.433173
880.092722	2454.873044
880.402977	2477.550675
880.713191	2504.142762
881.023363	2533.565456
881.333494	2550.491130
881.643583	2557.873900
881.953631	2554.405586
882.263637	2543.183978
882.573602	2532.794159
882.883526	2522.248066
883.193408	2508.780623
883.503248	2497.735455
883.813048	2486.859166
884.122806	2479.496560
884.432522	2471.168574
884.742197	2462.407049
885.051831	2450.235183
885.361424	2443.369131
885.670975	2441.430808
885.980485	2437.576846
886.289954	2432.316402
886.599382	2426.372881
886.908768	2426.940011
887.218113	2421.881213
887.527417	2425.072263
887.836680	2421.220822
888.145901	2417.913825
888.455082	2416.645975
888.764221	2417.737385
889.073319	2416.595563
889.382376	2415.287384
889.691392	2414.213618
890.000366	2416.111612
890.309300	2415.209246
890.618193	2414.742939
890.927044	2417.152611
891.235855	2413.674215
891.544625	2416.257806
891.853353	2415.451221
892.162041	2417.255954
892.470687	2418.019689
892.779293	2420.046233
893.087858	2418.097827
893.396381	2422.702921
893.704864	2430.617533
894.013306	2436.429983
894.321707	2449.012703
894.630068	2451.339196
894.938387	2454.114351
895.246665	2452.337344
895.554903	2447.293670
895.863100	2443.903494
896.171256	2438.887546
896.479371	2438.083482
896.787446	2434.539550
897.095480	2431.159457
897.403473	2429.377409
897.711425	2427.202151
898.019336	2423.794331
898.327207	2423.985895
898.635038	2422.332396
898.942827	2419.690832
899.250576	2417.800399
899.558284	2419.373239
899.865952	2416.194792
900.173579	2413.502815
900.481165	2412.736560
900.788711	2414.014492
901.096216	2413.205387
901.403681	2412.618093
901.711105	2415.216808
902.018489	2413.243196
902.325832	2414.947106
902.633135	2413.883422
902.940397	2416.003228
903.247619	2424.946235
903.554800	2435.358738
903.861941	2450.338527
904.169041	2459.962089
904.476101	2461.350927
904.783121	2460.531740
905.090100	2457.514609
905.397039	2448.916921
905.703938	2442.897783
906.010796	2441.803853
906.317614	2433.959818
906.624391	2430.836823
906.931129	2428.573345
907.237826	2425.447829
907.544483	2421.631676
907.851099	2418.917015
908.157675	2418.440626
908.464211	2412.255130
908.770707	2410.344533
909.077163	2409.232958
909.383578	2405.419325
909.689954	2405.131979
909.996289	2407.440828
910.302584	2406.737587
910.608839	2407.166085
910.915054	2406.954357
911.221229	2407.730694
911.527363	2407.589542
911.833458	2408.242371
912.139513	2409.265726
912.445527	2406.828328
912.751502	2406.730025
913.057436	2410.468041
913.363331	2410.142886
913.669186	2408.307906
913.975000	2413.308731
914.280775	2417.712179
914.586510	2423.597726
914.892205	2428.898499
915.197859	2436.606423
915.503475	2445.844338
915.809050	2457.207099
916.114585	2462.119703
916.420081	2461.252625
916.725536	2462.822944
917.030952	2459.394959
917.336328	2455.780452
917.641665	2454.086624
917.946961	2447.071859
918.252218	2446.592949
918.557435	2440.924172
918.862612	2434.990734
919.167750	2430.970413
919.472848	2426.433375
919.777906	2427.212233
920.082925	2423.663261
920.387904	2419.532035
920.692843	2417.366860
920.997743	2416.570357
921.302603	2416.754360
921.607423	2414.437949
921.912204	2414.379976
922.216946	2411.667835
922.521647	2412.849986
922.826310	2410.175654
923.130932	2410.904101
923.435516	2408.814542
923.740059	2406.356980
924.044564	2408.282701
924.349028	2407.730694
924.653454	2400.973028
924.957840	2405.071486
925.262186	2402.160219
925.566493	2403.649880
925.870761	2399.765671
926.174989	2405.590724
926.479178	2403.269273
926.783328	2402.566032
927.087438	2402.533265
927.391509	2405.578122
927.695541	2400.536968
927.999533	2405.462175
928.303486	2400.622667
928.607400	2401.819941
928.911275	2404.232133
929.215110	2402.291289
929.518906	2402.155178
929.822663	2401.275497
930.126381	2402.182904
930.430060	2404.784140
930.733699	2403.062586
931.037299	2400.335322
931.340861	2402.629047
931.644383	2400.955383
931.947866	2405.905797
932.251309	2402.407236
932.554714	2401.260373
932.858080	2403.448234
933.161407	2402.046793
933.464694	2401.729201
933.767943	2401.895559
934.071153	2400.622667
934.374323	2402.903789
934.677455	2399.377502
934.980548	2402.044273
935.283602	2400.877246
935.586617	2405.074006
935.889593	2401.736762
936.192530	2400.448748
936.495428	2399.682492
936.798287	2401.819941
937.101108	2400.393295
937.403890	2402.591238
937.706632	2404.859757
938.009336	2404.587535
938.312002	2403.889335
938.614628	2403.612072
938.917216	2403.838923
939.219765	2408.106260
939.522275	2406.573749
939.824747	2406.125087
940.127179	2404.968142
940.429573	2402.503018
940.731929	2403.584345
941.034246	2399.054868
941.336524	2406.568708
941.638763	2406.273801
941.940964	2405.305899
942.243126	2405.754562
942.545250	2406.172978
942.847335	2402.250960
943.149381	2405.787329
943.451389	2404.143913
943.753359	2403.188615
944.055290	2402.936557
944.357182	2404.408574
944.659036	2403.445713
944.960851	2403.826321
945.262628	2401.139386
945.564367	2402.631567
945.866067	2402.934036
946.167729	2404.673234
946.469352	2402.273645
946.770937	2400.680641
947.072484	2404.365724
947.373992	2403.813718
947.675462	2403.032339
947.976893	2403.705333
948.278286	2400.594941
948.579641	2405.124418
948.880958	2403.392781
949.182236	2401.232647
949.483476	2400.032852
949.784678	2403.296999
950.085841	2402.495456
950.386967	2403.299520
950.688054	2402.213151
950.989103	2404.602658
951.290114	2401.207441
951.591087	2403.922102
951.892021	2404.249778
952.192917	2403.513769
952.493776	2404.307751
952.794596	2403.884294
953.095378	2401.540157
953.396122	2404.796743
953.696828	2403.556619
953.997496	2405.111815
954.298126	2401.628378
954.598718	2401.963614
954.899272	2402.293810
955.199788	2404.529562
955.500266	2401.978738
955.800706	2398.815414
956.101108	2397.754251
956.401472	2399.034704
956.701798	2397.393808
957.002087	2397.865156
957.302337	2399.261556
957.602550	2399.150650
957.902724	2400.204252
958.202861	2400.622667
958.502960	2399.679972
958.803022	2398.124776
959.103045	2398.170146
959.403031	2398.996895
959.702979	2397.746689
960.002889	2398.333983
960.302762	2397.129148
960.602596	2399.541340
960.902393	2398.775084
961.202153	2399.175856
961.501875	2395.793242
961.801559	2399.410270
962.101205	2397.850033
962.400814	2399.574107
962.700385	2395.662172
962.999918	2398.434807
963.299414	2394.966493
963.598873	2397.698798
963.898293	2396.690567
964.197677	2397.202244
964.497022	2393.242418
964.796331	2397.048489
965.095601	2395.858777
965.394835	2397.726524
965.694030	2395.447923
965.993189	2397.766854
966.292309	2398.308778
966.591393	2398.986813
966.890439	2395.669734
967.189447	2396.589744
967.488419	2394.152346
967.787353	2398.581000
968.086249	2398.805331
968.385108	2397.779457
968.683930	2396.257028
968.982714	2396.292316
969.281462	2401.900600
969.580172	2396.877090
969.878844	2397.088818
970.177480	2396.811555
970.476078	2396.095711
970.774639	2394.464898
971.073162	2397.678633
971.371649	2395.626884
971.670098	2396.753582
971.968510	2395.125289
972.266885	2393.794424
972.565223	2398.744838
972.863524	2398.054199
973.161788	2397.204765
973.460014	2396.932543
973.758204	2398.565877
974.056356	2397.991185
974.354471	2398.467574
974.652550	2397.489590
974.950591	2397.040927
975.248595	2398.308778
975.546563	2400.090826
975.844493	2398.840619
976.142386	2398.938922
976.440243	2397.401370
976.738062	2397.343397
977.035845	2397.386247
977.333590	2398.996895
977.631299	2396.619991
977.928971	2396.670403
978.226606	2395.430279
978.524204	2398.558315
978.821765	2398.608726
979.119290	2397.749210
979.416777	2396.463715
979.714228	2398.523027
980.011642	2396.012532
980.309020	2400.690723
980.606360	2399.160733
980.903664	2400.978069
981.200931	2397.287944
981.498162	2402.097205
981.795356	2398.775084
982.092513	2402.059396
982.389633	2400.224416
982.686717	2404.796743
982.983764	2405.908317
983.280775	2404.479150
983.577749	2404.640467
983.874686	2402.500497
984.171587	2401.628378
984.468451	2402.634088
984.765279	2401.426731
985.062070	2401.512431
985.358824	2402.747514
985.655543	2404.075858
985.952224	2401.462019
986.248869	2398.102090
986.545478	2393.905330
986.842050	2396.627553
987.138586	2394.137223
987.435086	2393.887686
987.731549	2392.385422
988.027975	2394.641338
988.324366	2396.927502
988.620719	2397.313150
988.917037	2394.883314
989.213318	2395.478170
989.509563	2393.002963
989.805772	2397.330794
990.101944	2396.539333
990.398080	2394.608571
990.694180	2396.652759
990.990244	2395.999929
991.286271	2397.986144
991.582262	2394.754764
991.878217	2395.528581
992.174136	2394.752244
992.470019	2395.102604
992.765865	2398.049158
993.061676	2395.458005
993.357450	2395.087480
993.653188	2397.131668
993.948890	2396.516648
994.244556	2395.533623
994.540186	2396.267110
994.835780	2395.954559
995.131337	2398.901113
995.426859	2399.059910
995.722345	2399.984961
996.017795	2396.645197
996.313208	2400.902451
996.608586	2399.763151
996.903928	2402.097205
997.199234	2403.070147
997.494504	2401.373799
997.789738	2398.475136
998.084936	2398.260887
998.380099	2396.088149
998.675225	2395.503376
998.970316	2399.967317
999.265371	2400.022770
999.560390	2397.406411
999.855373	2396.130999
1000.150320	2396.917419
1000.445232	2398.949004
1000.740108	2393.562531
1001.034948	2397.504714
1001.329752	2396.481359
1001.624521	2397.466905
1001.919254	2393.791904
1002.213951	2393.769219
1002.508613	2391.117572
1002.803239	2393.693601
1003.097829	2391.200751
1003.392384	2395.412635
1003.686903	2393.897768
1003.981386	2394.742161
1004.275834	2399.909344
1004.570246	2399.831206
1004.864623	2394.006153
1005.158964	2394.399363
1005.453270	2396.304919
1005.747540	2393.023128
1006.041775	2395.669734
1006.335974	2393.287788
1006.630138	2394.245608
1006.924266	2398.505383
1007.218359	2394.389281
1007.512416	2397.439179
1007.806438	2394.616133
1008.100425	2395.160577
1008.394376	2394.036400
1008.688292	2394.951369
1008.982172	2395.760474
1009.276017	2393.577655
1009.569827	2395.639487
1009.863602	2392.002294
1010.157341	2395.952038
1010.451045	2394.545556
1010.744714	2393.801986
1011.038347	2392.803838
1011.331945	2393.433982
1011.625508	2396.216699
1011.919036	2392.312325
1012.212528	2393.686040
1012.505986	2393.252500
1012.799408	2395.463046
1013.092795	2393.008004
1013.386147	2393.305433
1013.679464	2395.437841
1013.972745	2395.140413
1014.265992	2394.490104
1014.559204	2397.527399
1014.852380	2394.694270
1015.145521	2398.316339
1015.438628	2393.776780
1015.731699	2395.163098
1016.024736	2393.723848
1016.317737	2394.550598
1016.610703	2395.581513
1016.903635	2391.205792
1017.196531	2390.308467
1017.489393	2391.339383
1017.782219	2388.294526
1018.075011	2394.563200
1018.367768	2395.921791
1018.660490	2391.185627
1018.953177	2391.185627
1019.245829	2391.185627
