Dividing Wavelength (nm)	Counts (n)	Blue Motor Position (mm): 0.000000	Red Motor Position (mm): 12.200000	
326.493990	1981.911991
326.888308	1981.911991
327.282561	1981.911991
327.676750	1955.229163
328.070874	1958.059771
328.464933	1963.957921
328.858929	1971.733901
329.252859	1985.208905
329.646726	2000.123159
330.040528	2015.297032
330.434265	2033.755217
330.827938	2052.735161
331.221547	2073.986145
331.615091	2092.943404
332.008571	2114.935438
332.401986	2132.987810
332.795338	2153.293577
333.188625	2174.174037
333.581847	2191.593744
333.975006	2212.779193
334.368100	2230.657645
334.761129	2248.183216
335.154095	2259.130082
335.546996	2273.946033
335.939833	2291.239711
336.332606	2303.716567
336.725315	2314.970943
337.117960	2324.390339
337.510540	2328.972748
337.903056	2338.140086
338.295508	2347.393124
338.687896	2351.589884
339.080220	2361.468025
339.472480	2364.691843
339.864676	2366.408356
340.256807	2374.050745
340.648875	2374.461599
341.040879	2376.541075
341.432818	2375.681559
341.824694	2377.579553
342.216506	2373.367669
342.608253	2376.828421
342.999937	2375.626106
343.391557	2374.552340
343.783113	2373.024871
344.174605	2373.440766
344.566033	2370.209386
344.957397	2370.020343
345.348697	2369.740559
345.739934	2366.761237
346.131106	2364.931298
346.522215	2363.141688
346.913260	2361.105062
347.304241	2360.366533
347.695159	2354.791017
348.086012	2355.365709
348.476802	2354.579289
348.867528	2353.981912
349.258191	2350.871520
349.648789	2348.955882
350.039324	2349.235666
350.429796	2351.685666
350.820203	2349.069308
351.210548	2350.314473
351.600828	2349.361694
351.991045	2349.661643
352.381198	2348.615604
352.771288	2351.045440
353.161314	2344.305417
353.551276	2347.907322
353.941175	2345.658967
354.331010	2348.164420
354.720782	2348.892867
355.110490	2348.335820
355.500135	2348.300532
355.889717	2348.963443
356.279235	2349.946468
356.668689	2351.846983
357.058080	2351.799092
357.447408	2347.335151
357.836672	2348.645851
358.225873	2352.099041
358.615010	2348.545028
359.004084	2352.915708
359.393095	2354.891840
359.782043	2354.375122
360.170927	2356.169773
360.559748	2355.451408
360.948505	2357.576255
361.337199	2357.223374
361.725830	2358.849146
362.114398	2356.273116
362.502903	2359.887624
362.891344	2360.769826
363.279722	2361.183200
363.668037	2362.551873
364.056289	2362.481297
364.444478	2362.652697
364.832603	2364.167563
365.220665	2365.684951
365.608665	2363.502131
365.996601	2365.137985
366.384474	2367.466998
366.772284	2367.857688
367.160031	2366.302492
367.547715	2366.801566
367.935336	2369.438090
368.322893	2366.315095
368.710388	2370.085878
369.097820	2371.746938
369.485189	2370.617720
369.872495	2371.953625
370.259738	2373.627288
370.646918	2377.854296
371.034035	2377.294728
371.421090	2381.642723
371.808081	2381.935110
372.195010	2388.496172
372.581875	2392.997922
372.968678	2398.613767
373.355418	2403.957391
373.742096	2414.548855
374.128710	2423.925401
374.515262	2434.652976
374.901751	2450.759463
375.288177	2465.613223
375.674540	2483.317755
376.060841	2504.132679
376.447079	2525.746626
376.833254	2548.774617
377.219367	2576.213617
377.605417	2608.111518
377.991404	2635.850468
378.377329	2678.246571
378.763191	2709.141283
379.148991	2753.233735
379.534727	2803.080664
379.920402	2845.685976
380.306013	2894.234808
380.691563	2957.302163
381.077049	3010.297293
381.462474	3067.055644
381.847835	3138.143475
382.233134	3207.938250
382.618371	3265.135182
383.003545	3351.001155
383.388657	3427.798093
383.773706	3520.225128
384.158693	3590.216508
384.543618	3683.150179
384.928480	3759.790841
385.313280	3861.702807
385.698017	3965.469918
386.082692	4081.965942
386.467305	4144.640087
386.851856	4265.592492
387.236344	4422.120318
387.620770	4484.091223
388.005133	4601.529943
388.389435	4744.033280
388.773674	4823.975897
389.157851	4957.982369
389.541965	5087.434159
389.926018	5108.549032
390.310008	5282.927585
390.693936	5401.729937
391.077802	5518.573801
391.461606	5642.629035
391.845348	5748.810858
392.229027	5870.501792
392.612645	6084.826448
392.996200	6192.611358
393.379694	6352.085739
393.763125	6563.113480
394.146494	6647.058774
394.529801	6765.198215
394.913047	6987.455126
395.296230	6964.018802
395.679351	6994.719429
396.062410	7230.012764
396.445408	7106.272602
396.828343	7229.644760
397.211217	7328.763927
397.594028	7185.002822
397.976778	7339.912438
398.359466	7454.031558
398.742092	7397.986531
399.124656	7486.879717
399.507158	7609.019313
399.889598	7567.896100
400.271977	7696.977365
400.654294	7667.715988
401.036549	7775.906711
401.418742	7727.521716
401.800874	7918.026920
402.182944	7909.744304
402.564952	8124.426882
402.946898	7896.760813
403.328783	7859.983075
403.710606	7921.268382
404.092367	8028.725617
404.474067	8205.271866
404.855705	7945.007176
405.237282	7798.677603
405.618797	8002.892225
406.000250	8065.097542
406.381642	8193.899023
406.762972	8034.298613
407.144240	7781.565406
407.525447	7820.157959
407.906593	7656.128896
408.287677	7685.160901
408.668700	7640.022409
409.049661	7494.242322
409.430560	7448.579551
409.811399	7299.479864
410.192176	7248.183603
410.572891	7145.941441
410.953545	7246.678818
411.334138	6852.216092
411.714669	6989.035528
412.095139	6539.072218
412.475547	6615.912005
412.855894	6419.556542
413.236180	6410.250572
413.616405	6149.814482
413.996568	6115.779132
414.376670	5970.994673
414.756711	5793.873733
415.136691	5754.411580
415.516609	5684.271486
415.896466	5568.347633
416.276262	5521.447258
416.655997	5513.865363
417.035670	5394.962188
417.415283	5431.409730
417.794834	5319.677596
418.174324	5130.505778
418.553753	4973.546932
418.933121	4950.894507
419.312428	4789.247388
419.691674	4652.173374
420.070859	4619.662973
420.449983	4448.420018
420.829045	4426.798509
421.208047	4279.017084
421.586988	4234.604519
421.965867	4170.428110
422.344686	4066.605546
422.723444	4032.519785
423.102141	3790.584729
423.480777	3827.453208
423.859352	3694.230635
424.237866	3711.685630
424.616319	3599.552725
424.994712	3570.992068
425.373044	3481.919920
425.751314	3448.207204
426.129524	3324.083914
426.507673	3318.301711
426.885762	3242.979310
427.263789	3189.122143
427.641756	3140.394350
428.019662	3087.726895
428.397508	3040.090512
428.775292	3002.334790
429.153016	2953.435598
429.530679	2913.181985
429.908282	2874.516335
430.285824	2832.021928
430.663305	2816.873261
431.040726	2774.504883
431.418086	2742.783423
431.795385	2728.514437
432.172624	2712.581870
432.549802	2684.515246
432.926920	2662.908861
433.303977	2644.218783
433.680974	2629.334776
434.057910	2616.837756
434.434786	2603.002309
434.811601	2590.394383
435.188355	2585.317941
435.565050	2573.357804
435.941683	2562.095866
436.318257	2558.017573
436.694770	2544.401416
437.071222	2542.664739
437.447614	2529.489683
437.823946	2523.820906
438.200218	2521.796882
438.576429	2513.476458
438.952580	2511.530572
439.328670	2508.064779
439.704700	2505.776095
440.080670	2498.010198
440.456580	2500.535816
440.832429	2498.847029
441.208218	2485.737509
441.583947	2489.830926
441.959616	2486.619711
442.335224	2487.184320
442.710773	2481.114771
443.086261	2484.036119
443.461689	2476.696199
443.837057	2477.704430
444.212365	2475.672845
444.587612	2477.769965
444.962800	2475.801395
445.337927	2476.454224
445.712995	2466.364355
446.088002	2475.677886
446.462949	2475.188894
446.837837	2473.374079
447.212664	2469.555405
447.587431	2480.615697
447.962139	2490.125833
448.336786	2498.526916
448.711374	2493.170690
449.085901	2479.483957
449.460369	2476.252578
449.834776	2474.125211
450.209124	2483.658033
450.583412	2481.659215
450.957640	2480.560244
451.331808	2480.139308
451.705917	2469.200004
452.079965	2470.626650
452.453954	2475.912300
452.827883	2469.363841
453.201752	2466.301340
453.575562	2470.367031
453.949311	2470.490539
454.323001	2471.347535
454.696632	2472.443986
455.070202	2474.805767
455.443713	2475.274594
455.817164	2477.371714
456.190556	2476.366004
456.563888	2474.112608
456.937160	2474.246199
457.310373	2472.867443
457.683526	2473.550519
458.056619	2471.995323
458.429653	2472.368369
458.802628	2475.204018
459.175542	2475.556899
459.548398	2477.550675
459.921194	2482.619555
460.293930	2487.201964
460.666607	2491.008035
461.039224	2497.576659
461.411782	2496.858294
461.784280	2491.817140
462.156719	2490.045175
462.529099	2489.856132
462.901419	2486.584423
463.273680	2482.173413
463.645882	2481.603763
464.018024	2481.818012
464.390106	2480.285501
464.762130	2491.975937
465.134094	2503.174860
465.505999	2516.231448
465.877845	2531.024714
466.249631	2534.583769
466.621358	2530.356762
466.993026	2523.157994
467.364634	2522.459794
467.736184	2511.008813
468.107674	2506.436487
468.479105	2502.968173
468.850477	2499.825013
469.221790	2499.051196
469.593043	2494.002481
469.964238	2490.201451
470.335373	2488.590802
470.706449	2496.707060
471.077467	2502.590086
471.448425	2514.691376
471.819324	2520.576923
472.190164	2517.821933
472.560945	2506.807011
472.931667	2499.139416
473.302330	2493.881493
473.672934	2491.844867
474.043479	2491.998622
474.413965	2488.487458
474.784393	2483.731130
475.154761	2491.991060
475.525070	2488.046357
475.895321	2489.004177
476.265513	2488.333703
476.635645	2493.548777
477.005719	2495.424086
477.375734	2494.892244
477.745691	2498.917606
478.115588	2501.445744
478.485427	2506.411281
478.855207	2517.862262
479.224928	2518.603311
479.594591	2529.754344
479.964194	2526.031452
480.333739	2523.629342
480.703226	2525.713859
481.072653	2524.546832
481.442022	2527.503468
481.811333	2528.355423
482.180584	2524.541791
482.549777	2524.403159
482.918912	2519.858559
483.287988	2521.748991
483.657005	2515.916376
484.025964	2516.564165
484.394864	2514.721623
484.763706	2516.344874
485.132489	2513.224400
485.501213	2514.144411
485.869879	2510.918072
486.238487	2513.118536
486.607036	2511.155007
486.975527	2513.075686
487.343959	2513.894874
487.712333	2513.632734
488.080648	2510.960922
488.448905	2512.112826
488.817104	2512.180881
489.185244	2514.958557
489.553326	2519.692201
489.921350	2527.271575
490.289315	2537.984027
490.657222	2538.422608
491.025070	2539.211548
491.392861	2536.537216
491.760593	2531.039838
492.128267	2528.126051
492.495883	2523.142870
492.863440	2517.380832
493.230939	2514.807323
493.598380	2511.540655
493.965763	2504.498163
494.333088	2508.145438
494.700354	2506.381034
495.067563	2508.039573
495.434713	2505.060252
495.801805	2507.986641
496.168839	2503.474809
496.535815	2506.030674
496.902733	2506.275170
497.269593	2507.011178
497.636395	2503.817607
498.003139	2509.609893
498.369825	2507.018740
498.736453	2508.783144
499.103023	2510.008144
499.469535	2506.386075
499.835989	2508.258864
500.202385	2510.570233
500.568723	2508.337002
500.935003	2509.781292
501.301226	2512.369925
501.667390	2516.213804
502.033497	2515.659278
502.399546	2516.551562
502.765537	2515.014010
503.131470	2518.068949
503.497345	2516.428053
503.863163	2516.662467
504.228923	2521.829650
504.594625	2523.210926
504.960269	2518.189937
505.325856	2526.926256
505.691385	2525.461801
506.056856	2530.737369
506.422270	2534.961856
506.787625	2532.912627
507.152924	2537.716846
507.518164	2537.371527
507.883347	2539.950077
508.248472	2542.558874
508.613540	2544.648433
508.978550	2547.330327
509.343503	2551.600184
509.708398	2549.934082
510.073236	2555.819630
510.438016	2560.621329
510.802738	2559.902964
511.167403	2562.902451
511.532010	2566.973183
511.896561	2568.997206
512.261053	2573.675397
512.625488	2573.199008
512.989866	2573.574573
513.354186	2576.866447
513.718449	2575.800243
514.082655	2581.731160
514.446803	2585.199474
514.810894	2589.887747
515.174927	2592.733479
515.538904	2593.265320
515.902822	2595.024683
516.266684	2592.874631
516.630488	2596.055599
516.994235	2598.533326
517.357925	2597.860332
517.721558	2601.046341
518.085133	2604.940633
518.448651	2607.448607
518.812112	2604.973400
519.175516	2604.658328
519.538863	2607.612444
519.902152	2607.945160
520.265385	2610.415326
520.628560	2610.208638
520.991678	2610.768207
521.354739	2610.349791
521.717743	2608.746704
522.080690	2606.831065
522.443580	2611.005141
522.806413	2611.234513
523.169189	2609.192846
523.531908	2611.690738
523.894569	2607.577156
524.257174	2607.945160
524.619722	2607.937599
524.982213	2608.066148
525.344647	2605.560695
525.707025	2604.703698
526.069345	2604.451641
526.431608	2600.333018
526.793815	2601.820158
527.155964	2596.113572
527.518057	2597.633480
527.880093	2591.498396
528.242072	2591.904209
528.603995	2587.170565
528.965860	2588.526636
529.327669	2583.823239
529.689421	2580.677559
530.051117	2579.684452
530.412755	2575.802763
530.774337	2573.723287
531.135862	2570.602813
531.497331	2567.716753
531.858743	2559.461863
532.220098	2559.340876
532.581396	2553.861141
532.942638	2553.344423
533.303824	2550.274360
533.664953	2549.067004
534.026025	2546.014585
534.387040	2546.669935
534.747999	2541.724563
535.108902	2539.667773
535.469748	2533.469674
535.830537	2532.138809
536.191270	2529.288037
536.551947	2527.047244
536.912567	2525.282840
537.273131	2521.610360
537.633638	2518.550379
537.994089	2516.291942
538.354483	2513.736077
538.714821	2515.185409
539.075103	2509.791374
539.435328	2507.842968
539.795497	2503.210148
540.155609	2503.189983
540.515665	2502.355673
540.875665	2500.041783
541.235609	2496.351658
541.595496	2494.922491
541.955328	2495.240084
542.315102	2493.263952
542.674821	2489.888899
543.034483	2488.288333
543.394090	2484.827581
543.753640	2486.435709
544.113134	2485.838332
544.472571	2484.361274
544.831953	2482.697693
545.191278	2481.507981
545.550548	2479.872126
545.909761	2479.640233
546.268918	2479.042857
546.628019	2478.309369
546.987064	2477.638895
547.346053	2473.094295
547.704986	2474.649491
548.063863	2473.908441
548.422684	2474.034470
548.781449	2472.002885
549.140158	2472.572536
549.498811	2471.176136
549.857408	2468.393419
550.215949	2470.636733
550.574434	2465.822431
550.932864	2466.394602
551.291237	2461.910495
551.649555	2470.916517
552.007817	2469.973821
552.366022	2469.527679
552.724173	2467.254118
553.082267	2466.520630
553.440305	2468.136320
553.798288	2465.968624
554.156215	2464.932667
554.514086	2464.489045
554.871902	2465.285548
555.229661	2465.945939
555.587365	2466.520630
555.945014	2462.538119
556.302606	2464.370578
556.660143	2463.117852
557.017625	2466.495425
557.375050	2459.614250
557.732421	2468.602627
558.089735	2462.412090
558.446994	2464.604992
558.804197	2466.230764
559.161345	2463.737913
559.518437	2464.300002
559.875474	2461.776905
560.232455	2462.885958
560.589381	2462.646504
560.946251	2463.742955
561.303065	2465.255301
561.659825	2464.574745
562.016528	2463.359827
562.373177	2462.661627
562.729770	2460.317491
563.086307	2461.494600
563.442789	2463.627008
563.799216	2460.476287
564.155587	2463.639611
564.511904	2460.501493
564.868164	2462.059209
565.224370	2462.142388
565.580520	2461.187090
565.936615	2460.481328
566.292654	2459.271451
566.648638	2461.597944
567.004567	2461.287913
567.360441	2462.021401
567.716260	2460.952676
568.072023	2459.962089
568.427732	2456.912191
568.783385	2458.353961
569.138982	2456.176183
569.494525	2458.109465
569.850013	2456.029989
570.205445	2459.107614
570.560823	2459.500824
570.916145	2457.839763
571.271412	2458.235494
571.626625	2458.759774
571.981782	2456.561831
572.336884	2457.733899
572.691931	2457.375977
573.046923	2456.952520
573.401860	2458.268262
573.756743	2457.915381
574.111570	2457.065946
574.466342	2458.553087
574.821059	2454.653754
575.175722	2454.298353
575.530330	2455.374639
575.884882	2458.273303
576.239380	2455.977057
576.593823	2457.237346
576.948211	2454.462190
577.302544	2456.813889
577.656823	2452.607046
578.011047	2454.873044
578.365216	2456.624845
578.719330	2457.224743
579.073389	2454.094186
579.427394	2456.065277
579.781344	2454.268106
580.135239	2452.831377
580.489080	2454.177365
580.842866	2453.819443
581.196597	2457.078549
581.550273	2451.548403
581.903895	2448.632096
582.257463	2454.353806
582.610975	2451.079576
582.964434	2450.252827
583.317837	2452.327262
583.671186	2452.395317
584.024481	2452.637293
584.377721	2451.319031
584.730906	2452.183589
585.084037	2453.101079
585.437113	2451.167796
585.790135	2450.991356
586.143103	2450.981274
586.496016	2450.182251
586.848874	2445.047836
587.201679	2450.288115
587.554428	2447.538166
587.907124	2449.509257
588.259765	2446.408947
588.612352	2450.343568
588.964884	2450.300718
589.317362	2450.134360
589.669786	2451.336675
590.022155	2449.529421
590.374470	2449.814247
590.726731	2451.868517
591.078937	2448.140583
591.431090	2450.227621
591.783188	2448.705193
592.135232	2449.562189
592.487222	2448.478341
592.839157	2450.237703
593.191038	2446.441715
593.542866	2448.687549
593.894639	2448.732919
594.246358	2446.550099
594.598022	2447.641509
594.949633	2447.291149
595.301190	2446.948351
595.652692	2445.564554
596.004141	2444.589091
596.355535	2445.183947
596.706876	2443.653957
597.058162	2442.922989
597.409395	2444.117743
597.760573	2444.011878
598.111698	2447.250820
598.462768	2442.991045
598.813785	2444.962136
599.164748	2442.358380
599.515657	2443.540531
599.866511	2444.924327
600.217312	2442.378545
600.568060	2443.447269
600.918753	2447.928855
601.269392	2442.678493
601.619978	2443.011209
601.970510	2444.609255
602.320988	2443.752259
602.671412	2444.112702
603.021783	2444.642023
603.372100	2444.228648
603.722363	2442.802002
604.072572	2442.580191
604.422728	2445.252002
604.772830	2441.640016
605.122878	2441.145982
605.472872	2441.390478
605.822813	2441.226641
606.172701	2444.079934
606.522534	2441.282094
606.872314	2443.585901
607.222041	2442.887701
607.571714	2442.612958
607.921333	2441.239244
608.270899	2443.233020
608.620411	2444.122784
608.969870	2444.291662
609.319276	2443.248144
609.668627	2442.113884
610.017926	2443.749738
610.367171	2445.617486
610.716362	2441.322423
611.065500	2442.446600
611.414585	2441.516507
611.763616	2441.849223
612.112594	2440.886363
612.461518	2443.399378
612.810389	2445.168823
613.159207	2443.411981
613.507971	2442.847372
613.856682	2445.131015
614.205340	2441.705551
614.553945	2445.045315
614.902496	2443.374172
615.250994	2442.333174
615.599439	2442.184460
615.947830	2443.268308
616.296169	2442.870057
616.644454	2445.683021
616.992686	2445.277208
617.340864	2446.353494
617.688990	2441.080448
618.037063	2443.180088
618.385082	2443.175047
618.733048	2444.589091
619.080961	2446.086313
619.428821	2444.720161
619.776628	2442.839810
620.124382	2444.952054
620.472083	2443.026333
620.819731	2443.522887
621.167326	2442.996086
621.514868	2446.035902
621.862357	2441.544234
622.209793	2444.450459
622.557176	2440.036929
622.904506	2439.936106
623.251783	2437.123142
623.599007	2437.730601
623.946179	2437.047524
624.293297	2442.292845
624.640363	2439.885694
624.987376	2438.043152
625.334336	2439.787392
625.681243	2439.913420
626.028097	2437.274376
626.374899	2441.052721
626.721647	2438.529624
627.068343	2438.791764
627.414987	2436.460230
627.761577	2441.098092
628.108115	2438.033070
628.454600	2436.654314
628.801032	2436.218255
629.147412	2434.721032
629.493739	2435.646084
629.840014	2438.504418
630.186236	2437.770930
630.532405	2435.583069
630.878521	2438.509459
631.224585	2435.842689
631.570597	2435.179777
631.916556	2434.259766
632.262462	2436.498039
632.608316	2437.551640
632.954117	2437.660025
633.299866	2436.538368
633.645562	2434.163984
633.991206	2433.818665
634.336797	2434.849581
634.682336	2435.557863
635.027823	2431.867739
635.373257	2436.911413
635.718639	2434.335384
636.063968	2436.245981
636.409245	2432.795311
636.754470	2434.595003
637.099642	2431.802204
637.444762	2434.990734
637.789829	2431.091401
638.134845	2430.126020
638.479808	2431.650969
638.824719	2429.566452
639.169577	2430.738520
639.514383	2430.753644
639.859137	2432.220620
640.203839	2434.244643
640.548489	2429.022007
640.893086	2427.365988
641.237632	2426.730803
641.582125	2428.691812
641.926566	2423.398600
642.270955	2430.741041
642.615292	2429.926895
642.959576	2430.501586
643.303809	2431.114086
643.647990	2429.299271
643.992118	2429.823551
644.336195	2429.692481
644.680219	2431.567790
645.024192	2429.420259
645.368112	2432.235743
645.711981	2430.478901
646.055797	2430.564601
646.399562	2433.861515
646.743274	2430.453695
647.086935	2434.106011
647.430544	2433.049889
647.774101	2430.851946
648.117606	2432.702050
648.461059	2430.834302
648.804460	2434.123655
649.147810	2433.327153
649.491108	2430.642738
649.834354	2431.275403
650.177548	2430.859508
650.520690	2430.995619
650.863781	2430.017635
651.206820	2432.843202
651.549807	2430.725917
651.892742	2428.515372
652.235626	2425.546132
652.578458	2429.669796
652.921238	2426.319949
653.263967	2427.981009
653.606644	2427.124013
653.949269	2427.000505
654.291843	2428.626277
654.634365	2427.812131
654.976836	2427.093766
655.319255	2429.261462
655.661622	2429.531164
656.003938	2426.703077
656.346203	2425.601585
656.688416	2427.078643
657.030577	2428.565783
657.372687	2426.115782
657.714746	2428.346493
658.056753	2426.388005
658.398708	2423.184351
658.740612	2423.738878
659.082465	2422.014804
659.424266	2423.847263
659.766016	2422.861717
660.107715	2423.874989
660.449362	2428.225505
660.790958	2425.062181
661.132503	2425.899013
661.473996	2424.542942
661.815438	2426.307346
662.156829	2428.028900
662.498168	2425.548652
662.839456	2425.430185
663.180693	2426.559404
663.521879	2430.539395
663.863013	2426.307346
664.204097	2426.919846
664.545129	2423.975812
664.886110	2428.565783
665.227040	2426.007398
665.567918	2425.788107
665.908746	2425.669640
666.249522	2427.335742
666.590248	2428.517892
666.930922	2426.521595
667.271545	2425.616708
667.612118	2426.861873
667.952639	2426.556883
668.293109	2427.494538
668.633528	2425.236101
668.973896	2429.415218
669.314213	2426.146029
669.654480	2427.348344
669.994695	2426.773653
670.334859	2426.196441
670.674973	2427.862542
671.015035	2427.078643
671.355047	2425.687284
671.695008	2424.308529
672.034918	2427.461770
672.374777	2427.401277
672.714585	2426.377922
673.054342	2425.513364
673.394049	2426.506472
673.733705	2427.686102
674.073310	2428.457398
674.412864	2424.986564
674.752368	2423.196954
675.091820	2425.659558
675.431223	2426.433375
675.770574	2427.091246
676.109875	2419.524474
676.449125	2422.269382
676.788324	2421.979516
677.127473	2424.931111
677.466571	2418.458270
677.805619	2424.976482
678.144616	2422.284505
678.483562	2425.851122
678.822458	2423.590164
679.161303	2424.154773
679.500098	2424.593354
679.838842	2424.190062
680.177535	2424.303488
680.516179	2422.453384
680.854771	2422.024886
681.193314	2423.325504
681.531805	2426.332552
681.870247	2424.197623
682.208638	2425.604105
682.546978	2427.431523
682.885268	2424.573189
683.223508	2426.945052
683.561697	2426.498910
683.899836	2424.527819
684.237925	2424.396749
684.575963	2425.210895
684.913951	2424.285843
685.251889	2425.362130
685.589776	2425.778025
685.927614	2424.338776
686.265401	2425.137798
686.603137	2425.198292
686.940824	2424.868097
687.278460	2425.465473
687.616046	2427.161822
687.953582	2426.350196
688.291068	2426.466142
688.628504	2427.950762
688.965889	2429.798345
689.303224	2426.115782
689.640510	2425.697367
689.977745	2425.929260
690.314930	2422.876841
690.652065	2426.695515
690.989150	2420.726789
691.326185	2423.776687
691.663170	2418.521284
692.000105	2422.004721
692.336990	2419.930287
692.673825	2419.998342
693.010610	2421.964392
693.347345	2418.934659
693.684030	2419.358116
694.020665	2418.337282
694.357251	2412.590367
694.693786	2420.696542
695.030272	2419.232087
695.366707	2421.876172
695.703093	2419.020358
696.039429	2417.840728
696.375716	2418.160842
696.711952	2418.969947
697.048139	2419.239648
697.384276	2416.887950
697.720363	2419.191757
698.056400	2418.458270
698.392388	2419.199319
698.728326	2417.538259
699.064214	2419.005235
699.400053	2418.707807
699.735842	2413.840573
700.071581	2417.933990
700.407270	2416.915677
700.742910	2417.195461
701.078501	2415.867117
701.414042	2419.353074
701.749533	2414.911818
702.084974	2416.625810
702.420366	2416.288053
702.755709	2415.897363
703.091002	2413.238155
703.426246	2412.918042
703.761440	2415.252096
704.096584	2414.874009
704.431679	2415.204205
704.766725	2415.446180
705.101721	2417.974319
705.436668	2412.802095
705.771565	2413.701941
706.106413	2415.519277
706.441212	2411.887126
706.775961	2420.144536
707.110661	2414.962229
707.445311	2416.671181
707.779913	2414.695048
708.114465	2415.330234
708.448967	2416.971129
708.783421	2414.896694
709.117825	2418.196130
709.452180	2418.899371
709.786485	2414.304359
710.120742	2416.877868
710.454949	2419.431212
710.789107	2414.064904
711.123216	2416.971129
711.457275	2415.773855
711.791286	2414.206056
712.125247	2417.356778
712.459159	2417.873496
712.793023	2420.527663
713.126837	2417.989442
713.460602	2420.434402
713.794318	2416.338464
714.127985	2418.296953
714.461602	2416.726633
714.795171	2419.547159
715.128691	2415.796540
715.462162	2416.593043
715.795584	2416.363670
716.128957	2414.732857
716.462281	2418.985070
716.795556	2413.192784
717.128782	2415.365522
717.461960	2414.720254
717.795088	2413.187743
718.128167	2414.538773
718.461198	2411.776220
718.794180	2412.643299
719.127113	2411.577095
719.459997	2410.314286
719.792833	2414.095151
720.125619	2411.108267
720.458357	2409.951323
720.791046	2412.504667
721.123686	2409.863102
721.456278	2411.531724
721.788821	2412.174471
722.121315	2413.525501
722.453761	2412.792013
722.786158	2413.409554
723.118506	2408.444017
723.450805	2412.096333
723.783056	2413.051632
724.115259	2413.522980
724.447412	2408.605334
724.779518	2411.476272
725.111574	2413.674215
725.443582	2415.877199
725.775542	2412.701272
726.107453	2415.020203
726.439315	2411.705644
726.771129	2414.863927
727.102895	2414.279153
727.434612	2413.059194
727.766281	2411.254461
728.097901	2413.132291
728.429473	2409.701785
728.760996	2412.008113
729.092471	2410.934347
729.423897	2413.510377
729.755276	2413.790161
730.086606	2412.681107
730.417887	2411.980387
730.749120	2415.327713
731.080305	2414.939544
731.411442	2415.325193
731.742530	2414.301838
732.073570	2414.463155
732.404562	2415.756211
732.735506	2416.242682
733.066401	2416.567837
733.397249	2415.998187
733.728048	2413.429719
734.058798	2413.341498
734.389501	2412.424008
734.720156	2412.502146
735.050762	2413.775038
735.381320	2411.710685
735.711831	2410.347053
736.042293	2411.211611
736.372707	2412.015675
736.703073	2409.936199
737.033391	2411.216652
737.363661	2410.621796
737.693883	2412.875192
738.024056	2414.238824
738.354182	2412.671025
738.684260	2413.979204
739.014290	2411.564492
739.344272	2413.575912
739.674207	2412.527352
740.004093	2412.867630
740.333931	2411.388051
740.663722	2416.381314
740.993464	2412.585325
741.323159	2412.544996
741.652806	2411.864440
741.982405	2412.252609
742.311956	2410.846127
742.641460	2410.273956
742.970915	2410.878895
743.300323	2411.957702
743.629683	2412.678587
743.958996	2412.466858
744.288260	2409.888308
744.617477	2409.033833
744.946647	2404.509397
745.275768	2409.038874
745.604842	2404.653070
745.933869	2407.977711
746.262847	2406.246074
746.591778	2410.314286
746.920662	2409.797567
747.249498	2408.983421
747.578286	2413.890984
747.907027	2409.492578
748.235720	2408.305386
748.564365	2408.756569
748.892963	2409.036353
749.221514	2410.674728
749.550017	2409.495098
749.878473	2410.026940
750.206881	2411.226734
750.535242	2408.867474
750.863555	2409.263205
751.191821	2407.463513
751.520039	2408.907804
751.848210	2409.021230
752.176334	2409.855541
752.504411	2410.031981
752.832440	2409.086765
753.160421	2409.570715
753.488356	2408.421332
753.816243	2411.299831
754.144082	2409.621127
754.471875	2412.605490
754.799620	2408.827145
755.127318	2411.801426
755.454969	2409.174985
755.782572	2410.062228
756.110129	2407.708009
756.437638	2408.537279
756.765100	2407.965108
757.092515	2408.675911
757.419882	2405.812535
757.747203	2410.213463
758.074477	2405.142062
758.401703	2405.696589
758.728882	2410.442835
759.056014	2408.305386
759.383099	2409.558113
759.710138	2408.925448
760.037129	2411.062897
760.364073	2411.619944
760.690970	2409.845458
761.017820	2409.384193
761.344623	2408.612896
761.671379	2410.215983
761.998088	2408.070972
762.324751	2410.349574
762.651366	2412.214801
762.977935	2420.152097
763.304456	2416.663619
763.630931	2423.990936
763.957359	2420.535225
764.283740	2421.951789
764.610074	2418.491037
764.936362	2418.085224
765.262602	2414.339647
765.588796	2412.867630
765.914943	2413.102044
766.241044	2410.319327
766.567097	2409.666497
766.893104	2406.969480
767.219064	2407.962587
767.544978	2408.587690
767.870845	2405.404202
768.196665	2406.661970
768.522438	2405.620971
768.848165	2407.677762
769.173846	2405.626013
769.499479	2404.774057
769.825066	2408.106260
770.150607	2405.595766
770.476101	2405.197514
770.801548	2405.431928
771.126949	2404.458985
771.452303	2405.956208
771.777611	2404.816907
772.102872	2406.117525
772.428087	2404.166598
772.753256	2403.720456
773.078378	2404.562329
773.403453	2404.350601
773.728482	2402.573594
774.053465	2402.268604
774.378401	2403.932185
774.703291	2404.706002
775.028135	2402.329098
775.352932	2405.119377
775.677683	2401.951011
776.002388	2405.502504
776.327046	2404.073337
776.651658	2404.579973
776.976224	2402.558470
777.300743	2403.864129
777.625216	2402.276166
777.949643	2400.897410
778.274024	2403.579304
778.598359	2398.487739
778.922647	2400.158881
779.246889	2400.179046
779.571086	2399.382543
779.895236	2404.179201
780.219339	2401.608213
780.543397	2405.968811
780.867409	2403.841444
781.191374	2400.174005
781.515294	2400.743655
781.839167	2403.793553
782.162995	2401.837585
782.486776	2406.261198
782.810511	2402.127452
783.134201	2404.153996
783.457844	2402.006464
783.781441	2401.593089
784.104993	2399.261556
784.428498	2401.325908
784.751958	2400.390774
785.075372	2404.133831
785.398739	2401.991341
785.722061	2402.389592
786.045337	2401.114180
786.368568	2404.254819
786.691752	2401.154509
787.014891	2405.328584
787.337983	2403.065106
787.661030	2405.263049
787.984031	2405.356311
788.306987	2405.368914
788.629897	2406.291445
788.952760	2406.760272
789.275579	2405.033677
789.598351	2405.777247
789.921078	2404.597617
790.243759	2403.720456
790.566395	2403.304561
790.888984	2402.442524
791.211529	2406.805643
791.534027	2406.581311
791.856480	2403.009654
792.178888	2403.876732
792.501249	2405.331105
792.823566	2402.888666
793.145836	2402.477812
793.468062	2403.576783
793.790241	2401.066289
794.112375	2403.864129
794.434464	2404.796743
794.756507	2404.559808
795.078505	2402.369427
795.400457	2403.244067
795.722364	2397.129148
796.044226	2401.507390
796.366042	2398.467574
796.687812	2397.935732
797.009538	2404.927813
797.331218	2406.054511
797.652852	2403.448234
797.974442	2402.308933
798.295986	2403.647360
798.617484	2402.976886
798.938938	2402.243398
799.260346	2403.223903
799.581709	2402.326577
799.903026	2408.416291
800.224299	2405.005951
800.545526	2403.375137
800.866708	2401.431772
801.187845	2402.003943
801.508936	2401.363717
801.829983	2401.716598
802.150984	2400.569735
802.471940	2401.625857
802.792851	2404.111146
803.113717	2403.702812
803.434538	2401.441855
803.755314	2402.881104
804.076045	2402.858419
804.396731	2397.557646
804.717372	2401.083933
805.037967	2402.934036
805.358518	2402.687020
805.679024	2400.726011
805.999485	2401.177194
806.319901	2400.562173
806.640272	2400.632750
806.960598	2405.066444
807.280879	2404.058214
807.601115	2404.564850
807.921306	2403.276835
808.241453	2402.550909
808.561554	2402.240878
808.881611	2402.228275
809.201623	2401.804818
809.521590	2401.600651
809.841513	2403.798594
810.161390	2400.146278
810.481223	2400.831875
810.801011	2402.634088
811.120755	2400.529406
811.440453	2404.138872
811.760107	2400.967986
812.079716	2397.613098
812.399281	2398.553274
812.718801	2399.962276
813.038276	2394.777449
813.357707	2403.619633
813.677093	2400.766340
813.996434	2401.981258
814.315731	2400.126114
814.634983	2401.187277
814.954191	2401.358676
815.273354	2400.279869
815.592473	2401.298182
815.911547	2400.809190
816.230577	2402.674417
816.549562	2401.570404
816.868502	2402.152657
817.187399	2402.543347
817.506250	2400.947822
817.825058	2404.655590
818.143821	2402.205590
818.462539	2402.865981
818.781213	2403.599469
819.099843	2401.638460
819.418429	2406.445200
819.736970	2406.019222
820.055466	2408.227248
820.373919	2410.392423
820.692327	2413.807805
821.010691	2421.392221
821.329011	2436.687082
821.647286	2459.122737
821.965517	2479.927579
822.283704	2496.039107
822.601847	2501.360045
822.919945	2488.661378
823.237999	2476.275263
823.556010	2467.720425
823.873976	2454.852880
824.191897	2444.561364
824.509775	2437.637339
824.827609	2433.306988
825.145398	2427.562593
825.463144	2427.549991
825.780845	2425.145360
826.098502	2430.418407
826.416116	2432.971752
826.733685	2441.108174
827.051210	2441.627413
827.368692	2436.913934
827.686129	2433.173398
828.003522	2422.070256
828.320872	2417.414751
828.638177	2416.179668
828.955439	2409.885788
829.272656	2407.844120
829.589830	2404.017884
829.906960	2408.383524
830.224046	2403.871691
830.541088	2408.083575
830.858086	2402.883625
831.175041	2405.401681
831.491952	2402.651732
831.808819	2403.571742
832.125642	2408.320509
832.442421	2406.334295
832.759157	2407.665159
833.075849	2411.957702
833.392497	2417.306366
833.709101	2421.929104
834.025662	2422.655030
834.342179	2418.927097
834.658653	2414.621952
834.975083	2409.346384
835.291469	2417.923907
835.607811	2407.977711
835.924110	2403.838923
836.240366	2407.163564
836.556578	2403.569222
836.872746	2402.830693
837.188871	2404.282545
837.504952	2399.813562
837.820990	2402.397153
838.136984	2403.039901
838.452935	2402.863460
838.768842	2400.221896
839.084706	2401.847668
839.400526	2403.019736
839.716303	2405.573080
840.032037	2406.377144
840.347727	2407.450910
840.663373	2406.911507
840.978977	2403.556619
841.294537	2403.135682
841.610054	2404.164078
841.925527	2401.575445
842.240957	2399.921947
842.556344	2401.464540
842.871687	2399.042266
843.186987	2397.262738
843.502244	2396.390619
843.817458	2398.192831
844.132629	2396.773746
844.447756	2397.542522
844.762840	2392.995402
845.077881	2394.162429
845.392879	2392.430792
845.707833	2396.562018
846.022745	2394.343910
846.337613	2401.787174
846.652438	2397.015722
846.967221	2396.466236
847.281960	2397.784498
847.596656	2396.940104
847.911309	2398.724673
848.225919	2394.417007
848.540485	2395.480690
848.855009	2396.846843
849.169490	2395.578993
849.483928	2398.719632
849.798323	2397.439179
850.112675	2398.371792
850.426984	2397.449261
850.741251	2397.792059
851.055474	2393.267624
851.369654	2399.682492
851.683792	2396.251987
851.997887	2398.429765
852.311938	2396.393139
852.625947	2398.255846
852.939914	2396.534292
853.253837	2399.317008
853.567718	2394.417007
853.881555	2395.647048
854.195350	2396.171328
854.509103	2398.349107
854.822812	2397.018242
855.136479	2396.534292
855.450103	2393.950700
855.763685	2394.006153
856.077224	2395.896586
856.390720	2397.837430
856.704173	2397.756771
857.017584	2397.451782
857.330953	2398.707029
857.644278	2394.175032
857.957561	2400.383212
858.270802	2396.433468
858.584000	2396.007491
858.897155	2397.965979
859.210268	2397.857594
859.523339	2396.728376
859.836367	2397.310629
860.149352	2395.576472
860.462295	2396.032697
860.775195	2393.978427
861.088054	2393.605381
861.400869	2394.089332
861.713642	2389.592623
862.026373	2396.524209
862.339062	2395.316853
862.651708	2394.817779
862.964312	2396.239384
863.276873	2393.781822
863.589392	2399.977400
863.901869	2399.047307
864.214303	2397.852553
864.526696	2397.111504
864.839045	2397.771895
865.151353	2395.873900
865.463619	2400.055538
865.775842	2396.844323
866.088023	2396.400701
866.400162	2397.945815
866.712258	2398.540671
867.024313	2396.688047
867.336325	2398.243243
867.648296	2397.502193
867.960224	2396.231822
868.272110	2395.841133
868.583954	2394.628735
868.895755	2395.636966
869.207515	2398.034035
869.519233	2400.065620
869.830909	2400.146278
870.142542	2396.990516
870.454134	2398.442368
870.765684	2396.030176
871.077191	2398.845661
871.388657	2397.660989
871.700081	2397.875238
872.011463	2399.168294
872.322803	2397.572769
872.634101	2397.003119
872.945357	2399.022101
873.256571	2400.594941
873.567744	2397.166956
873.878874	2397.340876
874.189963	2398.313819
874.501010	2395.137892
874.812015	2396.007491
875.122979	2399.415311
875.433900	2399.947153
875.744780	2400.481515
876.055618	2398.888510
876.366415	2398.759961
876.677169	2396.420866
876.987882	2394.875752
877.298554	2396.640156
877.609183	2397.847512
877.919771	2398.036555
878.230317	2396.594785
878.540822	2397.512275
878.851285	2401.761968
879.161707	2401.487225
879.472087	2403.430590
879.782425	2406.268760
880.092722	2410.969636
880.402977	2420.205029
880.713191	2430.100814
881.023363	2438.564912
881.333494	2444.710078
881.643583	2449.080759
881.953631	2445.173864
882.263637	2444.188319
882.573602	2439.447114
882.883526	2433.826227
883.193408	2432.202976
883.503248	2425.170566
883.813048	2423.433888
884.122806	2420.169741
884.432522	2418.105389
884.742197	2414.097672
885.051831	2410.326888
885.361424	2406.694737
885.670975	2408.648184
885.980485	2406.614079
886.289954	2404.746331
886.599382	2402.140055
886.908768	2399.372461
887.218113	2401.144427
887.527417	2403.291958
887.836680	2401.106618
888.145901	2401.424211
888.455082	2397.265259
888.764221	2401.761968
889.073319	2399.354817
889.382376	2401.333470
889.691392	2397.597975
890.000366	2397.787018
890.309300	2400.673079
890.618193	2399.858932
890.927044	2397.870197
891.235855	2398.891031
891.544625	2399.075033
891.853353	2396.652759
892.162041	2399.435476
892.470687	2400.168963
892.779293	2398.049158
893.087858	2399.364899
893.396381	2400.824313
893.704864	2403.246588
894.013306	2402.031670
894.321707	2410.324368
894.630068	2412.439132
894.938387	2412.592887
895.246665	2410.969636
895.554903	2409.560633
895.863100	2409.921076
896.171256	2409.147258
896.479371	2404.630385
896.787446	2405.245405
897.095480	2403.465878
897.403473	2403.791032
897.711425	2403.846485
898.019336	2401.073851
898.327207	2402.172822
898.635038	2398.538150
898.942827	2399.538819
899.250576	2397.245094
899.558284	2399.745507
899.865952	2398.898593
900.173579	2398.223078
900.481165	2397.935732
900.788711	2396.584703
901.096216	2399.052348
901.403681	2396.496483
901.711105	2397.870197
902.018489	2396.347769
902.325832	2398.238202
902.633135	2399.569066
902.940397	2399.485887
903.247619	2400.113511
903.554800	2405.721794
903.861941	2409.268246
904.169041	2415.758732
904.476101	2412.330747
904.783121	2413.575912
905.090100	2409.364028
905.397039	2410.780592
905.703938	2407.849161
906.010796	2407.113153
906.317614	2403.962432
906.624391	2402.538306
906.931129	2400.476474
907.237826	2403.198697
907.544483	2399.039745
907.851099	2399.818603
908.157675	2399.309447
908.464211	2396.050341
908.770707	2392.337531
909.077163	2393.204609
909.383578	2391.452808
909.689954	2393.532284
909.996289	2389.577499
910.302584	2395.130330
910.608839	2394.903478
910.915054	2394.444733
911.221229	2395.435320
911.527363	2395.256359
911.833458	2394.127141
912.139513	2393.542367
912.445527	2392.370298
912.751502	2394.510268
913.057436	2394.626215
913.363331	2396.047820
913.669186	2398.870866
913.975000	2397.958418
914.280775	2400.204252
914.586510	2400.342883
914.892205	2399.405229
915.197859	2404.171640
915.503475	2408.522155
915.809050	2412.257650
916.114585	2412.151786
916.420081	2413.921231
916.725536	2415.017682
917.030952	2414.397620
917.336328	2409.817732
917.641665	2408.872516
917.946961	2407.153482
918.252218	2410.473082
918.557435	2409.031312
918.862612	2406.533420
919.167750	2403.801115
919.472848	2404.897566
919.777906	2403.188615
920.082925	2400.564694
920.387904	2398.505383
920.692843	2399.372461
920.997743	2398.724673
921.302603	2401.499828
921.607423	2394.658982
921.912204	2396.861967
922.216946	2396.798952
922.521647	2397.282903
922.826310	2394.064126
923.130932	2396.937584
923.435516	2393.769219
923.740059	2392.544218
924.044564	2395.591596
924.349028	2393.106307
924.653454	2389.360730
924.957840	2393.015566
925.262186	2389.464073
925.566493	2395.430279
925.870761	2390.063971
926.174989	2393.469270
926.479178	2394.298540
926.783328	2395.082439
927.087438	2393.398694
927.391509	2393.691081
927.695541	2390.666388
927.999533	2393.756616
928.303486	2390.807541
928.607400	2389.333003
928.911275	2394.303581
929.215110	2393.118910
929.518906	2394.427089
929.822663	2392.962634
930.126381	2393.116389
930.430060	2395.861298
930.733699	2396.146123
931.037299	2389.942983
931.340861	2395.301729
931.644383	2393.560011
931.947866	2392.529095
932.251309	2394.391801
932.554714	2392.332490
932.858080	2392.645041
933.161407	2393.829712
933.464694	2394.364075
933.767943	2391.795607
934.071153	2395.301729
934.374323	2390.676471
934.677455	2393.746533
934.980548	2392.324928
935.283602	2393.754095
935.586617	2394.248128
935.889593	2396.199055
936.192530	2393.376009
936.495428	2392.965155
936.798287	2393.214692
937.101108	2394.278375
937.403890	2396.486401
937.706632	2396.637635
938.009336	2394.709394
938.312002	2394.946328
938.614628	2394.008673
938.917216	2393.794424
939.219765	2396.274672
939.522275	2392.919784
939.824747	2398.543191
940.127179	2391.200751
940.429573	2387.387118
940.731929	2393.630587
941.034246	2389.504403
941.336524	2394.537995
941.638763	2392.468601
941.940964	2394.106976
942.243126	2394.359034
942.545250	2393.461708
942.847335	2392.889537
943.149381	2395.488252
943.451389	2393.731410
943.753359	2390.742006
944.055290	2391.611605
944.357182	2395.949518
944.659036	2393.335679
944.960851	2392.186296
945.262628	2392.760988
945.564367	2394.701832
945.866067	2392.902140
946.167729	2393.091183
946.469352	2392.168652
946.770937	2391.863663
947.072484	2392.231667
947.373992	2390.588251
947.675462	2392.367778
947.976893	2392.811399
948.278286	2390.845349
948.579641	2393.418858
948.880958	2392.085473
949.182236	2394.013715
949.483476	2392.377860
949.784678	2392.163611
950.085841	2393.406256
950.386967	2393.827192
950.688054	2392.062788
950.989103	2393.897768
951.290114	2392.307284
951.591087	2393.978427
951.892021	2393.870042
952.192917	2393.539846
952.493776	2391.856101
952.794596	2391.878786
953.095378	2394.641338
953.396122	2393.262583
953.696828	2394.106976
953.997496	2394.187634
954.298126	2392.955072
954.598718	2393.343241
954.899272	2395.435320
955.199788	2390.371481
955.500266	2391.180586
955.800706	2390.028683
956.101108	2389.751419
956.401472	2390.870555
956.701798	2389.554814
957.002087	2387.417365
957.302337	2393.151677
957.602550	2396.471277
957.902724	2391.662016
958.202861	2392.566903
958.502960	2390.094218
958.803022	2393.683519
959.103045	2394.265772
959.403031	2393.040772
959.702979	2391.062119
960.002889	2392.340052
960.302762	2392.803838
960.602596	2391.835936
960.902393	2392.592109
961.202153	2389.706049
961.501875	2390.245452
961.801559	2393.471791
962.101205	2388.871738
962.400814	2391.571276
962.700385	2391.130175
962.999918	2391.142777
963.299414	2389.249824
963.598873	2391.437685
963.898293	2389.867366
964.197677	2388.564227
964.497022	2389.874927
964.796331	2390.797458
965.095601	2388.478528
965.394835	2390.787376
965.694030	2390.358878
965.993189	2394.041441
966.292309	2390.313508
966.591393	2389.244783
966.890439	2390.379043
967.189447	2389.675802
967.488419	2389.718652
967.787353	2394.172511
968.086249	2392.261914
968.385108	2393.280227
968.683930	2392.473642
968.982714	2394.543036
969.281462	2387.981974
969.580172	2390.588251
969.878844	2387.447612
970.177480	2389.769063
970.476078	2391.079763
970.774639	2389.567417
971.073162	2389.844680
971.371649	2390.426934
971.670098	2386.855276
971.968510	2389.849722
972.266885	2385.368136
972.565223	2389.045657
972.863524	2389.295195
973.161788	2392.723179
973.460014	2391.415000
973.758204	2391.178066
974.056356	2390.308467
974.354471	2389.872407
974.652550	2387.314021
974.950591	2393.118910
975.248595	2392.340052
975.546563	2391.863662
975.844493	2391.931718
976.142386	2391.412479
976.440243	2390.331152
976.738062	2389.453991
977.035845	2390.038765
977.333590	2390.164794
977.631299	2391.503220
977.928971	2388.198744
978.226606	2392.445916
978.524204	2390.005997
978.821765	2389.746378
979.119290	2387.840822
979.416777	2389.411141
979.714228	2390.595812
980.011642	2389.879968
980.309020	2391.435164
980.606360	2391.210833
980.903664	2393.554970
981.200931	2389.670761
981.498162	2391.062119
981.795356	2389.837119
982.092513	2390.421892
982.389633	2389.564896
982.686717	2391.931718
982.983764	2391.397356
983.280775	2392.448436
983.577749	2392.140926
983.874686	2393.963303
984.171587	2392.927346
984.468451	2394.411966
984.765279	2392.277037
985.062070	2393.449105
985.358824	2391.851060
985.655543	2392.266955
985.952224	2389.678322
986.248869	2389.388456
986.545478	2384.634648
986.842050	2388.228991
987.138586	2385.332848
987.435086	2385.685728
987.731549	2388.488610
988.027975	2391.167983
988.324366	2389.181769
988.620719	2390.963817
988.917037	2390.570607
989.213318	2390.759650
989.509563	2388.385266
989.805772	2389.239742
990.101944	2389.887530
990.398080	2391.281409
990.694180	2389.113713
990.990244	2391.757798
991.286271	2392.720659
991.582262	2392.145967
991.878217	2390.742006
992.174136	2392.012377
992.470019	2388.261758
992.765865	2390.593292
993.061676	2389.456512
993.357450	2392.997922
993.653188	2389.650596
993.948890	2390.754609
994.244556	2390.215205
994.540186	2391.838457
994.835780	2389.499361
995.131337	2392.108158
995.426859	2392.413148
995.722345	2393.978427
996.017795	2390.986502
996.313208	2392.561862
996.608586	2392.622356
996.903928	2391.646893
997.199234	2390.026162
997.494504	2391.185627
997.789738	2390.114382
998.084936	2391.939280
998.380099	2391.450288
998.675225	2390.784856
998.970316	2390.416851
999.265371	2392.438354
999.560390	2389.930380
999.855373	2392.236708
1000.150320	2388.604557
1000.445232	2387.961809
1000.740108	2392.052706
1001.034948	2391.674619
1001.329752	2388.922149
1001.624521	2390.285781
1001.919254	2383.462580
1002.213951	2388.879299
1002.508613	2387.089690
1002.803239	2387.256048
1003.097829	2384.954761
1003.392384	2391.225957
1003.686903	2388.806203
1003.981386	2389.557335
1004.275834	2389.607746
1004.570246	2391.556152
1004.864623	2386.489793
1005.158964	2390.842829
1005.453270	2390.868035
1005.747540	2388.160935
1006.041775	2388.002139
1006.335974	2387.067005
1006.630138	2390.331152
1006.924266	2388.082797
1007.218359	2389.630431
1007.512416	2388.780997
1007.806438	2387.230842
1008.100425	2390.966337
1008.394376	2387.429968
1008.688292	2390.270658
1008.982172	2390.116903
1009.276017	2391.425082
1009.569827	2388.344937
1009.863602	2392.831564
1010.157341	2388.203785
1010.451045	2391.457850
1010.744714	2390.757129
1011.038347	2393.063457
1011.331945	2387.805534
1011.625508	2389.421223
1011.919036	2388.304608
1012.212528	2388.133209
1012.505986	2387.442571
1012.799408	2390.000956
1013.092795	2389.358209
1013.386147	2388.533980
1013.679464	2388.622201
1013.972745	2387.881151
1014.265992	2389.118754
1014.559204	2387.727396
1014.852380	2387.838301
1015.145521	2391.472973
1015.438628	2388.198744
1015.731699	2390.457181
1016.024736	2387.072046
1016.317737	2388.607077
1016.610703	2391.316697
1016.903635	2388.299567
1017.196531	2382.562734
1017.489393	2388.765873
1017.782219	2385.658002
1018.075011	2390.419372
1018.367768	2387.404762
1018.660490	2388.901985
1018.953177	2388.901985
1019.245829	2388.901985
