Dividing Wavelength (nm)	Counts (n)	Blue Motor Position (mm): 0.000000	Red Motor Position (mm): 38.600000	
326.493990	1990.756695
326.888308	1990.756695
327.282561	1990.756695
327.676750	1966.246605
328.070874	1971.655763
328.464933	1977.942082
328.858929	1985.849132
329.252859	1997.194248
329.646726	2012.320231
330.040528	2027.516789
330.434265	2045.541434
330.827938	2063.656821
331.221547	2084.030644
331.615091	2104.969077
332.008571	2125.514299
332.401986	2147.718061
332.795338	2166.960145
333.188625	2187.820440
333.581847	2207.760724
333.975006	2224.182283
334.368100	2244.495612
334.761129	2259.026738
335.154095	2275.014758
335.546996	2301.374951
335.939833	2343.650067
336.332606	2359.552387
336.725315	2371.499922
337.117960	2377.277084
337.510540	2385.718496
337.903056	2395.843653
338.295508	2400.650394
338.687896	2410.883936
339.080220	2417.719741
339.472480	2423.572520
339.864676	2423.421286
340.256807	2427.469332
340.648875	2430.635177
341.040879	2429.929415
341.432818	2431.585434
341.824694	2436.760179
342.216506	2435.187339
342.608253	2435.013419
342.999937	2433.402770
343.391557	2434.431166
343.783113	2433.554005
344.174605	2428.525454
344.566033	2424.177459
344.957397	2428.739703
345.348697	2427.267686
345.739934	2424.918508
346.131106	2422.740730
346.522215	2418.554052
346.913260	2417.906263
347.304241	2418.448187
347.695159	2413.091961
348.086012	2416.285532
348.476802	2414.072466
348.867528	2414.011972
349.258191	2411.985428
349.648789	2412.116498
350.039324	2407.526528
350.429796	2410.609193
350.820203	2407.811353
351.210548	2408.012999
351.600828	2405.709192
351.991045	2406.974521
352.381198	2406.634243
352.771288	2407.057700
353.161314	2406.495612
353.551276	2407.060221
353.941175	2405.696589
354.331010	2409.999213
354.720782	2409.520304
355.110490	2407.541651
355.500135	2406.339336
355.889717	2407.723132
356.279235	2407.763462
356.668689	2411.468710
357.058080	2408.869995
357.447408	2406.694737
357.836672	2407.221538
358.225873	2408.532238
358.615010	2406.866136
359.004084	2411.572053
359.393095	2412.378638
359.782043	2418.238979
360.170927	2417.278640
360.559748	2416.517425
360.948505	2417.623959
361.337199	2419.075811
361.725830	2419.305183
362.114398	2420.694021
362.502903	2423.312901
362.891344	2422.067736
363.279722	2422.097983
363.668037	2425.646955
364.056289	2423.050761
364.444478	2425.659558
364.832603	2427.224836
365.220665	2426.395566
365.608665	2428.558221
365.996601	2429.841195
366.384474	2429.410176
366.772284	2430.299940
367.160031	2432.437389
367.547715	2430.703232
367.935336	2432.573500
368.322893	2432.936463
368.710388	2435.285641
369.097820	2437.695313
369.485189	2438.184305
369.872495	2440.873760
370.259738	2441.859306
370.646918	2442.857454
371.034035	2444.367280
371.421090	2452.002107
371.808081	2453.552262
372.195010	2458.968982
372.581875	2464.514251
372.968678	2470.979531
373.355418	2478.064873
373.742096	2490.589619
374.128710	2499.535147
374.515262	2512.858917
374.901751	2524.947603
375.288177	2546.027188
375.674540	2563.058727
376.060841	2586.326172
376.447079	2612.996397
376.833254	2640.793319
377.219367	2663.024807
377.605417	2699.754654
377.991404	2725.898078
378.377329	2767.903492
378.763191	2802.936991
379.148991	2853.580423
379.534727	2903.644122
379.920402	2950.683128
380.306013	2998.995026
380.691563	3063.642783
381.077049	3121.991618
381.462474	3181.699044
381.847835	3258.838780
382.233134	3331.938032
382.618371	3390.334758
383.003545	3478.194508
383.388657	3562.525450
383.773706	3657.460459
384.158693	3729.889237
384.543618	3831.506296
384.928480	3911.292637
385.313280	4018.833052
385.698017	4123.994042
386.082692	4252.424998
386.467305	4316.074606
386.851856	4441.818627
387.236344	4608.380871
387.620770	4668.370602
388.005133	4791.946926
388.389435	4944.101552
388.773674	5030.665726
389.157851	5166.514739
389.541965	5300.420388
389.926018	5329.021375
390.310008	5517.363924
390.693936	5634.933714
391.077802	5756.405357
391.461606	5894.248147
391.845348	6008.122771
392.229027	6136.243696
392.612645	6362.551175
392.996200	6484.773950
393.379694	6665.262381
393.763125	6891.726135
394.146494	6989.297668
394.529801	7128.133565
394.913047	7383.455405
395.296230	7385.532360
395.679351	7439.255937
396.062410	7706.633695
396.445408	7602.574198
396.828343	7757.882065
397.211217	7903.200887
397.594028	7780.970550
397.976778	7993.737489
398.359466	8157.580030
398.742092	8128.109445
399.124656	8286.883106
399.507158	8473.806570
399.889598	8496.559818
400.271977	8710.022436
400.654294	8740.975121
401.036549	8942.759907
401.418742	8970.768557
401.800874	9281.585939
402.182944	9364.044092
402.564952	9734.599147
402.946898	9557.420233
403.328783	9617.704872
403.710606	9819.961005
404.092367	10082.859699
404.474067	10450.034660
404.855705	10237.393749
405.237282	10198.465959
405.618797	10626.623758
406.000250	10877.484177
406.381642	11254.139027
406.762972	11204.561800
407.144240	10997.403144
407.525447	11260.548854
407.906593	11203.057015
408.287677	11460.546551
408.668700	11620.126797
409.049661	11595.150400
409.430560	11759.290369
409.811399	11730.046636
410.192176	11898.486709
410.572891	11967.865589
410.953545	12475.514822
411.334138	11939.400714
411.714669	12551.842933
412.095139	11847.830675
412.475547	12362.955939
412.855894	12204.588091
413.236180	12540.051674
413.616405	12214.788866
413.996568	12500.042556
414.376670	12477.188485
414.756711	12336.999038
415.136691	12643.380204
415.516609	12826.540447
415.896466	12888.080332
416.276262	13191.608206
416.655997	13628.373775
417.035670	13659.709587
417.415283	14332.890148
417.794834	14429.632411
418.174324	14176.765614
418.553753	14069.043718
418.933121	14569.637856
419.312428	14372.589235
419.691674	14285.299135
420.070859	14754.832205
420.449983	14400.000509
420.829045	14961.350634
421.208047	14703.609040
421.586988	15169.567932
421.965867	15435.516523
422.344686	15435.531647
422.723444	15998.671381
423.102141	14658.861238
423.480777	15875.916764
423.859352	15375.635177
424.237866	16510.300606
424.616319	16200.960282
424.994712	16881.626957
425.373044	16670.944535
425.751314	17351.626333
426.129524	16464.088348
426.507673	17580.540088
426.885762	17272.921318
427.263789	17477.698029
427.641756	17643.771280
428.019662	17709.155046
428.397508	17755.657169
428.775292	18071.974450
429.153016	18027.839148
429.530679	18110.163711
429.908282	18132.425446
430.285824	17847.196962
430.663305	18570.428619
431.040726	18162.727822
431.418086	17983.771902
431.795385	18630.909862
432.172624	19072.766997
432.549802	18618.392677
432.926920	18802.908990
433.303977	18683.562193
433.680974	18943.342933
434.057910	19237.161544
434.434786	19276.096896
434.811601	19180.647689
435.188355	20248.527911
435.565050	19879.321365
435.941683	19826.656431
436.318257	20723.989377
436.694770	20520.414982
437.071222	21137.898355
437.447614	20191.583037
437.823946	20227.798686
438.200218	20378.367869
438.576429	20153.814713
438.952580	20434.622105
439.328670	20397.975437
439.704700	20824.023513
440.080670	20366.526199
440.456580	20978.469344
440.832429	21153.362094
441.208218	20125.415372
441.583947	20578.506718
441.959616	20691.171466
442.335224	20934.452509
442.710773	21063.178373
443.086261	21610.950149
443.461689	20960.850511
443.837057	21086.092937
444.212365	21754.277715
444.587612	21738.660220
444.962800	21309.834468
445.337927	21747.837641
445.712995	20459.900971
446.088002	22342.860153
446.462949	22531.401827
446.837837	22729.241910
447.212664	22670.542715
447.587431	25569.420425
447.962139	28547.547595
448.336786	30955.789966
448.711374	29378.332269
449.085901	25638.905169
449.460369	25586.948517
449.834776	25501.657235
450.209124	28033.934676
450.583412	27548.632878
450.957640	28089.904087
451.331808	26730.990492
451.705917	25327.228271
452.079965	25369.957091
452.453954	25723.301646
452.827883	25604.151455
453.201752	25407.697689
453.575562	25578.862506
453.949311	26727.360861
454.323001	26775.309796
454.696632	26531.817024
455.070202	28115.024157
455.443713	28258.654191
455.817164	28864.147180
456.190556	29391.840041
456.563888	28828.024792
456.937160	29288.859350
457.310373	27575.986179
457.683526	28049.814311
458.056619	28024.089303
458.429653	27951.627758
458.802628	28553.402895
459.175542	28650.356886
459.548398	29983.081687
459.921194	31567.110528
460.293930	32244.513056
460.666607	34291.211435
461.039224	36068.959216
461.411782	36477.670764
461.784280	35271.788955
462.156719	34793.595183
462.529099	34235.904936
462.901419	32926.034206
463.273680	31852.142408
463.645882	31938.320933
464.018024	31908.895718
464.390106	32773.783798
464.762130	35486.882387
465.134094	39588.402965
465.505999	44912.940233
465.877845	49531.794101
466.249631	50716.714792
466.621358	49037.919820
466.993026	46938.493492
467.364634	44875.323143
467.736184	42875.557906
468.107674	41602.122115
468.479105	40801.107975
468.850477	40098.678639
469.221790	38635.899631
469.593043	36884.519605
469.964238	35996.452300
470.335373	35901.204739
470.706449	37641.050604
471.077467	40257.202763
471.448425	44839.203276
471.819324	47703.549083
472.190164	45840.240318
472.560945	42261.542847
472.931667	39104.162329
473.302330	38005.127776
473.672934	37152.388877
474.043479	37673.208125
474.413965	36859.117231
474.784393	36477.446432
475.154761	37383.215750
475.525070	37414.985101
475.895321	36938.475075
476.265513	37550.403096
476.635645	38533.183600
477.005719	38352.448153
477.375734	38836.784570
477.745691	39522.767142
478.115588	40870.456608
478.485427	42860.479815
478.855207	46237.286637
479.224928	48858.759733
479.594591	50520.510564
479.964194	49528.537516
480.333739	49699.551098
480.703226	49739.051059
481.072653	50364.877542
481.442022	50849.801253
481.811333	51101.138061
482.180584	49804.495318
482.549777	49289.463315
482.918912	48758.622253
483.287988	48473.925610
483.657005	47638.944175
484.025964	47004.318359
484.394864	47015.819751
484.763706	46579.560818
485.132489	45700.307970
485.501213	45553.353294
485.869879	45681.615372
486.238487	45266.811589
486.607036	45462.655375
486.975527	44922.064722
487.343959	45116.144103
487.712333	45215.225462
488.080648	45107.138082
488.448905	45581.666935
488.817104	45386.753242
489.185244	46338.117275
489.553326	48023.574132
489.921350	50733.559808
490.289315	53576.876441
490.657222	54179.266599
491.025070	54452.610564
491.392861	53567.711623
491.760593	52345.642670
492.128267	50699.779036
492.495883	49170.756745
492.863440	47782.264179
493.230939	46418.742969
493.598380	45290.681452
493.965763	44986.939330
494.333088	44144.529755
494.700354	43659.485056
495.067563	43349.512067
495.434713	43225.401380
495.801805	43302.185715
496.168839	42901.154365
496.535815	42552.311560
496.902733	42579.064963
497.269593	42154.274655
497.636395	42094.095881
498.003139	42506.215249
498.369825	41939.279526
498.736453	42265.784978
499.103023	41785.126082
499.469535	41632.237968
499.835989	41736.766293
500.202385	41400.728019
500.568723	41426.821032
500.935003	41610.097221
501.301226	41399.077041
501.667390	42015.285002
502.033497	42275.272430
502.399546	41689.548326
502.765537	41003.424602
503.131470	41392.591597
503.497345	41750.064857
503.863163	40401.457901
504.228923	41014.411797
504.594625	41421.295927
504.960269	40702.692049
505.325856	41398.794737
505.691385	40757.043249
506.056856	40908.540005
506.422270	41321.339928
506.787625	40909.439851
507.152924	41084.060379
507.518164	41195.048942
507.883347	40380.554757
508.248472	40654.717908
508.613540	41116.981634
508.978550	41419.138313
509.343503	41159.274394
509.708398	41367.199305
510.073236	41897.140521
510.438016	41903.946078
510.802738	41345.421520
511.167403	41965.619555
511.532010	42192.000130
511.896561	42498.219979
512.261053	43369.210376
512.625488	42877.831467
512.989866	42767.803243
513.354186	42604.323665
513.718449	42588.766664
514.082655	43266.194397
514.446803	42949.594812
514.810894	43462.910303
515.174927	43362.868604
515.538904	43266.842185
515.902822	43955.567144
516.266684	43379.060791
516.630488	43819.740816
516.994235	43667.129965
517.357925	44248.276701
517.721558	44410.438018
518.085133	44721.114247
518.448651	44860.560124
518.812112	44624.873579
519.175516	44723.140791
519.538863	45062.337348
519.902152	45018.544844
520.265385	45485.552296
520.628560	45519.897677
520.991678	45315.524259
521.354739	45541.867025
521.717743	45868.188475
522.080690	45746.558036
522.443580	46304.447409
522.806413	46346.551126
523.169189	46285.928730
523.531908	46465.597974
523.894569	46331.536049
524.257174	46497.274064
524.619722	46800.595250
524.982213	46794.618962
525.344647	46708.120323
525.707025	46744.255314
526.069345	47129.066752
526.431608	47039.374543
526.793815	47370.321252
527.155964	46896.407420
527.518057	47053.031028
527.880093	46827.981318
528.242072	47339.250100
528.603995	47053.303251
528.965860	47059.110660
529.327669	47147.290523
529.689421	47045.728917
530.051117	46987.027201
530.412755	47126.899056
530.774337	47191.413222
531.135862	46984.443610
531.497331	47183.102880
531.858743	47092.092409
532.220098	47442.187941
532.581396	47138.299625
532.942638	46801.117009
533.303824	47099.515508
533.664953	47033.839356
534.026025	46740.103924
534.387040	47225.892194
534.747999	47162.474478
535.108902	47323.176381
535.469748	46835.590940
535.830537	46931.733305
536.191270	47118.820607
536.551947	46767.096782
536.912567	47092.833459
537.273131	47186.866101
537.633638	46653.567477
537.994089	47001.379366
538.354483	46586.789833
538.714821	47146.398239
539.075103	47481.788725
539.435328	47221.944970
539.795497	47107.586395
540.155609	47095.177595
540.515665	47546.557469
540.875665	46978.739544
541.235609	47302.633679
541.595496	47255.834127
541.955328	47931.074000
542.315102	47266.932227
542.674821	47034.439253
543.034483	47078.435923
543.394090	47032.992442
543.753640	46975.893813
544.113134	47984.195158
544.472571	46954.869681
544.831953	48192.079740
545.191278	47389.931340
545.550548	47072.043740
545.909761	47542.539670
546.268918	47724.605982
546.628019	48005.887243
546.987064	47552.062409
547.346053	46795.448232
547.704986	47647.902306
548.063863	47182.412242
548.422684	47358.119139
548.781449	47197.923872
549.140158	47556.488543
549.498811	47372.927528
549.857408	46784.680327
550.215949	47584.625743
550.574434	47482.343252
550.932864	47223.021257
551.291237	47915.476670
551.649555	47492.687699
552.007817	47691.775468
552.366022	47308.723393
552.724173	47444.791697
553.082267	47811.898602
553.440305	48068.634485
553.798288	47351.656379
554.156215	47611.159856
554.514086	47777.732182
554.871902	47486.172008
555.229661	47473.985019
555.587365	47244.612519
555.945014	47287.280845
556.302606	47147.711459
556.660143	47317.187490
557.017625	47370.379225
557.375050	47103.697145
557.732421	47403.849966
558.089735	47312.486614
558.446994	47204.963844
558.804197	47609.092983
559.161345	47494.515118
559.518437	46702.166721
559.875474	46930.099971
560.232455	47011.083587
560.589381	47144.437230
560.946251	46762.935310
561.303065	47394.465858
561.659825	47133.991959
562.016528	46732.464055
562.373177	46384.415232
562.729770	46784.173691
563.086307	46232.064001
563.442789	46608.146681
563.799216	46595.069928
564.155587	46285.394368
564.511904	46232.338744
564.868164	46251.124604
565.224370	46378.736372
565.580520	46044.452420
565.936615	46153.734553
566.292654	45805.879814
566.648638	45940.924764
567.004567	45805.549618
567.360441	45763.783659
567.716260	45511.158837
568.072023	45674.114135
568.427732	45567.135809
568.783385	45032.405497
569.138982	45291.563654
569.494525	45157.577347
569.850013	44835.868553
570.205445	44696.226070
570.560823	44542.014654
570.916145	44330.036655
571.271412	44236.351852
571.626625	43883.103078
571.981782	43812.511801
572.336884	43407.208073
572.691931	43593.551804
573.046923	43090.033797
573.401860	42832.337574
573.756743	42702.580794
574.111570	42695.548385
574.466342	42425.158536
574.821059	42390.082188
575.175722	41827.444048
575.530330	41726.212638
575.884882	41340.524039
576.239380	41177.730058
576.593823	41013.476663
576.948211	40802.758953
577.302544	40256.446590
577.656823	40140.240432
578.011047	40195.158762
578.365216	39804.988578
578.719330	39492.174899
579.073389	39220.625586
579.427394	39147.909462
579.781344	38974.319850
580.135239	38510.982359
580.489080	38450.143194
580.842866	37845.171965
581.196597	38069.737724
581.550273	37863.504121
581.903895	37595.246680
582.257463	37799.594893
582.610975	37105.178471
582.964434	37183.936418
583.317837	36723.399287
583.671186	36417.733965
584.024481	36457.962373
584.377721	35912.330566
584.730906	35987.703377
585.084037	35872.565944
585.437113	35471.043081
585.790135	35331.415723
586.143103	34855.805542
586.496016	34799.503416
586.848874	34652.768030
587.201679	34480.050538
587.554428	33922.612348
587.907124	33876.563928
588.259765	33502.429655
588.612352	33546.464133
588.964884	32897.276944
589.317362	32947.953143
589.669786	32722.013669
590.022155	32390.978740
590.374470	32537.376368
590.726731	32014.460000
591.078937	31493.393736
591.431090	31387.305174
591.783188	31000.099188
592.135232	30586.306157
592.487222	30593.618350
592.839157	30492.334008
593.191038	30081.366543
593.542866	29746.296171
593.894639	29153.728701
594.246358	29176.250056
594.598022	28994.420677
594.949633	28546.584734
595.301190	28351.456792
595.652692	28074.510924
596.004141	28127.707700
596.355535	27298.329507
596.706876	27097.762160
597.058162	26828.047827
597.409395	26979.307648
597.760573	26865.488476
598.111698	26418.171772
598.462768	26260.184531
598.813785	26119.133046
599.164748	25588.168476
599.515657	25676.814646
599.866511	25191.505286
600.217312	25401.444138
600.568060	24589.553708
600.918753	24876.967533
601.269392	24684.765981
601.619978	24315.130937
601.970510	24288.921978
602.320988	24216.838519
602.671412	24227.833276
603.021783	23907.702362
603.372100	23539.748543
603.722363	23431.456997
604.072572	23324.072858
604.422728	23158.531448
604.772830	22886.057083
605.122878	22762.994956
605.472872	22574.097880
605.822813	22561.517680
606.172701	22307.274648
606.522534	22266.395931
606.872314	22236.869893
607.222041	21932.348913
607.571714	21981.497642
607.921333	21525.742047
608.270899	21511.783092
608.620411	21519.848938
608.969870	21265.686564
609.319276	21086.160993
609.668627	20950.082607
610.017926	21041.612316
610.367171	20946.311823
610.716362	20826.324800
611.065500	20629.603854
611.414585	20546.134949
611.763616	20529.756240
612.112594	20325.907102
612.461518	20276.728126
612.810389	20242.947354
613.159207	20008.664770
613.507971	19896.703263
613.856682	19942.673545
614.205340	19724.749506
614.553945	19871.227793
614.902496	19468.885742
615.250994	19513.709162
615.599439	19385.618484
615.947830	19304.571853
616.296169	19166.134207
616.644454	19059.929698
616.992686	18976.024734
617.340864	19023.852681
617.688990	18766.516900
618.037063	18851.694756
618.385082	18669.441921
618.733048	18640.624165
619.080961	18496.880705
619.428821	18333.640581
619.776628	18232.207525
620.124382	18011.369698
620.472083	17914.942507
620.819731	17811.709759
621.167326	17538.958130
621.514868	17377.994088
621.862357	17071.940597
622.209793	16944.152388
622.557176	16679.897624
622.904506	16454.439580
623.251783	16197.020620
623.599007	15986.514639
623.946179	15769.941628
624.293297	15620.393279
624.640363	15294.180213
624.987376	15167.410318
625.334336	14949.408140
625.681243	14720.774169
626.028097	14575.415019
626.374899	14401.497732
626.721647	14265.827679
627.068343	14119.984577
627.414987	13931.614302
627.761577	13747.198812
628.108115	13726.961100
628.454600	13452.460191
628.801032	13392.057085
629.147412	13265.342642
629.493739	13157.587979
629.840014	12934.108588
630.186236	12922.314808
630.532405	12703.813557
630.878521	12658.596927
631.224585	12517.177438
631.570597	12336.978873
631.916556	12281.899227
632.262462	12166.489571
632.608316	12078.269379
632.954117	11943.408431
633.299866	11853.658248
633.645562	11731.579146
633.991206	11513.171156
634.336797	11313.939715
634.682336	11209.320649
635.027823	11062.497043
635.373257	10929.539131
635.718639	10773.913671
636.063968	10647.584876
636.409245	10437.661148
636.754470	10347.452220
637.099642	10209.737979
637.444762	10021.561788
637.789829	9963.137336
638.134845	9809.288882
638.479808	9717.552485
638.824719	9613.424932
639.169577	9458.248134
639.514383	9393.018124
639.859137	9257.761446
640.203839	9228.071570
640.548489	9079.085309
640.893086	9018.727574
641.237632	8897.097135
641.582125	8843.620575
641.926566	8760.338193
642.270955	8692.189355
642.615292	8621.003221
642.959576	8546.094196
643.303809	8475.271025
643.647990	8434.505735
643.992118	8364.577369
644.336195	8302.936660
644.680219	8242.465499
645.024192	8239.087926
645.368112	8258.929908
645.711981	8203.525107
646.055797	8287.538456
646.399562	8226.888334
646.743274	8325.586565
647.086935	8344.803443
647.430544	8276.591590
647.774101	8234.102225
648.117606	8207.174902
648.461059	8194.997995
648.804460	8077.529028
649.147810	7913.232783
649.491108	7804.295969
649.834354	7683.903133
650.177548	7506.081472
650.520690	7375.959209
650.863781	7316.158521
651.206820	7246.068839
651.549807	7127.717670
651.892742	7006.238465
652.235626	6926.658811
652.578458	6860.773450
652.921238	6729.035497
653.263967	6720.702470
653.606644	6635.822042
653.949269	6584.235915
654.291843	6486.992057
654.634365	6489.454661
654.976836	6398.446711
655.319255	6350.056675
655.661622	6306.281815
656.003938	6238.148101
656.346203	6180.656262
656.688416	6159.743035
657.030577	6096.093426
657.372687	6039.788779
657.714746	6026.621285
658.056753	6004.800651
658.398708	5897.466924
658.740612	5865.861410
659.082465	5859.938054
659.424266	5802.524353
659.766016	5774.523264
660.107715	5735.971040
660.449362	5713.326177
660.790958	5679.106824
661.132503	5646.440147
661.473996	5614.370847
661.815438	5588.792032
662.156829	5569.907870
662.498168	5520.050859
662.839456	5485.665148
663.180693	5463.317713
663.521879	5449.149550
663.863013	5413.264097
664.204097	5383.112956
664.545129	5391.508997
664.886110	5355.623544
665.227040	5333.868444
665.567918	5313.010670
665.908746	5295.706910
666.249522	5278.937511
666.590248	5251.682513
666.930922	5238.351182
667.271545	5204.615780
667.612118	5185.774468
667.952639	5139.809227
668.293109	5109.756388
668.633528	5070.488320
668.973896	5043.046799
669.314213	5015.572511
669.654480	4968.664574
669.994695	4937.608546
670.334859	4907.553187
670.674973	4868.872413
671.015035	4859.664746
671.355047	4832.384542
671.695008	4798.119819
672.034918	4774.174338
672.374777	4756.605917
672.714585	4726.321186
673.054342	4721.819435
673.394049	4683.027756
673.733705	4676.938043
674.073310	4635.842556
674.412864	4613.802632
674.752368	4564.180034
675.091820	4558.977563
675.431223	4512.656921
675.770574	4470.737206
676.109875	4437.057257
676.449125	4397.073346
676.788324	4372.369171
677.127473	4317.039987
677.466571	4289.469917
677.805619	4254.151593
678.144616	4234.501175
678.483562	4208.887073
678.822458	4170.602030
679.161303	4146.656549
679.500098	4123.797437
679.838842	4102.213737
680.177535	4092.653188
680.516179	4090.475410
680.854771	4087.163372
681.193314	4118.874750
681.531805	4168.172193
681.870247	4199.860887
682.208638	4226.379876
682.546978	4221.237899
682.885268	4209.832289
683.223508	4164.003159
683.561697	4132.168273
683.899836	4110.219089
684.237925	4071.024118
684.575963	4045.281466
684.913951	4013.928009
685.251889	4006.575486
685.589776	3989.120491
685.927614	3980.147237
686.265401	3976.888131
686.603137	3973.601299
686.940824	3983.746621
687.278460	3994.136439
687.616046	3996.296574
687.953582	4017.275335
688.291068	4002.103983
688.628504	4009.645549
688.965889	3992.692149
689.303224	3963.730720
689.640510	3934.184517
689.977745	3881.716188
690.314930	3828.322807
690.652065	3786.624903
690.989150	3734.363261
691.326185	3682.673790
691.663170	3634.329125
692.000105	3591.270109
692.336990	3548.155641
692.673825	3515.405785
693.010610	3481.151144
693.347345	3444.983386
693.684030	3405.521234
694.020665	3384.829818
694.357251	3349.645085
694.693786	3338.269721
695.030272	3317.850527
695.366707	3291.908750
695.703093	3269.170625
696.039429	3266.975203
696.375716	3244.726070
696.711952	3239.929412
697.048139	3227.140005
697.384276	3213.846482
697.720363	3213.244064
698.056400	3201.213351
698.392388	3186.851103
698.728326	3175.422808
699.064214	3164.400325
699.400053	3152.273829
699.735842	3136.111890
700.071581	3118.268726
700.407270	3098.101590
700.742910	3087.111875
701.078501	3071.224678
701.414042	3057.318655
701.749533	3036.836447
702.084974	3022.310362
702.420366	3018.857172
702.755709	3005.535923
703.091002	2986.717296
703.426246	2981.706389
703.761440	2971.798001
704.096584	2960.853656
704.431679	2954.080866
704.766725	2945.543672
705.101721	2940.351283
705.436668	2936.300716
705.771565	2923.828902
706.106413	2928.328131
706.441212	2922.329158
706.775961	2920.355547
707.110661	2919.392686
707.445311	2924.433840
707.779913	2912.587128
708.114465	2917.315731
708.448967	2920.360588
708.783421	2931.617484
709.117825	2935.105963
709.452180	2941.916562
709.786485	2948.074331
710.120742	2966.547639
710.454949	2969.615181
710.789107	2976.793784
711.123216	2989.643686
711.457275	2996.913029
711.791286	3007.249915
712.125247	3011.504649
712.459159	3003.978207
712.793023	3014.020185
713.126837	2984.375680
713.460602	2983.803509
713.794318	2969.741210
714.127985	2952.997018
714.461602	2927.289654
714.795171	2919.354878
715.128691	2891.540311
715.462162	2877.213352
715.795584	2859.276927
716.128957	2852.002542
716.462281	2838.184739
716.795556	2824.845846
717.128782	2816.656491
717.461960	2801.162505
717.795088	2794.782925
718.128167	2787.304373
718.461198	2773.060593
718.794180	2767.482556
719.127113	2759.706576
719.459997	2751.111409
719.792833	2744.633526
720.125619	2742.372569
720.458357	2730.936711
720.791046	2730.112483
721.123686	2721.771894
721.456278	2716.861810
721.788821	2715.314176
722.121315	2710.502394
722.453761	2710.547765
722.786158	2703.643904
723.118506	2705.468802
723.450805	2702.980993
723.783056	2702.179449
724.115259	2700.657021
724.447412	2695.411700
724.779518	2702.219778
725.111574	2699.268183
725.443582	2702.418904
725.775542	2704.631971
726.107453	2707.323947
726.439315	2703.613657
726.771129	2716.551779
727.102895	2715.898949
727.434612	2719.397510
727.766281	2719.969681
728.097901	2720.304918
728.429473	2722.144939
728.760996	2720.544373
729.092471	2719.024465
729.423897	2721.171996
729.755276	2715.974567
730.086606	2717.519680
730.417887	2722.694425
730.749120	2729.865466
731.080305	2729.777246
731.411442	2737.767475
731.742530	2733.195148
732.073570	2738.853843
732.404562	2739.047928
732.735506	2733.701784
733.066401	2731.627349
733.397249	2719.440360
733.728048	2709.342929
734.058798	2697.513861
734.389501	2685.246213
734.720156	2676.590552
735.050762	2667.657628
735.381320	2660.479025
735.711831	2656.219250
736.042293	2649.852272
736.372707	2647.054432
736.703073	2644.871612
737.033391	2649.083496
737.363661	2649.461583
737.693883	2644.009575
738.024056	2652.501399
738.354182	2651.402427
738.684260	2655.967192
739.014290	2657.915598
739.344272	2665.033707
739.674207	2666.120076
740.004093	2666.122596
740.333931	2665.744510
740.663722	2668.547391
740.993464	2667.395488
741.323159	2662.863490
741.652806	2657.852583
741.982405	2655.095072
742.311956	2650.883188
742.641460	2647.815646
742.970915	2640.314409
743.300323	2636.810807
743.629683	2634.547329
743.958996	2625.543828
744.288260	2623.756739
744.617477	2616.129474
744.946647	2613.369442
745.275768	2609.946498
745.604842	2604.038266
745.933869	2605.474995
746.262847	2601.865529
746.591778	2604.461723
746.920662	2603.080447
747.249498	2601.124479
747.578286	2601.845364
747.907027	2607.524224
748.235720	2607.524224
748.564365	2610.160747
748.892963	2605.079264
749.221514	2606.216045
749.550017	2604.973400
749.878473	2602.919130
750.206881	2598.659355
750.535242	2600.506938
750.863555	2596.738675
751.191821	2593.981164
751.520039	2594.215578
751.848210	2594.039137
752.176334	2596.214395
752.504411	2596.564756
752.832440	2588.095617
753.160421	2590.522933
753.488356	2588.204002
753.816243	2587.563775
754.144082	2583.898857
754.471875	2586.535380
754.799620	2582.199988
755.127318	2583.432550
755.454969	2584.012283
755.782572	2580.453228
756.110129	2579.477765
756.437638	2579.046746
756.765100	2580.324678
757.092515	2582.883064
757.419882	2578.666139
757.747203	2583.803075
758.074477	2580.027250
758.401703	2580.143197
758.728882	2583.712334
759.056014	2584.934814
759.383099	2585.683425
759.710138	2587.715010
760.037129	2586.747108
760.364073	2588.345154
760.690970	2588.065370
761.017820	2590.374219
761.344623	2588.158632
761.671379	2593.451843
761.998088	2598.684561
762.324751	2623.202212
762.651366	2665.048831
762.977935	2713.569936
763.304456	2740.479616
763.630931	2754.304980
763.957359	2741.941550
764.283740	2719.049671
764.610074	2692.150074
764.936362	2664.607730
765.262602	2639.873308
765.588796	2618.239197
765.914943	2602.263780
766.241044	2588.700556
766.567097	2575.777558
766.893104	2566.935374
767.219064	2563.928326
767.544978	2554.760987
767.870845	2551.078424
768.196665	2550.211346
768.522438	2546.594318
768.848165	2544.529966
769.173846	2539.211548
769.499479	2533.988913
769.825066	2534.956814
770.150607	2532.088398
770.476101	2529.998840
770.801548	2530.092101
771.126949	2525.764270
771.452303	2525.517254
771.777611	2520.292098
772.102872	2523.226049
772.428087	2520.566841
772.753256	2520.307221
773.078378	2518.520132
773.403453	2513.247085
773.728482	2515.530728
774.053465	2515.087107
774.378401	2509.385562
774.703291	2511.402023
775.028135	2507.754748
775.352932	2507.414470
775.677683	2506.229799
776.002388	2505.912207
776.327046	2505.841630
776.651658	2503.333656
776.976224	2501.183604
777.300743	2502.852226
777.625216	2504.956908
777.949643	2500.649242
778.274024	2503.505056
778.598359	2499.545229
778.922647	2494.675475
779.246889	2497.082626
779.571086	2495.749240
779.895236	2497.992554
780.219339	2497.697646
780.543397	2497.760661
780.867409	2500.732421
781.191374	2499.338542
781.515294	2499.459530
781.839167	2502.332987
782.162995	2502.718636
782.486776	2496.465084
782.810511	2498.859632
783.134201	2497.571618
783.457844	2495.376195
783.781441	2498.267297
784.104993	2498.214365
784.428498	2492.699342
784.751958	2494.297388
785.075372	2493.248828
785.398739	2495.540032
785.722061	2492.757316
786.045337	2494.912409
786.368568	2495.290495
786.691752	2496.157574
787.014891	2501.753255
787.337983	2502.524551
787.661030	2513.720954
787.984031	2518.321007
788.306987	2526.205371
788.629897	2526.233098
788.952760	2525.237470
789.275579	2523.180679
789.598351	2517.239679
789.921078	2511.568381
790.243759	2507.469923
790.566395	2506.834738
790.888984	2500.828203
791.211529	2499.325939
791.534027	2498.239570
791.856480	2494.521719
792.178888	2494.302429
792.501249	2491.209681
792.823566	2492.500217
793.145836	2490.385453
793.468062	2492.207830
793.790241	2490.181286
794.112375	2490.793786
794.434464	2489.462922
794.756507	2496.223109
795.078505	2493.689929
795.400457	2496.583551
795.722364	2496.893582
796.044226	2501.586897
796.366042	2502.832062
796.687812	2505.493791
797.009538	2506.741476
797.331218	2506.323061
797.652852	2505.639984
797.974442	2505.118225
798.295986	2502.254849
798.617484	2501.481032
798.938938	2499.993892
799.260346	2497.662358
799.581709	2495.978613
799.903026	2495.658500
800.224299	2492.371667
800.545526	2493.253869
800.866708	2490.491317
801.187845	2487.975781
801.508936	2487.196923
801.829983	2486.677684
802.150984	2484.207519
802.471940	2484.399083
802.792851	2483.252220
803.113717	2486.506285
803.434538	2484.837663
803.755314	2483.932776
804.076045	2480.719040
804.396731	2484.736840
804.717372	2481.704586
805.037967	2482.521253
805.358518	2481.749956
805.679024	2484.441932
805.999485	2482.065028
806.319901	2485.329175
806.640272	2484.449494
806.960598	2488.898312
807.280879	2485.291367
807.601115	2488.149701
807.921306	2483.710965
808.241453	2484.058805
808.561554	2488.779845
808.881611	2485.442601
809.201623	2487.600215
809.521590	2486.952427
809.841513	2486.284474
810.161390	2485.505616
810.481223	2482.491006
810.801011	2487.471666
811.120755	2483.842035
811.440453	2480.121663
811.760107	2482.203660
812.079716	2479.055459
812.399281	2477.780048
812.718801	2476.970942
813.038276	2474.563791
813.357707	2479.975470
813.677093	2478.682414
813.996434	2479.912456
814.315731	2482.135604
814.634983	2480.484627
814.954191	2481.190388
815.273354	2484.187354
815.592473	2480.731643
815.911547	2483.708444
816.230577	2486.980153
816.549562	2485.256079
816.868502	2488.999135
817.187399	2488.951244
817.506250	2492.648931
817.825058	2494.315032
818.143821	2500.896258
818.462539	2499.121772
818.781213	2504.793070
819.099843	2511.671725
819.418429	2525.333252
819.736970	2539.728267
820.055466	2551.443908
820.373919	2573.390571
820.692327	2602.488111
821.010691	2653.623055
821.329011	2774.028494
821.647286	2952.606328
821.965517	3146.146307
822.283704	3258.642175
822.601847	3298.265645
822.919945	3216.954354
823.237999	3122.747791
823.556010	3024.508306
823.873976	2936.630912
824.191897	2857.386494
824.509775	2795.181176
824.827609	2743.055645
825.145398	2709.652960
825.463144	2694.708459
825.780845	2694.584951
826.098502	2717.623024
826.416116	2759.923346
826.733685	2800.295427
827.051210	2815.799495
827.368692	2791.851494
827.686129	2747.043198
828.003522	2697.173583
828.320872	2650.689104
828.638177	2618.022427
828.955439	2590.278437
829.272656	2569.534089
829.589830	2550.070194
829.906960	2538.795653
830.224046	2523.702438
830.541088	2519.132633
830.858086	2506.980931
831.175041	2506.678462
831.491952	2506.396157
831.808819	2506.920437
832.125642	2511.228103
832.442421	2521.144053
832.759157	2548.262940
833.075849	2586.222828
833.392497	2622.577109
833.709101	2645.499236
834.025662	2642.809780
834.342179	2623.272789
834.658653	2593.852615
834.975083	2572.306723
835.291469	2558.108313
835.607811	2538.435211
835.924110	2524.546832
836.240366	2513.501664
836.556578	2503.399191
836.872746	2496.790239
837.188871	2488.053919
837.504952	2484.068887
837.820990	2480.852631
838.136984	2478.367342
838.452935	2472.144037
838.768842	2477.848103
839.084706	2480.235089
839.400526	2500.137565
839.716303	2521.433919
840.032037	2531.448171
840.347727	2528.390712
840.663373	2516.279339
840.978977	2505.251815
841.294537	2492.356544
841.610054	2484.961171
841.925527	2480.713999
842.240957	2473.681589
842.556344	2470.019191
842.871687	2467.634725
843.186987	2462.102059
843.502244	2457.345730
843.817458	2457.234825
844.132629	2453.736264
844.447756	2452.770883
844.762840	2446.676128
845.077881	2450.739298
845.392879	2449.146294
845.707833	2449.128650
846.022745	2446.444235
846.337613	2451.956737
846.652438	2448.322065
846.967221	2449.148814
847.281960	2447.069338
847.596656	2449.332816
847.911309	2446.933227
848.225919	2449.738629
848.540485	2446.887857
848.855009	2451.692076
849.169490	2447.739812
849.483928	2447.989349
849.798323	2445.219235
850.112675	2444.959615
850.426984	2445.015068
850.741251	2449.259720
851.055474	2445.355346
851.369654	2444.614296
851.683792	2446.272836
851.997887	2446.519853
852.311938	2446.129163
852.625947	2447.190326
852.939914	2447.202929
853.253837	2446.928186
853.567718	2446.824842
853.881555	2445.819132
854.195350	2445.930037
854.509103	2446.857610
854.822812	2447.860799
855.136479	2446.207301
855.450103	2443.437187
855.763685	2448.412806
856.077224	2445.763679
856.390720	2446.630758
856.704173	2443.492640
857.017584	2450.220059
857.330953	2446.729060
857.644278	2449.569751
857.957561	2448.495985
858.270802	2448.833742
858.584000	2445.511622
858.897155	2449.078238
859.210268	2446.459359
859.523339	2446.542538
859.836367	2448.178392
860.149352	2446.771910
860.462295	2446.403906
860.775195	2447.084462
861.088054	2442.847372
861.400869	2444.669749
861.713642	2440.805705
862.026373	2445.544389
862.339062	2444.175716
862.651708	2444.906683
862.964312	2444.400047
863.276873	2445.728391
863.589392	2449.224432
863.901869	2449.602518
864.214303	2451.334154
864.526696	2451.056891
864.839045	2451.976902
865.151353	2454.893209
865.463619	2452.571758
865.775842	2450.366253
866.088023	2452.168465
866.400162	2450.890533
866.712258	2450.275512
867.024313	2453.549742
867.336325	2452.821295
867.648296	2452.234000
867.960224	2453.587550
868.272110	2451.800461
868.583954	2453.935390
868.895755	2454.447067
869.207515	2452.168465
869.519233	2454.983950
869.830909	2453.075873
870.142542	2453.519495
870.454134	2455.503189
870.765684	2455.712397
871.077191	2458.086780
871.388657	2455.845987
871.700081	2457.446553
872.011463	2454.981429
872.322803	2457.680967
872.634101	2458.401852
872.945357	2458.815227
873.256571	2462.253294
873.567744	2461.882769
873.878874	2460.869497
874.189963	2463.506020
874.501010	2464.179014
874.812015	2462.177676
875.122979	2463.619446
875.433900	2464.199179
875.744780	2464.279838
876.055618	2463.163222
876.366415	2465.734210
876.677169	2464.867132
876.987882	2463.506020
877.298554	2464.458798
877.609183	2468.895014
877.919771	2465.139354
878.230317	2472.287710
878.540822	2477.389358
878.851285	2485.666933
879.161707	2493.778149
879.472087	2507.210304
879.782425	2528.176462
880.092722	2569.380333
880.402977	2628.056844
880.713191	2694.474046
881.023363	2760.261103
881.333494	2801.598565
881.643583	2818.390648
881.953631	2812.663897
882.263637	2794.210754
882.573602	2766.862494
882.883526	2739.627661
883.193408	2711.462734
883.503248	2686.211594
883.813048	2659.042296
884.122806	2636.049593
884.432522	2611.388268
884.742197	2583.672005
885.051831	2565.675085
885.361424	2549.397200
885.670975	2538.110056
885.980485	2522.109434
886.289954	2511.142404
886.599382	2504.543533
886.908768	2497.478356
887.218113	2492.482573
887.527417	2487.174238
887.836680	2483.239617
888.145901	2482.748105
888.455082	2476.204687
888.764221	2473.457258
889.073319	2470.077164
889.382376	2469.245374
889.691392	2469.746969
890.000366	2470.046917
890.309300	2466.286217
890.618193	2469.124386
890.927044	2470.006588
891.235855	2467.445682
891.544625	2471.440797
891.853353	2473.290900
892.162041	2471.385344
892.470687	2478.064873
892.779293	2481.437405
893.087858	2483.940337
893.396381	2492.631287
893.704864	2511.376817
894.013306	2529.371216
894.321707	2554.002294
894.630068	2566.282544
894.938387	2568.750189
895.246665	2567.439489
895.554903	2554.445915
895.863100	2542.478216
896.171256	2529.976154
896.479371	2522.900895
896.787446	2517.683301
897.095480	2509.128463
897.403473	2503.671414
897.711425	2498.758809
898.019336	2493.505927
898.327207	2486.465956
898.635038	2487.343116
898.942827	2480.804740
899.250576	2473.396764
899.558284	2474.818370
899.865952	2470.596403
900.173579	2467.047431
900.481165	2467.362503
900.788711	2464.967955
901.096216	2461.766822
901.403681	2460.761112
901.711105	2464.824282
902.018489	2460.625001
902.325832	2465.199848
902.633135	2466.296299
902.940397	2473.888277
903.247619	2491.980978
903.554800	2519.893847
903.861941	2555.807027
904.169041	2585.262489
904.476101	2592.887234
904.783121	2584.055132
905.090100	2573.040211
905.397039	2558.378015
905.703938	2540.905376
906.010796	2525.126564
906.317614	2519.878723
906.624391	2507.958915
906.931129	2498.484066
907.237826	2491.020638
907.544483	2483.955461
907.851099	2476.222331
908.157675	2470.077164
908.464211	2463.261524
908.770707	2458.391770
909.077163	2458.275823
909.383578	2449.289967
909.689954	2450.535132
909.996289	2447.432301
910.302584	2450.696448
910.608839	2448.508588
910.915054	2449.305090
911.221229	2449.635286
911.527363	2449.242076
911.833458	2448.516149
912.139513	2452.659978
912.445527	2448.390121
912.751502	2451.818105
913.057436	2449.647888
913.363331	2457.307922
913.669186	2458.374126
913.975000	2467.667493
914.280775	2474.830973
914.586510	2486.649958
914.892205	2502.597648
915.197859	2525.532377
915.503475	2549.891233
915.809050	2567.323543
916.114585	2581.920204
916.420081	2588.917325
916.725536	2585.663260
917.030952	2578.257805
917.336328	2567.399160
917.641665	2559.129147
917.946961	2549.586243
918.252218	2544.519883
918.557435	2531.387677
918.862612	2521.529701
919.167750	2515.031654
919.472848	2503.477329
919.777906	2494.854436
920.082925	2494.070536
920.387904	2483.995790
920.692843	2480.945892
920.997743	2474.238637
921.302603	2470.830817
921.607423	2466.485342
921.912204	2461.920578
922.216946	2461.832357
922.521647	2460.569548
922.826310	2455.533436
923.130932	2451.762653
923.435516	2451.719803
923.740059	2449.010183
924.044564	2449.015224
924.349028	2448.223762
924.653454	2443.308638
924.957840	2444.039605
925.262186	2441.173709
925.566493	2441.776127
925.870761	2438.509459
926.174989	2439.285797
926.479178	2439.774789
926.783328	2441.435849
927.087438	2438.121290
927.391509	2437.357555
927.695541	2436.253543
927.999533	2438.106167
928.303486	2432.359251
928.607400	2435.459561
928.911275	2433.092739
929.215110	2433.614499
929.518906	2437.866712
929.822663	2434.930240
930.126381	2436.024170
930.430060	2437.090374
930.733699	2432.613830
931.037299	2436.951742
931.340861	2435.240271
931.644383	2434.529468
931.947866	2432.490321
932.251309	2436.429983
932.554714	2432.704570
932.858080	2436.049376
933.161407	2431.025866
933.464694	2432.631474
933.767943	2432.442430
934.071153	2434.673141
934.374323	2433.758172
934.677455	2432.906217
934.980548	2433.397729
935.283602	2435.303285
935.586617	2433.201124
935.889593	2432.729776
936.192530	2435.580549
936.495428	2433.851433
936.798287	2434.534509
937.101108	2435.018460
937.403890	2433.095260
937.706632	2438.375868
938.009336	2439.484922
938.312002	2442.176898
938.614628	2440.493153
938.917216	2443.860644
939.219765	2441.723195
939.522275	2445.861982
939.824747	2446.774431
940.127179	2442.859975
940.429573	2440.057093
940.731929	2442.118925
941.034246	2439.169850
941.336524	2442.469285
941.638763	2444.561364
941.940964	2443.843000
942.243126	2440.480550
942.545250	2441.771086
942.847335	2439.837803
943.149381	2441.803853
943.451389	2439.338729
943.753359	2438.857299
944.055290	2439.631116
944.357182	2436.021650
944.659036	2436.072061
944.960851	2437.113059
945.262628	2435.124324
945.564367	2437.644901
945.866067	2437.307144
946.167729	2437.902000
946.469352	2439.656322
946.770937	2436.235899
947.072484	2434.496701
947.373992	2437.526434
947.675462	2435.976279
947.976893	2435.827565
948.278286	2433.649787
948.579641	2436.848399
948.880958	2435.509972
949.182236	2436.886207
949.483476	2433.801021
949.784678	2435.807401
950.085841	2433.574169
950.386967	2437.007195
950.688054	2435.441917
950.989103	2435.245312
951.290114	2436.649273
951.591087	2435.157092
951.892021	2436.576177
952.192917	2440.543565
952.493776	2439.482402
952.794596	2439.842844
953.095378	2438.224634
953.396122	2439.210179
953.696828	2439.205138
953.997496	2437.869233
954.298126	2437.082812
954.598718	2439.827721
954.899272	2432.921340
955.199788	2436.661876
955.500266	2436.026691
955.800706	2428.157450
956.101108	2431.391350
956.401472	2429.982347
956.701798	2426.750968
957.002087	2427.234918
957.302337	2430.831782
957.602550	2428.175094
957.902724	2428.540577
958.202861	2428.527974
958.502960	2428.404466
958.803022	2427.640731
959.103045	2426.675350
959.403031	2427.814651
959.702979	2424.699218
960.002889	2425.314239
960.302762	2424.605957
960.602596	2426.198961
960.902393	2425.646955
961.202153	2425.614187
961.501875	2421.782911
961.801559	2422.266861
962.101205	2424.316090
962.400814	2422.450863
962.700385	2424.046389
962.999918	2423.065884
963.299414	2421.992118
963.598873	2423.340627
963.898293	2420.416758
964.197677	2419.736202
964.497022	2420.469690
964.796331	2422.274423
965.095601	2422.271902
965.394835	2420.638569
965.694030	2422.261820
965.993189	2422.002201
966.292309	2421.656882
966.591393	2422.647468
966.890439	2420.179824
967.189447	2422.856676
967.488419	2420.252920
967.787353	2421.639238
968.086249	2419.728640
968.385108	2424.575710
968.683930	2422.750812
968.982714	2419.045564
969.281462	2422.339958
969.580172	2420.318455
969.878844	2421.664443
970.177480	2419.970616
970.476078	2418.843918
970.774639	2423.567479
971.073162	2421.369536
971.371649	2423.058322
971.670098	2420.046233
971.968510	2421.878693
972.266885	2416.903074
972.565223	2420.885585
972.863524	2419.874834
973.161788	2422.297108
973.460014	2423.128899
973.758204	2421.235945
974.056356	2421.982036
974.354471	2423.733837
974.652550	2423.552356
974.950591	2422.816347
975.248595	2420.240317
975.546563	2422.080339
975.844493	2421.611511
976.142386	2422.806265
976.440243	2422.292067
976.738062	2424.250555
977.035845	2424.303488
977.333590	2422.150915
977.631299	2420.976326
977.928971	2420.988929
978.226606	2423.239804
978.524204	2420.555390
978.821765	2419.718558
979.119290	2422.851635
979.416777	2421.581264
979.714228	2421.266192
980.011642	2420.515060
980.309020	2425.117634
980.606360	2421.566141
980.903664	2421.553538
981.200931	2423.900195
981.498162	2424.973961
981.795356	2425.248704
982.092513	2430.350352
982.389633	2430.385640
982.686717	2436.253543
982.983764	2436.702205
983.280775	2441.322423
983.577749	2438.577515
983.874686	2435.593152
984.171587	2438.191866
984.468451	2436.195569
984.765279	2435.023501
985.062070	2433.952256
985.358824	2428.923705
985.655543	2430.234405
985.952224	2428.089394
986.248869	2425.087387
986.545478	2419.146387
986.842050	2420.104206
987.138586	2417.291242
987.435086	2415.322672
987.731549	2414.533731
988.027975	2419.935328
988.324366	2416.164545
988.620719	2418.964906
988.917037	2417.729823
989.213318	2420.636048
989.509563	2418.196130
989.805772	2416.121695
990.101944	2417.092117
990.398080	2417.349216
990.694180	2415.504153
990.990244	2416.363670
991.286271	2415.685635
991.582262	2417.535738
991.878217	2415.264699
992.174136	2416.199833
992.470019	2416.416602
992.765865	2419.819381
993.061676	2416.877868
993.357450	2415.620100
993.653188	2414.145563
993.948890	2419.065729
994.244556	2418.856521
994.540186	2418.057498
994.835780	2417.480286
995.131337	2421.145205
995.426859	2420.996491
995.722345	2423.484300
996.017795	2426.803900
996.313208	2424.820206
996.608586	2426.317428
996.903928	2426.498910
997.199234	2426.234249
997.494504	2428.240629
997.789738	2424.936152
998.084936	2424.522778
998.380099	2422.758374
998.675225	2423.171748
998.970316	2421.921542
999.265371	2419.872313
999.560390	2421.898857
999.855373	2420.242838
1000.150320	2414.029616
1000.445232	2416.577919
1000.740108	2415.463824
1001.034948	2419.663105
1001.329752	2416.822415
1001.624521	2416.502302
1001.919254	2409.822773
1002.213951	2411.874523
1002.508613	2410.919224
1002.803239	2412.033319
1003.097829	2408.254974
1003.392384	2412.169430
1003.686903	2414.185892
1003.981386	2410.425191
1004.275834	2413.795202
1004.570246	2416.535069
1004.864623	2412.839904
1005.158964	2415.110943
1005.453270	2411.173802
1005.747540	2412.638257
1006.041775	2411.095664
1006.335974	2411.239337
1006.630138	2415.126067
1006.924266	2412.058525
1007.218359	2412.761766
1007.512416	2411.806467
1007.806438	2408.524676
1008.100425	2412.711354
1008.394376	2412.660943
1008.688292	2414.695048
1008.982172	2407.758421
1009.276017	2409.381672
1009.569827	2413.588515
1009.863602	2411.430901
1010.157341	2413.018865
1010.451045	2412.476941
1010.744714	2410.793195
1011.038347	2410.498288
1011.331945	2411.355284
1011.625508	2412.161868
1011.919036	2412.597928
1012.212528	2411.163720
1012.505986	2411.448545
1012.799408	2411.224214
1013.092795	2413.132291
1013.386147	2411.582136
1013.679464	2412.272774
1013.972745	2409.336302
1014.265992	2410.720098
1014.559204	2412.050963
1014.852380	2412.910480
1015.145521	2411.657753
1015.438628	2410.183216
1015.731699	2412.048443
1016.024736	2410.773031
1016.317737	2412.824780
1016.610703	2411.826632
1016.903635	2411.065418
1017.196531	2410.450397
1017.489393	2407.302196
1017.782219	2406.442679
1018.075011	2408.887639
1018.367768	2412.512229
1018.660490	2411.052815
1018.953177	2411.052815
1019.245829	2411.052815
