Dividing Wavelength (nm)	Counts (n)	Blue Motor Position (mm): 0.000000	Red Motor Position (mm): 12.800000	
326.493990	1981.680097
326.888308	1981.680097
327.282561	1981.680097
327.676750	1957.114555
328.070874	1958.929370
328.464933	1963.663014
328.858929	1975.393779
329.252859	1984.614049
329.646726	1998.676348
330.040528	2017.157218
330.434265	2035.323016
330.827938	2052.936807
331.221547	2072.776268
331.615091	2093.288723
332.008571	2114.123812
332.401986	2136.879580
332.795338	2153.800213
333.188625	2174.955415
333.581847	2192.899403
333.975006	2214.125181
334.368100	2230.140927
334.761129	2244.667011
335.154095	2262.242994
335.546996	2274.303955
335.939833	2291.338014
336.332606	2305.516259
336.725315	2315.727116
337.117960	2325.615339
337.510540	2331.821000
337.903056	2343.420695
338.295508	2346.629389
338.687896	2355.123733
339.080220	2360.616070
339.472480	2364.364168
339.864676	2369.649818
340.256807	2372.742566
340.648875	2375.071579
341.040879	2375.094264
341.432818	2378.681045
341.824694	2377.347660
342.216506	2377.919831
342.608253	2378.655839
342.999937	2376.914121
343.391557	2377.302290
343.783113	2374.776672
344.174605	2375.742053
344.566033	2372.614017
344.957397	2371.288193
345.348697	2366.141175
345.739934	2369.173429
346.131106	2365.435413
346.522215	2362.670341
346.913260	2359.963241
347.304241	2359.136492
347.695159	2356.250431
348.086012	2359.380988
348.476802	2355.491738
348.867528	2353.445029
349.258191	2351.083248
349.648789	2355.322859
350.039324	2351.289936
350.429796	2351.408403
350.820203	2349.422188
351.210548	2351.683146
351.600828	2349.333968
351.991045	2351.100893
352.381198	2346.115191
352.771288	2350.208608
353.161314	2348.179544
353.551276	2350.826150
353.941175	2348.792044
354.331010	2348.509739
354.720782	2348.396313
355.110490	2347.874554
355.500135	2349.596108
355.889717	2350.117868
356.279235	2351.408403
356.668689	2350.979905
357.058080	2352.061232
357.447408	2351.504185
357.836672	2348.048474
358.225873	2351.368074
358.615010	2348.590398
359.004084	2353.066943
359.393095	2354.140708
359.782043	2355.968127
360.170927	2358.793693
360.559748	2357.793024
360.948505	2356.716738
361.337199	2357.326718
361.725830	2358.319825
362.114398	2362.725793
362.502903	2359.335617
362.891344	2362.201513
363.279722	2361.866277
363.668037	2362.551873
364.056289	2363.265197
364.444478	2366.678058
364.832603	2365.662265
365.220665	2366.874663
365.608665	2364.394415
365.996601	2364.951463
366.384474	2366.940198
366.772284	2368.830631
367.160031	2369.095291
367.547715	2365.962214
367.935336	2370.380785
368.322893	2369.556557
368.710388	2370.869777
369.097820	2373.967566
369.485189	2371.477236
369.872495	2373.844058
370.259738	2374.557381
370.646918	2381.002497
371.034035	2377.098123
371.421090	2381.496530
371.808081	2382.325799
372.195010	2389.748898
372.581875	2394.386760
372.968678	2399.748027
373.355418	2405.371434
373.742096	2415.937693
374.128710	2425.808272
374.515262	2439.374017
374.901751	2450.918259
375.288177	2468.058182
375.674540	2485.218270
376.060841	2504.243585
376.447079	2530.419776
376.833254	2553.301573
377.219367	2577.710840
377.605417	2613.024123
377.991404	2643.041673
378.377329	2681.510718
378.763191	2709.942826
379.148991	2758.940321
379.534727	2804.436734
379.920402	2851.480782
380.306013	2900.132958
380.691563	2961.004891
381.077049	3015.482120
381.462474	3072.023701
381.847835	3141.158085
382.233134	3210.635267
382.618371	3269.881428
383.003545	3357.756301
383.388657	3436.902417
383.773706	3525.304090
384.158693	3595.391252
384.543618	3688.491282
384.928480	3765.583127
385.313280	3868.614229
385.698017	3968.232470
386.082692	4092.010441
386.467305	4151.059997
386.851856	4273.857463
387.236344	4427.814302
387.620770	4491.675639
388.005133	4606.003967
388.389435	4750.105349
388.773674	4835.242876
389.157851	4962.718533
389.541965	5094.002783
389.926018	5116.269559
390.310008	5291.978976
390.693936	5411.693777
391.077802	5525.888515
391.461606	5658.659904
391.845348	5764.745946
392.229027	5882.494697
392.612645	6100.355722
392.996200	6213.247321
393.379694	6376.996601
393.763125	6600.067659
394.146494	6681.371388
394.529801	6807.768238
394.913047	7040.102416
395.296230	7029.500870
395.679351	7071.612148
396.062410	7314.744478
396.445408	7196.695778
396.828343	7330.966911
397.211217	7442.726771
397.594028	7318.633728
397.976778	7489.415417
398.359466	7621.768391
398.742092	7568.115391
399.124656	7679.469438
399.507158	7823.094432
399.889598	7805.689848
400.271977	7961.151471
400.654294	7946.945499
401.036549	8075.257988
401.418742	8050.470635
401.800874	8262.133561
402.182944	8274.149151
402.564952	8532.306640
402.946898	8304.454048
403.328783	8284.206253
403.710606	8379.080769
404.092367	8509.039194
404.474067	8714.743477
404.855705	8462.842060
405.237282	8333.463368
405.618797	8576.094102
406.000250	8664.248759
406.381642	8833.563473
406.762972	8681.300462
407.144240	8428.446268
407.525447	8495.481011
407.906593	8334.577463
408.287677	8397.130620
408.668700	8368.358234
409.049661	8232.632729
409.430560	8206.295221
409.811399	8053.213022
410.192176	8024.901902
410.572891	7932.363962
410.953545	8071.157009
411.334138	7629.050338
411.714669	7816.893812
412.095139	7304.742828
412.475547	7421.117865
412.855894	7208.575257
413.236180	7226.632670
413.616405	6930.948833
413.996568	6913.219094
414.376670	6763.698471
414.756711	6573.556231
415.136691	6548.990688
415.516609	6480.869576
415.896466	6364.968408
416.276262	6324.074568
416.655997	6343.551066
417.035670	6209.592485
417.415283	6281.880110
417.794834	6160.307644
418.174324	5938.829591
418.553753	5760.345018
418.933121	5758.842755
419.312428	5562.467127
419.691674	5404.711779
420.070859	5380.526844
420.449983	5169.705790
420.829045	5159.767155
421.208047	4980.133199
421.586988	4945.571049
421.965867	4865.406620
422.344686	4744.668465
422.723444	4716.649732
423.102141	4389.443559
423.480777	4460.135660
423.859352	4279.017084
424.237866	4323.071728
424.616319	4178.330118
424.994712	4155.158455
425.373044	4031.675391
425.751314	3998.638190
426.129524	3816.483657
426.507673	3827.796006
426.885762	3714.652349
427.263789	3643.642656
427.641756	3575.942481
428.019662	3503.233919
428.397508	3434.021397
428.775292	3377.895711
429.153016	3307.667397
429.530679	3250.152872
429.908282	3191.110878
430.285824	3122.478089
430.663305	3098.527568
431.040726	3031.308822
431.418086	2980.967860
431.795385	2960.931794
432.172624	2928.008018
432.549802	2878.261912
432.926920	2846.895853
433.303977	2809.815646
433.680974	2785.461831
434.057910	2760.722369
434.434786	2737.674213
434.811601	2710.845193
435.188355	2708.004502
435.565050	2680.618434
435.941683	2658.923829
436.318257	2651.951913
436.694770	2631.033645
437.071222	2626.607512
437.447614	2599.959973
437.823946	2589.340782
438.200218	2581.438773
438.576429	2571.621126
438.952580	2560.994374
439.328670	2555.827191
439.704700	2548.424257
440.080670	2538.752803
440.456580	2534.059489
440.832429	2533.575538
441.208218	2521.237314
441.583947	2518.436953
441.959616	2516.228928
442.335224	2514.709020
442.710773	2509.917403
443.086261	2508.883967
443.461689	2504.538492
443.837057	2502.403563
444.212365	2502.637977
444.587612	2499.706546
444.962800	2493.450474
445.337927	2494.506596
445.712995	2484.343630
446.088002	2494.733448
446.462949	2489.276399
446.837837	2492.101966
447.212664	2487.209526
447.587431	2498.423572
447.962139	2510.366066
448.336786	2515.843280
448.711374	2510.731550
449.085901	2494.415855
449.460369	2493.084991
449.834776	2492.532984
450.209124	2497.831237
450.583412	2494.861997
450.957640	2494.478870
451.331808	2489.689773
451.705917	2483.456387
452.079965	2483.194247
452.453954	2484.325986
452.827883	2482.478403
453.201752	2479.960347
453.575562	2482.097796
453.949311	2484.792293
454.323001	2482.322127
454.696632	2482.473362
455.070202	2487.002838
455.443713	2485.084679
455.817164	2486.450832
456.190556	2484.875472
456.563888	2485.440081
456.937160	2483.779021
457.310373	2480.802219
457.683526	2481.213073
458.056619	2482.455718
458.429653	2479.035295
458.802628	2480.209884
459.175542	2483.675677
459.548398	2487.638024
459.921194	2493.831081
460.293930	2495.121617
460.666607	2501.516320
461.039224	2505.836589
461.411782	2508.062259
461.784280	2498.935250
462.156719	2499.172184
462.529099	2498.640342
462.901419	2495.227481
463.273680	2490.120792
463.645882	2489.725062
464.018024	2490.012407
464.390106	2492.714466
464.762130	2499.633449
465.134094	2512.944616
465.505999	2529.802235
465.877845	2543.567105
466.249631	2548.351160
466.621358	2540.744059
466.993026	2539.299768
467.364634	2530.573531
467.736184	2520.629855
468.107674	2515.243382
468.479105	2514.283043
468.850477	2514.119205
469.221790	2506.348266
469.593043	2501.662514
469.964238	2495.043479
470.335373	2496.702018
470.706449	2502.433810
471.077467	2510.003103
471.448425	2523.790659
471.819324	2528.912471
472.190164	2525.539939
472.560945	2517.085924
472.931667	2506.413801
473.302330	2503.618482
473.672934	2503.386588
474.043479	2499.918275
474.413965	2498.226968
474.784393	2495.378716
475.154761	2499.446927
475.525070	2496.215547
475.895321	2495.809734
476.265513	2497.231340
476.635645	2504.120076
477.005719	2501.856598
477.375734	2505.566887
477.745691	2504.276352
478.115588	2510.948319
478.485427	2514.701458
478.855207	2524.246883
479.224928	2531.271731
479.594591	2536.832124
479.964194	2535.319778
480.333739	2536.915303
480.703226	2535.811290
481.072653	2540.953267
481.442022	2537.573173
481.811333	2539.947557
482.180584	2532.315250
482.549777	2531.307019
482.918912	2529.270393
483.287988	2530.576052
483.657005	2528.728469
484.025964	2527.420289
484.394864	2525.297964
484.763706	2525.789476
485.132489	2521.340658
485.501213	2520.811337
485.869879	2524.181348
486.238487	2521.275123
486.607036	2518.716737
486.975527	2524.647655
487.343959	2520.725637
487.712333	2521.106244
488.080648	2522.091790
488.448905	2522.424506
488.817104	2522.616070
489.185244	2525.101359
489.553326	2530.777698
489.921350	2535.526465
490.289315	2547.433670
490.657222	2552.779814
491.025070	2552.149670
491.392861	2545.288659
491.760593	2541.626261
492.128267	2537.883204
492.495883	2535.055117
492.863440	2528.355423
493.230939	2524.503982
493.598380	2521.212108
493.965763	2517.259844
494.333088	2517.436284
494.700354	2515.069463
495.067563	2512.619462
495.434713	2512.385048
495.801805	2517.950482
496.168839	2517.159021
496.535815	2519.120030
496.902733	2516.546521
497.269593	2514.744308
497.636395	2512.989987
498.003139	2519.225894
498.369825	2516.347395
498.736453	2518.295801
499.103023	2518.956192
499.469535	2516.591891
499.835989	2519.480472
500.202385	2519.362005
500.568723	2517.592560
500.935003	2524.133457
501.301226	2520.304701
501.667390	2523.949455
502.033497	2524.463653
502.399546	2523.999867
502.765537	2525.822244
503.131470	2524.360309
503.497345	2527.700073
503.863163	2523.115144
504.228923	2525.555063
504.594625	2532.640404
504.960269	2534.523275
505.325856	2536.154088
505.691385	2536.280117
506.056856	2538.430169
506.422270	2543.065510
506.787625	2541.515356
507.152924	2546.526262
507.518164	2547.453835
507.883347	2547.592467
508.248472	2550.523898
508.613540	2551.517005
508.978550	2557.447922
509.343503	2557.866338
509.708398	2561.163253
510.073236	2566.232133
510.438016	2567.852864
510.802738	2569.503842
511.167403	2572.810839
511.532010	2574.159347
511.896561	2580.395255
512.261053	2584.791141
512.625488	2582.749473
512.989866	2583.722416
513.354186	2587.561255
513.718449	2584.115626
514.082655	2592.413365
514.446803	2597.046186
514.810894	2600.890066
515.174927	2601.522730
515.538904	2600.975765
515.902822	2605.401898
516.266684	2603.458533
516.630488	2608.126642
516.994235	2610.480861
517.357925	2612.595625
517.721558	2614.995214
518.085133	2616.169803
518.448651	2617.190637
518.812112	2617.500667
519.175516	2619.433950
519.538863	2620.643827
519.902152	2619.391100
520.265385	2622.536780
520.628560	2623.703807
520.991678	2624.328910
521.354739	2619.577623
521.717743	2625.402676
522.080690	2623.839918
522.443580	2628.833181
522.806413	2628.066926
523.169189	2628.019035
523.531908	2624.719600
523.894569	2625.684981
524.257174	2623.960906
524.619722	2624.306225
524.982213	2624.507871
525.344647	2622.677932
525.707025	2624.170114
526.069345	2622.577109
526.431608	2619.900257
526.793815	2622.065432
527.155964	2615.746346
527.518057	2615.123763
527.880093	2618.350102
528.242072	2613.674432
528.603995	2612.275512
528.965860	2609.318875
529.327669	2604.754110
529.689421	2600.937957
530.051117	2603.307299
530.412755	2597.020980
530.774337	2597.900661
531.135862	2594.777667
531.497331	2588.390525
531.858743	2583.921542
532.220098	2589.222315
532.581396	2579.714699
532.942638	2575.800243
533.303824	2576.657239
533.664953	2574.618092
534.026025	2569.460992
534.387040	2570.993503
534.747999	2564.916392
535.108902	2561.959755
535.469748	2557.062274
535.830537	2555.844835
536.191270	2554.887016
536.551947	2548.368804
536.912567	2549.248486
537.273131	2541.323792
537.633638	2537.384130
537.994089	2536.852288
538.354483	2533.371372
538.714821	2532.174098
539.075103	2532.000178
539.435328	2527.437933
539.795497	2523.455422
540.155609	2522.749660
540.515665	2521.882582
540.875665	2517.900070
541.235609	2516.022241
541.595496	2514.315810
541.955328	2511.883453
542.315102	2511.656601
542.674821	2505.491270
543.034483	2502.403563
543.394090	2503.439521
543.753640	2499.472133
544.113134	2498.536998
544.472571	2501.160919
544.831953	2497.007008
545.191278	2495.872749
545.550548	2492.553149
545.909761	2492.240597
546.268918	2490.705566
546.628019	2490.408138
546.987064	2490.458549
547.346053	2483.610142
547.704986	2486.168527
548.063863	2483.443784
548.422684	2486.478558
548.781449	2480.787096
549.140158	2481.359267
549.498811	2481.578557
549.857408	2477.351549
550.215949	2479.073103
550.574434	2475.471199
550.932864	2475.672845
551.291237	2472.378451
551.649555	2478.831128
552.007817	2475.841724
552.366022	2475.745942
552.724173	2477.001189
553.082267	2475.425829
553.440305	2476.121508
553.798288	2475.859368
554.156215	2472.443986
554.514086	2475.813997
554.871902	2472.396095
555.229661	2472.522124
555.587365	2471.511373
555.945014	2471.821404
556.302606	2470.412401
556.660143	2472.219655
557.017625	2472.532206
557.375050	2474.525983
557.732421	2470.278811
558.089735	2471.150930
558.446994	2471.004737
558.804197	2471.471043
559.161345	2468.234623
559.518437	2468.922740
559.875474	2467.501135
560.232455	2472.469192
560.589381	2470.326702
560.946251	2472.476754
561.303065	2467.642287
561.659825	2471.826445
562.016528	2468.872329
562.373177	2468.713532
562.729770	2467.901907
563.086307	2468.292596
563.442789	2466.961731
563.799216	2469.671352
564.155587	2467.652369
564.511904	2469.840230
564.868164	2467.236474
565.224370	2471.536578
565.580520	2464.841926
565.936615	2468.632874
566.292654	2465.691361
566.648638	2467.748151
567.004567	2468.968111
567.360441	2466.051803
567.716260	2465.797225
568.072023	2468.809314
568.427732	2464.995681
568.783385	2463.364868
569.138982	2461.481997
569.494525	2463.069961
569.850013	2463.001905
570.205445	2466.134982
570.560823	2464.622636
570.916145	2469.283183
571.271412	2467.148254
571.626625	2465.819910
571.981782	2466.928964
572.336884	2465.184725
572.691931	2465.648511
573.046923	2464.511731
573.401860	2463.725311
573.756743	2467.100363
574.111570	2465.257821
574.466342	2461.844960
574.821059	2464.108438
575.175722	2464.456278
575.530330	2460.067953
575.884882	2462.051647
576.239380	2461.013170
576.593823	2463.246401
576.948211	2463.019549
577.302544	2463.117852
577.656823	2461.338324
578.011047	2459.463015
578.365216	2457.224743
578.719330	2460.541822
579.073389	2462.684312
579.427394	2459.223560
579.781344	2461.318160
580.135239	2461.900413
580.489080	2459.694908
580.842866	2458.769856
581.196597	2460.614919
581.550273	2461.040896
581.903895	2460.219188
582.257463	2459.372274
582.610975	2457.912860
582.964434	2460.476287
583.317837	2459.082408
583.671186	2458.323714
584.024481	2460.496452
584.377721	2457.348251
584.730906	2459.044599
585.084037	2459.712552
585.437113	2457.444033
585.790135	2459.450412
586.143103	2457.854887
586.496016	2455.364557
586.848874	2451.175358
587.201679	2454.711728
587.554428	2452.445729
587.907124	2450.638475
588.259765	2452.080245
588.612352	2456.874382
588.964884	2456.760957
589.317362	2454.673919
589.669786	2456.929835
590.022155	2453.269958
590.374470	2455.135184
590.726731	2457.431430
591.078937	2452.075204
591.431090	2457.423868
591.783188	2454.280709
592.135232	2453.474124
592.487222	2452.007148
592.839157	2455.730041
593.191038	2453.731223
593.542866	2452.876748
593.894639	2451.031685
594.246358	2454.278188
594.598022	2449.479010
594.949633	2449.796603
595.301190	2449.254678
595.652692	2451.233331
596.004141	2451.593774
596.355535	2451.142591
596.706876	2450.194854
597.058162	2449.968002
597.409395	2451.442539
597.760573	2453.960596
598.111698	2450.104113
598.462768	2450.739298
598.813785	2450.772066
599.164748	2450.056222
599.515657	2449.143773
599.866511	2449.816767
600.217312	2450.078907
600.568060	2447.598659
600.918753	2451.195523
601.269392	2449.438681
601.619978	2448.866510
601.970510	2447.155038
602.320988	2449.022785
602.671412	2449.627724
603.021783	2447.911211
603.372100	2451.003959
603.722363	2446.867692
604.072572	2448.117898
604.422728	2450.162086
604.772830	2444.170675
605.122878	2444.029523
605.472872	2446.149328
605.822813	2443.588422
606.172701	2448.828701
606.522534	2445.728391
606.872314	2446.166972
607.222041	2447.397013
607.571714	2448.420367
607.921333	2447.689400
608.270899	2448.495985
608.620411	2449.534463
608.969870	2451.402210
609.319276	2450.789710
609.668627	2444.347115
610.017926	2446.035902
610.367171	2447.681838
610.716362	2448.170830
611.065500	2448.483382
611.414585	2449.423557
611.763616	2447.061777
612.112594	2445.095727
612.461518	2447.807867
612.810389	2447.157558
613.159207	2449.960440
613.507971	2447.538166
613.856682	2449.123608
614.205340	2448.798454
614.553945	2449.665533
614.902496	2445.282249
615.250994	2448.952209
615.599439	2448.609411
615.947830	2450.676284
616.296169	2449.970522
616.644454	2444.679831
616.992686	2445.993052
617.340864	2448.498505
617.688990	2446.413988
618.037063	2450.875409
618.385082	2447.129832
618.733048	2451.228290
619.080961	2450.018413
619.428821	2448.710234
619.776628	2449.315172
620.124382	2450.522529
620.472083	2450.121757
620.819731	2448.342230
621.167326	2448.042281
621.514868	2449.264761
621.862357	2445.935079
622.209793	2446.048505
622.557176	2447.888526
622.904506	2443.747218
623.251783	2441.549275
623.599007	2443.779985
623.946179	2440.972063
624.293297	2442.703699
624.640363	2442.625561
624.987376	2444.077413
625.334336	2442.474327
625.681243	2440.591456
626.028097	2445.345264
626.374899	2442.998607
626.721647	2440.508277
627.068343	2444.100099
627.414987	2441.236723
627.761577	2442.207145
628.108115	2441.536672
628.454600	2443.240582
628.801032	2441.188832
629.147412	2443.467434
629.493739	2442.214707
629.840014	2440.394851
630.186236	2443.361570
630.532405	2440.997268
630.878521	2439.502566
631.224585	2441.259408
631.570597	2440.944336
631.916556	2439.973914
632.262462	2439.842844
632.608316	2439.414346
632.954117	2439.205138
633.299866	2438.373348
633.645562	2442.693617
633.991206	2438.476692
634.336797	2438.675817
634.682336	2437.221444
635.027823	2440.586414
635.373257	2435.991403
635.718639	2436.472833
636.063968	2436.855961
636.409245	2433.259097
636.754470	2441.501384
637.099642	2436.412339
637.444762	2433.795980
637.789829	2434.715991
638.134845	2440.137752
638.479808	2435.890580
638.824719	2436.490477
639.169577	2436.477874
639.514383	2436.210693
639.859137	2434.000147
640.203839	2434.274890
640.548489	2437.365117
640.893086	2432.087029
641.237632	2428.593509
641.582125	2430.791453
641.926566	2429.498397
642.270955	2433.463264
642.615292	2435.298244
642.959576	2434.829417
643.303809	2435.222627
643.647990	2434.070723
643.992118	2435.421752
644.336195	2433.231371
644.680219	2431.484611
645.024192	2433.155754
645.368112	2433.793460
645.711981	2432.296237
646.055797	2435.000816
646.399562	2435.825045
646.743274	2437.922165
647.086935	2435.429314
647.430544	2435.174736
647.774101	2435.683892
648.117606	2434.645415
648.461059	2438.232196
648.804460	2436.384613
649.147810	2435.583069
649.491108	2435.343614
649.834354	2435.391505
650.177548	2433.354879
650.520690	2435.404108
650.863781	2430.728438
651.206820	2436.861002
651.549807	2432.439910
651.892742	2432.271031
652.235626	2431.746751
652.578458	2434.113573
652.921238	2431.119127
653.263967	2430.315063
653.606644	2431.252718
653.949269	2428.278437
654.291843	2432.482760
654.634365	2432.528130
654.976836	2432.215578
655.319255	2428.701894
655.661622	2430.756164
656.003938	2431.139292
656.346203	2429.316915
656.688416	2429.579055
657.030577	2432.543253
657.372687	2430.925043
657.714746	2430.289858
658.056753	2431.237595
658.398708	2425.712490
658.740612	2429.027049
659.082465	2425.778025
659.424266	2425.712490
659.766016	2424.575710
660.107715	2430.022677
660.449362	2427.454209
660.790958	2429.306833
661.132503	2433.009560
661.473996	2428.553180
661.815438	2429.352203
662.156829	2430.546957
662.498168	2431.111566
662.839456	2431.393870
663.180693	2427.817172
663.521879	2429.274065
663.863013	2431.187183
664.204097	2430.110897
664.545129	2428.170052
664.886110	2431.887903
665.227040	2427.502100
665.567918	2429.387491
665.908746	2428.979158
666.249522	2430.398242
666.590248	2431.227512
666.930922	2430.592327
667.271545	2432.976793
667.612118	2430.138623
667.952639	2431.008222
668.293109	2433.891762
668.633528	2429.697522
668.973896	2429.705084
669.314213	2428.767429
669.654480	2428.054106
669.994695	2430.100814
670.334859	2429.755495
670.674973	2427.091246
671.015035	2428.966555
671.355047	2427.839857
671.695008	2428.727100
672.034918	2430.410845
672.374777	2428.197779
672.714585	2430.962852
673.054342	2429.626946
673.394049	2430.436051
673.733705	2429.112748
674.073310	2431.051072
674.412864	2429.841195
674.752368	2429.773139
675.091820	2428.041503
675.431223	2427.534867
675.770574	2429.490835
676.109875	2424.908426
676.449125	2425.800710
676.788324	2425.059661
677.127473	2426.725762
677.466571	2422.811306
677.805619	2429.216092
678.144616	2425.727613
678.483562	2428.444795
678.822458	2426.997984
679.161303	2426.335073
679.500098	2423.643096
679.838842	2426.529157
680.177535	2426.617377
680.516179	2425.452871
680.854771	2427.416400
681.193314	2427.895310
681.531805	2426.965217
681.870247	2430.108376
682.208638	2429.826072
682.546978	2429.140475
682.885268	2429.420259
683.223508	2430.577203
683.561697	2429.420259
683.899836	2430.249528
684.237925	2425.651996
684.575963	2429.339600
684.913951	2428.142326
685.251889	2427.489497
685.589776	2430.022677
685.927614	2431.562749
686.265401	2428.278437
686.603137	2430.035279
686.940824	2428.225505
687.278460	2427.597882
687.616046	2429.291709
687.953582	2430.526792
688.291068	2431.398912
688.628504	2431.461926
688.965889	2428.212902
689.303224	2429.548808
689.640510	2430.158788
689.977745	2429.833633
690.314930	2429.657193
690.652065	2428.248190
690.989150	2426.642583
691.326185	2427.176945
691.663170	2423.509506
692.000105	2426.327511
692.336990	2423.101172
692.673825	2425.296595
693.010610	2427.292892
693.347345	2420.149577
693.684030	2416.580440
694.020665	2422.387849
694.357251	2417.505492
694.693786	2421.664443
695.030272	2419.479103
695.366707	2421.122519
695.703093	2417.591191
696.039429	2419.418609
696.375716	2421.770308
696.711952	2422.178641
697.048139	2419.746284
697.384276	2421.672005
697.720363	2419.726120
698.056400	2421.588826
698.392388	2420.837694
698.728326	2420.358785
699.064214	2420.731830
699.400053	2419.438774
699.735842	2418.944741
700.071581	2417.422313
700.407270	2418.309556
700.742910	2418.238979
701.078501	2420.121850
701.414042	2417.697055
701.749533	2418.163362
702.084974	2417.225708
702.420366	2417.243352
702.755709	2417.069432
703.091002	2417.853331
703.426246	2416.371232
703.761440	2418.244021
704.096584	2418.241500
704.431679	2415.917528
704.766725	2420.255441
705.101721	2416.252765
705.436668	2417.008938
705.771565	2417.124884
706.106413	2419.680749
706.441212	2416.245203
706.775961	2418.425502
707.110661	2413.535583
707.445311	2419.342992
707.779913	2418.266706
708.114465	2417.868455
708.448967	2415.229411
708.783421	2417.205543
709.117825	2417.429874
709.452180	2419.383321
709.786485	2419.189237
710.120742	2420.096645
710.454949	2419.398445
710.789107	2418.080183
711.123216	2417.192940
711.457275	2418.871644
711.791286	2419.108578
712.125247	2420.318455
712.459159	2423.728796
712.793023	2424.953796
713.126837	2419.537077
713.460602	2421.729978
713.794318	2419.479103
714.127985	2421.220822
714.461602	2419.879875
714.795171	2420.890626
715.128691	2420.860379
715.462162	2417.634041
715.795584	2419.920204
716.128957	2420.220153
716.462281	2419.078332
716.795556	2416.769483
717.128782	2418.556572
717.461960	2417.399627
717.795088	2416.265368
718.128167	2417.681932
718.461198	2416.588002
718.794180	2417.654206
719.127113	2411.879564
719.459997	2416.824936
719.792833	2415.864596
720.125619	2416.524987
720.458357	2413.517939
720.791046	2413.994328
721.123686	2415.579771
721.456278	2413.129770
721.788821	2412.807136
722.121315	2412.595408
722.453761	2415.567168
722.786158	2413.575912
723.118506	2414.821077
723.450805	2412.217321
723.783056	2414.432908
724.115259	2413.386869
724.447412	2411.143555
724.779518	2414.385017
725.111574	2415.937693
725.443582	2415.743608
725.775542	2414.475758
726.107453	2414.604308
726.439315	2414.127918
726.771129	2416.885430
727.102895	2415.806623
727.434612	2415.068094
727.766281	2415.604977
728.097901	2413.850655
728.429473	2411.877043
728.760996	2415.453742
729.092471	2411.115829
729.423897	2417.555903
729.755276	2417.412230
730.086606	2418.485996
730.417887	2417.523136
730.749120	2417.891140
731.080305	2417.450039
731.411442	2416.963568
731.742530	2416.391397
732.073570	2420.361305
732.404562	2419.920204
732.735506	2417.976839
733.066401	2417.626479
733.397249	2421.132602
733.728048	2416.061201
734.058798	2416.850142
734.389501	2417.659247
734.720156	2416.101530
735.050762	2413.719585
735.381320	2413.860737
735.711831	2413.200346
736.042293	2414.616910
736.372707	2413.454924
736.703073	2413.122208
737.033391	2411.932496
737.363661	2412.837383
737.693883	2414.195974
738.024056	2415.786458
738.354182	2415.990625
738.684260	2413.386869
739.014290	2414.831159
739.344272	2415.214287
739.674207	2414.311921
740.004093	2415.143711
740.333931	2415.950296
740.663722	2417.326531
740.993464	2416.214956
741.323159	2416.240162
741.652806	2413.185223
741.982405	2415.670512
742.311956	2413.548186
742.641460	2415.597415
742.970915	2414.231262
743.300323	2415.126067
743.629683	2412.003072
743.958996	2410.520973
744.288260	2413.480130
744.617477	2412.184554
744.946647	2407.564336
745.275768	2410.793195
745.604842	2408.237330
745.933869	2409.280849
746.262847	2407.652556
746.591778	2410.967115
746.920662	2411.745973
747.249498	2412.287897
747.578286	2412.746642
747.907027	2411.940058
748.235720	2413.228073
748.564365	2411.272105
748.892963	2413.429719
749.221514	2410.881415
749.550017	2412.792013
749.878473	2412.340829
750.206881	2411.120870
750.535242	2411.461148
750.863555	2412.166910
751.191821	2411.501477
751.520039	2410.667166
751.848210	2412.998700
752.176334	2411.826632
752.504411	2412.156827
752.832440	2412.323185
753.160421	2413.076838
753.488356	2413.880902
753.816243	2409.568195
754.144082	2409.046435
754.471875	2412.129101
754.799620	2411.325037
755.127318	2413.989287
755.454969	2408.343194
755.782572	2410.984759
756.110129	2413.132291
756.437638	2409.542989
756.765100	2409.018709
757.092515	2410.886457
757.419882	2410.737742
757.747203	2414.919380
758.074477	2413.263361
758.401703	2408.030643
758.728882	2412.355953
759.056014	2411.098185
759.383099	2410.465520
759.710138	2411.599780
760.037129	2410.105078
760.364073	2410.720098
760.690970	2411.582136
761.017820	2413.177661
761.344623	2415.405851
761.671379	2409.981569
761.998088	2408.141548
762.324751	2415.325192
762.651366	2415.625141
762.977935	2423.370874
763.304456	2421.699732
763.630931	2428.424631
763.957359	2426.090577
764.283740	2424.782397
764.610074	2421.397262
764.936362	2417.901222
765.262602	2414.659760
765.588796	2416.063722
765.914943	2415.128588
766.241044	2412.865109
766.567097	2411.390572
766.893104	2408.945612
767.219064	2408.864954
767.544978	2408.590211
767.870845	2409.790006
768.196665	2409.422001
768.522438	2408.933009
768.848165	2407.949984
769.173846	2408.108781
769.499479	2408.698596
769.825066	2406.649367
770.150607	2408.098698
770.476101	2407.299676
770.801548	2409.918555
771.126949	2407.133318
771.452303	2405.227761
771.777611	2406.636764
772.102872	2405.600807
772.428087	2404.509397
772.753256	2407.765982
773.078378	2404.393450
773.403453	2403.496125
773.728482	2405.447052
774.053465	2405.575601
774.378401	2406.856054
774.703291	2405.147103
775.028135	2405.615930
775.352932	2406.982083
775.677683	2405.810015
776.002388	2406.661970
776.327046	2403.609551
776.651658	2403.821279
776.976224	2405.245405
777.300743	2404.892525
777.625216	2402.782802
777.949643	2403.962432
778.274024	2408.454100
778.598359	2400.733573
778.922647	2400.068140
779.246889	2401.222565
779.571086	2399.299364
779.895236	2404.534603
780.219339	2401.436814
780.543397	2404.247257
780.867409	2401.025960
781.191374	2401.104098
781.515294	2404.244736
781.839167	2406.195663
782.162995	2405.194994
782.486776	2406.051990
782.810511	2404.748852
783.134201	2404.481671
783.457844	2404.196845
783.781441	2406.256157
784.104993	2400.209293
784.428498	2403.881773
784.751958	2404.756413
785.075372	2403.231464
785.398739	2401.386402
785.722061	2405.646177
786.045337	2403.296999
786.368568	2405.172309
786.691752	2402.308933
787.014891	2403.748183
787.337983	2403.538975
787.661030	2408.161713
787.984031	2406.329253
788.306987	2404.045611
788.629897	2405.247926
788.952760	2406.906466
789.275579	2406.941754
789.598351	2407.249264
789.921078	2404.166598
790.243759	2406.281363
790.566395	2403.455796
790.888984	2404.887483
791.211529	2402.344221
791.534027	2404.804304
791.856480	2405.620971
792.178888	2404.138872
792.501249	2403.586866
792.823566	2404.274983
793.145836	2404.469068
793.468062	2403.521331
793.790241	2403.440672
794.112375	2405.893194
794.434464	2402.336660
794.756507	2403.874212
795.078505	2404.191804
795.400457	2401.739283
795.722364	2400.073182
796.044226	2404.350601
796.366042	2400.957904
796.687812	2403.284397
797.009538	2404.915210
797.331218	2406.989645
797.652852	2405.555436
797.974442	2407.478637
798.295986	2403.233985
798.617484	2404.859757
798.938938	2403.498646
799.260346	2407.271949
799.581709	2406.462844
799.903026	2406.172978
800.224299	2403.024777
800.545526	2400.718449
800.866708	2405.550395
801.187845	2405.242885
801.508936	2401.832544
801.829983	2403.657442
802.150984	2400.559653
802.471940	2402.646691
802.792851	2402.387071
803.113717	2403.014695
803.434538	2400.320198
803.755314	2403.788512
804.076045	2404.075858
804.396731	2401.542678
804.717372	2401.492266
805.037967	2403.649880
805.358518	2404.010323
805.679024	2402.659293
805.999485	2400.690723
806.319901	2406.036867
806.640272	2404.000240
806.960598	2403.992679
807.280879	2403.155847
807.601115	2407.395458
807.921306	2404.264901
808.241453	2401.525034
808.561554	2401.651063
808.881611	2402.258522
809.201623	2400.990672
809.521590	2401.456978
809.841513	2404.479150
810.161390	2400.970507
810.481223	2402.213151
810.801011	2401.041083
811.120755	2404.738769
811.440453	2405.076527
811.760107	2404.466547
812.079716	2400.645353
812.399281	2399.652245
812.718801	2400.952863
813.038276	2398.142420
813.357707	2403.123080
813.677093	2404.252298
813.996434	2402.649211
814.315731	2403.922103
814.634983	2402.329098
814.954191	2401.237688
815.273354	2403.791033
815.592473	2403.912020
815.911547	2404.433780
816.230577	2400.289951
816.549562	2405.162226
816.868502	2403.352452
817.187399	2405.739438
817.506250	2403.118038
817.825058	2404.292627
818.143821	2404.920251
818.462539	2405.613410
818.781213	2405.459654
819.099843	2407.660118
819.418429	2408.824625
819.736970	2410.357135
820.055466	2410.460479
820.373919	2414.790830
820.692327	2416.610687
821.010691	2422.430699
821.329011	2441.675304
821.647286	2464.219344
821.965517	2490.284630
822.283704	2506.814573
822.601847	2507.525376
822.919945	2495.214878
823.237999	2483.300111
823.556010	2472.454068
823.873976	2459.566359
824.191897	2448.034719
824.509775	2440.092381
824.827609	2435.857812
825.145398	2431.784560
825.463144	2429.770619
825.780845	2428.840526
826.098502	2432.616350
826.416116	2437.357555
826.733685	2440.813266
827.051210	2445.234358
827.368692	2443.359049
827.686129	2434.819334
828.003522	2431.189704
828.320872	2420.510019
828.638177	2418.382652
828.955439	2413.603638
829.272656	2413.706982
829.589830	2409.144738
829.906960	2411.209090
830.224046	2407.213976
830.541088	2407.765982
830.858086	2404.814387
831.175041	2406.457803
831.491952	2406.760272
831.808819	2404.640467
832.125642	2407.350087
832.442421	2406.800601
832.759157	2409.318658
833.075849	2414.153124
833.392497	2420.888106
833.709101	2423.383477
834.025662	2423.585123
834.342179	2421.893816
834.658653	2416.285532
834.975083	2416.179668
835.291469	2415.516756
835.607811	2411.468710
835.924110	2407.087947
836.240366	2408.605334
836.556578	2406.336815
836.872746	2404.670714
837.188871	2404.958060
837.504952	2403.241547
837.820990	2403.382699
838.136984	2404.302710
838.452935	2399.581669
838.768842	2400.166443
839.084706	2403.309602
839.400526	2402.639129
839.716303	2404.640467
840.032037	2411.181364
840.347727	2406.331774
840.663373	2411.415778
840.978977	2405.215158
841.294537	2403.256670
841.610054	2403.707853
841.925527	2401.953532
842.240957	2401.893038
842.556344	2402.485374
842.871687	2401.018398
843.186987	2401.681310
843.502244	2399.352297
843.817458	2398.003788
844.132629	2399.627039
844.447756	2401.056207
844.762840	2393.572614
845.077881	2397.421535
845.392879	2395.692419
845.707833	2397.436658
846.022745	2394.850546
846.337613	2396.859446
846.652438	2398.875908
846.967221	2399.445558
847.281960	2398.991854
847.596656	2398.207955
847.911309	2396.803993
848.225919	2395.344579
848.540485	2398.344066
848.855009	2398.202913
849.169490	2398.134858
849.483928	2397.817265
849.798323	2398.971689
850.112675	2397.219888
850.426984	2399.652245
850.741251	2398.359189
851.055474	2399.213665
851.369654	2398.510424
851.683792	2400.869684
851.997887	2397.479508
852.311938	2396.675444
852.625947	2399.904303
852.939914	2396.776267
853.253837	2396.143602
853.567718	2399.677451
853.881555	2395.533623
854.195350	2395.949518
854.509103	2396.899775
854.822812	2398.112173
855.136479	2397.610578
855.450103	2398.364230
855.763685	2396.536812
856.077224	2397.439179
856.390720	2398.780126
856.704173	2397.469426
857.017584	2397.529919
857.330953	2397.381205
857.644278	2400.055538
857.957561	2400.564694
858.270802	2397.671072
858.584000	2399.190980
858.897155	2398.182749
859.210268	2397.179559
859.523339	2399.843809
859.836367	2399.435476
860.149352	2396.128479
860.462295	2400.763820
860.775195	2396.622512
861.088054	2395.528581
861.400869	2397.164436
861.713642	2391.233518
862.026373	2398.386916
862.339062	2394.853067
862.651708	2399.541340
862.964312	2398.853222
863.276873	2397.585372
863.589392	2400.133675
863.901869	2398.938922
864.214303	2398.270969
864.526696	2400.239540
864.839045	2396.993037
865.151353	2399.793398
865.463619	2395.876421
865.775842	2395.856256
866.088023	2398.956566
866.400162	2398.210475
866.712258	2398.260887
867.024313	2396.209137
867.336325	2399.591751
867.648296	2398.570918
867.960224	2398.601165
868.272110	2399.206103
868.583954	2400.088305
868.895755	2397.451782
869.207515	2396.138561
869.519233	2397.724004
869.830909	2398.976731
870.142542	2400.315157
870.454134	2400.267266
870.765684	2396.141082
871.077191	2398.817934
871.388657	2398.444889
871.700081	2397.451782
872.011463	2400.113511
872.322803	2398.301216
872.634101	2400.882287
872.945357	2396.811555
873.256571	2399.790877
873.567744	2401.242729
873.878874	2402.477812
874.189963	2399.513613
874.501010	2399.107801
874.812015	2398.240722
875.122979	2400.075702
875.433900	2400.642832
875.744780	2398.984292
876.055618	2400.720970
876.366415	2401.338511
876.677169	2398.215516
876.987882	2397.837430
877.298554	2396.194014
877.609183	2397.827348
877.919771	2397.537481
878.230317	2396.829199
878.540822	2402.326577
878.851285	2403.102915
879.161707	2402.571073
879.472087	2407.193811
879.782425	2407.760941
880.092722	2416.827456
880.402977	2419.942889
880.713191	2433.954777
881.023363	2441.657660
881.333494	2448.006993
881.643583	2450.436829
881.953631	2453.073353
882.263637	2449.771397
882.573602	2443.248144
882.883526	2437.816300
883.193408	2437.070210
883.503248	2428.981678
883.813048	2425.188210
884.122806	2424.333734
884.432522	2419.693352
884.742197	2415.466345
885.051831	2415.363001
885.361424	2409.981569
885.670975	2411.214132
885.980485	2409.429563
886.289954	2403.871691
886.599382	2402.750034
886.908768	2404.549726
887.218113	2402.003943
887.527417	2402.548388
887.836680	2400.322719
888.145901	2401.751886
888.455082	2399.380023
888.764221	2401.643501
889.073319	2400.274828
889.382376	2399.871535
889.691392	2400.635270
890.000366	2399.223747
890.309300	2400.214334
890.618193	2397.915568
890.927044	2400.846999
891.235855	2399.858933
891.544625	2401.154509
891.853353	2399.531258
892.162041	2401.209962
892.470687	2401.567884
892.779293	2399.206103
893.087858	2397.114024
893.396381	2401.978738
893.704864	2402.205590
894.013306	2405.162226
894.321707	2413.810326
894.630068	2413.525501
894.938387	2414.470717
895.246665	2415.360481
895.554903	2411.577095
895.863100	2408.693555
896.171256	2409.154820
896.479371	2408.189439
896.787446	2404.637946
897.095480	2405.139541
897.403473	2405.106774
897.711425	2402.669376
898.019336	2404.567370
898.327207	2404.073337
898.635038	2400.758778
898.942827	2403.324726
899.250576	2400.582338
899.558284	2400.690723
899.865952	2400.231978
900.173579	2400.398336
900.481165	2399.402708
900.788711	2399.495969
901.096216	2397.053530
901.403681	2401.209962
901.711105	2400.620147
902.018489	2399.516134
902.325832	2399.758109
902.633135	2400.703326
902.940397	2403.465878
903.247619	2403.022257
903.554800	2406.583832
903.861941	2411.282187
904.169041	2416.827456
904.476101	2413.898546
904.783121	2416.283012
905.090100	2415.862075
905.397039	2412.257650
905.703938	2407.208935
906.010796	2407.415622
906.317614	2408.640622
906.624391	2403.221382
906.931129	2401.492266
907.237826	2405.343708
907.544483	2400.547050
907.851099	2401.139386
908.157675	2399.682492
908.464211	2401.363717
908.770707	2392.539177
909.077163	2395.652090
909.383578	2391.888868
909.689954	2396.158726
909.996289	2393.557490
910.302584	2396.481359
910.608839	2397.187121
910.915054	2396.733417
911.221229	2396.181411
911.527363	2395.324415
911.833458	2393.229815
912.139513	2396.350289
912.445527	2396.539333
912.751502	2394.943808
913.057436	2397.071174
913.363331	2398.197872
913.669186	2399.417832
913.975000	2397.885321
914.280775	2399.400187
914.586510	2404.458985
914.892205	2404.055693
915.197859	2407.433266
915.503475	2407.448390
915.809050	2414.074986
916.114585	2414.695048
916.420081	2414.793351
916.725536	2416.832497
917.030952	2417.334092
917.336328	2413.679256
917.641665	2412.096333
917.946961	2414.095151
918.252218	2413.041550
918.557435	2407.327402
918.862612	2404.874881
919.167750	2406.142731
919.472848	2403.607030
919.777906	2401.565363
920.082925	2404.075858
920.387904	2401.991341
920.692843	2402.192987
920.997743	2400.448747
921.302603	2398.908675
921.607423	2397.275341
921.912204	2398.734755
922.216946	2398.868346
922.521647	2398.402039
922.826310	2398.916237
923.130932	2396.514127
923.435516	2396.972872
923.740059	2395.523540
924.044564	2396.478839
924.349028	2394.500186
924.653454	2391.788045
924.957840	2391.702346
925.262186	2392.022459
925.566493	2395.077398
925.870761	2390.799979
926.174989	2397.350958
926.479178	2393.794424
926.783328	2395.657131
927.087438	2396.315001
927.391509	2393.759136
927.695541	2392.413148
927.999533	2398.321381
928.303486	2394.837943
928.607400	2393.761657
928.911275	2397.784498
929.215110	2394.837943
929.518906	2394.532953
929.822663	2394.129661
930.126381	2396.647718
930.430060	2393.665875
930.733699	2393.096225
931.037299	2391.046996
931.340861	2396.307440
931.644383	2394.212840
931.947866	2392.271996
932.251309	2394.595968
932.554714	2394.119579
932.858080	2394.714435
933.161407	2394.706873
933.464694	2394.374157
933.767943	2393.552449
934.071153	2392.944990
934.374323	2393.295350
934.677455	2393.413817
934.980548	2393.630587
935.283602	2393.698643
935.586617	2393.507079
935.889593	2393.726369
936.192530	2394.220402
936.495428	2394.099414
936.798287	2393.186965
937.101108	2393.852398
937.403890	2396.015053
937.706632	2397.920609
938.009336	2393.428941
938.312002	2396.461195
938.614628	2392.506410
938.917216	2395.770557
939.219765	2396.728376
939.522275	2393.164280
939.824747	2396.322563
940.127179	2392.030021
940.429573	2390.865514
940.731929	2394.469939
941.034246	2389.562376
941.336524	2392.841646
941.638763	2395.420197
941.940964	2395.369785
942.243126	2395.452964
942.545250	2397.008160
942.847335	2393.557490
943.149381	2396.032697
943.451389	2394.270813
943.753359	2393.857439
944.055290	2394.084291
944.357182	2393.615463
944.659036	2394.054044
944.960851	2395.720145
945.262628	2394.311143
945.564367	2396.466236
945.866067	2395.279044
946.167729	2395.110166
946.469352	2395.548746
946.770937	2392.239228
947.072484	2392.108158
947.373992	2393.875083
947.675462	2392.982799
947.976893	2391.493138
948.278286	2392.801317
948.579641	2393.892727
948.880958	2395.616802
949.182236	2395.914230
949.483476	2394.086811
949.784678	2394.734600
950.085841	2393.711245
950.386967	2395.311812
950.688054	2394.172511
950.989103	2395.717625
951.290114	2394.285937
951.591087	2395.679816
951.892021	2394.628735
952.192917	2393.996071
952.493776	2396.067985
952.794596	2396.708211
953.095378	2393.635628
953.396122	2393.897768
953.696828	2393.602861
953.997496	2394.487583
954.298126	2391.616646
954.598718	2393.711245
954.899272	2395.339538
955.199788	2395.926833
955.500266	2394.497665
955.800706	2393.219733
956.101108	2390.840308
956.401472	2395.097563
956.701798	2388.160935
957.002087	2389.466594
957.302337	2390.638662
957.602550	2394.719476
957.902724	2391.914074
958.202861	2394.190155
958.502960	2395.163098
958.803022	2393.502038
959.103045	2393.449105
959.403031	2392.700494
959.702979	2392.004815
960.002889	2394.167470
960.302762	2393.504558
960.602596	2391.674619
960.902393	2391.808210
961.202153	2393.935577
961.501875	2392.929867
961.801559	2396.171328
962.101205	2395.268962
962.400814	2391.838457
962.700385	2392.234187
962.999918	2393.010525
963.299414	2391.162942
963.598873	2391.344424
963.898293	2392.307284
964.197677	2391.084804
964.497022	2391.425082
964.796331	2391.863663
965.095601	2391.931718
965.394835	2394.457336
965.694030	2388.110523
965.993189	2395.100083
966.292309	2392.259393
966.591393	2393.708725
966.890439	2391.682181
967.189447	2392.690412
967.488419	2388.266799
967.787353	2392.125802
968.086249	2391.911553
968.385108	2392.009856
968.683930	2392.897099
968.982714	2393.053375
969.281462	2391.694784
969.580172	2390.807541
969.878844	2394.386760
970.177480	2392.085473
970.476078	2389.423744
970.774639	2392.957593
971.073162	2390.505072
971.371649	2388.992725
971.670098	2387.535832
971.968510	2389.695966
972.266885	2388.602036
972.565223	2391.566234
972.863524	2390.368960
973.161788	2391.752757
973.460014	2391.377191
973.758204	2393.149157
974.056356	2392.070350
974.354471	2391.558673
974.652550	2390.774773
974.950591	2390.956255
975.248595	2389.895092
975.546563	2390.058929
975.844493	2390.825185
976.142386	2392.725700
976.440243	2391.959444
976.738062	2391.823333
977.035845	2392.443395
977.333590	2390.386604
977.631299	2390.845349
977.928971	2391.727551
978.226606	2392.897099
978.524204	2389.388456
978.821765	2390.174876
979.119290	2390.033724
979.416777	2393.628066
979.714228	2392.960113
980.011642	2392.760988
980.309020	2392.589589
980.606360	2392.511451
980.903664	2390.686553
981.200931	2390.994063
981.498162	2391.629249
981.795356	2391.004146
982.092513	2392.934908
982.389633	2393.590258
982.686717	2394.026318
982.983764	2392.113200
983.280775	2391.115051
983.577749	2392.375340
983.874686	2395.193345
984.171587	2392.541698
984.468451	2393.887686
984.765279	2393.791904
985.062070	2394.396842
985.358824	2393.852398
985.655543	2393.514640
985.952224	2392.556821
986.248869	2391.687222
986.545478	2386.724206
986.842050	2388.614639
987.138586	2388.402910
987.435086	2388.828888
987.731549	2385.053064
988.027975	2390.807541
988.324366	2390.217726
988.620719	2389.597664
988.917037	2391.659496
989.213318	2391.062119
989.509563	2391.195710
989.805772	2388.861655
990.101944	2392.181255
990.398080	2390.142108
990.694180	2392.944990
990.990244	2390.575648
991.286271	2391.145298
991.582262	2390.615977
991.878217	2389.466594
992.174136	2391.412479
992.470019	2390.041285
992.765865	2390.462222
993.061676	2390.474825
993.357450	2391.901471
993.653188	2390.537839
993.948890	2391.334341
994.244556	2390.094218
994.540186	2391.911553
994.835780	2393.481873
995.131337	2392.009856
995.426859	2392.123282
995.722345	2393.229815
996.017795	2393.257542
996.313208	2391.936759
996.608586	2394.275855
996.903928	2392.022459
997.199234	2391.639331
997.494504	2392.776111
997.789738	2392.889537
998.084936	2390.731923
998.380099	2391.422562
998.675225	2391.906512
998.970316	2390.585730
999.265371	2391.697304
999.560390	2392.934908
999.855373	2392.647562
1000.150320	2391.296533
1000.445232	2392.705535
1000.740108	2389.786707
1001.034948	2390.981461
1001.329752	2391.956924
1001.624521	2393.096225
1001.919254	2388.246635
1002.213951	2388.226470
1002.508613	2384.296891
1002.803239	2388.397869
1003.097829	2390.195041
1003.392384	2390.943652
1003.686903	2390.026162
1003.981386	2387.755122
1004.275834	2388.660009
1004.570246	2392.642521
1004.864623	2389.494320
1005.158964	2390.767212
1005.453270	2390.031203
1005.747540	2391.112531
1006.041775	2390.994063
1006.335974	2389.244783
1006.630138	2389.605226
1006.924266	2389.882489
1007.218359	2389.237221
1007.512416	2388.526419
1007.806438	2389.892571
1008.100425	2388.511295
1008.394376	2390.437016
1008.688292	2390.384084
1008.982172	2389.070863
1009.276017	2392.455998
1009.569827	2390.926008
1009.863602	2391.924156
1010.157341	2390.978940
1010.451045	2389.290153
1010.744714	2389.718652
1011.038347	2391.694784
1011.331945	2389.779145
1011.625508	2390.242932
1011.919036	2392.087994
1012.212528	2389.088507
1012.505986	2389.925339
1012.799408	2390.142108
1013.092795	2386.648589
1013.386147	2390.668909
1013.679464	2390.316028
1013.972745	2386.981305
1014.265992	2388.901985
1014.559204	2391.155380
1014.852380	2390.162273
1015.145521	2392.387943
1015.438628	2391.563714
1015.731699	2390.593292
1016.024736	2389.958106
1016.317737	2391.785525
1016.610703	2391.135216
1016.903635	2387.755122
1017.196531	2384.599360
1017.489393	2388.518857
1017.782219	2383.084493
1018.075011	2389.330483
1018.367768	2388.599515
1018.660490	2391.810730
1018.953177	2391.810730
1019.245829	2391.810730
