Dividing Wavelength (nm)	Counts (n)	Blue Motor Position (mm): 0.000000	Red Motor Position (mm): 17.400000	
326.493990	1980.893677
326.888308	1980.893677
327.282561	1980.893677
327.676750	1957.394339
328.070874	1957.903495
328.464933	1967.199383
328.858929	1974.143572
329.252859	1986.756539
329.646726	2000.140803
330.040528	2015.591939
330.434265	2033.979548
330.827938	2055.853115
331.221547	2073.681155
331.615091	2098.624784
332.008571	2114.378390
332.401986	2136.682975
332.795338	2154.137971
333.188625	2177.251661
333.581847	2195.553570
333.975006	2215.193905
334.368100	2230.163612
334.761129	2248.520973
335.154095	2263.609147
335.546996	2280.625562
335.939833	2297.589044
336.332606	2309.440797
336.725315	2319.404638
337.117960	2326.865545
337.510540	2335.821155
337.903056	2343.922289
338.295508	2350.732888
338.687896	2356.774711
339.080220	2365.740403
339.472480	2370.322812
339.864676	2374.207021
340.256807	2376.261291
340.648875	2379.109543
341.040879	2380.178268
341.432818	2382.776983
341.824694	2383.265975
342.216506	2382.903012
342.608253	2382.940820
342.999937	2383.336551
343.391557	2380.624410
343.783113	2375.915972
344.174605	2379.747249
344.566033	2377.032588
344.957397	2373.770961
345.348697	2369.813656
345.739934	2372.077134
346.131106	2370.466485
346.522215	2367.177132
346.913260	2365.795856
347.304241	2366.536906
347.695159	2360.611029
348.086012	2361.533560
348.476802	2361.397449
348.867528	2359.990967
349.258191	2358.811337
349.648789	2356.242869
350.039324	2354.765811
350.429796	2353.878568
350.820203	2354.024762
351.210548	2352.840091
351.600828	2352.887982
351.991045	2353.533249
352.381198	2354.014679
352.771288	2355.186748
353.161314	2352.265399
353.551276	2353.490399
353.941175	2352.260358
354.331010	2353.326562
354.720782	2354.423013
355.110490	2354.617097
355.500135	2355.998373
355.889717	2354.186079
356.279235	2357.341841
356.668689	2355.239680
357.058080	2354.760770
357.447408	2354.163393
357.836672	2351.597446
358.225873	2358.929804
358.615010	2355.637931
359.004084	2358.163549
359.393095	2359.360823
359.782043	2362.783767
360.170927	2362.458612
360.559748	2363.421473
360.948505	2363.807121
361.337199	2362.425845
361.725830	2363.018180
362.114398	2369.417925
362.502903	2365.553881
362.891344	2365.261494
363.279722	2363.469363
363.668037	2367.923223
364.056289	2367.724097
364.444478	2368.213089
364.832603	2368.139993
365.220665	2370.786598
365.608665	2373.007227
365.996601	2368.956659
366.384474	2373.055118
366.772284	2372.281300
367.160031	2376.286497
367.547715	2375.389172
367.935336	2376.523431
368.322893	2375.832793
368.710388	2379.016282
369.097820	2382.033412
369.485189	2378.355891
369.872495	2382.139277
370.259738	2382.202291
370.646918	2386.280585
371.034035	2385.088352
371.421090	2392.642521
371.808081	2390.706718
372.195010	2397.784498
372.581875	2400.731052
372.968678	2407.014850
373.355418	2413.790161
373.742096	2425.830957
374.128710	2433.163315
374.515262	2445.554472
374.901751	2456.156018
375.288177	2476.103864
375.674540	2493.894096
376.060841	2517.370749
376.447079	2540.144162
376.833254	2564.560990
377.219367	2588.670309
377.605417	2624.429733
377.991404	2652.415699
378.377329	2688.233097
378.763191	2725.013356
379.148991	2766.756630
379.534727	2819.487099
379.920402	2863.193903
380.306013	2910.979000
380.691563	2969.504276
381.077049	3029.413348
381.462474	3083.416709
381.847835	3155.278357
382.233134	3226.071280
382.618371	3281.710495
383.003545	3370.843137
383.388657	3446.150413
383.773706	3537.922098
384.158693	3613.494036
384.543618	3704.275134
384.928480	3777.399591
385.313280	3884.536713
385.698017	3986.935151
386.082692	4103.602574
386.467305	4166.808561
386.851856	4286.730050
387.236344	4440.099594
387.620770	4502.584696
388.005133	4624.676401
388.389435	4767.295684
388.773674	4850.401626
389.157851	4986.374148
389.541965	5111.535916
389.926018	5136.724041
390.310008	5308.861801
390.693936	5427.868319
391.077802	5545.531371
391.461606	5677.720507
391.845348	5789.021622
392.229027	5908.000415
392.612645	6134.519622
392.996200	6247.393577
393.379694	6415.677374
393.763125	6637.697352
394.146494	6728.511218
394.529801	6858.444437
394.913047	7102.090964
395.296230	7096.162567
395.679351	7152.419324
396.062410	7402.485760
396.445408	7297.032384
396.828343	7444.634848
397.211217	7577.330620
397.594028	7460.010367
397.976778	7658.152919
398.359466	7821.940007
398.742092	7796.099053
399.124656	7939.666073
399.507158	8121.697097
399.889598	8142.927917
400.271977	8351.901388
400.654294	8381.603866
401.036549	8568.978513
401.418742	8600.127803
401.800874	8896.217454
402.182944	8969.387281
402.564952	9326.386673
402.946898	9155.423502
403.328783	9207.811173
403.710606	9399.821161
404.092367	9649.640581
404.474067	10004.903296
404.855705	9804.192276
405.237282	9759.063867
405.618797	10168.130816
406.000250	10404.122351
406.381642	10759.818605
406.762972	10707.443537
407.144240	10513.492704
407.525447	10759.727864
407.906593	10696.037926
408.287677	10939.008939
408.668700	11087.170971
409.049661	11058.522093
409.430560	11206.542973
409.811399	11169.135091
410.192176	11317.740745
410.572891	11376.492872
410.953545	11828.845689
411.334138	11314.688326
411.714669	11865.194929
412.095139	11187.116887
412.475547	11649.730972
412.855894	11475.395270
413.236180	11758.819021
413.616405	11438.181472
413.996568	11659.004175
414.376670	11605.993922
414.756711	11447.643718
415.136691	11662.417036
415.516609	11790.842951
415.896466	11797.277984
416.276262	11991.254022
416.655997	12341.296622
417.035670	12304.922176
417.415283	12831.238802
417.794834	12833.482116
418.174324	12508.413392
418.553753	12333.734891
418.933121	12679.038806
419.312428	12407.504616
419.691674	12231.691855
420.070859	12519.960155
420.449983	12117.481994
420.829045	12462.238944
421.208047	12140.552834
421.586988	12389.724466
421.965867	12461.200466
422.344686	12324.970845
422.723444	12636.410809
423.102141	11495.716161
423.480777	12244.569482
423.859352	11733.618293
424.237866	12397.684448
424.616319	12021.445492
424.994712	12317.575472
425.373044	12013.830830
425.751314	12296.289200
426.129524	11548.560056
426.507673	12068.789489
426.885762	11713.284799
427.263789	11641.639921
427.641756	11557.616489
428.019662	11417.331260
428.397508	11251.593245
428.775292	11226.765562
429.153016	11005.796665
429.530679	10869.151149
429.908282	10681.695843
430.285824	10344.745120
430.663305	10495.306742
431.040726	10119.332447
431.418086	9841.161577
431.795385	9942.713101
432.172624	9925.898333
432.549802	9541.734683
432.926920	9422.191281
433.303977	9186.514818
433.680974	9089.865817
434.057910	9010.089557
434.434786	8832.436775
434.811601	8607.593752
435.188355	8784.094630
435.565050	8480.143300
435.941683	8264.679344
436.318257	8360.695681
436.694770	8116.955892
437.071222	8097.590300
437.447614	7632.478322
437.823946	7451.440405
438.200218	7312.274312
438.576429	7078.944507
438.952580	6978.875082
439.328670	6802.706920
439.704700	6735.709985
440.080670	6481.161963
440.456580	6447.867662
440.832429	6326.781667
441.208218	5969.620959
441.583947	5903.430609
441.959616	5781.079284
442.335224	5675.948541
442.710773	5562.744391
443.086261	5513.484756
443.461689	5281.122852
443.837057	5168.541283
444.212365	5129.217763
444.587612	5004.340820
444.962800	4827.950847
445.337927	4766.778966
445.712995	4511.386550
446.088002	4595.755301
446.462949	4513.677755
446.837837	4425.422274
447.212664	4313.455727
447.587431	4455.490236
447.962139	4608.363227
448.336786	4702.983164
448.711374	4472.383143
449.085901	4101.245835
449.460369	3983.096312
449.834776	3888.420923
450.209124	3943.309006
450.583412	3846.365097
450.957640	3796.734937
451.331808	3652.285715
451.705917	3508.771626
452.079965	3443.728139
452.453954	3393.603946
452.827883	3334.428362
453.201752	3268.663989
453.575562	3227.180334
453.949311	3209.102757
454.323001	3169.388547
454.696632	3117.242851
455.070202	3116.438787
455.443713	3084.893767
455.817164	3055.430743
456.190556	3028.324459
456.563888	2986.074549
456.937160	2962.121506
457.310373	2902.290572
457.683526	2883.645864
458.056619	2856.670650
458.429653	2833.307422
458.802628	2816.522901
459.175542	2799.622432
459.548398	2802.561425
459.921194	2804.174594
460.293930	2801.323822
460.666607	2810.297076
461.039224	2814.970225
461.411782	2804.620737
461.784280	2776.818773
462.156719	2755.623242
462.529099	2736.751682
462.901419	2713.396017
463.273680	2693.738037
463.645882	2688.623787
464.018024	2674.490912
464.390106	2675.400840
464.762130	2691.600588
465.134094	2717.446584
465.505999	2751.058477
465.877845	2781.494443
466.249631	2782.122067
466.621358	2761.513830
466.993026	2741.061869
467.364634	2720.435988
467.736184	2694.375743
468.107674	2680.147086
468.479105	2672.257681
468.850477	2660.824344
469.221790	2647.838331
469.593043	2634.769140
469.964238	2626.572224
470.335373	2618.861779
470.706449	2625.160701
471.077467	2636.866260
471.448425	2662.324087
471.819324	2678.526355
472.190164	2662.346772
472.560945	2639.404481
472.931667	2621.488220
473.302330	2608.908021
473.672934	2602.883842
474.043479	2600.237236
474.413965	2593.318252
474.784393	2586.242993
475.154761	2589.960844
475.525070	2587.238621
475.895321	2587.180648
476.265513	2586.583271
476.635645	2593.492172
477.005719	2589.839856
477.375734	2595.639704
477.745691	2593.151894
478.115588	2600.375868
478.485427	2607.123452
478.855207	2621.586523
479.224928	2637.314923
479.594591	2644.919503
479.964194	2636.820890
480.333739	2637.166209
480.703226	2636.183184
481.072653	2639.212917
481.442022	2641.244502
481.811333	2642.953453
482.180584	2634.116311
482.549777	2631.641104
482.918912	2626.118520
483.287988	2624.049126
483.657005	2620.134670
484.025964	2618.410596
484.394864	2618.173662
484.763706	2614.728033
485.132489	2608.789554
485.501213	2608.038422
485.869879	2608.814759
486.238487	2605.817793
486.607036	2606.795777
486.975527	2603.597165
487.343959	2603.703029
487.712333	2604.010540
488.080648	2607.677979
488.448905	2603.723194
488.817104	2606.135386
489.185244	2608.749224
489.553326	2615.259875
489.921350	2630.781587
490.289315	2641.851961
490.657222	2649.418733
491.025070	2649.310348
491.392861	2644.271715
491.760593	2638.597896
492.128267	2632.006588
492.495883	2622.768673
492.863440	2616.280708
493.230939	2609.066817
493.598380	2603.602206
493.965763	2598.059458
494.333088	2594.941504
494.700354	2596.302616
495.067563	2595.690115
495.434713	2590.767429
495.801805	2595.001998
496.168839	2593.872779
496.535815	2591.556369
496.902733	2593.363623
497.269593	2592.733479
497.636395	2592.597368
498.003139	2591.722727
498.369825	2591.871441
498.736453	2597.222626
499.103023	2593.177100
499.469535	2592.534353
499.835989	2592.304981
500.202385	2592.380598
500.568723	2592.294898
500.935003	2595.402770
501.301226	2595.485949
501.667390	2598.074581
502.033497	2604.328132
502.399546	2601.437031
502.765537	2599.481063
503.131470	2604.512135
503.497345	2607.138576
503.863163	2600.741352
504.228923	2602.941815
504.594625	2605.200252
504.960269	2606.049687
505.325856	2610.758124
505.691385	2608.028339
506.056856	2616.184926
506.422270	2617.261213
506.787625	2615.847169
507.152924	2618.771038
507.518164	2623.106431
507.883347	2619.597787
508.248472	2625.463170
508.613540	2626.620115
508.978550	2629.967441
509.343503	2633.735703
509.708398	2638.900366
510.073236	2643.513021
510.438016	2647.167858
510.802738	2643.606283
511.167403	2646.084010
511.532010	2653.481903
511.896561	2656.582213
512.261053	2664.469098
512.625488	2658.328972
512.989866	2660.821823
513.354186	2663.531443
513.718449	2663.100425
514.082655	2670.654594
514.446803	2674.039728
514.810894	2677.593742
515.174927	2681.329237
515.538904	2678.569205
515.902822	2684.772345
516.266684	2684.532890
516.630488	2687.030782
516.994235	2688.195288
517.357925	2690.912470
517.721558	2691.749302
518.085133	2697.743234
518.448651	2699.313553
518.812112	2698.270034
519.175516	2698.685930
519.538863	2705.010057
519.902152	2705.688092
520.265385	2706.570294
520.628560	2710.066334
520.991678	2708.128011
521.354739	2711.520707
521.717743	2714.684031
522.080690	2714.527756
522.443580	2716.927345
522.806413	2716.224104
523.169189	2718.515308
523.531908	2718.268292
523.894569	2718.507747
524.257174	2722.326421
524.619722	2722.245762
524.982213	2725.182234
525.344647	2723.571586
525.707025	2723.690053
526.069345	2724.950341
526.431608	2725.714076
526.793815	2729.101731
527.155964	2725.545197
527.518057	2726.472770
527.880093	2725.104096
528.242072	2727.496124
528.603995	2729.295816
528.965860	2728.111145
529.327669	2728.726165
529.689421	2727.909498
530.051117	2728.224571
530.412755	2728.179200
530.774337	2731.733214
531.135862	2728.751371
531.497331	2726.850856
531.858743	2724.274827
532.220098	2726.931515
532.581396	2722.918756
532.942638	2721.517315
533.303824	2729.865466
533.664953	2727.518809
534.026025	2721.724003
534.387040	2723.291802
534.747999	2726.097204
535.108902	2726.044272
535.469748	2724.121071
535.830537	2722.429764
536.191270	2719.934393
536.551947	2718.265771
536.912567	2720.315000
537.273131	2721.497151
537.633638	2712.725543
537.994089	2717.123950
538.354483	2711.140100
538.714821	2714.099257
539.075103	2716.085472
539.435328	2713.252344
539.795497	2709.920141
540.155609	2711.490460
540.515665	2710.215048
540.875665	2701.876980
541.235609	2703.999306
541.595496	2699.716846
541.955328	2701.539223
542.315102	2697.153419
542.674821	2694.138809
543.034483	2690.186544
543.394090	2688.757377
543.753640	2685.964578
544.113134	2689.485824
544.472571	2678.806139
544.831953	2682.965091
545.191278	2676.313289
545.550548	2672.860098
545.909761	2674.069975
546.268918	2669.258194
546.628019	2670.382371
546.987064	2661.043634
547.346053	2657.303098
547.704986	2657.293015
548.063863	2651.629279
548.422684	2648.972591
548.781449	2647.132570
549.140158	2643.928917
549.498811	2642.877836
549.857408	2636.508338
550.215949	2632.011629
550.574434	2626.731020
550.932864	2624.555762
551.291237	2624.628859
551.649555	2623.197171
552.007817	2621.158025
552.366022	2616.293311
552.724173	2612.285594
553.082267	2609.805346
553.440305	2611.486571
553.798288	2603.571959
554.156215	2599.891917
554.514086	2599.130703
554.871902	2596.829416
555.229661	2596.781525
555.587365	2593.111565
555.945014	2587.294074
556.302606	2583.215780
556.660143	2584.405493
557.017625	2580.564133
557.375050	2578.530028
557.732421	2575.764955
558.089735	2572.778071
558.446994	2573.156158
558.804197	2571.618606
559.161345	2568.147771
559.518437	2562.710887
559.875474	2560.210475
560.232455	2563.918243
560.589381	2559.940773
560.946251	2559.126627
561.303065	2556.704352
561.659825	2558.398180
562.016528	2551.527087
562.373177	2552.290822
562.729770	2550.735626
563.086307	2548.267981
563.442789	2547.093392
563.799216	2543.662887
564.155587	2547.007693
564.511904	2542.662218
564.868164	2542.490819
565.224370	2543.194060
565.580520	2543.468803
565.936615	2539.070396
566.292654	2540.237423
566.648638	2537.185004
567.004567	2539.040149
567.360441	2535.155940
567.716260	2535.261804
568.072023	2535.992772
568.427732	2530.364323
568.783385	2531.692667
569.138982	2528.390712
569.494525	2530.447502
569.850013	2523.583971
570.205445	2528.730989
570.560823	2528.365506
570.916145	2526.588499
571.271412	2527.992460
571.626625	2529.822399
571.981782	2526.066740
572.336884	2525.925587
572.691931	2524.854342
573.046923	2524.340144
573.401860	2521.958199
573.756743	2523.377284
574.111570	2523.311749
574.466342	2522.474917
574.821059	2521.927952
575.175722	2520.168590
575.530330	2520.241686
575.884882	2520.917201
576.239380	2519.329237
576.593823	2520.768487
576.948211	2517.395955
577.302544	2517.393434
577.656823	2517.176665
578.011047	2517.428723
578.365216	2515.928979
578.719330	2516.685152
579.073389	2515.573578
579.427394	2516.145749
579.781344	2515.145080
580.135239	2511.502846
580.489080	2514.817405
580.842866	2513.466376
581.196597	2514.593073
581.550273	2515.026613
581.903895	2512.732888
582.257463	2510.285407
582.610975	2510.764317
582.964434	2514.434277
583.317837	2513.519308
583.671186	2511.601149
584.024481	2511.742301
584.377721	2509.584687
584.730906	2510.870181
585.084037	2509.975377
585.437113	2508.717609
585.790135	2508.576456
586.143103	2507.134686
586.496016	2509.846827
586.848874	2502.690909
587.201679	2507.021260
587.554428	2503.978924
587.907124	2504.367093
588.259765	2498.136227
588.612352	2506.073523
588.964884	2504.924140
589.317362	2504.760303
589.669786	2504.130159
590.022155	2504.246105
590.374470	2503.943636
590.726731	2504.261229
591.078937	2505.617299
591.431090	2502.499345
591.783188	2499.399036
592.135232	2500.354334
592.487222	2501.410456
592.839157	2498.741165
593.191038	2500.603872
593.542866	2501.723008
593.894639	2498.589931
594.246358	2498.360558
594.598022	2496.139930
594.949633	2496.870897
595.301190	2495.814775
595.652692	2495.378716
596.004141	2494.325114
596.355535	2494.360403
596.706876	2492.414517
597.058162	2492.679178
597.409395	2492.152377
597.760573	2492.505258
598.111698	2489.709938
598.462768	2493.798314
598.813785	2492.275885
599.164748	2491.013076
599.515657	2492.837974
599.866511	2489.357057
600.217312	2493.546256
600.568060	2490.922336
600.918753	2493.367295
601.269392	2493.531133
601.619978	2489.160452
601.970510	2490.037613
602.320988	2491.965854
602.671412	2488.605925
603.021783	2490.854280
603.372100	2485.999649
603.722363	2488.923518
604.072572	2491.123982
604.422728	2490.345123
604.772830	2485.145173
605.122878	2485.561068
605.472872	2485.903867
605.822813	2486.816316
606.172701	2490.231698
606.522534	2489.934269
606.872314	2490.529126
607.222041	2488.946203
607.571714	2488.152222
607.921333	2487.968219
608.270899	2490.027531
608.620411	2487.312869
608.969870	2489.563745
609.319276	2488.033754
609.668627	2488.830257
610.017926	2488.235401
610.367171	2491.388642
610.716362	2487.436378
611.065500	2486.586943
611.414585	2489.629280
611.763616	2490.256903
612.112594	2488.842860
612.461518	2488.956286
612.810389	2486.707931
613.159207	2487.602736
613.507971	2485.916470
613.856682	2488.749598
614.205340	2489.052067
614.553945	2491.436533
614.902496	2486.251707
615.250994	2487.317911
615.599439	2489.891420
615.947830	2489.198261
616.296169	2490.710607
616.644454	2488.537870
616.992686	2489.223467
617.340864	2488.187510
617.688990	2489.117603
618.037063	2488.114413
618.385082	2488.779845
618.733048	2489.231028
619.080961	2486.070225
619.428821	2490.080463
619.776628	2488.926039
620.124382	2489.122644
620.472083	2489.684732
620.819731	2488.056440
621.167326	2485.843373
621.514868	2489.563745
621.862357	2487.645586
622.209793	2486.181130
622.557176	2483.446304
622.904506	2483.302632
623.251783	2478.873978
623.599007	2481.434884
623.946179	2478.074955
624.293297	2480.587970
624.640363	2480.938330
624.987376	2482.120481
625.334336	2482.672487
625.681243	2480.666108
626.028097	2480.799699
626.374899	2480.572847
626.721647	2478.752990
627.068343	2480.116622
627.414987	2476.005561
627.761577	2479.211735
628.108115	2475.788792
628.454600	2477.200315
628.801032	2476.827269
629.147412	2475.761065
629.493739	2477.860706
629.840014	2475.211580
630.186236	2474.367186
630.532405	2475.128401
630.878521	2474.220993
631.224585	2475.745942
631.570597	2473.926085
631.916556	2474.944398
632.262462	2474.074799
632.608316	2473.933647
632.954117	2477.568319
633.299866	2473.638740
633.645562	2473.684110
633.991206	2472.380972
634.336797	2473.429532
634.682336	2473.661425
635.027823	2470.614047
635.373257	2471.244192
635.718639	2467.995168
636.063968	2469.424335
636.409245	2466.737400
636.754470	2466.775209
637.099642	2467.619602
637.444762	2466.013994
637.789829	2469.512555
638.134845	2464.610033
638.479808	2462.943932
638.824719	2465.313274
639.169577	2463.301854
639.514383	2464.668006
639.859137	2464.063068
640.203839	2463.337142
640.548489	2463.624487
640.893086	2460.110803
641.237632	2455.901440
641.582125	2461.161884
641.926566	2459.284054
642.270955	2463.054837
642.615292	2458.714404
642.959576	2461.870166
643.303809	2460.254476
643.647990	2462.860753
643.992118	2459.473097
644.336195	2461.696246
644.680219	2463.773202
645.024192	2463.080043
645.368112	2462.074333
645.711981	2462.770012
646.055797	2463.158181
646.399562	2464.015177
646.743274	2464.622636
647.086935	2464.574745
647.430544	2463.450568
647.774101	2465.008284
648.117606	2465.275465
648.461059	2466.147585
648.804460	2469.167236
649.147810	2464.521813
649.491108	2464.932667
649.834354	2460.869497
650.177548	2460.902264
650.520690	2459.422686
650.863781	2459.485700
651.206820	2460.897223
651.549807	2458.699280
651.892742	2461.323201
652.235626	2457.759105
652.578458	2460.796400
652.921238	2460.158694
653.263967	2457.285237
653.606644	2455.851028
653.949269	2456.297170
654.291843	2456.224074
654.634365	2455.944290
654.976836	2453.332972
655.319255	2456.183744
655.661622	2454.769701
656.003938	2455.989660
656.346203	2453.685853
656.688416	2453.133846
657.030577	2457.038220
657.372687	2455.309104
657.714746	2454.250462
658.056753	2454.633590
658.398708	2447.951540
658.740612	2450.368773
659.082465	2451.122426
659.424266	2449.962961
659.766016	2450.270471
660.107715	2454.709207
660.449362	2452.712910
660.790958	2452.642334
661.132503	2452.541511
661.473996	2453.706017
661.815438	2450.608228
662.156829	2453.607715
662.498168	2451.417333
662.839456	2453.832046
663.180693	2453.020420
663.521879	2454.099227
663.863013	2454.005966
664.204097	2453.244752
664.545129	2455.213322
664.886110	2453.292643
665.227040	2454.590740
665.567918	2456.352623
665.908746	2454.121913
666.249522	2455.112499
666.590248	2454.177365
666.930922	2455.914043
667.271545	2451.384566
667.612118	2456.627366
667.952639	2451.782817
668.293109	2454.671398
668.633528	2453.665688
668.973896	2458.283385
669.314213	2453.456480
669.654480	2455.513271
669.994695	2454.023610
670.334859	2453.753908
670.674973	2451.510595
671.015035	2452.218877
671.355047	2452.397838
671.695008	2452.972529
672.034918	2449.960440
672.374777	2450.991356
672.714585	2450.958588
673.054342	2455.243569
673.394049	2451.893722
673.733705	2455.316666
674.073310	2451.641665
674.412864	2454.782304
674.752368	2450.310800
675.091820	2451.835749
675.431223	2448.667384
675.770574	2448.977415
676.109875	2446.413988
676.449125	2447.785182
676.788324	2444.929368
677.127473	2447.855758
677.466571	2444.652105
677.805619	2448.009513
678.144616	2448.261571
678.483562	2448.589246
678.822458	2447.480192
679.161303	2447.369287
679.500098	2446.648402
679.838842	2445.776282
680.177535	2445.183947
680.516179	2446.759307
680.854771	2447.333999
681.193314	2447.230655
681.531805	2446.126642
681.870247	2452.833898
682.208638	2453.892540
682.546978	2451.112344
682.885268	2453.524536
683.223508	2454.147118
683.561697	2450.104113
683.899836	2452.314659
684.237925	2449.476489
684.575963	2451.770214
684.913951	2447.250820
685.251889	2451.810543
685.589776	2451.132508
685.927614	2451.724844
686.265401	2449.617642
686.603137	2452.022272
686.940824	2452.964968
687.278460	2449.955399
687.616046	2451.369442
687.953582	2453.882458
688.291068	2455.702314
688.628504	2451.417333
688.965889	2451.681994
689.303224	2455.989660
689.640510	2453.552262
689.977745	2452.995215
690.314930	2449.748712
690.652065	2448.616972
690.989150	2448.664863
691.326185	2447.490275
691.663170	2443.832918
692.000105	2447.759976
692.336990	2441.549275
692.673825	2441.395520
693.010610	2443.328802
693.347345	2440.374686
693.684030	2435.285641
694.020665	2439.053904
694.357251	2434.358069
694.693786	2437.927206
695.030272	2434.910075
695.366707	2441.072886
695.703093	2440.538523
696.039429	2438.827052
696.375716	2437.985179
696.711952	2440.956939
697.048139	2435.817483
697.384276	2437.597010
697.720363	2437.907041
698.056400	2434.216917
698.392388	2437.982658
698.728326	2437.433173
699.064214	2437.413008
699.400053	2434.658018
699.735842	2435.883018
700.071581	2433.554005
700.407270	2434.045517
700.742910	2436.253543
701.078501	2433.692637
701.414042	2433.364962
701.749533	2432.596186
702.084974	2434.373192
702.420366	2430.370516
702.755709	2433.793460
703.091002	2430.476380
703.426246	2434.000147
703.761440	2432.772626
704.096584	2431.605599
704.431679	2430.037800
704.766725	2429.518561
705.101721	2430.219282
705.436668	2433.705239
705.771565	2429.460588
706.106413	2432.069385
706.441212	2431.827410
706.775961	2430.942687
707.110661	2430.257090
707.445311	2432.823038
707.779913	2429.818510
708.114465	2431.905548
708.448967	2435.595672
708.783421	2431.590475
709.117825	2435.898141
709.452180	2434.005188
709.786485	2433.203645
710.120742	2440.152875
710.454949	2435.825045
710.789107	2435.149530
711.123216	2433.130548
711.457275	2437.508790
711.791286	2436.556012
712.125247	2436.987031
712.459159	2439.363935
712.793023	2441.347629
713.126837	2436.528286
713.460602	2437.760848
713.794318	2438.620364
714.127985	2438.753955
714.461602	2436.256063
714.795171	2435.111721
715.128691	2435.225147
715.462162	2433.853953
715.795584	2433.259097
716.128957	2430.660382
716.462281	2432.709612
716.795556	2433.468305
717.128782	2429.543767
717.461960	2430.531833
717.795088	2431.469488
718.128167	2428.792635
718.461198	2428.172573
718.794180	2429.936977
719.127113	2427.441606
719.459997	2432.326484
719.792833	2426.902202
720.125619	2428.835485
720.458357	2426.332552
720.791046	2427.239960
721.123686	2426.327511
721.456278	2425.165525
721.788821	2427.539908
722.121315	2426.433375
722.453761	2424.442119
722.786158	2425.130237
723.118506	2424.873138
723.450805	2426.198961
723.783056	2428.611153
724.115259	2426.103179
724.447412	2426.274579
724.779518	2425.415062
725.111574	2427.106369
725.443582	2425.929260
725.775542	2425.384815
726.107453	2425.556214
726.439315	2428.601071
726.771129	2430.350352
727.102895	2429.533685
727.434612	2430.917481
727.766281	2429.765578
728.097901	2427.880186
728.429473	2425.755340
728.760996	2426.304826
729.092471	2425.467994
729.423897	2430.874632
729.755276	2429.637028
730.086606	2427.033272
730.417887	2431.209868
730.749120	2430.277255
731.080305	2431.925712
731.411442	2432.039138
731.742530	2429.760537
732.073570	2433.995106
732.404562	2432.442430
732.735506	2431.552667
733.066401	2433.964859
733.397249	2430.312543
733.728048	2428.495207
734.058798	2432.780188
734.389501	2428.369178
734.720156	2428.265834
735.050762	2426.982861
735.381320	2425.636873
735.711831	2425.359609
736.042293	2425.553694
736.372707	2424.807603
736.703073	2425.331883
737.033391	2423.282654
737.363661	2427.308015
737.693883	2424.444640
738.024056	2426.645103
738.354182	2423.496903
738.684260	2424.943714
739.014290	2426.047727
739.344272	2426.148550
739.674207	2428.127203
740.004093	2427.978489
740.333931	2428.868252
740.663722	2426.778694
740.993464	2424.767274
741.323159	2427.426482
741.652806	2427.081163
741.982405	2427.439085
742.311956	2427.093766
742.641460	2426.977820
742.970915	2425.457912
743.300323	2425.629311
743.629683	2424.001018
743.958996	2423.285174
744.288260	2425.195772
744.617477	2424.442119
744.946647	2419.703435
745.275768	2425.944383
745.604842	2419.466500
745.933869	2418.906932
746.262847	2414.816036
746.591778	2424.346337
746.920662	2419.751326
747.249498	2423.519588
747.578286	2423.481779
747.907027	2424.651327
748.235720	2424.094280
748.564365	2422.501275
748.892963	2425.934301
749.221514	2422.788621
749.550017	2422.077818
749.878473	2422.947417
750.206881	2421.346851
750.535242	2419.958013
750.863555	2422.080339
751.191821	2421.729978
751.520039	2419.950451
751.848210	2420.981367
752.176334	2423.179310
752.504411	2424.106882
752.832440	2421.397262
753.160421	2418.927097
753.488356	2420.164700
753.816243	2424.795000
754.144082	2418.485996
754.471875	2422.856676
754.799620	2420.522622
755.127318	2424.432037
755.454969	2419.395924
755.782572	2421.934145
756.110129	2418.496078
756.437638	2421.976995
756.765100	2420.923394
757.092515	2421.147725
757.419882	2420.878023
757.747203	2419.625297
758.074477	2420.504978
758.401703	2420.242838
758.728882	2420.583116
759.056014	2423.554876
759.383099	2422.095462
759.710138	2421.873651
760.037129	2421.722417
760.364073	2422.206367
760.690970	2424.134609
761.017820	2423.892633
761.344623	2422.105544
761.671379	2423.181831
761.998088	2421.540935
762.324751	2426.128385
762.651366	2428.906061
762.977935	2439.379058
763.304456	2443.016251
763.630931	2449.148814
763.957359	2445.451128
764.283740	2441.022474
764.610074	2436.994592
764.936362	2435.046186
765.262602	2430.342790
765.588796	2427.744075
765.914943	2423.181831
766.241044	2422.097983
766.567097	2422.327355
766.893104	2420.247879
767.219064	2422.554207
767.544978	2420.303332
767.870845	2419.569844
768.196665	2416.020872
768.522438	2416.744277
768.848165	2417.893660
769.173846	2417.019020
769.499479	2416.487178
769.825066	2414.785789
770.150607	2413.676735
770.476101	2415.363001
770.801548	2414.952147
771.126949	2414.644637
771.452303	2415.007600
771.777611	2413.543145
772.102872	2413.558268
772.428087	2413.626324
772.753256	2413.649009
773.078378	2411.579615
773.403453	2412.219842
773.728482	2412.552558
774.053465	2412.439132
774.378401	2413.036509
774.703291	2412.371076
775.028135	2413.545665
775.352932	2413.401992
775.677683	2413.064235
776.002388	2409.749676
776.327046	2412.771848
776.651658	2411.491395
776.976224	2410.838566
777.300743	2408.970818
777.625216	2411.209090
777.949643	2412.192115
778.274024	2411.410737
778.598359	2408.489388
778.922647	2406.830848
779.246889	2409.653894
779.571086	2405.850344
779.895236	2412.040881
780.219339	2407.955026
780.543397	2413.028947
780.867409	2410.752866
781.191374	2409.411919
781.515294	2408.078534
781.839167	2412.126580
782.162995	2411.151117
782.486776	2410.682290
782.810511	2407.758421
783.134201	2409.893349
783.457844	2409.585839
783.781441	2412.968453
784.104993	2409.974008
784.428498	2411.627506
784.751958	2408.043246
785.075372	2408.459141
785.398739	2408.446538
785.722061	2410.137845
786.045337	2411.075500
786.368568	2411.821591
786.691752	2411.594739
787.014891	2408.106260
787.337983	2413.885943
787.661030	2414.818557
787.984031	2412.834862
788.306987	2414.082548
788.629897	2412.928124
788.952760	2412.920562
789.275579	2415.781417
789.598351	2416.126736
789.921078	2414.997518
790.243759	2413.747311
790.566395	2411.004924
790.888984	2410.868813
791.211529	2412.030798
791.534027	2409.842938
791.856480	2408.728843
792.178888	2410.848648
792.501249	2407.493760
792.823566	2411.524162
793.145836	2409.994172
793.468062	2408.837228
793.790241	2410.463000
794.112375	2409.686662
794.434464	2412.597928
794.756507	2407.173647
795.078505	2411.249420
795.400457	2410.165572
795.722364	2405.850344
796.044226	2413.139852
796.366042	2407.609707
796.687812	2410.082392
797.009538	2414.319482
797.331218	2413.964081
797.652852	2412.802095
797.974442	2414.526170
798.295986	2412.240006
798.617484	2413.565830
798.938938	2406.830848
799.260346	2410.359656
799.581709	2411.783782
799.903026	2413.439801
800.224299	2408.791857
800.545526	2411.428381
800.866708	2410.894018
801.187845	2409.918555
801.508936	2410.599111
801.829983	2410.974677
802.150984	2408.350756
802.471940	2408.413771
802.792851	2406.992165
803.113717	2409.868143
803.434538	2406.757752
803.755314	2408.655746
804.076045	2408.839748
804.396731	2408.605334
804.717372	2407.995355
805.037967	2410.195818
805.358518	2409.721950
805.679024	2411.599780
805.999485	2408.025602
806.319901	2410.740263
806.640272	2410.369738
806.960598	2412.136663
807.280879	2411.390572
807.601115	2411.251940
807.921306	2408.486867
808.241453	2410.944430
808.561554	2406.145251
808.881611	2411.365366
809.201623	2407.589542
809.521590	2407.274470
809.841513	2410.704975
810.161390	2410.962074
810.481223	2410.480644
810.801011	2410.089954
811.120755	2407.468554
811.440453	2408.877557
811.760107	2409.353946
812.079716	2406.127607
812.399281	2405.535272
812.718801	2407.307237
813.038276	2403.685168
813.357707	2408.149110
813.677093	2408.023081
813.996434	2410.354615
814.315731	2406.677093
814.634983	2405.109294
814.954191	2408.875036
815.273354	2408.166754
815.592473	2407.670200
815.911547	2408.199522
816.230577	2410.062228
816.549562	2407.468554
816.868502	2410.170613
817.187399	2410.336971
817.506250	2409.525345
817.825058	2410.755387
818.143821	2410.896539
818.462539	2409.424522
818.781213	2410.760428
819.099843	2414.284194
819.418429	2415.751170
819.736970	2418.685122
820.055466	2421.359454
820.373919	2425.427665
820.692327	2433.778336
821.010691	2444.168154
821.329011	2467.791001
821.647286	2507.817763
821.965517	2545.346632
822.283704	2570.940571
822.601847	2577.083217
822.919945	2562.277348
823.237999	2539.264480
823.556010	2519.558610
823.873976	2501.723008
824.191897	2487.136429
824.509775	2474.858699
824.827609	2459.155505
825.145398	2456.337500
825.463144	2450.323403
825.780845	2452.712910
826.098502	2457.496965
826.416116	2464.922585
826.733685	2474.127732
827.051210	2476.423977
827.368692	2472.718729
827.686129	2461.292954
828.003522	2452.372632
828.320872	2438.222113
828.638177	2434.862184
828.955439	2426.854311
829.272656	2422.397931
829.589830	2419.562282
829.906960	2419.005235
830.224046	2417.870975
830.541088	2415.181520
830.858086	2411.330078
831.175041	2414.921900
831.491952	2412.792013
831.808819	2412.978535
832.125642	2413.621283
832.442421	2417.813002
832.759157	2421.644279
833.075849	2428.182655
833.392497	2437.150868
833.709101	2444.042125
834.025662	2443.858123
834.342179	2437.954932
834.658653	2430.809097
834.975083	2427.890268
835.291469	2430.224323
835.607811	2420.429361
835.924110	2415.060532
836.240366	2415.937693
836.556578	2414.087589
836.872746	2408.406209
837.188871	2408.824625
837.504952	2408.189439
837.820990	2407.410581
838.136984	2409.762279
838.452935	2410.775551
838.768842	2408.683472
839.084706	2407.070303
839.400526	2412.474420
839.716303	2416.981212
840.032037	2418.491037
840.347727	2416.683783
840.663373	2415.877199
840.978977	2410.369738
841.294537	2409.931158
841.610054	2406.787998
841.925527	2406.755231
842.240957	2406.351939
842.556344	2405.169788
842.871687	2401.998902
843.186987	2407.322361
843.502244	2406.193142
843.817458	2405.245405
844.132629	2404.902607
844.447756	2402.608882
844.762840	2398.674261
845.077881	2398.460012
845.392879	2395.208468
845.707833	2401.330949
846.022745	2397.648387
846.337613	2401.454458
846.652438	2401.565363
846.967221	2399.521175
847.281960	2402.407236
847.596656	2402.699623
847.911309	2399.806000
848.225919	2400.237019
848.540485	2400.693243
848.855009	2401.479663
849.169490	2401.449417
849.483928	2399.932029
849.798323	2402.011505
850.112675	2400.443706
850.426984	2401.933367
850.741251	2400.778943
851.055474	2402.230795
851.369654	2404.524520
851.683792	2401.532596
851.997887	2404.615261
852.311938	2401.046124
852.625947	2403.037380
852.939914	2398.964128
853.253837	2401.973697
853.567718	2400.589900
853.881555	2400.705846
854.195350	2400.073182
854.509103	2403.370096
854.822812	2401.522513
855.136479	2399.702657
855.450103	2399.836247
855.763685	2402.351783
856.077224	2400.897410
856.390720	2400.345404
856.704173	2400.756258
857.017584	2400.705846
857.330953	2400.713408
857.644278	2399.425393
857.957561	2401.285579
858.270802	2401.651063
858.584000	2397.953376
858.897155	2400.027811
859.210268	2398.858263
859.523339	2399.737945
859.836367	2397.229971
860.149352	2400.083264
860.462295	2402.762637
860.775195	2397.015722
861.088054	2397.653428
861.400869	2398.966648
861.713642	2398.369272
862.026373	2400.973028
862.339062	2399.987482
862.651708	2399.415311
862.964312	2401.525034
863.276873	2401.882956
863.589392	2400.670558
863.901869	2400.083264
864.214303	2401.943450
864.526696	2402.271125
864.839045	2402.140055
865.151353	2401.746845
865.463619	2400.174005
865.775842	2404.940416
866.088023	2403.420508
866.400162	2402.941598
866.712258	2402.573594
867.024313	2402.190466
867.336325	2401.429252
867.648296	2401.824982
867.960224	2403.385220
868.272110	2404.211969
868.583954	2400.186607
868.895755	2400.857081
869.207515	2401.557801
869.519233	2402.923954
869.830909	2402.823131
870.142542	2402.891187
870.454134	2400.935219
870.765684	2405.084088
871.077191	2401.953532
871.388657	2400.514283
871.700081	2403.919582
872.011463	2400.950342
872.322803	2404.504356
872.634101	2401.865312
872.945357	2402.503018
873.256571	2405.038718
873.567744	2404.411094
873.878874	2402.744993
874.189963	2404.131310
874.501010	2402.480333
874.812015	2403.607030
875.122979	2404.650549
875.433900	2403.168450
875.744780	2404.930333
876.055618	2404.416136
876.366415	2404.544685
876.677169	2403.566701
876.987882	2403.024777
877.298554	2402.021587
877.609183	2402.666855
877.919771	2403.007133
878.230317	2402.808008
878.540822	2407.997875
878.851285	2407.574418
879.161707	2408.595252
879.472087	2413.137332
879.782425	2419.950451
880.092722	2427.940680
880.402977	2443.810232
880.713191	2457.940587
881.023363	2471.975159
881.333494	2484.623414
881.643583	2487.708600
881.953631	2482.491006
882.263637	2478.944554
882.573602	2472.249902
882.883526	2466.482822
883.193408	2461.005608
883.503248	2454.641151
883.813048	2449.380707
884.122806	2442.824687
884.432522	2436.422421
884.742197	2430.201637
885.051831	2429.074940
885.361424	2422.453384
885.670975	2421.019176
885.980485	2417.767632
886.289954	2414.579102
886.599382	2413.230593
886.908768	2411.468710
887.218113	2410.621796
887.527417	2411.763617
887.836680	2408.597773
888.145901	2409.802608
888.455082	2407.221538
888.764221	2408.355797
889.073319	2404.905127
889.382376	2408.025602
889.691392	2404.582494
890.000366	2402.011505
890.309300	2403.828841
890.618193	2404.950498
890.927044	2405.515107
891.235855	2406.268760
891.544625	2405.389078
891.853353	2403.357493
892.162041	2406.757752
892.470687	2406.115004
892.779293	2403.798594
893.087858	2409.051477
893.396381	2406.339336
893.704864	2412.839904
894.013306	2414.243865
894.321707	2423.474218
894.630068	2424.691656
894.938387	2428.371699
895.246665	2427.184507
895.554903	2427.134095
895.863100	2422.040009
896.171256	2422.155956
896.479371	2418.143197
896.787446	2418.110430
897.095480	2414.574061
897.403473	2414.672363
897.711425	2409.338822
898.019336	2407.876888
898.327207	2408.658267
898.635038	2410.604152
898.942827	2406.162895
899.250576	2405.255488
899.558284	2405.258008
899.865952	2406.344377
900.173579	2401.789694
900.481165	2405.464696
900.788711	2404.040570
901.096216	2403.657442
901.403681	2405.119377
901.711105	2404.390930
902.018489	2402.140055
902.325832	2407.213976
902.633135	2402.008985
902.940397	2405.454613
903.247619	2410.581467
903.554800	2416.630851
903.861941	2426.932449
904.169041	2431.371185
904.476101	2433.919488
904.783121	2433.175918
905.090100	2429.200968
905.397039	2423.403642
905.703938	2422.778538
906.010796	2419.421130
906.317614	2416.116654
906.624391	2412.101375
906.931129	2411.302352
907.237826	2408.199522
907.544483	2407.387896
907.851099	2407.637433
908.157675	2404.345559
908.464211	2402.157699
908.770707	2399.770712
909.077163	2402.601320
909.383578	2397.303068
909.689954	2399.264076
909.996289	2394.830382
910.302584	2401.366238
910.608839	2398.049158
910.915054	2400.053017
911.221229	2399.753068
911.527363	2400.116031
911.833458	2399.163253
912.139513	2400.516803
912.445527	2398.578479
912.751502	2403.193656
913.057436	2401.487225
913.363331	2402.487894
913.669186	2404.612741
913.975000	2403.271794
914.280775	2408.340674
914.586510	2408.043246
914.892205	2412.476941
915.197859	2417.079514
915.503475	2422.735689
915.809050	2428.459919
916.114585	2429.442944
916.420081	2430.388160
916.725536	2429.228695
917.030952	2429.397573
917.336328	2427.174425
917.641665	2426.493869
917.946961	2421.780390
918.252218	2424.331214
918.557435	2418.380132
918.862612	2419.469021
919.167750	2416.880388
919.472848	2415.299987
919.777906	2411.771179
920.082925	2409.185067
920.387904	2409.386713
920.692843	2403.294479
920.997743	2405.759603
921.302603	2405.958729
921.607423	2405.603327
921.912204	2403.831362
922.216946	2401.073851
922.521647	2402.445044
922.826310	2400.312636
923.130932	2399.725342
923.435516	2399.939591
923.740059	2399.034704
924.044564	2398.961607
924.349028	2401.613254
924.653454	2392.985319
924.957840	2396.070505
925.262186	2396.526730
925.566493	2401.124262
925.870761	2393.575134
926.174989	2397.209806
926.479178	2398.601165
926.783328	2400.962945
927.087438	2399.579148
927.391509	2397.852553
927.695541	2397.781977
927.999533	2397.371123
928.303486	2395.163098
928.607400	2398.991854
928.911275	2394.976575
929.215110	2397.600496
929.518906	2398.601165
929.822663	2397.877759
930.126381	2395.546225
930.430060	2396.617471
930.733699	2395.810886
931.037299	2396.383057
931.340861	2395.445402
931.644383	2397.434137
931.947866	2398.308778
932.251309	2395.084960
932.554714	2396.846843
932.858080	2399.243912
933.161407	2396.108314
933.464694	2394.918602
933.767943	2398.157543
934.071153	2396.214178
934.374323	2396.584703
934.677455	2395.515978
934.980548	2394.263252
935.283602	2396.730897
935.586617	2397.164436
935.889593	2397.277862
936.192530	2397.746689
936.495428	2398.588562
936.798287	2395.337017
937.101108	2397.338356
937.403890	2398.969169
937.706632	2398.550753
938.009336	2398.654097
938.312002	2399.932029
938.614628	2399.674930
938.917216	2398.946484
939.219765	2397.494631
939.522275	2397.842471
939.824747	2399.911865
940.127179	2395.941956
940.429573	2394.737120
940.731929	2398.812893
941.034246	2393.391132
941.336524	2399.982441
941.638763	2400.234498
941.940964	2399.488408
942.243126	2397.965979
942.545250	2396.872049
942.847335	2400.937739
943.149381	2399.601834
943.451389	2397.638304
943.753359	2396.977913
944.055290	2395.861298
944.357182	2395.962121
944.659036	2397.991185
944.960851	2397.572769
945.262628	2397.794580
945.564367	2398.500342
945.866067	2398.800290
946.167729	2396.516647
946.469352	2395.730228
946.770937	2397.466905
947.072484	2398.097049
947.373992	2396.715773
947.675462	2395.904147
947.976893	2396.350289
948.278286	2395.445402
948.579641	2397.005639
948.880958	2394.225443
949.182236	2397.154353
949.483476	2398.840619
949.784678	2398.523027
950.085841	2397.507234
950.386967	2397.550084
950.688054	2395.500855
950.989103	2397.842471
951.290114	2396.186452
951.591087	2397.136709
951.892021	2395.992368
952.192917	2396.907337
952.493776	2399.218706
952.794596	2399.591751
953.095378	2397.373644
953.396122	2401.865312
953.696828	2397.802142
953.997496	2395.568911
954.298126	2396.383057
954.598718	2400.060579
954.899272	2396.705691
955.199788	2397.484549
955.500266	2397.348438
955.800706	2394.522871
956.101108	2391.982130
956.401472	2392.261914
956.701798	2391.669578
957.002087	2393.222253
957.302337	2391.631769
957.602550	2395.221071
957.902724	2393.945659
958.202861	2395.997409
958.502960	2397.361041
958.803022	2394.719476
959.103045	2394.976575
959.403031	2396.927502
959.702979	2394.132182
960.002889	2395.077398
960.302762	2395.132851
960.602596	2391.412479
960.902393	2394.545556
961.202153	2394.215361
961.501875	2393.738972
961.801559	2395.553787
962.101205	2393.277706
962.400814	2395.984806
962.700385	2397.807183
962.999918	2394.986657
963.299414	2391.256203
963.598873	2394.265772
963.898293	2392.899620
964.197677	2392.166132
964.497022	2394.036400
964.796331	2391.634290
965.095601	2395.780639
965.394835	2393.698642
965.694030	2394.671585
965.993189	2392.551780
966.292309	2392.564383
966.591393	2393.706204
966.890439	2391.387273
967.189447	2394.424569
967.488419	2392.166132
967.787353	2393.151677
968.086249	2394.056564
968.385108	2393.040772
968.683930	2393.449105
968.982714	2390.245452
969.281462	2395.223592
969.580172	2394.719476
969.878844	2392.249311
970.177480	2393.113869
970.476078	2395.243756
970.774639	2394.485063
971.073162	2394.056564
971.371649	2392.319887
971.670098	2389.194372
971.968510	2392.062788
972.266885	2389.383415
972.565223	2393.532284
972.863524	2394.089332
973.161788	2394.621174
973.460014	2396.861967
973.758204	2392.748385
974.056356	2391.213354
974.354471	2395.495814
974.652550	2391.911553
974.950591	2396.365413
975.248595	2394.185114
975.546563	2392.808879
975.844493	2393.771739
976.142386	2395.984806
976.440243	2393.486914
976.738062	2394.948849
977.035845	2393.943138
977.333590	2391.087325
977.631299	2393.071019
977.928971	2392.677809
978.226606	2392.493807
978.524204	2397.171997
978.821765	2393.633108
979.119290	2394.837943
979.416777	2393.655793
979.714228	2390.928528
980.011642	2392.534136
980.309020	2394.916081
980.606360	2393.544887
980.903664	2395.848695
981.200931	2392.697973
981.498162	2392.571945
981.795356	2394.643859
982.092513	2394.840464
982.389633	2397.575290
982.686717	2395.314332
982.983764	2396.577141
983.280775	2396.330125
983.577749	2396.418345
983.874686	2398.510424
984.171587	2394.238046
984.468451	2398.228119
984.765279	2396.856925
985.062070	2396.350289
985.358824	2395.735269
985.655543	2396.468757
985.952224	2395.059754
986.248869	2393.708725
986.545478	2390.172355
986.842050	2393.202089
987.138586	2389.204454
987.435086	2394.343910
987.731549	2387.571120
988.027975	2393.439023
988.324366	2392.178735
988.620719	2391.730072
988.917037	2391.702346
989.213318	2394.729558
989.509563	2392.312325
989.805772	2395.067316
990.101944	2393.408776
990.398080	2391.561193
990.694180	2388.957437
990.990244	2390.873076
991.286271	2393.731410
991.582262	2392.632438
991.878217	2393.194527
992.174136	2392.062788
992.470019	2389.769063
992.765865	2390.656306
993.061676	2391.926677
993.357450	2394.601009
993.653188	2391.415000
993.948890	2393.910371
994.244556	2391.896430
994.540186	2394.301060
994.835780	2391.586399
995.131337	2394.341390
995.426859	2394.903478
995.722345	2397.532440
996.017795	2392.670247
996.313208	2394.434651
996.608586	2395.430279
996.903928	2393.721328
997.199234	2395.233674
997.494504	2393.479352
997.789738	2392.680329
998.084936	2395.677295
998.380099	2395.483211
998.675225	2393.696122
998.970316	2394.633777
999.265371	2395.805845
999.560390	2395.127810
999.855373	2395.160577
1000.150320	2391.803169
1000.445232	2391.571276
1000.740108	2393.260062
1001.034948	2390.850391
1001.329752	2390.384084
1001.624521	2393.519682
1001.919254	2387.306459
1002.213951	2390.613456
1002.508613	2387.452653
1002.803239	2391.462891
1003.097829	2386.804865
1003.392384	2391.364588
1003.686903	2393.623025
1003.981386	2389.335524
1004.275834	2393.139074
1004.570246	2392.284599
1004.864623	2390.583209
1005.158964	2392.645041
1005.453270	2392.713097
1005.747540	2391.825854
1006.041775	2391.180586
1006.335974	2392.614794
1006.630138	2390.409290
1006.924266	2391.581358
1007.218359	2391.059598
1007.512416	2390.721841
1007.806438	2393.653272
1008.100425	2391.218395
1008.394376	2391.926677
1008.688292	2392.009856
1008.982172	2390.351316
1009.276017	2391.641852
1009.569827	2389.590102
1009.863602	2391.301574
1010.157341	2391.036913
1010.451045	2389.643034
1010.744714	2390.439537
1011.038347	2393.819630
1011.331945	2390.885679
1011.625508	2391.921636
1011.919036	2391.432644
1012.212528	2391.203271
1012.505986	2390.820144
1012.799408	2393.587737
1013.092795	2390.278220
1013.386147	2392.987840
1013.679464	2390.593292
1013.972745	2392.017418
1014.265992	2389.733775
1014.559204	2390.885679
1014.852380	2392.062788
1015.145521	2393.423900
1015.438628	2391.099928
1015.731699	2389.998436
1016.024736	2391.770401
1016.317737	2391.389794
1016.610703	2390.384084
1016.903635	2388.027344
1017.196531	2388.881820
1017.489393	2392.062788
1017.782219	2387.477859
1018.075011	2391.830895
1018.367768	2391.939280
1018.660490	2390.152191
1018.953177	2390.152191
1019.245829	2390.152191
