Dividing Wavelength (nm)	Counts (n)	Blue Motor Position (mm): 0.000000	Red Motor Position (mm): 14.200000	
326.493990	1979.709006
326.888308	1979.709006
327.282561	1979.709006
327.676750	1954.810747
328.070874	1960.056068
328.464933	1965.384568
328.858929	1971.988479
329.252859	1986.519605
329.646726	2001.794301
330.040528	2015.914573
330.434265	2035.748993
330.827938	2052.546118
331.221547	2075.196022
331.615091	2094.238981
332.008571	2115.540376
332.401986	2135.815897
332.795338	2155.632673
333.188625	2176.215704
333.581847	2193.794207
333.975006	2215.251879
334.368100	2229.142778
334.761129	2248.294122
335.154095	2261.708632
335.546996	2278.921652
335.939833	2292.381533
336.332606	2306.816877
336.725315	2318.547642
337.117960	2327.165494
337.510540	2334.787719
337.903056	2343.024964
338.295508	2348.030830
338.687896	2354.221367
339.080220	2364.671679
339.472480	2367.943388
339.864676	2370.337936
340.256807	2374.325488
340.648875	2379.031405
341.040879	2378.895294
341.432818	2381.418392
341.824694	2381.859493
342.216506	2380.513505
342.608253	2380.475696
342.999937	2377.503936
343.391557	2376.808257
343.783113	2375.701723
344.174605	2374.849768
344.566033	2374.748945
344.957397	2371.126876
345.348697	2368.422297
345.739934	2366.791484
346.131106	2368.008923
346.522215	2365.236288
346.913260	2362.803931
347.304241	2363.020701
347.695159	2361.664630
348.086012	2358.685308
348.476802	2356.184896
348.867528	2353.750019
349.258191	2354.992663
349.648789	2354.710359
350.039324	2352.318331
350.429796	2350.594257
350.820203	2351.904957
351.210548	2352.968640
351.600828	2352.036027
351.991045	2350.851355
352.381198	2349.313803
352.771288	2350.405213
353.161314	2349.008814
353.551276	2352.275481
353.941175	2350.261540
354.331010	2352.451922
354.720782	2350.400172
355.110490	2349.933865
355.500135	2350.241376
355.889717	2350.949658
356.279235	2351.100893
356.668689	2352.575430
357.058080	2352.615759
357.447408	2348.764318
357.836672	2349.820439
358.225873	2350.778259
358.615010	2349.147445
359.004084	2355.602643
359.393095	2356.237828
359.782043	2356.956193
360.170927	2357.873683
360.559748	2360.122037
360.948505	2357.742613
361.337199	2360.774867
361.725830	2361.021883
362.114398	2363.683613
362.502903	2360.764784
362.891344	2363.595392
363.279722	2360.621112
363.668037	2364.331401
364.056289	2364.616226
364.444478	2365.022039
364.832603	2365.392564
365.220665	2365.183356
365.608665	2366.194107
365.996601	2366.965404
366.384474	2368.376927
366.772284	2369.798532
367.160031	2370.915148
367.547715	2371.852802
367.935336	2373.385313
368.322893	2371.197452
368.710388	2373.050076
369.097820	2375.071579
369.485189	2373.995293
369.872495	2374.270036
370.259738	2378.050901
370.646918	2380.379914
371.034035	2379.772455
371.421090	2386.152035
371.808081	2386.797303
372.195010	2391.278889
372.581875	2395.513458
372.968678	2402.129972
373.355418	2409.250602
373.742096	2418.279309
374.128710	2429.137954
374.515262	2442.000458
374.901751	2452.891871
375.288177	2470.462813
375.674540	2490.045175
376.060841	2506.146620
376.447079	2530.515558
376.833254	2556.540515
377.219367	2582.298290
377.605417	2615.045626
377.991404	2643.354225
378.377329	2680.129442
378.763191	2716.168651
379.148991	2760.407297
379.534727	2806.967394
379.920402	2853.434229
380.306013	2900.130437
380.691563	2965.995633
381.077049	3019.822553
381.462474	3078.594845
381.847835	3144.621358
382.233134	3216.004096
382.618371	3271.817231
383.003545	3358.590612
383.388657	3436.917540
383.773706	3530.176366
384.158693	3603.479784
384.543618	3692.630069
384.928480	3766.954321
385.313280	3874.456926
385.698017	3975.741269
386.082692	4093.144701
386.467305	4155.186181
386.851856	4280.194194
387.236344	4435.749078
387.620770	4498.768542
388.005133	4614.785657
388.389435	4756.409312
388.773674	4837.413093
389.157851	4971.228001
389.541965	5103.785142
389.926018	5120.110918
390.310008	5301.884844
390.693936	5421.897073
391.077802	5536.124578
391.461606	5668.109547
391.845348	5775.120640
392.229027	5893.214710
392.612645	6116.739472
392.996200	6234.354632
393.379694	6405.758904
393.763125	6619.942408
394.146494	6711.404062
394.529801	6842.022879
394.913047	7081.094559
395.296230	7080.388797
395.679351	7129.318236
396.062410	7382.434571
396.445408	7274.894157
396.828343	7424.185407
397.211217	7547.373563
397.594028	7428.631705
397.976778	7627.452292
398.359466	7787.912219
398.742092	7753.065243
399.124656	7896.165957
399.507158	8060.444558
399.889598	8072.087102
400.271977	8269.034901
400.654294	8286.860421
401.036549	8465.541598
401.418742	8469.985375
401.800874	8738.769616
402.182944	8796.662227
402.564952	9120.596691
402.946898	8924.921784
403.328783	8946.941544
403.710606	9098.251776
404.092367	9301.634608
404.474067	9589.575233
404.855705	9350.299386
405.237282	9257.398483
405.618797	9593.464483
406.000250	9758.496737
406.381642	10012.238174
406.762972	9892.851048
407.144240	9647.301486
407.525447	9791.629720
407.906593	9659.402776
408.287677	9793.900760
408.668700	9836.667389
409.049661	9718.253206
409.430560	9749.967104
409.811399	9623.169482
410.192176	9654.414554
410.572891	9602.936811
410.953545	9856.524494
411.334138	9345.958953
411.714669	9660.980657
412.095139	9038.004947
412.475547	9274.419939
412.855894	9043.439311
413.236180	9133.814596
413.616405	8796.097618
413.996568	8833.843257
414.376670	8685.116616
414.756711	8470.799522
415.136691	8502.049634
415.516609	8463.363820
415.896466	8361.648459
416.276262	8369.689099
416.655997	8460.792831
417.035670	8335.769695
417.415283	8516.611007
417.794834	8400.538440
418.174324	8106.482895
418.553753	7887.381746
418.933121	7955.263403
419.312428	7694.776902
419.691674	7492.674523
420.070859	7525.353803
420.449983	7222.725776
420.829045	7277.177799
421.208047	7014.266503
421.586988	7021.608943
421.965867	6947.181348
422.344686	6790.197297
422.723444	6806.167672
423.102141	6236.227421
423.480777	6443.305418
423.859352	6146.167207
424.237866	6301.870806
424.616319	6066.343057
424.994712	6083.755202
425.373044	5876.450353
425.751314	5881.501589
426.129524	5539.040885
426.507673	5615.507627
426.885762	5417.765847
427.263789	5314.016380
427.641756	5200.524884
428.019662	5077.828240
428.397508	4951.169250
428.775292	4869.842836
429.153016	4731.624479
429.530679	4621.845793
429.908282	4505.279192
430.285824	4359.441132
430.663305	4330.557841
431.040726	4177.173174
431.418086	4057.856624
431.795385	4027.458466
432.172624	3970.415290
432.549802	3838.105166
432.926920	3765.348713
433.303977	3674.857481
433.680974	3612.654684
434.057910	3553.496743
434.434786	3480.037049
434.811601	3406.950401
435.188355	3396.386663
435.565050	3311.702840
435.941683	3249.346288
436.318257	3225.468863
436.694770	3163.722290
437.071222	3134.652476
437.447614	3050.233314
437.823946	3004.154647
438.200218	2968.677527
438.576429	2924.060795
438.952580	2893.380332
439.328670	2860.998481
439.704700	2838.398988
440.080670	2796.645631
440.456580	2785.040895
440.832429	2762.217071
441.208218	2723.543859
441.583947	2708.450645
441.959616	2691.678726
442.335224	2677.581139
442.710773	2661.119251
443.086261	2653.179434
443.461689	2630.159005
443.837057	2622.751029
444.212365	2615.711058
444.587612	2606.662187
444.962800	2592.108376
445.337927	2585.554876
445.712995	2563.164591
446.088002	2574.996179
446.462949	2570.242371
446.837837	2564.775239
447.212664	2559.030845
447.587431	2574.189594
447.962139	2589.905391
448.336786	2600.469129
448.711374	2585.998497
449.085901	2556.792572
449.460369	2553.067160
449.834776	2545.661705
450.209124	2558.655279
450.583412	2551.335523
450.957640	2549.654298
451.331808	2542.682383
451.705917	2525.023221
452.079965	2525.335772
452.453954	2525.862573
452.827883	2522.603467
453.201752	2516.198681
453.575562	2517.713548
453.949311	2519.782941
454.323001	2518.673887
454.696632	2515.558454
455.070202	2519.258661
455.443713	2518.520132
455.817164	2521.469207
456.190556	2516.417971
456.563888	2513.862106
456.937160	2513.456293
457.310373	2510.668535
457.683526	2507.202742
458.056619	2508.596621
458.429653	2507.003616
458.802628	2508.611744
459.175542	2504.692247
459.548398	2510.003103
459.921194	2517.096006
460.293930	2517.431243
460.666607	2527.450536
461.039224	2532.806762
461.411782	2534.593851
461.784280	2527.808458
462.156719	2524.446009
462.529099	2520.844104
462.901419	2516.687673
463.273680	2512.586694
463.645882	2509.887156
464.018024	2510.209790
464.390106	2512.453104
464.762130	2522.119516
465.134094	2537.981507
465.505999	2557.883982
465.877845	2573.796384
466.249631	2578.298135
466.621358	2571.023750
466.993026	2561.579148
467.364634	2554.113199
467.736184	2546.634647
468.107674	2541.331353
468.479105	2536.017977
468.850477	2533.205013
469.221790	2529.608150
469.593043	2522.742099
469.964238	2518.580626
470.335373	2517.322858
470.706449	2523.619259
471.077467	2532.438758
471.448425	2549.682025
471.819324	2557.107644
472.190164	2551.075904
472.560945	2537.719367
472.931667	2528.947759
473.302330	2521.207067
473.672934	2520.098013
474.043479	2518.247910
474.413965	2516.455780
474.784393	2515.185409
475.154761	2515.104751
475.525070	2514.701458
475.895321	2514.835049
476.265513	2516.077693
476.635645	2523.301667
477.005719	2522.724455
477.375734	2526.381812
477.745691	2524.980371
478.115588	2528.622605
478.485427	2536.239788
478.855207	2546.337219
479.224928	2557.256358
479.594591	2563.361196
479.964194	2556.747202
480.333739	2559.701318
480.703226	2556.631255
481.072653	2559.686195
481.442022	2560.190310
481.811333	2565.571742
482.180584	2560.288613
482.549777	2556.860628
482.918912	2554.370298
483.287988	2555.373488
483.657005	2549.170348
484.025964	2550.261757
484.394864	2552.200081
484.763706	2550.596994
485.132489	2545.727240
485.501213	2546.110367
485.869879	2542.082485
486.238487	2543.559543
486.607036	2544.272867
486.975527	2546.027188
487.343959	2542.758000
487.712333	2545.550799
488.080648	2544.497198
488.448905	2543.710778
488.817104	2541.296065
489.185244	2544.361087
489.553326	2555.078580
489.921350	2566.085939
490.289315	2575.381827
490.657222	2575.623802
491.025070	2577.496591
491.392861	2575.732187
491.760593	2569.387895
492.128267	2564.399673
492.495883	2557.762994
492.863440	2551.196892
493.230939	2547.766386
493.598380	2544.315717
493.965763	2538.956970
494.333088	2538.967052
494.700354	2536.559901
495.067563	2537.769778
495.434713	2532.121165
495.801805	2537.754655
496.168839	2538.904038
496.535815	2535.438245
496.902733	2540.484440
497.269593	2537.363965
497.636395	2537.706764
498.003139	2536.610313
498.369825	2535.728111
498.736453	2541.948895
499.103023	2537.084181
499.469535	2540.996117
499.835989	2538.714995
500.202385	2542.032074
500.568723	2539.453524
500.935003	2542.977290
501.301226	2542.982331
501.667390	2543.824204
502.033497	2548.383928
502.399546	2546.062476
502.765537	2545.316386
503.131470	2546.465769
503.497345	2550.511295
503.863163	2547.839483
504.228923	2551.958106
504.594625	2554.942469
504.960269	2554.587068
505.325856	2556.452294
505.691385	2557.407593
506.056856	2558.781307
506.422270	2560.495300
506.787625	2564.109807
507.152924	2566.113666
507.518164	2573.171281
507.883347	2569.176167
508.248472	2571.358986
508.613540	2574.779409
508.978550	2579.868454
509.343503	2579.102199
509.708398	2586.026223
510.073236	2585.978333
510.438016	2591.954620
510.802738	2588.168714
511.167403	2596.514344
511.532010	2599.014756
511.896561	2600.325456
512.261053	2609.223093
512.625488	2606.397526
512.989866	2606.863833
513.354186	2610.125459
513.718449	2607.244440
514.082655	2619.635596
514.446803	2614.972529
514.810894	2623.010649
515.174927	2624.366719
515.538904	2623.408900
515.902822	2630.216978
516.266684	2630.693367
516.630488	2630.166567
516.994235	2633.428193
517.357925	2635.111938
517.721558	2639.240643
518.085133	2642.073772
518.448651	2643.457569
518.812112	2642.134266
519.175516	2645.985707
519.538863	2645.660553
519.902152	2648.302118
520.265385	2649.549803
520.628560	2651.795637
520.991678	2650.316058
521.354739	2649.963178
521.717743	2653.350833
522.080690	2656.549445
522.443580	2655.989877
522.806413	2658.974240
523.169189	2657.547594
523.531908	2658.439878
523.894569	2656.151194
524.257174	2662.046823
524.619722	2659.080104
524.982213	2661.804848
525.344647	2658.943993
525.707025	2657.424085
526.069345	2662.193017
526.431608	2658.444919
526.793815	2660.494148
527.155964	2658.472645
527.518057	2657.504744
527.880093	2656.433499
528.242072	2658.069353
528.603995	2653.900319
528.965860	2653.600370
529.327669	2653.557520
529.689421	2649.537200
530.051117	2651.856131
530.412755	2647.520739
530.774337	2649.950575
531.135862	2645.279946
531.497331	2642.179636
531.858743	2639.775006
532.220098	2637.261991
532.581396	2634.839716
532.942638	2632.175466
533.303824	2631.550363
533.664953	2626.731020
534.026025	2623.970988
534.387040	2624.076853
534.747999	2621.410082
535.108902	2620.331275
535.469748	2615.196860
535.830537	2614.506222
536.191270	2614.322220
536.551947	2607.637650
536.912567	2601.603389
537.273131	2599.864191
537.633638	2597.961155
537.994089	2593.855135
538.354483	2590.233066
538.714821	2589.534867
539.075103	2587.631831
539.435328	2583.351891
539.795497	2578.456931
540.155609	2577.882239
540.515665	2574.789492
540.875665	2568.152812
541.235609	2565.276834
541.595496	2563.852708
541.955328	2563.020918
542.315102	2560.379353
542.674821	2553.765359
543.034483	2552.648744
543.394090	2546.465769
543.753640	2546.909390
544.113134	2548.409133
544.472571	2541.545602
544.831953	2543.783875
545.191278	2538.447813
545.550548	2534.669469
545.909761	2531.516227
546.268918	2531.533871
546.628019	2529.119158
546.987064	2525.464322
547.346053	2521.181862
547.704986	2522.177489
548.063863	2516.009638
548.422684	2517.816891
548.781449	2513.176509
549.140158	2515.301356
549.498811	2513.436129
549.857408	2507.515293
550.215949	2508.692403
550.574434	2503.860457
550.932864	2503.081599
551.291237	2501.929695
551.649555	2503.512617
552.007817	2500.079592
552.366022	2500.568583
552.724173	2498.789056
553.082267	2498.965497
553.440305	2497.896772
553.798288	2496.477687
554.156215	2496.573469
554.514086	2496.535660
554.871902	2493.941987
555.229661	2497.027173
555.587365	2494.700680
555.945014	2492.575834
556.302606	2490.297232
556.660143	2492.888386
557.017625	2491.764208
557.375050	2489.256234
557.732421	2491.428972
558.089735	2492.003663
558.446994	2487.408651
558.804197	2489.984681
559.161345	2489.097438
559.518437	2486.755822
559.875474	2488.376553
560.232455	2486.559217
560.589381	2487.300267
560.946251	2488.066522
561.303065	2489.362098
561.659825	2488.643734
562.016528	2485.442601
562.373177	2486.019813
562.729770	2485.722385
563.086307	2485.929073
563.442789	2484.325986
563.799216	2485.414875
564.155587	2484.986377
564.511904	2482.498568
564.868164	2486.402941
565.224370	2484.560399
565.580520	2484.323465
565.936615	2482.785913
566.292654	2482.216263
566.648638	2482.276757
567.004567	2484.081490
567.360441	2482.594349
567.716260	2482.551500
568.072023	2484.227683
568.427732	2478.281642
568.783385	2477.220479
569.138982	2480.136787
569.494525	2479.670480
569.850013	2477.144862
570.205445	2481.613845
570.560823	2481.087044
570.916145	2480.966057
571.271412	2479.249544
571.626625	2480.656026
571.981782	2481.230717
572.336884	2480.013279
572.691931	2482.339771
573.046923	2479.408340
573.401860	2480.499750
573.756743	2479.594863
574.111570	2477.470017
574.466342	2477.560757
574.821059	2477.883391
575.175722	2480.469503
575.530330	2476.509677
575.884882	2479.728453
576.239380	2474.276446
576.593823	2477.119656
576.948211	2473.752166
577.302544	2477.855665
577.656823	2473.134624
578.011047	2475.362814
578.365216	2475.544296
578.719330	2474.495736
579.073389	2472.625468
579.427394	2476.040849
579.781344	2474.352063
580.135239	2472.391054
580.489080	2476.633185
580.842866	2474.316775
581.196597	2472.708647
581.550273	2473.404326
581.903895	2472.204531
582.257463	2473.668987
582.610975	2473.217803
582.964434	2471.939871
583.317837	2472.265025
583.671186	2469.651187
584.024481	2471.614716
584.377721	2469.036166
584.730906	2473.177474
585.084037	2470.039356
585.437113	2468.927781
585.790135	2469.487349
586.143103	2468.484160
586.496016	2471.511373
586.848874	2464.816720
587.201679	2466.170270
587.554428	2464.184056
587.907124	2467.929633
588.259765	2463.453088
588.612352	2469.943574
588.964884	2468.194293
589.317362	2468.312761
589.669786	2470.649335
590.022155	2471.125724
590.374470	2468.602627
590.726731	2468.474078
591.078937	2467.087760
591.431090	2463.856381
591.783188	2466.679427
592.135232	2466.432410
592.487222	2466.417287
592.839157	2465.938377
593.191038	2463.836216
593.542866	2462.553242
593.894639	2463.937039
594.246358	2463.800928
594.598022	2463.357306
594.949633	2463.334621
595.301190	2461.481997
595.652692	2463.710187
596.004141	2460.355299
596.355535	2460.443519
596.706876	2461.683643
597.058162	2463.032152
597.409395	2461.383695
597.760573	2460.922429
598.111698	2457.620473
598.462768	2461.008129
598.813785	2460.834209
599.164748	2461.386215
599.515657	2458.051492
599.866511	2458.575772
600.217312	2460.899744
600.568060	2458.429578
600.918753	2461.116513
601.269392	2460.801441
601.619978	2457.733899
601.970510	2458.313632
602.320988	2459.132819
602.671412	2461.492079
603.021783	2458.434620
603.372100	2461.832357
603.722363	2457.502006
604.072572	2459.014352
604.422728	2457.743982
604.772830	2455.072170
605.122878	2452.034875
605.472872	2456.377829
605.822813	2452.559155
606.172701	2456.834053
606.522534	2457.040741
606.872314	2459.311780
607.222041	2457.736420
607.571714	2459.256328
607.921333	2456.259362
608.270899	2459.004270
608.620411	2457.224743
608.969870	2457.489403
609.319276	2455.021758
609.668627	2457.839763
610.017926	2455.808178
610.367171	2455.261213
610.716362	2455.772890
611.065500	2459.526029
611.414585	2458.598457
611.763616	2457.920422
612.112594	2457.587706
612.461518	2458.530402
612.810389	2457.519650
613.159207	2457.698611
613.507971	2455.558641
613.856682	2460.652727
614.205340	2459.001749
614.553945	2460.619960
614.902496	2456.287088
615.250994	2458.129630
615.599439	2458.578292
615.947830	2459.435289
616.296169	2459.301698
616.644454	2458.384208
616.992686	2461.484518
617.340864	2460.012501
617.688990	2458.452264
618.037063	2456.581996
618.385082	2458.590895
618.733048	2458.064095
619.080961	2458.732048
619.428821	2461.418983
619.776628	2455.210802
620.124382	2459.450412
620.472083	2459.258848
620.819731	2459.584003
621.167326	2456.823971
621.514868	2458.341358
621.862357	2458.674074
622.209793	2457.073508
622.557176	2453.176696
622.904506	2455.540997
623.251783	2451.331634
623.599007	2450.991356
623.946179	2451.293825
624.293297	2453.426233
624.640363	2454.293312
624.987376	2453.978240
625.334336	2452.609566
625.681243	2453.395986
626.028097	2451.961778
626.374899	2451.049329
626.721647	2448.672425
627.068343	2452.849021
627.414987	2451.513115
627.761577	2450.749381
628.108115	2449.811726
628.454600	2448.586726
628.801032	2450.262909
629.147412	2450.852724
629.493739	2450.406582
629.840014	2450.225101
630.186236	2449.307611
630.532405	2449.655450
630.878521	2449.249637
631.224585	2452.458332
631.570597	2446.686211
631.916556	2449.998249
632.262462	2448.498505
632.608316	2448.833742
632.954117	2449.708382
633.299866	2447.283587
633.645562	2445.937599
633.991206	2448.203598
634.336797	2446.557661
634.682336	2446.653443
635.027823	2447.949020
635.373257	2445.388113
635.718639	2445.536828
636.063968	2442.824687
636.409245	2446.605552
636.754470	2445.002465
637.099642	2445.186467
637.444762	2443.762341
637.789829	2444.689914
638.134845	2444.102619
638.479808	2444.130346
638.824719	2443.502722
639.169577	2444.631940
639.514383	2443.187650
639.859137	2442.108843
640.203839	2445.171344
640.548489	2439.527772
640.893086	2438.285128
641.237632	2439.164809
641.582125	2437.168512
641.926566	2435.472164
642.270955	2441.607248
642.615292	2440.556167
642.959576	2444.485747
643.303809	2438.630447
643.647990	2440.435180
643.992118	2440.979624
644.336195	2443.149841
644.680219	2440.006682
645.024192	2444.057249
645.368112	2439.983997
645.711981	2443.175047
646.055797	2441.178750
646.399562	2442.350818
646.743274	2445.493978
647.086935	2444.052208
647.430544	2439.638677
647.774101	2442.307968
648.117606	2444.158072
648.461059	2446.313165
648.804460	2444.342074
649.147810	2444.450459
649.491108	2442.000458
649.834354	2441.120777
650.177548	2441.909717
650.520690	2442.711261
650.863781	2441.145983
651.206820	2440.180602
651.549807	2441.448452
651.892742	2439.502566
652.235626	2438.980807
652.578458	2439.190015
652.921238	2439.958791
653.263967	2438.847216
653.606644	2437.806218
653.949269	2435.580549
654.291843	2437.735642
654.634365	2438.340580
654.976836	2434.655497
655.319255	2435.971238
655.661622	2436.671958
656.003938	2436.772782
656.346203	2439.250509
656.688416	2437.816300
657.030577	2436.800508
657.372687	2436.616506
657.714746	2438.199428
658.056753	2433.133068
658.398708	2431.086360
658.740612	2433.339756
659.082465	2433.165836
659.424266	2437.004675
659.766016	2433.410332
660.107715	2436.757658
660.449362	2433.801021
660.790958	2436.961825
661.132503	2435.948553
661.473996	2436.941660
661.815438	2436.230858
662.156829	2436.490477
662.498168	2436.634150
662.839456	2436.853440
663.180693	2437.100457
663.521879	2435.527617
663.863013	2437.133224
664.204097	2434.978131
664.545129	2437.975097
664.886110	2435.661207
665.227040	2435.310847
665.567918	2437.662545
665.908746	2437.483584
666.249522	2436.404777
666.590248	2434.794129
666.930922	2435.719180
667.271545	2435.210024
667.612118	2435.227668
667.952639	2438.413677
668.293109	2434.884869
668.633528	2434.930240
668.973896	2439.424428
669.314213	2436.480395
669.654480	2435.575508
669.994695	2436.853440
670.334859	2435.419232
670.674973	2435.351176
671.015035	2436.276228
671.355047	2434.703388
671.695008	2434.342945
672.034918	2434.012750
672.374777	2435.774633
672.714585	2435.260435
673.054342	2437.478543
673.394049	2434.572318
673.733705	2436.661876
674.073310	2434.877308
674.412864	2435.315888
674.752368	2437.312185
675.091820	2433.818665
675.431223	2434.864705
675.770574	2434.037956
676.109875	2429.770619
676.449125	2433.836309
676.788324	2429.999991
677.127473	2430.879673
677.466571	2430.254570
677.805619	2435.318409
678.144616	2432.636515
678.483562	2434.698347
678.822458	2432.507965
679.161303	2433.985023
679.500098	2432.069385
679.838842	2433.206165
680.177535	2431.504776
680.516179	2432.233223
680.854771	2431.033428
681.193314	2434.509303
681.531805	2435.250353
681.870247	2435.177256
682.208638	2435.083995
682.546978	2437.317226
682.885268	2436.140117
683.223508	2436.261104
683.561697	2434.574838
683.899836	2434.847061
684.237925	2435.930909
684.575963	2437.196238
684.913951	2435.439396
685.251889	2436.056938
685.589776	2432.460074
685.927614	2431.451844
686.265401	2435.903182
686.603137	2431.507296
686.940824	2432.162646
687.278460	2437.395364
687.616046	2435.472164
687.953582	2435.802359
688.291068	2436.233378
688.628504	2435.225147
688.965889	2436.906372
689.303224	2435.890580
689.640510	2436.228337
689.977745	2434.151382
690.314930	2432.084508
690.652065	2434.723553
690.989150	2432.850764
691.326185	2429.289189
691.663170	2429.884045
692.000105	2429.140475
692.336990	2429.011925
692.673825	2428.480083
693.010610	2431.411514
693.347345	2424.941193
693.684030	2425.967068
694.020665	2422.072777
694.357251	2422.682757
694.693786	2427.829775
695.030272	2426.098138
695.366707	2427.300453
695.703093	2424.757191
696.039429	2425.173087
696.375716	2425.621749
696.711952	2425.762902
697.048139	2425.460432
697.384276	2424.762232
697.720363	2426.756009
698.056400	2422.750812
698.392388	2424.502613
698.728326	2426.667789
699.064214	2425.052099
699.400053	2425.606626
699.735842	2424.679053
700.071581	2424.227870
700.407270	2423.325504
700.742910	2420.290729
701.078501	2421.939186
701.414042	2423.002870
701.749533	2418.942220
702.084974	2422.413055
702.420366	2420.875503
702.755709	2421.654361
703.091002	2420.401634
703.426246	2423.496903
703.761440	2420.313414
704.096584	2421.959351
704.431679	2420.691501
704.766725	2424.696697
705.101721	2420.716707
705.436668	2420.169741
705.771565	2424.313570
706.106413	2419.564803
706.441212	2421.056984
706.775961	2420.832653
707.110661	2418.803589
707.445311	2422.992787
707.779913	2419.973136
708.114465	2422.302149
708.448967	2420.983888
708.783421	2423.055802
709.117825	2422.498754
709.452180	2424.401790
709.786485	2422.869279
710.120742	2423.791810
710.454949	2426.554363
710.789107	2423.570000
711.123216	2420.177303
711.457275	2421.946748
711.791286	2422.791141
712.125247	2423.385997
712.459159	2427.151739
712.793023	2425.059661
713.126837	2425.001687
713.460602	2427.368509
713.794318	2426.322470
714.127985	2427.933118
714.461602	2426.030083
714.795171	2424.316090
715.128691	2423.380956
715.462162	2425.349527
715.795584	2421.485483
716.128957	2421.949269
716.462281	2420.459608
716.795556	2419.204360
717.128782	2422.198806
717.461960	2419.186716
717.795088	2420.590678
718.128167	2418.397776
718.461198	2419.093455
718.794180	2418.518763
719.127113	2419.640420
719.459997	2418.279309
719.792833	2421.228384
720.125619	2419.153949
720.458357	2416.908115
720.791046	2417.737385
721.123686	2416.156983
721.456278	2418.410379
721.788821	2417.956675
722.121315	2418.659916
722.453761	2415.070614
722.786158	2418.831315
723.118506	2415.456262
723.450805	2415.922569
723.783056	2415.574730
724.115259	2420.638569
724.447412	2418.148239
724.779518	2419.831984
725.111574	2417.490368
725.443582	2416.986253
725.775542	2418.032292
726.107453	2420.333579
726.439315	2416.131777
726.771129	2424.530339
727.102895	2418.707807
727.434612	2420.149577
727.766281	2418.831315
728.097901	2415.960378
728.429473	2416.439288
728.760996	2418.206212
729.092471	2413.883422
729.423897	2418.964906
729.755276	2422.554207
730.086606	2419.721079
730.417887	2420.613363
730.749120	2420.666295
731.080305	2421.936666
731.411442	2420.424320
731.742530	2421.067067
732.073570	2421.253589
732.404562	2420.361305
732.735506	2424.348858
733.066401	2418.695204
733.397249	2421.588826
733.728048	2420.774680
734.058798	2419.451377
734.389501	2416.328382
734.720156	2416.482137
735.050762	2417.976839
735.381320	2418.049936
735.711831	2415.630182
736.042293	2415.942734
736.372707	2416.774524
736.703073	2417.132446
737.033391	2414.906777
737.363661	2417.429874
737.693883	2414.475758
738.024056	2418.178486
738.354182	2415.708320
738.684260	2417.099679
739.014290	2418.380132
739.344272	2419.867272
739.674207	2417.916346
740.004093	2418.357447
740.333931	2417.351736
740.663722	2418.783424
740.993464	2419.995822
741.323159	2416.885430
741.652806	2417.044226
741.982405	2418.208732
742.311956	2418.123033
742.641460	2416.847621
742.970915	2419.804258
743.300323	2415.123546
743.629683	2416.769483
743.958996	2416.411561
744.288260	2417.266037
744.617477	2412.620613
744.946647	2410.402506
745.275768	2412.479461
745.604842	2410.405026
745.933869	2411.912331
746.262847	2411.637588
746.591778	2412.494585
746.920662	2414.823598
747.249498	2415.138670
747.578286	2414.556417
747.907027	2413.719585
748.235720	2416.996335
748.564365	2415.920049
748.892963	2415.494071
749.221514	2416.328382
749.550017	2419.065729
749.878473	2415.942734
750.206881	2415.446180
750.535242	2412.509708
750.863555	2413.974163
751.191821	2415.373083
751.520039	2415.257137
751.848210	2413.759914
752.176334	2415.604977
752.504411	2413.913669
752.832440	2412.416447
753.160421	2416.434246
753.488356	2414.143042
753.816243	2412.280336
754.144082	2411.680438
754.471875	2412.345871
754.799620	2412.504667
755.127318	2414.657240
755.454969	2411.952661
755.782572	2415.400810
756.110129	2413.664132
756.437638	2415.325193
756.765100	2413.185223
757.092515	2414.480799
757.419882	2412.328227
757.747203	2412.653381
758.074477	2413.913669
758.401703	2413.727147
758.728882	2412.776889
759.056014	2417.145049
759.383099	2414.218659
759.710138	2413.465007
760.037129	2413.459966
760.364073	2415.859555
760.690970	2415.451221
761.017820	2411.854358
761.344623	2416.628331
761.671379	2414.125398
761.998088	2410.586508
762.324751	2416.923238
762.651366	2420.777200
762.977935	2427.766760
763.304456	2429.326997
763.630931	2431.746751
763.957359	2432.500404
764.283740	2429.206010
764.610074	2424.989084
764.936362	2423.254928
765.262602	2420.895667
765.588796	2417.225708
765.914943	2416.817374
766.241044	2416.335944
766.567097	2414.190933
766.893104	2415.536921
767.219064	2413.517939
767.544978	2411.861920
767.870845	2408.386044
768.196665	2408.050808
768.522438	2409.598442
768.848165	2411.017527
769.173846	2411.468710
769.499479	2408.988462
769.825066	2407.143400
770.150607	2408.622978
770.476101	2412.315624
770.801548	2410.387382
771.126949	2407.695406
771.452303	2408.869995
771.777611	2408.393606
772.102872	2412.378638
772.428087	2406.790519
772.753256	2410.125242
773.078378	2408.990983
773.403453	2407.471075
773.728482	2406.687175
774.053465	2407.090468
774.378401	2408.819583
774.703291	2405.981414
775.028135	2408.171795
775.352932	2404.506876
775.677683	2405.678945
776.002388	2409.147258
776.327046	2406.823287
776.651658	2408.713719
776.976224	2406.588873
777.300743	2404.995868
777.625216	2406.641805
777.949643	2408.101219
778.274024	2408.915365
778.598359	2405.187432
778.922647	2405.585683
779.246889	2404.085940
779.571086	2402.440003
779.895236	2404.532082
780.219339	2408.527197
780.543397	2406.767834
780.867409	2408.088616
781.191374	2406.636764
781.515294	2404.461506
781.839167	2408.799419
782.162995	2406.109963
782.486776	2406.699778
782.810511	2405.502504
783.134201	2404.027967
783.457844	2409.371590
783.781441	2404.297668
784.104993	2405.948646
784.428498	2405.540313
784.751958	2406.147772
785.075372	2404.731208
785.398739	2407.511404
785.722061	2404.632905
786.045337	2404.993348
786.368568	2405.270611
786.691752	2409.056518
787.014891	2405.225241
787.337983	2405.658780
787.661030	2408.549882
787.984031	2408.817063
788.306987	2409.979049
788.629897	2408.257495
788.952760	2412.822260
789.275579	2409.094326
789.598351	2409.122053
789.921078	2409.147258
790.243759	2407.024933
790.566395	2408.663308
790.888984	2407.468554
791.211529	2405.996537
791.534027	2408.088616
791.856480	2405.991496
792.178888	2403.382699
792.501249	2402.477812
792.823566	2405.414284
793.145836	2405.245405
793.468062	2406.049469
793.790241	2403.836403
794.112375	2406.646846
794.434464	2406.228430
794.756507	2404.380847
795.078505	2406.175498
795.400457	2405.663821
795.722364	2404.337998
796.044226	2407.087947
796.366042	2402.979407
796.687812	2405.772206
797.009538	2406.011661
797.331218	2408.297824
797.652852	2405.699109
797.974442	2410.281518
798.295986	2406.525858
798.617484	2406.818245
798.938938	2406.888822
799.260346	2406.553585
799.581709	2406.319171
799.903026	2409.255643
800.224299	2405.101732
800.545526	2406.699778
800.866708	2404.060734
801.187845	2407.287073
801.508936	2405.883111
801.829983	2406.858575
802.150984	2403.670045
802.471940	2406.667011
802.792851	2404.254819
803.113717	2404.579973
803.434538	2406.367062
803.755314	2406.246074
804.076045	2405.273132
804.396731	2406.697258
804.717372	2403.085271
805.037967	2404.257339
805.358518	2406.825807
805.679024	2402.765158
805.999485	2404.978224
806.319901	2404.345559
806.640272	2405.079047
806.960598	2406.518297
807.280879	2405.285735
807.601115	2407.158523
807.921306	2405.424366
808.241453	2405.338667
808.561554	2406.132648
808.881611	2406.011661
809.201623	2403.705333
809.521590	2405.444531
809.841513	2402.868501
810.161390	2403.891856
810.481223	2404.038049
810.801011	2403.112997
811.120755	2402.611402
811.440453	2406.745149
811.760107	2403.788512
812.079716	2403.453275
812.399281	2400.358007
812.718801	2404.269942
813.038276	2396.196534
813.357707	2402.860940
813.677093	2402.533265
813.996434	2402.782802
814.315731	2401.764489
814.634983	2405.293296
814.954191	2404.247257
815.273354	2404.194325
815.592473	2405.731877
815.911547	2405.762124
816.230577	2406.339336
816.549562	2404.416136
816.868502	2407.042577
817.187399	2405.426887
817.506250	2406.046949
817.825058	2405.782288
818.143821	2408.456620
818.462539	2406.818245
818.781213	2408.622978
819.099843	2407.841600
819.418429	2409.545510
819.736970	2414.039698
820.055466	2414.720254
820.373919	2416.923238
820.692327	2423.360792
821.010691	2429.516041
821.329011	2451.298866
821.647286	2478.420274
821.965517	2503.807525
822.283704	2525.300484
822.601847	2530.855836
822.919945	2518.457118
823.237999	2500.445075
823.556010	2488.575678
823.873976	2472.136476
824.191897	2459.074846
824.509775	2450.134360
824.827609	2443.054059
825.145398	2435.018460
825.463144	2438.295210
825.780845	2436.382092
826.098502	2439.066507
826.416116	2449.471448
826.733685	2453.829526
827.051210	2454.192489
827.368692	2452.181068
827.686129	2443.653957
828.003522	2436.293872
828.320872	2425.339445
828.638177	2422.859197
828.955439	2415.579771
829.272656	2417.205543
829.589830	2408.731363
829.906960	2413.220511
830.224046	2412.144224
830.541088	2409.757238
830.858086	2412.164389
831.175041	2408.494429
831.491952	2406.750190
831.808819	2405.406722
832.125642	2407.574418
832.442421	2410.606673
832.759157	2416.071283
833.075849	2420.792324
833.392497	2425.299115
833.709101	2427.542429
834.025662	2427.797007
834.342179	2425.135278
834.658653	2421.813158
834.975083	2418.954823
835.291469	2420.996491
835.607811	2415.988104
835.924110	2412.227403
836.240366	2409.961405
836.556578	2407.274470
836.872746	2410.180695
837.188871	2404.680796
837.504952	2405.782288
837.820990	2404.254819
838.136984	2406.692217
838.452935	2404.390930
838.768842	2401.981258
839.084706	2401.880435
839.400526	2405.976373
839.716303	2408.857392
840.032037	2411.274625
840.347727	2413.969122
840.663373	2409.961405
840.978977	2407.345046
841.294537	2405.142062
841.610054	2404.753893
841.925527	2406.651887
842.240957	2403.808677
842.556344	2405.278173
842.871687	2403.085271
843.186987	2399.498490
843.502244	2400.967986
843.817458	2402.689540
844.132629	2399.773233
844.447756	2401.852709
844.762840	2394.898437
845.077881	2395.838612
845.392879	2397.320712
845.707833	2399.160733
846.022745	2395.614281
846.337613	2398.507903
846.652438	2398.581000
846.967221	2399.455640
847.281960	2400.393295
847.596656	2395.778118
847.911309	2400.105949
848.225919	2399.352297
848.540485	2399.125445
848.855009	2400.584859
849.169490	2397.696277
849.483928	2397.320712
849.798323	2400.478994
850.112675	2399.170815
850.426984	2400.027811
850.741251	2399.173336
851.055474	2401.381361
851.369654	2397.469426
851.683792	2395.921791
851.997887	2400.100908
852.311938	2397.305588
852.625947	2400.272307
852.939914	2398.144940
853.253837	2402.071999
853.567718	2397.986144
853.881555	2399.992523
854.195350	2397.658469
854.509103	2398.621329
854.822812	2400.209293
855.136479	2399.561504
855.450103	2401.756927
855.763685	2400.042935
856.077224	2397.741648
856.390720	2397.764333
856.704173	2399.740465
857.017584	2397.600496
857.330953	2398.147461
857.644278	2399.503531
857.957561	2401.709036
858.270802	2399.309447
858.584000	2400.955383
858.897155	2401.121742
859.210268	2399.238871
859.523339	2399.296844
859.836367	2396.201575
860.149352	2399.869015
860.462295	2399.143089
860.775195	2397.434137
861.088054	2395.251318
861.400869	2397.038407
861.713642	2392.506410
862.026373	2398.921278
862.339062	2396.831720
862.651708	2396.831720
862.964312	2399.599313
863.276873	2398.807852
863.589392	2401.857750
863.901869	2398.404560
864.214303	2398.762482
864.526696	2395.737789
864.839045	2400.239540
865.151353	2401.406567
865.463619	2397.189642
865.775842	2399.354817
866.088023	2398.036555
866.400162	2395.556308
866.712258	2399.080074
867.024313	2397.149312
867.336325	2398.795249
867.648296	2399.087636
867.960224	2400.415980
868.272110	2399.480846
868.583954	2399.012019
868.895755	2398.142420
869.207515	2398.026473
869.519233	2399.342214
869.830909	2397.897924
870.142542	2400.244581
870.454134	2398.883469
870.765684	2400.189128
871.077191	2398.278531
871.388657	2401.121742
871.700081	2401.842627
872.011463	2397.212327
872.322803	2398.243243
872.634101	2401.819941
872.945357	2398.986813
873.256571	2400.768861
873.567744	2399.385064
873.878874	2402.351783
874.189963	2399.753068
874.501010	2399.274159
874.812015	2400.310116
875.122979	2402.618964
875.433900	2398.510424
875.744780	2399.100239
876.055618	2402.636608
876.366415	2403.478481
876.677169	2400.020249
876.987882	2399.463202
877.298554	2397.940773
877.609183	2398.674261
877.919771	2397.547563
878.230317	2401.232647
878.540822	2404.796743
878.851285	2403.806156
879.161707	2404.600138
879.472087	2408.761610
879.782425	2410.457958
880.092722	2418.710327
880.402977	2427.018149
880.713191	2440.067176
881.023363	2452.806171
881.333494	2460.012501
881.643583	2461.872687
881.953631	2460.720783
882.263637	2457.953189
882.573602	2452.985132
882.883526	2447.170161
883.193408	2439.850406
883.503248	2438.685899
883.813048	2434.869746
884.122806	2428.487645
884.432522	2425.778025
884.742197	2420.182344
885.051831	2418.649833
885.361424	2415.945254
885.670975	2413.026426
885.980485	2407.892011
886.289954	2407.501322
886.599382	2408.922927
886.908768	2407.271949
887.218113	2403.473440
887.527417	2401.623336
887.836680	2404.794222
888.145901	2405.905797
888.455082	2402.485374
888.764221	2403.390261
889.073319	2402.641649
889.382376	2401.318347
889.691392	2402.840775
890.000366	2401.827503
890.309300	2402.041752
890.618193	2401.262894
890.927044	2400.521844
891.235855	2400.665517
891.544625	2398.265928
891.853353	2400.957904
892.162041	2401.204921
892.470687	2402.419839
892.779293	2404.282545
893.087858	2402.704664
893.396381	2403.425549
893.704864	2407.216497
894.013306	2406.611558
894.321707	2416.361150
894.630068	2416.131777
894.938387	2419.211922
895.246665	2416.371232
895.554903	2417.099679
895.863100	2413.646488
896.171256	2413.465007
896.479371	2411.123391
896.787446	2408.887639
897.095480	2404.799263
897.403473	2406.556105
897.711425	2403.465878
898.019336	2402.336660
898.327207	2404.617782
898.635038	2403.927144
898.942827	2402.805487
899.250576	2398.071843
899.558284	2401.945970
899.865952	2399.712739
900.173579	2399.853891
900.481165	2398.006308
900.788711	2400.572256
901.096216	2403.370096
901.403681	2399.591751
901.711105	2401.507390
902.018489	2397.396329
902.325832	2401.197359
902.633135	2399.896741
902.940397	2403.014695
903.247619	2404.683317
903.554800	2410.241189
903.861941	2416.749318
904.169041	2420.056315
904.476101	2420.699063
904.783121	2420.583116
905.090100	2417.074473
905.397039	2413.253278
905.703938	2413.447363
906.010796	2411.100706
906.317614	2411.693041
906.624391	2406.856054
906.931129	2407.864285
907.237826	2404.093502
907.544483	2402.198028
907.851099	2404.340518
908.157675	2400.857081
908.464211	2402.505538
908.770707	2394.563200
909.077163	2398.028994
909.383578	2391.994732
909.689954	2398.502862
909.996289	2393.376009
910.302584	2396.423386
910.608839	2397.177039
910.915054	2397.081257
911.221229	2397.161915
911.527363	2397.746689
911.833458	2398.951525
912.139513	2396.267110
912.445527	2398.497821
912.751502	2397.678633
913.057436	2398.749879
913.363331	2399.667369
913.669186	2400.390774
913.975000	2400.952863
914.280775	2400.950342
914.586510	2403.289438
914.892205	2407.322361
915.197859	2408.169275
915.503475	2413.999369
915.809050	2418.256623
916.114585	2420.116809
916.420081	2421.132602
916.725536	2420.893147
917.030952	2417.795358
917.336328	2417.515574
917.641665	2416.436767
917.946961	2413.868299
918.252218	2414.566499
918.557435	2411.360325
918.862612	2411.045253
919.167750	2408.381003
919.472848	2407.682803
919.777906	2404.955539
920.082925	2405.714233
920.387904	2401.716598
920.692843	2401.605692
920.997743	2400.922616
921.302603	2399.629560
921.607423	2404.239695
921.912204	2401.136865
922.216946	2397.540002
922.521647	2399.831206
922.826310	2396.836761
923.130932	2398.984292
923.435516	2396.675444
923.740059	2396.158726
924.044564	2398.765002
924.349028	2396.680485
924.653454	2390.288302
924.957840	2392.234187
925.262186	2392.607233
925.566493	2394.966493
925.870761	2388.937273
926.174989	2397.524878
926.479178	2397.855074
926.783328	2396.398180
927.087438	2395.044631
927.391509	2396.446071
927.695541	2394.792573
927.999533	2394.532953
928.303486	2393.733931
928.607400	2395.069836
928.911275	2393.053375
929.215110	2392.876934
929.518906	2394.386760
929.822663	2397.585372
930.126381	2395.253838
930.430060	2394.903478
930.733699	2396.289796
931.037299	2397.996226
931.340861	2397.323232
931.644383	2395.810886
931.947866	2395.914230
932.251309	2396.141082
932.554714	2394.865670
932.858080	2394.565721
933.161407	2394.376678
933.464694	2394.951369
933.767943	2393.252500
934.071153	2395.684857
934.374323	2393.270144
934.677455	2396.073026
934.980548	2392.904661
935.283602	2394.331307
935.586617	2394.353993
935.889593	2394.502707
936.192530	2395.079919
936.495428	2395.168139
936.798287	2395.488252
937.101108	2395.175701
937.403890	2396.579662
937.706632	2397.587893
938.009336	2394.911040
938.312002	2394.391801
938.614628	2397.850033
938.917216	2398.623850
939.219765	2395.684857
939.522275	2395.952038
939.824747	2396.998078
940.127179	2393.630587
940.429573	2391.178066
940.731929	2391.888868
941.034246	2390.739485
941.336524	2398.366751
941.638763	2393.360885
941.940964	2396.168808
942.243126	2398.162584
942.545250	2395.677295
942.847335	2395.069836
943.149381	2398.270969
943.451389	2394.530433
943.753359	2395.773077
944.055290	2394.714435
944.357182	2395.548746
944.659036	2392.065309
944.960851	2394.719476
945.262628	2393.796945
945.564367	2395.896586
945.866067	2396.819117
946.167729	2395.624363
946.469352	2397.187121
946.770937	2396.672923
947.072484	2393.660834
947.373992	2397.761813
947.675462	2395.190824
947.976893	2393.030690
948.278286	2392.889537
948.579641	2394.200237
948.880958	2394.142264
949.182236	2394.913561
949.483476	2396.055382
949.784678	2393.139074
950.085841	2394.802655
950.386967	2397.514796
950.688054	2392.498848
950.989103	2394.724517
951.290114	2394.076729
951.591087	2394.911040
951.892021	2393.814589
952.192917	2394.830382
952.493776	2397.514796
952.794596	2394.353993
953.095378	2396.912378
953.396122	2394.845505
953.696828	2393.668396
953.997496	2397.315670
954.298126	2393.121430
954.598718	2395.465567
954.899272	2396.249466
955.199788	2395.412635
955.500266	2393.638149
955.800706	2393.164280
956.101108	2392.541698
956.401472	2392.365257
956.701798	2390.106820
957.002087	2391.092366
957.302337	2393.378529
957.602550	2392.387943
957.902724	2394.290978
958.202861	2393.799466
958.502960	2390.689074
958.803022	2393.744013
959.103045	2392.977758
959.403031	2392.289640
959.702979	2390.313508
960.002889	2394.757285
960.302762	2391.972047
960.602596	2391.659496
960.902393	2393.166801
961.202153	2395.508417
961.501875	2392.614794
961.801559	2393.002963
962.101205	2392.473642
962.400814	2394.023797
962.700385	2392.745864
962.999918	2392.156049
963.299414	2393.275186
963.598873	2390.169835
963.898293	2393.323077
964.197677	2393.068498
964.497022	2393.295350
964.796331	2395.034548
965.095601	2393.534805
965.394835	2391.097407
965.694030	2392.965155
965.993189	2394.001112
966.292309	2392.387942
966.591393	2392.335010
966.890439	2390.686553
967.189447	2393.852398
967.488419	2391.561193
967.787353	2394.842984
968.086249	2392.524054
968.385108	2393.098745
968.683930	2393.585217
968.982714	2390.915926
969.281462	2394.976575
969.580172	2388.544063
969.878844	2392.317366
970.177480	2393.146636
970.476078	2393.567573
970.774639	2394.679147
971.073162	2394.704353
971.371649	2389.272509
971.670098	2389.751419
971.968510	2390.505072
972.266885	2387.871069
972.565223	2391.873745
972.863524	2391.115051
973.161788	2390.747047
973.460014	2390.225287
973.758204	2392.952552
974.056356	2393.572614
974.354471	2393.194527
974.652550	2390.714279
974.950591	2394.855587
975.248595	2391.929198
975.546563	2390.157232
975.844493	2389.101110
976.142386	2393.071019
976.440243	2392.335010
976.738062	2390.681512
977.035845	2395.352141
977.333590	2391.757798
977.631299	2392.153529
977.928971	2393.756616
978.226606	2391.117572
978.524204	2392.899620
978.821765	2394.719476
979.119290	2392.652603
979.416777	2391.856101
979.714228	2392.448436
980.011642	2390.983981
980.309020	2395.175701
980.606360	2390.013559
980.903664	2393.025648
981.200931	2391.427603
981.498162	2392.760988
981.795356	2391.699825
982.092513	2394.016235
982.389633	2392.226626
982.686717	2394.459857
982.983764	2393.373488
983.280775	2397.237532
983.577749	2394.933725
983.874686	2397.666031
984.171587	2394.452295
984.468451	2396.945146
984.765279	2393.015566
985.062070	2395.647048
985.358824	2392.002294
985.655543	2393.512120
985.952224	2391.321738
986.248869	2391.944321
986.545478	2388.896943
986.842050	2390.583209
987.138586	2390.691594
987.435086	2389.985833
987.731549	2387.860986
988.027975	2390.888199
988.324366	2392.203940
988.620719	2393.955741
988.917037	2390.857952
989.213318	2389.605226
989.509563	2390.477345
989.805772	2391.286450
990.101944	2393.116389
990.398080	2391.077243
990.694180	2392.786194
990.990244	2389.496841
991.286271	2390.593292
991.582262	2388.947355
991.878217	2390.366440
992.174136	2392.231667
992.470019	2392.551780
992.765865	2388.153373
993.061676	2390.638662
993.357450	2392.004815
993.653188	2390.694115
993.948890	2392.289640
994.244556	2392.420710
994.540186	2391.997253
994.835780	2391.291492
995.131337	2392.027500
995.426859	2391.896430
995.722345	2391.777963
996.017795	2392.148488
996.313208	2391.654455
996.608586	2392.730741
996.903928	2390.893240
997.199234	2392.075391
997.494504	2390.983981
997.789738	2388.453322
998.084936	2392.483724
998.380099	2392.876934
998.675225	2394.633777
998.970316	2394.003632
999.265371	2392.461039
999.560390	2394.623694
999.855373	2394.636297
1000.150320	2394.064126
1000.445232	2389.660678
1000.740108	2389.902654
1001.034948	2391.551111
1001.329752	2392.022459
1001.624521	2390.999105
1001.919254	2387.934083
1002.213951	2391.440206
1002.508613	2386.668753
1002.803239	2388.322252
1003.097829	2386.951058
1003.392384	2390.016080
1003.686903	2391.445247
1003.981386	2391.248642
1004.275834	2393.398694
1004.570246	2390.308467
1004.864623	2391.591440
1005.158964	2391.306615
1005.453270	2390.593292
1005.747540	2390.689074
1006.041775	2389.557335
1006.335974	2390.900802
1006.630138	2391.301574
1006.924266	2388.607077
1007.218359	2391.891389
1007.512416	2392.004815
1007.806438	2389.474156
1008.100425	2393.280227
1008.394376	2394.525392
1008.688292	2390.709238
1008.982172	2390.384084
1009.276017	2390.253014
1009.569827	2392.720659
1009.863602	2388.367622
1010.157341	2392.786194
1010.451045	2391.349465
1010.744714	2388.569268
1011.038347	2388.481048
1011.331945	2390.530277
1011.625508	2392.481204
1011.919036	2391.818292
1012.212528	2389.441388
1012.505986	2387.419885
1012.799408	2391.785525
1013.092795	2391.848539
1013.386147	2389.902654
1013.679464	2388.844011
1013.972745	2391.344424
1014.265992	2391.775442
1014.559204	2389.489279
1014.852380	2392.390463
1015.145521	2392.128323
1015.438628	2391.283930
1015.731699	2391.551111
1016.024736	2390.641183
1016.317737	2390.999105
1016.610703	2392.322408
1016.903635	2390.505072
1017.196531	2384.788403
1017.489393	2387.198075
1017.782219	2385.718496
1018.075011	2390.036244
1018.367768	2388.448281
1018.660490	2391.820813
1018.953177	2391.820813
1019.245829	2391.820813
