Dividing Wavelength (nm)	Counts (n)	Blue Motor Position (mm): 0.000000	Red Motor Position (mm): 27.400000	
326.493990	1986.983391
326.888308	1986.983391
327.282561	1986.983391
327.676750	1963.221913
328.070874	1963.433641
328.464933	1970.269446
328.858929	1979.537607
329.252859	1991.848105
329.646726	2006.923675
330.040528	2021.553104
330.434265	2038.887111
330.827938	2058.958465
331.221547	2081.207598
331.615091	2100.374065
332.008571	2123.114710
332.401986	2140.431073
332.795338	2161.777839
333.188625	2183.071673
333.581847	2202.848120
333.975006	2221.192878
334.368100	2239.761969
334.761129	2252.745460
335.154095	2267.490835
335.546996	2289.503034
335.939833	2316.379945
336.332606	2328.622388
336.725315	2338.281238
337.117960	2347.453618
337.510540	2356.313446
337.903056	2367.086391
338.295508	2373.516383
338.687896	2381.524256
339.080220	2388.221429
339.472480	2390.948693
339.864676	2393.391132
340.256807	2399.654766
340.648875	2401.381361
341.040879	2400.536968
341.432818	2403.912020
341.824694	2402.127452
342.216506	2402.505538
342.608253	2402.714746
342.999937	2403.291958
343.391557	2401.046124
343.783113	2400.466392
344.174605	2397.683675
344.566033	2396.262069
344.957397	2396.148643
345.348697	2392.753426
345.739934	2390.187479
346.131106	2390.822664
346.522215	2389.935421
346.913260	2387.520708
347.304241	2387.772766
347.695159	2383.691952
348.086012	2381.940151
348.476802	2380.730274
348.867528	2381.022661
349.258191	2378.892774
349.648789	2378.852444
350.039324	2380.465614
350.429796	2377.992928
350.820203	2377.955119
351.210548	2375.348843
351.600828	2376.006713
351.991045	2377.541744
352.381198	2374.978318
352.771288	2375.832793
353.161314	2375.946219
353.551276	2376.483102
353.941175	2374.166692
354.331010	2375.341281
354.720782	2376.846065
355.110490	2373.158461
355.500135	2377.478730
355.889717	2377.498895
356.279235	2378.575181
356.668689	2377.125849
357.058080	2375.840355
357.447408	2376.473020
357.836672	2377.027547
358.225873	2376.851106
358.615010	2377.708102
359.004084	2382.285470
359.393095	2384.218753
359.782043	2385.635317
360.170927	2382.358567
360.559748	2385.428630
360.948505	2386.646068
361.337199	2386.419216
361.725830	2385.436191
362.114398	2389.837119
362.502903	2388.970040
362.891344	2390.278220
363.279722	2392.173693
363.668037	2393.323077
364.056289	2391.856101
364.444478	2394.701832
364.832603	2394.137223
365.220665	2392.864332
365.608665	2394.875752
365.996601	2397.184600
366.384474	2397.978582
366.772284	2396.824158
367.160031	2400.148799
367.547715	2399.397667
367.935336	2402.339180
368.322893	2403.433111
368.710388	2399.727863
369.097820	2405.895714
369.485189	2405.474778
369.872495	2408.539799
370.259738	2407.062741
370.646918	2411.239337
371.034035	2412.494585
371.421090	2416.378794
371.808081	2420.285688
372.195010	2423.305339
372.581875	2429.538726
372.968678	2434.703388
373.355418	2443.369131
373.742096	2452.738116
374.128710	2465.071299
374.515262	2476.590335
374.901751	2491.698673
375.288177	2509.100736
375.674540	2531.148223
376.060841	2549.591284
376.447079	2575.379307
376.833254	2597.779674
377.219367	2623.424023
377.605417	2661.328459
377.991404	2689.848787
378.377329	2727.385218
378.763191	2762.343100
379.148991	2809.563588
379.534727	2860.701053
379.920402	2907.803073
380.306013	2956.619087
380.691563	3018.806761
381.077049	3075.141655
381.462474	3131.746251
381.847835	3206.980431
382.233134	3278.675721
382.618371	3339.708970
383.003545	3423.901281
383.388657	3503.054958
383.773706	3597.241356
384.158693	3671.973941
384.543618	3766.649331
384.928480	3846.982638
385.313280	3953.633289
385.698017	4054.166499
386.082692	4174.733255
386.467305	4241.649531
386.851856	4371.247514
387.236344	4522.540103
387.620770	4584.563939
388.005133	4708.868711
388.389435	4858.404457
388.773674	4946.395277
389.157851	5080.696657
389.541965	5211.749013
389.926018	5237.121140
390.310008	5416.238377
390.693936	5539.686153
391.077802	5656.986241
391.461606	5794.841634
391.845348	5907.987812
392.229027	6026.830493
392.612645	6253.851295
392.996200	6371.058122
393.379694	6548.284926
393.763125	6769.478154
394.146494	6866.853082
394.529801	7003.927096
394.913047	7250.046309
395.296230	7245.698314
395.679351	7303.364073
396.062410	7572.327275
396.445408	7462.712425
396.828343	7620.659337
397.211217	7753.846622
397.594028	7635.016543
397.976778	7848.839604
398.359466	8005.571598
398.742092	7981.197619
399.124656	8132.142368
399.507158	8317.976943
399.889598	8349.191768
400.271977	8548.471100
400.654294	8582.735822
401.036549	8784.041698
401.418742	8810.752252
401.800874	9111.580587
402.182944	9194.880613
402.564952	9563.479700
402.946898	9389.272547
403.328783	9444.687430
403.710606	9637.715732
404.092367	9900.299353
404.474067	10268.744685
404.855705	10051.483557
405.237282	10005.445220
405.618797	10434.626373
406.000250	10679.122334
406.381642	11053.241485
406.762972	10998.486992
407.144240	10794.355550
407.525447	11054.564788
407.906593	10993.420633
408.287677	11249.501166
408.668700	11408.504199
409.049661	11378.980682
409.430560	11540.703418
409.811399	11516.939418
410.192176	11678.500838
410.572891	11744.502144
410.953545	12235.901218
411.334138	11711.689274
411.714669	12309.890233
412.095139	11617.333997
412.475547	12120.179011
412.855894	11967.880712
413.236180	12294.744087
413.616405	11980.188689
413.996568	12253.434351
414.376670	12226.960732
414.756711	12105.229469
415.136691	12386.193138
415.516609	12563.903893
415.896466	12635.594142
416.276262	12930.489039
416.655997	13369.850803
417.035670	13413.179520
417.415283	14059.987285
417.794834	14148.109175
418.174324	13891.101069
418.553753	13802.210403
418.933121	14279.708496
419.312428	14096.575979
419.691674	14004.458975
420.070859	14464.605416
420.449983	14116.080204
420.829045	14660.239994
421.208047	14405.109718
421.586988	14865.964441
421.965867	15126.508916
422.344686	15115.418378
422.723444	15680.226734
423.102141	14373.161406
423.480777	15561.880606
423.859352	15057.586261
424.237866	16180.369689
424.616319	15879.158226
424.994712	16540.718928
425.373044	16321.590052
425.751314	17007.640679
426.129524	16133.597864
426.507673	17219.895942
426.885762	16917.237667
427.263789	17115.559180
427.641756	17282.711239
428.019662	17345.221547
428.397508	17386.513638
428.775292	17686.172425
429.153016	17639.387997
429.530679	17726.491574
429.908282	17751.780522
430.285824	17465.750494
430.663305	18170.602104
431.040726	17776.998894
431.418086	17603.096731
431.795385	18252.604033
432.172624	18673.394186
432.549802	18220.474239
432.926920	18406.641530
433.303977	18292.466957
433.680974	18553.868428
434.057910	18840.344598
434.434786	18857.461836
434.811601	18780.750598
435.188355	19818.787190
435.565050	19464.666297
435.941683	19423.800183
436.318257	20294.062133
436.694770	20121.470669
437.071222	20706.511697
437.447614	19776.023082
437.823946	19801.387647
438.200218	19943.941396
438.576429	19731.812162
438.952580	19993.145578
439.328670	19962.810434
439.704700	20385.060001
440.080670	19950.142015
440.456580	20536.161026
440.832429	20705.957170
441.208218	19702.119766
441.583947	20148.677777
441.959616	20252.303735
442.335224	20492.277782
442.710773	20618.478027
443.086261	21154.798823
443.461689	20513.135556
443.837057	20632.845316
444.212365	21285.273967
444.587612	21265.865525
444.962800	20846.852379
445.337927	21278.458327
445.712995	20012.664925
446.088002	21864.462215
446.462949	22047.531717
446.837837	22239.387950
447.212664	22186.760824
447.587431	25021.812486
447.962139	27953.621534
448.336786	30322.865539
448.711374	28762.192364
449.085901	25073.295269
449.460369	25025.404308
449.834776	24935.820483
450.209124	27410.729594
450.583412	26950.081558
450.957640	27467.044323
451.331808	26115.044671
451.705917	24747.717389
452.079965	24776.802327
452.453954	25130.938343
452.827883	25015.763101
453.201752	24809.705938
453.575562	24972.923376
453.949311	26090.204385
454.323001	26147.847459
454.696632	25891.703911
455.070202	27432.421679
455.443713	27550.271253
455.817164	28139.463670
456.190556	28646.351690
456.563888	28072.507065
456.937160	28498.661005
457.310373	26823.987177
457.683526	27255.527590
458.056619	27219.140542
458.429653	27139.512996
458.802628	27692.857769
459.175542	27799.039592
459.548398	29055.343022
459.921194	30586.601064
460.293930	31217.103217
460.666607	33174.772299
461.039224	34874.034355
461.411782	35207.186568
461.784280	33981.762727
462.156719	33466.183758
462.529099	32869.031359
462.901419	31578.690059
463.273680	30480.298253
463.645882	30523.873987
464.018024	30452.476125
464.390106	31213.503833
464.762130	33760.655199
465.134094	37604.759338
465.505999	42640.309941
465.877845	47025.965073
466.249631	48066.565092
466.621358	46283.640046
466.993026	44126.580727
467.364634	42012.048582
467.736184	40009.969455
468.107674	38713.929130
468.479105	37833.496652
468.850477	37060.254228
469.221790	35603.842197
469.593043	33858.919890
469.964238	32908.891763
470.335373	32733.636049
470.706449	34191.255437
471.077467	36418.142298
471.448425	40531.007993
471.819324	43036.484140
472.190164	41175.297702
472.560945	37744.283353
472.931667	34747.859315
473.302330	33600.217957
473.672934	32718.300859
474.043479	33038.237688
474.413965	32157.782525
474.784393	31680.055060
475.154761	32310.544610
475.525070	32193.206713
475.895321	31636.093678
476.265513	31991.545435
476.635645	32655.142763
477.005719	32347.798737
477.375734	32570.393405
477.745691	32970.028356
478.115588	33943.336532
478.485427	35387.947222
478.855207	38018.272585
479.224928	40056.027957
479.594591	41255.676379
479.964194	40138.080298
480.333739	40019.053614
480.703226	39787.866299
481.072653	40044.919775
481.442022	40204.013549
481.811333	40157.481178
482.180584	38778.692834
482.549777	38061.296312
482.918912	37361.422842
483.287988	36832.714188
483.657005	35888.518675
484.025964	35117.769102
484.394864	34847.762382
484.763706	34230.891509
485.132489	33279.252733
485.501213	32873.628891
485.869879	32708.886504
486.238487	32116.800464
486.607036	31964.310602
486.975527	31293.655659
487.343959	31152.268937
487.712333	30914.767577
488.080648	30559.477136
488.448905	30560.818083
488.817104	30120.009508
489.185244	30462.119852
489.553326	31256.368764
489.921350	32803.173725
490.289315	34550.435128
490.657222	34653.062938
491.025070	34494.667363
491.392861	33437.325673
491.760593	32168.782322
492.128267	30679.622956
492.495883	29336.019344
492.863440	28113.552140
493.230939	26935.341224
493.598380	25972.143083
493.965763	25451.318793
494.333088	24677.378170
494.700354	24080.603857
495.067563	23607.277319
495.434713	23224.235327
495.801805	22941.242594
496.168839	22432.212084
496.535815	21958.109209
496.902733	21678.917506
497.269593	21163.653610
497.636395	20829.238587
498.003139	20717.418233
498.369825	20162.200672
498.736453	20018.759680
499.103023	19505.822277
499.469535	19145.074787
499.835989	18893.614471
500.202385	18461.708574
500.568723	18176.207867
500.935003	17954.134958
501.301226	17590.566943
501.667390	17551.724852
502.033497	17363.296604
502.399546	16855.995210
502.765537	16327.039540
503.131470	16183.139803
503.497345	16043.683844
503.863163	15302.004084
504.228923	15242.798253
504.594625	15116.403923
504.960269	14618.882368
505.325856	14579.347119
505.691385	14126.502789
506.056856	13912.520932
506.422270	13792.186069
506.787625	13430.468157
507.152924	13229.363927
507.518164	13007.938806
507.883347	12536.996735
508.248472	12367.538348
508.613540	12247.127868
508.978550	12100.251330
509.343503	11794.999382
509.708398	11621.054369
510.073236	11520.972342
510.438016	11299.574947
510.802738	10958.346805
511.167403	10869.526715
511.532010	10710.364885
511.896561	10564.597401
512.261053	10523.161637
512.625488	10220.878929
512.989866	9986.475358
513.354186	9756.760059
513.718449	9559.398886
514.082655	9483.010282
514.446803	9232.384277
514.810894	9133.307960
515.174927	8935.682127
515.538904	8741.738856
515.902822	8656.712234
516.266684	8406.386178
516.630488	8291.881410
516.994235	8097.131555
517.357925	8011.830190
517.721558	7871.653346
518.085133	7750.038030
518.448651	7602.196111
518.812112	7420.933863
519.175516	7281.919004
519.538863	7172.674680
519.902152	7022.251690
520.265385	6929.562515
520.628560	6799.483102
520.991678	6640.129708
521.354739	6530.477050
521.717743	6427.461072
522.080690	6297.495084
522.443580	6222.013888
522.806413	6109.810406
523.169189	5988.522765
523.531908	5888.198762
523.894569	5767.936996
524.257174	5673.496020
524.619722	5590.574080
524.982213	5485.473584
525.344647	5381.829982
525.707025	5286.322802
526.069345	5218.214293
526.431608	5124.665601
526.793815	5059.604469
527.155964	4948.585659
527.518057	4873.646386
527.880093	4783.573570
528.242072	4737.636055
528.603995	4650.408970
528.965860	4578.746448
529.327669	4513.297148
529.689421	4443.968679
530.051117	4384.445255
530.412755	4327.074404
530.774337	4274.532978
531.135862	4211.999985
531.497331	4161.699352
531.858743	4104.409159
532.220098	4070.666196
532.581396	4011.377185
532.942638	3953.703865
533.303824	3923.948454
533.664953	3881.988410
534.026025	3832.262469
534.387040	3812.453255
534.747999	3774.022018
535.108902	3742.237543
535.469748	3697.625852
535.830537	3668.510668
536.191270	3642.553767
536.551947	3610.192080
536.912567	3587.522011
537.273131	3567.490986
537.633638	3525.011703
537.994089	3508.098632
538.354483	3480.077379
538.714821	3469.168322
539.075103	3458.753298
539.435328	3433.156839
539.795497	3411.459713
540.155609	3395.786766
540.515665	3387.060528
540.875665	3359.238400
541.235609	3352.140456
541.595496	3336.646469
541.955328	3330.276972
542.315102	3307.697643
542.674821	3287.810292
543.034483	3274.788991
543.394090	3264.086622
543.753640	3251.634972
544.113134	3256.434150
544.472571	3227.054305
544.831953	3240.617530
545.191278	3217.153479
545.550548	3202.145964
545.909761	3202.468598
546.268918	3197.155222
546.628019	3189.364119
546.987064	3172.128414
547.346053	3155.452277
547.704986	3161.204233
548.063863	3146.337871
548.422684	3139.529792
548.781449	3131.952938
549.140158	3128.777011
549.498811	3123.259468
549.857408	3104.801283
550.215949	3107.110132
550.574434	3102.323556
550.932864	3093.120930
551.291237	3095.802824
551.649555	3086.143973
552.007817	3085.387800
552.366022	3072.482446
552.724173	3071.950604
553.082267	3068.414235
553.440305	3069.316602
553.798288	3057.941238
554.156215	3055.831515
554.514086	3052.910166
554.871902	3041.108825
555.229661	3037.373330
555.587365	3033.151364
555.945014	3026.870086
556.302606	3019.749456
556.660143	3022.738861
557.017625	3016.064373
557.375050	3009.546161
557.732421	3009.568846
558.089735	3004.673886
558.446994	3002.324708
558.804197	3004.426869
559.161345	2996.330776
559.518437	2984.869713
559.875474	2982.790237
560.232455	2985.018427
560.589381	2980.599856
560.946251	2976.221613
561.303065	2981.686224
561.659825	2972.546612
562.016528	2967.520582
562.373177	2958.953141
562.729770	2960.331897
563.086307	2952.762604
563.442789	2955.303346
563.799216	2954.027934
564.155587	2945.702468
564.511904	2946.541820
564.868164	2940.401695
565.224370	2944.472427
565.580520	2935.733586
565.936615	2938.697785
566.292654	2930.213523
566.648638	2930.699994
567.004567	2926.656989
567.360441	2924.738830
567.716260	2919.362439
568.072023	2920.537028
568.427732	2914.810277
568.783385	2909.305337
569.138982	2909.365831
569.494525	2909.070924
569.850013	2903.432393
570.205445	2903.248391
570.560823	2901.163874
570.916145	2898.842422
571.271412	2894.055847
571.626625	2890.302708
571.981782	2888.760115
572.336884	2885.480844
572.691931	2886.504198
573.046923	2879.935575
573.401860	2875.675800
573.756743	2875.070862
574.111570	2871.605068
574.466342	2869.225644
574.821059	2869.588607
575.175722	2861.152236
575.530330	2857.371370
575.884882	2855.420444
576.239380	2852.917511
576.593823	2852.799044
576.948211	2846.855523
577.302544	2842.421829
577.656823	2837.998216
578.011047	2841.776561
578.365216	2838.267918
578.719330	2832.117710
579.073389	2825.770897
579.427394	2829.869356
579.781344	2824.286278
580.135239	2821.266627
580.489080	2817.936944
580.842866	2812.084165
581.196597	2813.588949
581.550273	2810.947385
581.903895	2805.626447
582.257463	2809.316571
582.610975	2804.134265
582.964434	2802.642084
583.317837	2797.157308
583.671186	2793.825106
584.024481	2793.189920
584.377721	2788.599950
584.730906	2786.497788
585.084037	2784.667850
585.437113	2781.214659
585.790135	2780.012344
586.143103	2772.609410
586.496016	2773.287445
586.848874	2766.686054
587.201679	2770.068668
587.554428	2758.577358
587.907124	2761.047523
588.259765	2754.002511
588.612352	2759.015938
588.964884	2752.671646
589.317362	2752.215422
589.669786	2749.702407
590.022155	2745.954309
590.374470	2745.697210
590.726731	2741.848289
591.078937	2733.081722
591.431090	2733.691702
591.783188	2729.613408
592.135232	2726.530743
592.487222	2725.855228
592.839157	2725.935887
593.191038	2723.528736
593.542866	2717.013044
593.894639	2711.187991
594.246358	2713.872406
594.598022	2706.976107
594.949633	2704.679862
595.301190	2702.693647
595.652692	2700.599048
596.004141	2702.360931
596.355535	2694.405990
596.706876	2689.826102
597.058162	2687.058508
597.409395	2688.742254
597.760573	2688.318797
598.111698	2683.018023
598.462768	2684.152283
598.813785	2681.704803
599.164748	2676.719102
599.515657	2676.262877
599.866511	2674.168278
600.217312	2671.965294
600.568060	2667.246774
600.918753	2675.131138
601.269392	2671.075530
601.619978	2668.834737
601.970510	2667.236691
602.320988	2664.295178
602.671412	2667.319870
603.021783	2663.491114
603.372100	2661.628408
603.722363	2659.501041
604.072572	2660.166473
604.422728	2658.795279
604.772830	2654.296049
605.122878	2651.110040
605.472872	2652.826553
605.822813	2647.314051
606.172701	2650.852941
606.522534	2650.895791
606.872314	2648.957467
607.222041	2650.053918
607.571714	2651.525935
607.921333	2644.493526
608.270899	2647.883702
608.620411	2646.888074
608.969870	2647.077117
609.319276	2644.513690
609.668627	2646.731798
610.017926	2645.652991
610.367171	2646.573002
610.716362	2648.188692
611.065500	2645.642909
611.414585	2648.980153
611.763616	2645.645429
612.112594	2643.918834
612.461518	2643.835655
612.810389	2645.968063
613.159207	2643.737353
613.507971	2642.320788
613.856682	2644.382620
614.205340	2645.209370
614.553945	2645.148876
614.902496	2643.865902
615.250994	2643.288690
615.599439	2644.249030
615.947830	2642.913124
616.296169	2644.044863
616.644454	2646.199956
616.992686	2642.056128
617.340864	2644.967394
617.688990	2642.293062
618.037063	2644.062507
618.385082	2644.261633
618.733048	2644.690131
619.080961	2643.971766
619.428821	2646.467137
619.776628	2645.269863
620.124382	2640.357259
620.472083	2643.883546
620.819731	2644.327168
621.167326	2642.192239
621.514868	2642.963536
621.862357	2636.770478
622.209793	2634.718728
622.557176	2634.887607
622.904506	2628.664303
623.251783	2626.161370
623.599007	2628.528192
623.946179	2624.308746
624.293297	2626.763788
624.640363	2621.294136
624.987376	2622.055350
625.334336	2619.055863
625.681243	2619.262551
626.028097	2618.521501
626.374899	2617.616614
626.721647	2615.547220
627.068343	2613.926489
627.414987	2612.774586
627.761577	2617.034361
628.108115	2615.262395
628.454600	2611.468927
628.801032	2610.788371
629.147412	2611.002620
629.493739	2610.748042
629.840014	2607.226796
630.186236	2607.677979
630.532405	2607.768720
630.878521	2606.692434
631.224585	2607.473812
631.570597	2606.911724
631.916556	2607.398195
632.262462	2605.127155
632.608316	2605.928699
632.954117	2604.093719
633.299866	2604.023143
633.645562	2601.265632
633.991206	2601.772267
634.336797	2597.767071
634.682336	2599.125662
635.027823	2596.413521
635.373257	2596.108531
635.718639	2591.299270
636.063968	2594.444950
636.409245	2590.124682
636.754470	2592.070567
637.099642	2585.476738
637.444762	2587.571337
637.789829	2585.706110
638.134845	2584.614700
638.479808	2582.381469
638.824719	2585.091089
639.169577	2579.588670
639.514383	2579.654205
639.859137	2576.062383
640.203839	2578.676221
640.548489	2576.637074
640.893086	2576.453072
641.237632	2570.166753
641.582125	2574.076168
641.926566	2570.474264
642.270955	2576.889132
642.615292	2575.127249
642.959576	2574.547516
643.303809	2573.415777
643.647990	2574.943247
643.992118	2574.643298
644.336195	2574.734039
644.680219	2573.937537
645.024192	2575.144893
645.368112	2576.309399
645.711981	2574.396282
646.055797	2579.354256
646.399562	2579.326530
646.743274	2581.887436
647.086935	2585.007910
647.430544	2583.288877
647.774101	2582.482292
648.117606	2583.140163
648.461059	2585.887592
648.804460	2584.357602
649.147810	2579.089596
649.491108	2579.901222
649.834354	2577.791499
650.177548	2576.657239
650.520690	2572.294120
650.863781	2573.342680
651.206820	2572.503328
651.549807	2570.781774
651.892742	2568.162895
652.235626	2566.514438
652.578458	2564.210630
652.921238	2563.247770
653.263967	2563.703994
653.606644	2560.795248
653.949269	2561.952193
654.291843	2560.704508
654.634365	2560.495300
654.976836	2559.545042
655.319255	2559.872717
655.661622	2560.707028
656.003938	2558.282233
656.346203	2555.870041
656.688416	2559.875238
657.030577	2557.500854
657.372687	2557.722665
657.714746	2555.358364
658.056753	2556.187634
658.398708	2550.720503
658.740612	2550.798640
659.082465	2552.129505
659.424266	2555.065977
659.766016	2551.771583
660.107715	2556.185113
660.449362	2552.356357
660.790958	2557.425237
661.132503	2554.168652
661.473996	2556.530432
661.815438	2553.097407
662.156829	2556.043961
662.498168	2553.795606
662.839456	2554.377860
663.180693	2554.574465
663.521879	2554.783672
663.863013	2554.357695
664.204097	2552.512633
664.545129	2556.505227
664.886110	2555.524722
665.227040	2556.192675
665.567918	2558.085628
665.908746	2558.814075
666.249522	2560.681822
666.590248	2558.128478
666.930922	2558.854404
667.271545	2558.788869
667.612118	2559.643345
667.952639	2556.795093
668.293109	2557.964641
668.633528	2557.311811
668.973896	2555.491955
669.314213	2557.218550
669.654480	2554.902140
669.994695	2555.277706
670.334859	2555.199568
670.674973	2553.422561
671.015035	2553.813250
671.355047	2554.786193
671.695008	2555.038251
672.034918	2550.770914
672.374777	2556.054043
672.714585	2556.167469
673.054342	2555.338199
673.394049	2553.664536
673.733705	2556.038920
674.073310	2553.846018
674.412864	2554.140925
674.752368	2550.367622
675.091820	2553.815771
675.431223	2550.418033
675.770574	2550.120605
676.109875	2544.000644
676.449125	2544.802188
676.788324	2544.320758
677.127473	2545.863351
677.466571	2541.565767
677.805619	2544.414019
678.144616	2542.473175
678.483562	2543.340253
678.822458	2542.924358
679.161303	2544.030891
679.500098	2541.636343
679.838842	2542.523586
680.177535	2541.739687
680.516179	2543.650284
680.854771	2544.421581
681.193314	2544.943340
681.531805	2551.121274
681.870247	2553.392314
682.208638	2555.945658
682.546978	2560.099569
682.885268	2559.245094
683.223508	2555.663354
683.561697	2556.076728
683.899836	2553.914073
684.237925	2552.409289
684.575963	2552.207643
684.913951	2552.300904
685.251889	2550.216387
685.589776	2550.155893
685.927614	2551.832077
686.265401	2550.468445
686.603137	2552.951213
686.940824	2552.341233
687.278460	2555.933056
687.616046	2553.982129
687.953582	2561.412790
688.291068	2558.065464
688.628504	2558.483879
688.965889	2559.902964
689.303224	2558.685526
689.640510	2555.192006
689.977745	2554.009855
690.314930	2549.200595
690.652065	2547.012734
690.989150	2543.171375
691.326185	2541.772454
691.663170	2536.917823
692.000105	2536.020498
692.336990	2532.746268
692.673825	2531.264169
693.010610	2530.361803
693.347345	2526.969106
693.684030	2520.460977
694.020665	2521.935514
694.357251	2515.626510
694.693786	2523.894002
695.030272	2518.315966
695.366707	2517.438805
695.703093	2513.665501
696.039429	2514.255316
696.375716	2516.279339
696.711952	2515.515605
697.048139	2516.881757
697.384276	2514.245234
697.720363	2514.706499
698.056400	2510.608041
698.392388	2512.233813
698.728326	2512.009482
699.064214	2512.811026
699.400053	2510.996210
699.735842	2511.691889
700.071581	2508.405057
700.407270	2507.598472
700.742910	2507.671569
701.078501	2507.752228
701.414042	2503.278204
701.749533	2502.549757
702.084974	2503.472288
702.420366	2501.944818
702.755709	2502.416166
703.091002	2500.316526
703.426246	2496.346617
703.761440	2497.795949
704.096584	2498.194200
704.431679	2495.008191
704.766725	2497.248984
705.101721	2498.710918
705.436668	2497.369971
705.771565	2496.026504
706.106413	2495.744199
706.441212	2495.845022
706.775961	2498.952894
707.110661	2499.938439
707.445311	2501.193687
707.779913	2495.724035
708.114465	2501.034890
708.448967	2500.666886
708.783421	2504.727535
709.117825	2503.220230
709.452180	2506.612927
709.786485	2508.450428
710.120742	2512.916890
710.454949	2510.550068
710.789107	2511.732219
711.123216	2511.651560
711.457275	2516.095337
711.791286	2516.521315
712.125247	2517.907632
712.459159	2522.605987
712.793023	2522.505164
713.126837	2520.161028
713.460602	2521.890144
713.794318	2515.780265
714.127985	2516.410409
714.461602	2515.636592
714.795171	2512.027126
715.128691	2506.938081
715.462162	2505.254336
715.795584	2501.362565
716.128957	2503.134531
716.462281	2502.199397
716.795556	2501.644870
717.128782	2500.208141
717.461960	2498.075733
717.795088	2494.685557
718.128167	2494.403252
718.461198	2492.815289
718.794180	2492.568272
719.127113	2488.419403
719.459997	2489.906543
719.792833	2488.270689
720.125619	2486.690287
720.458357	2488.762201
720.791046	2483.680718
721.123686	2485.102323
721.456278	2486.060143
721.788821	2482.750625
722.121315	2485.054433
722.453761	2484.668784
722.786158	2484.313383
723.118506	2484.328506
723.450805	2482.150728
723.783056	2484.981336
724.115259	2483.514360
724.447412	2481.389514
724.779518	2483.287508
725.111574	2484.197436
725.443582	2485.563589
725.775542	2481.026551
726.107453	2485.767756
726.439315	2487.007880
726.771129	2494.267141
727.102895	2488.941162
727.434612	2490.813951
727.766281	2492.285968
728.097901	2490.418220
728.429473	2489.140288
728.760996	2492.492655
729.092471	2491.088694
729.423897	2493.538694
729.755276	2491.610453
730.086606	2495.028355
730.417887	2495.870228
730.749120	2501.367606
731.080305	2495.287975
731.411442	2504.392299
731.742530	2500.276197
732.073570	2502.433810
732.404562	2504.195694
732.735506	2503.028667
733.066401	2501.912051
733.397249	2500.898779
733.728048	2496.976761
734.058798	2493.231184
734.389501	2490.882006
734.720156	2490.738333
735.050762	2483.221973
735.381320	2481.835656
735.711831	2479.995635
736.042293	2480.908083
736.372707	2481.276088
736.703073	2483.995790
737.033391	2481.760038
737.363661	2479.983032
737.693883	2480.724081
738.024056	2481.152579
738.354182	2482.801037
738.684260	2484.782210
739.014290	2485.366984
739.344272	2490.347644
739.674207	2488.101810
740.004093	2488.863024
740.333931	2491.270175
740.663722	2490.566934
740.993464	2489.924187
741.323159	2488.752119
741.652806	2485.561068
741.982405	2485.830770
742.311956	2485.654330
742.641460	2482.352374
742.970915	2483.363125
743.300323	2481.845738
743.629683	2478.896663
743.958996	2477.225521
744.288260	2480.146869
744.617477	2475.440952
744.946647	2472.242340
745.275768	2473.459779
745.604842	2471.839048
745.933869	2472.055817
746.262847	2468.542133
746.591778	2472.978348
746.920662	2472.164202
747.249498	2470.394757
747.578286	2471.697895
747.907027	2473.159830
748.235720	2474.473051
748.564365	2473.908441
748.892963	2475.211580
749.221514	2475.514049
749.550017	2473.928606
749.878473	2475.945068
750.206881	2473.721919
750.535242	2471.629840
750.863555	2472.456589
751.191821	2473.984059
751.520039	2472.413739
751.848210	2470.747638
752.176334	2471.569346
752.504411	2471.579428
752.832440	2470.515745
753.160421	2470.054479
753.488356	2469.618419
753.816243	2471.662607
754.144082	2471.745786
754.471875	2468.564818
754.799620	2469.918368
755.127318	2470.062041
755.454969	2468.920220
755.782572	2469.058851
756.110129	2468.189252
756.437638	2470.001547
756.765100	2466.913840
757.092515	2469.295786
757.419882	2468.025415
757.747203	2468.794191
758.074477	2467.670013
758.401703	2470.624130
758.728882	2471.967597
759.056014	2471.768472
759.383099	2471.092957
759.710138	2473.096816
760.037129	2468.844602
760.364073	2473.550519
760.690970	2471.954994
761.017820	2471.776033
761.344623	2472.819552
761.671379	2475.448514
761.998088	2477.011272
762.324751	2487.769094
762.651366	2501.448265
762.977935	2523.770494
763.304456	2536.827082
763.630931	2541.777496
763.957359	2536.514531
764.283740	2526.971627
764.610074	2517.562313
764.936362	2505.675272
765.262602	2493.664723
765.588796	2488.159783
765.914943	2480.144349
766.241044	2475.882053
766.567097	2470.004068
766.893104	2467.261680
767.219064	2463.949642
767.544978	2462.606174
767.870845	2460.549384
768.196665	2459.596606
768.522438	2455.848508
768.848165	2459.941925
769.173846	2455.977057
769.499479	2454.888168
769.825066	2453.148970
770.150607	2453.481686
770.476101	2449.675615
770.801548	2455.712397
771.126949	2451.235852
771.452303	2451.019082
771.777611	2449.771397
772.102872	2451.561006
772.428087	2445.060438
772.753256	2445.819132
773.078378	2447.235696
773.403453	2450.094031
773.728482	2442.491971
774.053465	2447.220573
774.378401	2444.732763
774.703291	2443.691765
775.028135	2442.774275
775.352932	2447.487754
775.677683	2443.848041
776.002388	2443.722012
776.327046	2444.147990
776.651658	2441.342587
776.976224	2441.917279
777.300743	2443.170006
777.625216	2439.177412
777.949643	2442.819646
778.274024	2443.797629
778.598359	2436.568615
778.922647	2435.363779
779.246889	2440.576332
779.571086	2437.413008
779.895236	2440.851075
780.219339	2439.913420
780.543397	2443.263267
780.867409	2440.155396
781.191374	2440.664552
781.515294	2442.063472
781.839167	2444.400047
782.162995	2444.047167
782.486776	2441.508946
782.810511	2442.912907
783.134201	2440.790581
783.457844	2438.695982
783.781441	2439.439552
784.104993	2438.068358
784.428498	2438.264963
784.751958	2439.371496
785.075372	2437.140786
785.398739	2438.433842
785.722061	2442.204625
786.045337	2438.895107
786.368568	2443.018771
786.691752	2442.154213
787.014891	2442.532300
787.337983	2445.294852
787.661030	2449.615121
787.984031	2452.168465
788.306987	2451.865996
788.629897	2454.053857
788.952760	2451.019082
789.275579	2450.736778
789.598351	2451.170317
789.921078	2447.207970
790.243759	2446.124122
790.566395	2441.708071
790.888984	2443.391817
791.211529	2443.729574
791.534027	2442.602876
791.856480	2440.551126
792.178888	2440.956939
792.501249	2439.169850
792.823566	2438.431321
793.145836	2441.208997
793.468062	2438.086002
793.790241	2438.975766
794.112375	2440.283945
794.434464	2440.243616
794.756507	2439.096753
795.078505	2440.238575
795.400457	2438.650611
795.722364	2438.549788
796.044226	2442.464244
796.366042	2441.874429
796.687812	2442.020623
797.009538	2445.821653
797.331218	2445.690583
797.652852	2443.361570
797.974442	2445.312496
798.295986	2444.344595
798.617484	2446.061107
798.938938	2442.537341
799.260346	2442.428956
799.581709	2444.047167
799.903026	2443.248144
800.224299	2438.673297
800.545526	2440.321754
800.866708	2438.950560
801.187845	2437.163471
801.508936	2436.556012
801.829983	2436.530806
802.150984	2435.774633
802.471940	2435.467123
802.792851	2436.523244
803.113717	2437.193718
803.434538	2434.965528
803.755314	2436.906372
804.076045	2434.766402
804.396731	2436.016608
804.717372	2434.942843
805.037967	2433.687595
805.358518	2436.898810
805.679024	2435.373861
805.999485	2435.615837
806.319901	2436.540888
806.640272	2433.075095
806.960598	2437.236568
807.280879	2436.828234
807.601115	2437.095415
807.921306	2435.726742
808.241453	2437.380241
808.561554	2435.527617
808.881611	2437.816300
809.201623	2439.668924
809.521590	2435.532658
809.841513	2435.560384
810.161390	2435.963676
810.481223	2438.050714
810.801011	2438.239757
811.120755	2437.874274
811.440453	2435.545261
811.760107	2436.185487
812.079716	2433.037287
812.399281	2431.771957
812.718801	2430.841864
813.038276	2429.999991
813.357707	2435.492328
813.677093	2433.667431
813.996434	2436.482915
814.315731	2433.168357
814.634983	2432.868408
814.954191	2434.123655
815.273354	2436.180446
815.592473	2436.485436
815.911547	2437.042483
816.230577	2438.406115
816.549562	2438.164140
816.868502	2438.065838
817.187399	2437.791095
817.506250	2440.087340
817.825058	2440.626744
818.143821	2444.228648
818.462539	2446.582867
818.781213	2447.432301
819.099843	2451.797941
819.418429	2456.203909
819.736970	2467.362503
820.055466	2470.777885
820.373919	2482.511170
820.692327	2498.468943
821.010691	2525.023221
821.329011	2585.774166
821.647286	2682.960050
821.965517	2784.582150
822.283704	2842.114318
822.601847	2861.114427
822.919945	2820.727223
823.237999	2771.094543
823.556010	2722.061760
823.873976	2678.077693
824.191897	2637.380458
824.509775	2600.295209
824.827609	2570.675910
825.145398	2554.352654
825.463144	2544.787064
825.780845	2547.758825
826.098502	2560.293654
826.416116	2579.933989
826.733685	2607.821652
827.051210	2611.806684
827.368692	2598.908892
827.686129	2573.985427
828.003522	2547.690769
828.320872	2519.856038
828.638177	2509.562002
828.955439	2488.762201
829.272656	2480.230048
829.589830	2468.335446
829.906960	2463.838737
830.224046	2457.315483
830.541088	2453.138887
830.858086	2449.748712
831.175041	2449.176541
831.491952	2444.594132
831.808819	2449.370625
832.125642	2452.607046
832.442421	2456.942438
832.759157	2469.162195
833.075849	2489.898981
833.392497	2509.970335
833.709101	2521.748991
834.025662	2520.508868
834.342179	2510.494615
834.658653	2492.815289
834.975083	2481.051756
835.291469	2478.299286
835.607811	2464.078191
835.924110	2454.177365
836.240366	2453.154011
836.556578	2444.526076
836.872746	2445.040274
837.188871	2439.366455
837.504952	2436.175405
837.820990	2432.603747
838.136984	2433.312029
838.452935	2432.018973
838.768842	2433.380085
839.084706	2433.216247
839.400526	2443.893411
839.716303	2454.799948
840.032037	2464.466360
840.347727	2461.494600
840.663373	2454.736933
840.978977	2447.021447
841.294537	2443.043977
841.610054	2438.595159
841.925527	2435.704057
842.240957	2430.972934
842.556344	2429.001843
842.871687	2428.782553
843.186987	2425.883889
843.502244	2422.735689
843.817458	2423.713672
844.132629	2420.444484
844.447756	2422.130750
844.762840	2414.334606
845.077881	2417.555903
845.392879	2416.051119
845.707833	2418.649833
846.022745	2412.091292
846.337613	2417.704617
846.652438	2420.323497
846.967221	2416.799730
847.281960	2416.918197
847.596656	2418.818712
847.911309	2417.013979
848.225919	2415.952816
848.540485	2420.580595
848.855009	2418.871644
849.169490	2418.435584
849.483928	2420.121850
849.798323	2415.000038
850.112675	2417.513053
850.426984	2415.907446
850.741251	2415.395769
851.055474	2414.969791
851.369654	2412.711354
851.683792	2415.864596
851.997887	2416.456932
852.311938	2414.773186
852.625947	2417.001376
852.939914	2417.802920
853.253837	2418.896850
853.567718	2417.162693
853.881555	2415.494071
854.195350	2418.236459
854.509103	2415.955337
854.822812	2414.064904
855.136479	2415.360481
855.450103	2416.116654
855.763685	2414.266550
856.077224	2415.355439
856.390720	2416.678742
856.704173	2414.954668
857.017584	2412.897877
857.330953	2415.589853
857.644278	2416.298135
857.957561	2419.963054
858.270802	2417.273598
858.584000	2416.532549
858.897155	2418.740574
859.210268	2414.037178
859.523339	2415.380645
859.836367	2414.838721
860.149352	2416.477096
860.462295	2419.708476
860.775195	2412.161868
861.088054	2412.605490
861.400869	2414.861406
861.713642	2412.502146
862.026373	2418.465831
862.339062	2414.042219
862.651708	2416.028433
862.964312	2416.441808
863.276873	2415.002559
863.589392	2416.136818
863.901869	2419.393404
864.214303	2417.132446
864.526696	2418.859041
864.839045	2417.301325
865.151353	2420.293250
865.463619	2420.961202
865.775842	2420.124371
866.088023	2418.478434
866.400162	2417.150090
866.712258	2418.770821
867.024313	2419.184196
867.336325	2418.899371
867.648296	2417.611356
867.960224	2421.200657
868.272110	2417.603794
868.583954	2420.336099
868.895755	2421.470359
869.207515	2418.047416
869.519233	2419.650503
869.830909	2420.885585
870.142542	2418.319638
870.454134	2418.753177
870.765684	2420.310894
871.077191	2417.800399
871.388657	2421.588826
871.700081	2419.471542
872.011463	2421.820719
872.322803	2422.728127
872.634101	2420.510019
872.945357	2422.012283
873.256571	2425.142840
873.567744	2419.665626
873.878874	2424.825247
874.189963	2423.832140
874.501010	2424.769794
874.812015	2425.178128
875.122979	2427.118972
875.433900	2425.538570
875.744780	2425.049578
876.055618	2423.464135
876.366415	2425.122675
876.677169	2423.801893
876.987882	2426.151070
877.298554	2422.198806
877.609183	2425.289033
877.919771	2427.260124
878.230317	2427.776842
878.540822	2432.132399
878.851285	2435.227668
879.161707	2439.409305
879.472087	2449.103444
879.782425	2459.634414
880.092722	2483.136273
880.402977	2517.292611
880.713191	2559.035886
881.023363	2599.183635
881.333494	2621.473097
881.643583	2631.139509
881.953631	2627.358644
882.263637	2614.208794
882.573602	2597.275558
882.883526	2582.855338
883.193408	2566.156516
883.503248	2551.970709
883.813048	2532.358100
884.122806	2519.482993
884.432522	2503.663852
884.742197	2493.727738
885.051831	2482.085193
885.361424	2472.401136
885.670975	2463.226236
885.980485	2459.087449
886.289954	2453.325410
886.599382	2450.134360
886.908768	2444.344595
887.218113	2439.235385
887.527417	2438.960642
887.836680	2433.405291
888.145901	2433.324632
888.455082	2431.267842
888.764221	2430.748603
889.073319	2429.624425
889.382376	2428.316246
889.691392	2429.826072
890.000366	2430.627615
890.309300	2428.601071
890.618193	2428.384302
890.927044	2425.997315
891.235855	2426.541760
891.544625	2426.050247
891.853353	2426.899682
892.162041	2429.158119
892.470687	2434.113573
892.779293	2431.459405
893.087858	2435.225147
893.396381	2439.903338
893.704864	2450.139401
894.013306	2459.609208
894.321707	2477.149903
894.630068	2480.414050
894.938387	2485.356902
895.246665	2480.172075
895.554903	2477.515387
895.863100	2469.898203
896.171256	2463.599282
896.479371	2457.310442
896.787446	2457.058385
897.095480	2449.337858
897.403473	2447.328958
897.711425	2443.772424
898.019336	2437.985179
898.327207	2438.199428
898.635038	2434.877308
898.942827	2434.670620
899.250576	2432.192893
899.558284	2427.867583
899.865952	2429.384971
900.173579	2425.936821
900.481165	2427.902871
900.788711	2423.766605
901.096216	2424.963879
901.403681	2425.064702
901.711105	2425.594023
902.018489	2424.278282
902.325832	2426.251893
902.633135	2427.645773
902.940397	2430.816658
903.247619	2440.296548
903.554800	2454.668878
903.861941	2477.772486
904.169041	2492.643890
904.476101	2496.492811
904.783121	2492.951400
905.090100	2486.075266
905.397039	2475.309882
905.703938	2468.892493
906.010796	2464.032821
906.317614	2454.373970
906.624391	2449.554627
906.931129	2445.151179
907.237826	2438.748914
907.544483	2433.806063
907.851099	2434.690785
908.157675	2427.164342
908.464211	2424.222829
908.770707	2416.683783
909.077163	2417.356778
909.383578	2415.257137
909.689954	2414.894174
909.996289	2414.455593
910.302584	2416.701427
910.608839	2413.827970
910.915054	2415.413413
911.221229	2412.078689
911.527363	2416.109092
911.833458	2417.399627
912.139513	2414.062383
912.445527	2415.526839
912.751502	2418.672519
913.057436	2420.878023
913.363331	2423.055802
913.669186	2423.522109
913.975000	2425.226019
914.280775	2429.115269
914.586510	2439.585745
914.892205	2449.491613
915.197859	2458.842953
915.503475	2471.360138
915.809050	2487.035606
916.114585	2491.718838
916.420081	2492.593478
916.725536	2491.960813
917.030952	2488.825216
917.336328	2483.204329
917.641665	2477.752321
917.946961	2472.731332
918.252218	2469.371403
918.557435	2460.688015
918.862612	2459.944445
919.167750	2452.236521
919.472848	2447.281067
919.777906	2442.423915
920.082925	2443.066662
920.387904	2434.811773
920.692843	2430.594848
920.997743	2428.429672
921.302603	2426.677871
921.607423	2424.636204
921.912204	2425.329362
922.216946	2423.388518
922.521647	2421.898857
922.826310	2419.872313
923.130932	2419.315266
923.435516	2418.554052
923.740059	2417.349216
924.044564	2415.678073
924.349028	2417.185378
924.653454	2407.844120
924.957840	2412.943247
925.262186	2411.083062
925.566493	2409.548030
925.870761	2406.893863
926.174989	2411.020047
926.479178	2412.955850
926.783328	2412.146745
927.087438	2409.064079
927.391509	2408.943092
927.695541	2411.372928
927.999533	2408.514594
928.303486	2409.641292
928.607400	2407.569377
928.911275	2406.452762
929.215110	2406.702299
929.518906	2406.916548
929.822663	2409.091806
930.126381	2405.893194
930.430060	2408.554923
930.733699	2409.366549
931.037299	2406.830848
931.340861	2406.896383
931.644383	2410.011816
931.947866	2409.240520
932.251309	2409.364028
932.554714	2407.982752
932.858080	2410.309244
933.161407	2408.451579
933.464694	2406.929151
933.767943	2407.438307
934.071153	2405.714233
934.374323	2408.691034
934.677455	2406.843451
934.980548	2409.603483
935.283602	2406.593914
935.586617	2408.749007
935.889593	2405.668862
936.192530	2407.551733
936.495428	2407.607186
936.798287	2408.106260
937.101108	2407.892011
937.403890	2407.975190
937.706632	2410.795716
938.009336	2409.661456
938.312002	2411.385531
938.614628	2412.776889
938.917216	2415.138670
939.219765	2410.742784
939.522275	2412.963412
939.824747	2413.729667
940.127179	2409.323699
940.429573	2409.996693
940.731929	2413.074317
941.034246	2407.652556
941.336524	2413.850655
941.638763	2411.277146
941.940964	2409.817732
942.243126	2413.281005
942.545250	2413.379307
942.847335	2410.765469
943.149381	2411.720768
943.451389	2409.220355
943.753359	2411.670356
944.055290	2410.079872
944.357182	2412.240006
944.659036	2408.325550
944.960851	2413.061714
945.262628	2410.992321
945.564367	2408.312948
945.866067	2410.601631
946.167729	2408.996024
946.469352	2410.379821
946.770937	2406.462844
947.072484	2408.554923
947.373992	2407.705488
947.675462	2405.252967
947.976893	2409.830335
948.278286	2410.188257
948.579641	2409.422001
948.880958	2408.002917
949.182236	2407.075344
949.483476	2409.152300
949.784678	2406.432597
950.085841	2408.859913
950.386967	2409.537948
950.688054	2407.476116
950.989103	2408.880077
951.290114	2411.604821
951.591087	2409.059038
951.892021	2411.156158
952.192917	2410.364697
952.493776	2411.834193
952.794596	2413.265881
953.095378	2412.292938
953.396122	2411.733370
953.696828	2409.840417
953.997496	2408.645664
954.298126	2409.323699
954.598718	2408.446538
954.899272	2408.570046
955.199788	2410.145407
955.500266	2408.247412
955.800706	2405.479819
956.101108	2401.648542
956.401472	2407.854203
956.701798	2401.338511
957.002087	2406.125087
957.302337	2403.284397
957.602550	2407.150962
957.902724	2405.154665
958.202861	2404.655590
958.502960	2403.856568
958.803022	2403.501166
959.103045	2402.117369
959.403031	2404.980745
959.702979	2404.622823
960.002889	2404.700961
960.302762	2401.779612
960.602596	2400.761299
960.902393	2402.351783
961.202153	2407.118194
961.501875	2404.332957
961.801559	2404.161557
962.101205	2400.216854
962.400814	2403.778430
962.700385	2401.048645
962.999918	2401.933367
963.299414	2402.908831
963.598873	2402.896228
963.898293	2402.379509
964.197677	2399.685013
964.497022	2400.358007
964.796331	2399.130486
965.095601	2403.544016
965.394835	2402.059396
965.694030	2402.591238
965.993189	2400.264745
966.292309	2401.930847
966.591393	2401.300703
966.890439	2398.686864
967.189447	2399.669889
967.488419	2402.603841
967.787353	2403.077709
968.086249	2401.023439
968.385108	2401.585528
968.683930	2403.233985
968.982714	2400.375651
969.281462	2399.984961
969.580172	2403.196176
969.878844	2403.433111
970.177480	2399.511093
970.476078	2401.663666
970.774639	2405.242885
971.073162	2402.208110
971.371649	2397.126627
971.670098	2395.967162
971.968510	2399.450599
972.266885	2398.507903
972.565223	2402.157699
972.863524	2403.049983
973.161788	2401.651063
973.460014	2402.331618
973.758204	2401.472102
974.056356	2401.835065
974.354471	2401.787174
974.652550	2403.206259
974.950591	2403.133162
975.248595	2400.829355
975.546563	2403.170971
975.844493	2403.775909
976.142386	2401.779612
976.440243	2401.386402
976.738062	2402.533265
977.035845	2400.542009
977.333590	2402.518141
977.631299	2401.187277
977.928971	2402.185425
978.226606	2403.284397
978.524204	2403.218862
978.821765	2401.162071
979.119290	2404.232133
979.416777	2401.958573
979.714228	2399.299364
980.011642	2402.152657
980.309020	2402.533265
980.606360	2402.243398
980.903664	2402.770199
981.200931	2400.794067
981.498162	2405.056362
981.795356	2404.862278
982.092513	2407.685324
982.389633	2408.978380
982.686717	2408.852351
982.983764	2409.464851
983.280775	2411.362846
983.577749	2411.695562
983.874686	2410.294121
984.171587	2413.129770
984.468451	2408.612896
984.765279	2408.275139
985.062070	2406.929151
985.358824	2406.989645
985.655543	2405.184912
985.952224	2405.477298
986.248869	2404.395971
986.545478	2397.882800
986.842050	2405.215158
987.138586	2397.527399
987.435086	2401.053686
987.731549	2397.260218
988.027975	2402.497977
988.324366	2400.829355
988.620719	2396.877090
988.917037	2399.634601
989.213318	2402.394633
989.509563	2401.182235
989.805772	2399.362379
990.101944	2401.575445
990.398080	2400.171484
990.694180	2396.642676
990.990244	2398.825496
991.286271	2398.351628
991.582262	2398.671741
991.878217	2399.947153
992.174136	2400.279869
992.470019	2399.937070
992.765865	2397.832389
993.061676	2398.951525
993.357450	2402.155178
993.653188	2399.495969
993.948890	2403.102915
994.244556	2401.197359
994.540186	2403.612072
994.835780	2398.744837
995.131337	2403.763306
995.426859	2402.467730
995.722345	2405.600807
996.017795	2405.865467
996.313208	2404.408574
996.608586	2404.632905
996.903928	2405.933523
997.199234	2406.286404
997.494504	2405.595766
997.789738	2406.808163
998.084936	2405.000909
998.380099	2403.937226
998.675225	2406.407391
998.970316	2401.202400
999.265371	2403.579304
999.560390	2403.796074
999.855373	2401.348593
1000.150320	2403.007133
1000.445232	2402.611402
1000.740108	2400.365568
1001.034948	2399.012019
1001.329752	2398.245763
1001.624521	2401.837585
1001.919254	2395.803324
1002.213951	2396.141082
1002.508613	2396.544374
1002.803239	2398.132337
1003.097829	2394.522871
1003.392384	2401.683830
1003.686903	2398.891031
1003.981386	2398.686864
1004.275834	2396.985475
1004.570246	2400.209293
1004.864623	2400.289951
1005.158964	2399.374982
1005.453270	2398.749879
1005.747540	2396.907337
1006.041775	2397.174518
1006.335974	2399.493449
1006.630138	2396.995557
1006.924266	2400.254663
1007.218359	2397.890362
1007.512416	2399.501011
1007.806438	2398.359189
1008.100425	2397.683675
1008.394376	2399.904303
1008.688292	2397.363561
1008.982172	2399.145609
1009.276017	2398.495300
1009.569827	2399.463202
1009.863602	2398.638973
1010.157341	2395.780639
1010.451045	2398.036555
1010.744714	2398.122255
1011.038347	2401.295661
1011.331945	2398.187790
1011.625508	2397.774415
1011.919036	2399.430434
1012.212528	2399.130486
1012.505986	2397.807183
1012.799408	2397.711401
1013.092795	2398.124776
1013.386147	2399.715260
1013.679464	2397.850033
1013.972745	2399.175856
1014.265992	2395.823489
1014.559204	2397.451782
1014.852380	2398.560835
1015.145521	2402.949160
1015.438628	2395.001781
1015.731699	2399.536299
1016.024736	2397.822306
1016.317737	2398.744837
1016.610703	2399.682492
1016.903635	2395.389950
1017.196531	2392.024979
1017.489393	2398.359189
1017.782219	2393.408776
1018.075011	2396.519168
1018.367768	2397.839950
1018.660490	2397.885321
1018.953177	2397.885321
1019.245829	2397.885321
