Dividing Wavelength (nm)	Counts (n)	Blue Motor Position (mm): 0.000000	Red Motor Position (mm): 33.400000	
326.493990	1989.173773
326.888308	1989.173773
327.282561	1989.173773
327.676750	1965.878601
328.070874	1966.632253
328.464933	1971.557461
328.858929	1983.472228
329.252859	1995.984372
329.646726	2010.666732
330.040528	2025.286078
330.434265	2044.341640
330.827938	2062.494835
331.221547	2082.011662
331.615091	2102.612337
332.008571	2123.633949
332.401986	2145.782258
332.795338	2166.743376
333.188625	2185.766170
333.581847	2205.189736
333.975006	2221.525595
334.368100	2240.427401
334.761129	2255.686974
335.154095	2272.433687
335.546996	2295.469239
335.939833	2329.043324
336.332606	2344.660818
336.725315	2356.492407
337.117960	2364.142358
337.510540	2371.767103
337.903056	2381.952754
338.295508	2384.858979
338.687896	2395.568911
339.080220	2401.426731
339.472480	2408.486867
339.864676	2412.113977
340.256807	2413.769997
340.648875	2413.245717
341.040879	2417.238310
341.432818	2418.339803
341.824694	2420.142015
342.216506	2419.176634
342.608253	2420.484813
342.999937	2419.441295
343.391557	2417.076993
343.783113	2414.795871
344.174605	2416.449370
344.566033	2413.288566
344.957397	2413.217990
345.348697	2410.437794
345.739934	2407.224058
346.131106	2409.142217
346.522215	2405.071486
346.913260	2403.780950
347.304241	2400.317678
347.695159	2400.274828
348.086012	2399.543860
348.476802	2397.245094
348.867528	2399.722821
349.258191	2395.319373
349.648789	2392.665206
350.039324	2396.042779
350.429796	2391.931718
350.820203	2391.672099
351.210548	2391.949362
351.600828	2391.115051
351.991045	2391.667058
352.381198	2388.591954
352.771288	2392.488766
353.161314	2392.503889
353.551276	2392.254352
353.941175	2391.102448
354.331010	2390.283261
354.720782	2390.996584
355.110490	2394.384239
355.500135	2392.067829
355.889717	2394.616133
356.279235	2394.747202
356.668689	2394.278375
357.058080	2395.054713
357.447408	2392.786194
357.836672	2390.258055
358.225873	2396.355331
358.615010	2395.112686
359.004084	2396.932543
359.393095	2399.080074
359.782043	2402.195507
360.170927	2400.708367
360.559748	2401.756927
360.948505	2405.462175
361.337199	2401.431773
361.725830	2405.910838
362.114398	2405.394119
362.502903	2406.672052
362.891344	2405.192473
363.279722	2406.674572
363.668037	2407.886970
364.056289	2406.601476
364.444478	2410.957033
364.832603	2412.388720
365.220665	2410.969636
365.608665	2412.398803
365.996601	2413.896025
366.384474	2415.264699
366.772284	2415.942734
367.160031	2415.703279
367.547715	2418.997673
367.935336	2417.739905
368.322893	2417.762590
368.710388	2418.261665
369.097820	2423.343148
369.485189	2423.968251
369.872495	2423.194434
370.259738	2423.766605
370.646918	2429.500917
371.034035	2429.450506
371.421090	2435.867894
371.808081	2438.995930
372.195010	2439.696651
372.581875	2447.613783
372.968678	2455.931687
373.355418	2460.037707
373.742096	2472.265025
374.128710	2484.386480
374.515262	2496.117245
374.901751	2509.748525
375.288177	2526.651513
375.674540	2548.769576
376.060841	2568.798080
376.447079	2594.543253
376.833254	2620.081738
377.219367	2645.365645
377.605417	2681.150276
377.991404	2708.465768
378.377329	2748.842890
378.763191	2782.832870
379.148991	2832.294151
379.534727	2881.820967
379.920402	2932.779470
380.306013	2979.379896
380.691563	3047.642161
381.077049	3104.327415
381.462474	3162.363699
381.847835	3237.434041
382.233134	3309.789722
382.618371	3371.828682
383.003545	3458.700366
383.388657	3541.745814
383.773706	3638.498159
384.158693	3713.628995
384.543618	3806.421514
384.928480	3890.608783
385.313280	3998.194568
385.698017	4103.804221
386.082692	4228.383735
386.467305	4288.144093
386.851856	4423.579733
387.236344	4581.569494
387.620770	4642.315398
388.005133	4767.835087
388.389435	4921.071041
388.773674	5005.170090
389.157851	5142.019773
389.541965	5277.258807
389.926018	5301.438702
390.310008	5484.924099
390.693936	5608.933963
391.077802	5730.965174
391.461606	5865.110278
391.845348	5982.843905
392.229027	6110.057423
392.612645	6332.276525
392.996200	6455.787315
393.379694	6628.802236
393.763125	6856.405291
394.146494	6960.951260
394.529801	7099.651046
394.913047	7348.527770
395.296230	7346.372677
395.679351	7403.244454
396.062410	7672.278232
396.445408	7558.494348
396.828343	7725.553146
397.211217	7865.603961
397.594028	7746.297494
397.976778	7950.620500
398.359466	8117.835573
398.742092	8087.165193
399.124656	8241.885767
399.507158	8432.811907
399.889598	8451.330586
400.271977	8668.342176
400.654294	8706.579328
401.036549	8903.995954
401.418742	8925.415817
401.800874	9235.030883
402.182944	9320.826280
402.564952	9694.774032
402.946898	9513.015230
403.328783	9572.132841
403.710606	9774.948542
404.092367	10032.501092
404.474067	10401.637062
404.855705	10192.668632
405.237282	10143.353545
405.618797	10573.888248
406.000250	10829.915849
406.381642	11199.185409
406.762972	11146.941411
407.144240	10946.709301
407.525447	11209.169414
407.906593	11141.625515
408.287677	11404.710731
408.668700	11565.858775
409.049661	11542.924046
409.430560	11706.128881
409.811399	11679.667865
410.192176	11834.353150
410.572891	11911.790314
410.953545	12419.389136
411.334138	11870.354550
411.714669	12494.086433
412.095139	11784.196190
412.475547	12293.292234
412.855894	12139.630303
413.236180	12480.314001
413.616405	12153.982468
413.996568	12433.975715
414.376670	12407.877661
414.756711	12284.316460
415.136691	12578.036768
415.516609	12755.122420
415.896466	12825.272597
416.276262	13126.093370
416.655997	13568.656266
417.035670	13601.766565
417.415283	14253.663374
417.794834	14358.988202
418.174324	14095.136730
418.553753	13996.410773
418.933121	14496.445344
419.312428	14301.776147
419.691674	14214.624679
420.070859	14678.849413
420.449983	14322.076873
420.829045	14892.400252
421.208047	14621.213901
421.586988	15097.877683
421.965867	15357.353433
422.344686	15341.509086
422.723444	15925.231852
423.102141	14582.092027
423.480777	15793.385514
423.859352	15302.230936
424.237866	16430.133657
424.616319	16116.657066
424.994712	16789.782175
425.373044	16581.796770
425.751314	17259.620234
426.129524	16377.982920
426.507673	17499.924476
426.885762	17184.176846
427.263789	17391.406078
427.641756	17554.988999
428.019662	17610.572762
428.397508	17662.156368
428.775292	17963.904714
429.153016	17922.322757
429.530679	18010.404317
429.908282	18031.761166
430.285824	17743.860869
430.663305	18467.238720
431.040726	18058.275114
431.418086	17888.173981
431.795385	18537.182209
432.172624	18963.051324
432.549802	18510.592643
432.926920	18699.512404
433.303977	18586.787163
433.680974	18844.871555
434.057910	19127.072826
434.434786	19170.890536
434.811601	19069.563343
435.188355	20124.087028
435.565050	19769.046125
435.941683	19715.428412
436.318257	20619.856783
436.694770	20416.083262
437.071222	21026.171262
437.447614	20090.112172
437.823946	20115.005390
438.200218	20263.636249
438.576429	20036.524707
438.952580	20313.435287
439.328670	20279.329361
439.704700	20690.412772
440.080670	20265.572052
440.456580	20860.667661
440.832429	21042.817152
441.208218	20013.199288
441.583947	20461.299891
441.959616	20579.230124
442.335224	20817.132256
442.710773	20945.172523
443.086261	21489.907004
443.461689	20846.350784
443.837057	20971.872994
444.212365	21627.535546
444.587612	21616.772682
444.962800	21191.508505
445.337927	21621.178651
445.712995	20339.765234
446.088002	22222.046380
446.462949	22423.853851
446.837837	22597.501437
447.212664	22550.623747
447.587431	25412.451497
447.962139	28381.020639
448.336786	30795.806428
448.711374	29228.874661
449.085901	25501.107749
449.460369	25441.349912
449.834776	25362.486101
450.209124	27872.799235
450.583412	27395.666626
450.957640	27933.766949
451.331808	26563.314153
451.705917	25183.754512
452.079965	25221.974020
452.453954	25591.205772
452.827883	25474.767721
453.201752	25259.681851
453.575562	25426.486070
453.949311	26567.155512
454.323001	26631.342003
454.696632	26378.606276
455.070202	27965.911867
455.443713	28087.852337
455.817164	28682.249746
456.190556	29233.051257
456.563888	28672.442181
456.937160	29105.583161
457.310373	27423.516481
457.683526	27878.654535
458.056619	27868.657927
458.429653	27794.951217
458.802628	28382.122131
459.175542	28483.885383
459.548398	29798.230138
459.921194	31385.059340
460.293930	32039.431356
460.666607	34103.211685
461.039224	35855.930136
461.411782	36258.700685
461.784280	35071.080456
462.156719	34613.096670
462.529099	34038.150553
462.901419	32743.667945
463.273680	31680.246624
463.645882	31751.374784
464.018024	31714.783569
464.390106	32564.694381
464.762130	35274.231394
465.134094	39337.734110
465.505999	44648.398123
465.877845	49267.809039
466.249631	50450.085644
466.621358	48769.470816
466.993026	46676.902978
467.364634	44621.864010
467.736184	42610.085703
468.107674	41347.516120
468.479105	40559.344319
468.850477	39864.000325
469.221790	38416.644726
469.593043	36652.434965
469.964238	35770.719513
470.335373	35678.441192
470.706449	37418.239166
471.077467	40003.710862
471.448425	44565.355196
471.819324	47403.111437
472.190164	45563.102886
472.560945	41992.466219
472.931667	38871.981906
473.302330	37728.867504
473.672934	36927.049300
474.043479	37412.943434
474.413965	36614.374253
474.784393	36240.199650
475.154761	37142.591394
475.525070	37174.433842
475.895321	36698.523714
476.265513	37297.102760
476.635645	38275.459651
477.005719	38096.879297
477.375734	38567.594517
477.745691	39261.015310
478.115588	40618.552671
478.485427	42586.881272
478.855207	45940.652541
479.224928	48552.381088
479.594591	50209.060517
479.964194	49222.214323
480.333739	49382.384383
480.703226	49410.032592
481.072653	50036.350587
481.442022	50492.393528
481.811333	50780.555964
482.180584	49484.200568
482.549777	48963.325867
482.918912	48416.096014
483.287988	48132.725195
483.657005	47278.020245
484.025964	46641.503996
484.394864	46655.571336
484.763706	46225.230717
485.132489	45356.995311
485.501213	45184.108940
485.869879	45318.490978
486.238487	44901.252318
486.607036	45096.493686
486.975527	44539.373089
487.343959	44746.183905
487.712333	44817.062528
488.080648	44711.457917
488.448905	45186.934506
488.817104	44972.607330
489.185244	45935.608867
489.553326	47578.412521
489.921350	50282.429470
490.289315	53135.513339
490.657222	53727.322116
491.025070	54007.113716
491.392861	53101.939255
491.760593	51860.464379
492.128267	50199.815041
492.495883	48682.286581
492.863440	47275.345913
493.230939	45903.569814
493.598380	44791.408096
493.965763	44461.976254
494.333088	43616.327737
494.700354	43095.871453
495.067563	42795.426245
495.434713	42646.949141
495.801805	42705.499622
496.168839	42303.225628
496.535815	41957.137813
496.902733	41956.303502
497.269593	41519.762264
497.636395	41433.576178
498.003139	41797.103864
498.369825	41237.266085
498.736453	41525.620085
499.103023	41037.601105
499.469535	40870.716227
499.835989	40951.261263
500.202385	40587.728536
500.568723	40577.590775
500.935003	40706.185569
501.301226	40474.766360
501.667390	41055.998796
502.033497	41278.855604
502.399546	40661.478096
502.765537	39952.621289
503.131470	40307.563890
503.497345	40592.847827
503.863163	39232.689067
504.228923	39791.301845
504.594625	40142.017439
504.960269	39394.253007
505.325856	40013.117656
505.691385	39332.687915
506.056856	39419.468858
506.422270	39776.806007
506.787625	39303.323194
507.152924	39418.856358
507.518164	39464.277154
507.883347	38626.994432
508.248472	38793.100452
508.613540	39184.861120
508.978550	39416.081203
509.343503	39082.921427
509.708398	39173.876446
510.073236	39615.907500
510.438016	39528.108244
510.802738	38899.957790
511.167403	39421.654198
511.532010	39539.458402
511.896561	39711.311337
512.261053	40438.757398
512.625488	39890.383203
512.989866	39663.642186
513.354186	39407.596941
513.718449	39282.326788
514.082655	39800.690994
514.446803	39380.266325
514.810894	39744.209907
515.174927	39532.247031
515.538904	39333.781846
515.902822	39843.492911
516.266684	39170.277062
516.630488	39433.059809
516.994235	39168.101804
517.357925	39556.074045
517.721558	39562.088142
518.085133	39684.351246
518.448651	39659.692442
518.812112	39296.638624
519.175516	39238.821631
519.538863	39380.145337
519.902152	39186.648209
520.265385	39434.209192
520.628560	39316.276439
520.991678	38963.007501
521.354739	39001.917647
521.717743	39109.253894
522.080690	38837.543264
522.443580	39139.329418
522.806413	39005.522072
523.169189	38784.185171
523.531908	38758.361860
523.894569	38454.967578
524.257174	38410.043335
524.619722	38472.087336
524.982213	38260.323587
525.344647	37998.854060
525.707025	37855.486165
526.069345	37970.721901
526.431608	37703.775161
526.793815	37781.429095
527.155964	37190.394136
527.518057	37102.801567
527.880093	36719.807465
528.242072	36955.793959
528.603995	36500.855030
528.965860	36293.721580
529.327669	36167.922107
529.689421	35856.706474
530.051117	35600.537721
530.412755	35522.107449
530.774337	35335.282288
531.135862	34963.025844
531.497331	34900.439919
531.858743	34599.036892
532.220098	34650.459182
532.581396	34185.720250
532.942638	33702.447516
533.303824	33708.449009
533.664953	33446.460244
534.026025	32997.298477
534.387040	33112.385499
534.747999	32846.915817
535.108902	32729.376274
535.469748	32159.574655
535.830537	31993.203975
536.191270	31894.059602
536.551947	31411.064132
536.912567	31395.492007
537.273131	31227.593858
537.633638	30639.165175
537.994089	30629.279473
538.354483	30120.659817
538.714821	30258.681568
539.075103	30234.478989
539.435328	29842.902323
539.795497	29513.798155
540.155609	29254.909700
540.515665	29313.266097
540.875665	28713.323418
541.235609	28668.759618
541.595496	28408.131965
541.955328	28564.868999
542.315102	27930.943903
542.674821	27553.671511
543.034483	27328.523498
543.394090	27054.771200
543.753640	26784.313296
544.113134	27131.855484
544.472571	26304.549205
544.831953	26753.466476
545.191278	26061.580713
545.550548	25654.666337
545.909761	25665.686299
546.268918	25533.184611
546.628019	25432.356493
546.987064	24960.333094
547.346053	24318.899199
547.704986	24547.195413
548.063863	24075.676129
548.422684	23920.292644
548.781449	23610.687660
549.140158	23555.965935
549.498811	23236.109765
549.857408	22728.014389
550.215949	22888.902814
550.574434	22602.870265
550.932864	22255.996031
551.291237	22363.395293
551.649555	21930.619797
552.007817	21809.455664
552.366022	21408.290724
552.724173	21256.499061
553.082267	21198.140143
553.440305	21105.710588
553.798288	20566.632280
554.156215	20466.124276
554.514086	20341.196922
554.871902	19997.980044
555.229661	19784.212436
555.587365	19492.458178
555.945014	19312.826743
556.302606	19055.982475
556.660143	18921.348379
557.017625	18734.341736
557.375050	18439.162014
557.732421	18351.249332
558.089735	18129.040311
558.446994	17879.757774
558.804197	17838.400148
559.161345	17606.222246
559.518437	17128.653577
559.875474	17019.182401
560.232455	16871.252262
560.589381	16718.268366
560.946251	16437.634893
561.303065	16449.209383
561.659825	16187.059300
562.016528	15886.314144
562.373177	15601.627584
562.729770	15572.184725
563.086307	15230.520523
563.442789	15172.678323
563.799216	15007.913251
564.155587	14759.722124
564.511904	14592.307925
564.868164	14438.759420
565.224370	14326.742461
565.580520	14082.438063
565.936615	13967.656032
566.292654	13722.643352
566.648638	13624.668527
567.004567	13441.258747
567.360441	13291.186118
567.716260	13090.525509
568.072023	12986.077843
568.427732	12829.756703
568.783385	12554.212275
569.138982	12483.648724
569.494525	12326.994868
569.850013	12123.541461
570.205445	11976.433030
570.560823	11816.751961
570.916145	11652.485963
571.271412	11521.221879
571.626625	11327.008906
571.981782	11208.793848
572.336884	11008.385298
572.691931	10940.753178
573.046923	10731.905736
573.401860	10578.626933
573.756743	10445.106932
574.111570	10342.317805
574.466342	10196.356236
574.821059	10093.423437
575.175722	9892.034382
575.530330	9767.596019
575.884882	9617.835942
576.239380	9499.860339
576.593823	9377.856854
576.948211	9255.097196
577.302544	9071.306809
577.656823	8967.617836
578.011047	8899.189214
578.365216	8752.857121
578.719330	8623.725444
579.073389	8499.324891
579.427394	8418.616018
579.781344	8312.202301
580.135239	8172.627875
580.489080	8093.312881
580.842866	7932.966380
581.196597	7904.841782
581.550273	7807.638254
581.903895	7697.284876
582.257463	7670.201277
582.610975	7510.545414
582.964434	7456.312681
583.317837	7325.714028
583.671186	7232.210707
584.024481	7177.138622
584.377721	7047.298663
584.730906	6995.641960
585.084037	6920.022132
585.437113	6819.138561
585.790135	6741.613176
586.143103	6629.792822
586.496016	6569.540952
586.848874	6496.383727
587.201679	6427.650115
587.554428	6309.664430
587.907124	6265.009889
588.259765	6168.358367
588.612352	6131.736905
588.964884	6016.279358
589.317362	5976.068594
589.669786	5907.433285
590.022155	5828.874464
590.374470	5797.883971
590.726731	5699.972160
591.078937	5599.774186
591.431090	5550.927926
591.783188	5464.711592
592.135232	5387.181167
592.487222	5343.711297
592.839157	5297.604904
593.191038	5223.575560
593.542866	5156.051825
593.894639	5064.716199
594.246358	5031.222773
594.598022	4981.232171
594.949633	4905.025048
595.301190	4856.456052
595.652692	4794.545641
596.004141	4766.148822
596.355535	4668.254655
596.706876	4617.273466
597.058162	4568.404521
597.409395	4550.672262
597.760573	4509.750696
598.111698	4447.981438
598.462768	4403.339500
598.813785	4366.294581
599.164748	4303.300322
599.515657	4284.678300
599.866511	4225.623703
600.217312	4214.465109
600.568060	4135.855877
600.918753	4131.402017
601.269392	4094.311728
601.619978	4045.452865
601.970510	4023.034854
602.320988	3999.699352
602.671412	3982.347701
603.021783	3940.569138
603.372100	3897.374012
603.722363	3865.150956
604.072572	3845.271166
604.422728	3818.956343
604.772830	3780.048718
605.122878	3751.916559
605.472872	3727.630800
605.822813	3707.486349
606.172701	3681.428625
606.522534	3666.027900
606.872314	3646.120383
607.222041	3619.646764
607.571714	3607.779888
607.921333	3565.366140
608.270899	3553.960529
608.620411	3542.270094
608.969870	3515.506608
609.319276	3491.765294
609.668627	3475.973879
610.017926	3465.500882
610.367171	3454.657360
610.716362	3438.059361
611.065500	3417.640168
611.414585	3405.979979
611.763616	3392.636045
612.112594	3374.752551
612.461518	3362.920963
612.810389	3355.460056
613.159207	3333.417610
613.507971	3317.976556
613.856682	3317.197698
614.205340	3297.902682
614.553945	3297.801858
614.902496	3274.065586
615.250994	3268.177518
615.599439	3256.146804
615.947830	3247.173550
616.296169	3233.128896
616.644454	3226.567834
616.992686	3217.009806
617.340864	3214.743808
617.688990	3196.799821
618.037063	3197.019111
618.385082	3186.034437
618.733048	3181.724250
619.080961	3170.361489
619.428821	3158.582833
619.776628	3151.787358
620.124382	3139.002992
620.472083	3128.472021
620.819731	3122.941876
621.167326	3111.100205
621.514868	3095.228132
621.862357	3080.628951
622.209793	3070.773495
622.557176	3056.915363
622.904506	3043.276521
623.251783	3025.871938
623.599007	3018.332892
623.946179	3009.692354
624.293297	3000.860253
624.640363	2989.391628
624.987376	2978.505256
625.334336	2971.679534
625.681243	2960.354582
626.028097	2955.290743
626.374899	2948.331430
626.721647	2943.812035
627.068343	2936.635953
627.414987	2927.279571
627.761577	2919.284301
628.108115	2917.870258
628.454600	2904.531365
628.801032	2901.022722
629.147412	2895.923594
629.493739	2892.455281
629.840014	2884.283570
630.186236	2883.000597
630.532405	2873.238402
630.878521	2873.971890
631.224585	2866.190869
631.570597	2858.203161
631.916556	2857.898171
632.262462	2851.412727
632.608316	2850.835514
632.954117	2846.747139
633.299866	2843.019205
633.645562	2837.226920
633.991206	2829.425734
634.336797	2821.082624
634.682336	2817.200936
635.027823	2809.782878
635.373257	2807.153916
635.718639	2797.106897
636.063968	2794.798048
636.409245	2786.137346
636.754470	2785.829836
637.099642	2779.230965
637.444762	2775.041766
637.789829	2772.672424
638.134845	2768.299223
638.479808	2762.922832
638.824719	2758.874786
639.169577	2754.095772
639.514383	2751.066039
639.859137	2746.105543
640.203839	2748.832807
640.548489	2741.923906
640.893086	2738.213617
641.237632	2731.511403
641.582125	2729.699108
641.926566	2728.290106
642.270955	2728.975702
642.615292	2723.168293
642.959576	2725.842625
643.303809	2721.295505
643.647990	2720.441029
643.992118	2719.122767
644.336195	2717.660833
644.680219	2714.540358
645.024192	2717.081100
645.368112	2718.401882
645.711981	2714.260574
646.055797	2719.747870
646.399562	2717.696121
646.743274	2722.245762
647.086935	2723.725341
647.430544	2723.377501
647.774101	2722.308777
648.117606	2720.350288
648.461059	2723.027141
648.804460	2717.781820
649.147810	2711.853423
649.491108	2706.945860
649.834354	2706.126673
650.177548	2700.709953
650.520690	2690.022707
650.863781	2693.002029
651.206820	2693.422965
651.549807	2687.449198
651.892742	2682.488702
652.235626	2679.935358
652.578458	2679.690862
652.921238	2670.833555
653.263967	2674.717764
653.606644	2667.304747
653.949269	2671.352793
654.291843	2662.949190
654.634365	2664.809376
654.976836	2660.529436
655.319255	2661.177224
655.661622	2658.429796
656.003938	2659.619508
656.346203	2654.263282
656.688416	2656.438540
657.030577	2653.804537
657.372687	2652.287150
657.714746	2654.331337
658.056753	2650.255565
658.398708	2641.990593
658.740612	2644.914462
659.082465	2642.761889
659.424266	2643.926396
659.766016	2644.138124
660.107715	2644.191057
660.449362	2646.373876
660.790958	2646.484782
661.132503	2642.214924
661.473996	2643.777682
661.815438	2642.978659
662.156829	2647.245996
662.498168	2642.477064
662.839456	2642.041004
663.180693	2642.464461
663.521879	2642.308186
663.863013	2639.021353
664.204097	2639.260808
664.545129	2640.947074
664.886110	2638.192083
665.227040	2639.563277
665.567918	2641.675521
665.908746	2640.861374
666.249522	2641.413381
666.590248	2641.189049
666.930922	2641.393216
667.271545	2643.036632
667.612118	2640.669811
667.952639	2637.498925
668.293109	2639.565798
668.633528	2638.413894
668.973896	2637.632515
669.314213	2637.020015
669.654480	2632.913995
669.994695	2633.907103
670.334859	2634.875004
670.674973	2631.268059
671.015035	2631.192441
671.355047	2632.520785
671.695008	2631.283182
672.034918	2631.890641
672.374777	2630.370733
672.714585	2627.419138
673.054342	2633.264356
673.394049	2628.823099
673.733705	2629.652369
674.073310	2628.636576
674.412864	2628.147584
674.752368	2625.367388
675.091820	2625.211112
675.431223	2622.098200
675.770574	2622.309928
676.109875	2617.661984
676.449125	2615.176696
676.788324	2614.226438
677.127473	2612.179730
677.466571	2611.277363
677.805619	2612.328444
678.144616	2610.992538
678.483562	2611.284925
678.822458	2612.824997
679.161303	2611.781478
679.500098	2608.930706
679.838842	2606.395006
680.177535	2608.401385
680.516179	2609.051694
680.854771	2610.848865
681.193314	2612.295676
681.531805	2617.699793
681.870247	2623.124075
682.208638	2626.854528
682.546978	2631.066413
682.885268	2630.146402
683.223508	2626.695732
683.561697	2624.099538
683.899836	2625.901750
684.237925	2618.922273
684.575963	2622.682974
684.913951	2617.576285
685.251889	2619.335647
685.589776	2618.130812
685.927614	2618.791203
686.265401	2618.055194
686.603137	2622.224229
686.940824	2620.578292
687.278460	2619.139042
687.616046	2627.361164
687.953582	2627.277985
688.291068	2625.324538
688.628504	2628.792852
688.965889	2627.310753
689.303224	2626.244549
689.640510	2626.229425
689.977745	2619.920421
690.314930	2612.341047
690.652065	2613.724843
690.989150	2608.545058
691.326185	2605.167485
691.663170	2596.279930
692.000105	2597.373861
692.336990	2591.896647
692.673825	2586.832808
693.010610	2587.442788
693.347345	2577.360480
693.684030	2575.873340
694.020665	2574.234965
694.357251	2568.460323
694.693786	2573.408215
695.030272	2569.657597
695.366707	2571.361507
695.703093	2564.258521
696.039429	2566.159036
696.375716	2566.337997
696.711952	2567.119376
697.048139	2562.310115
697.384276	2560.598643
697.720363	2562.030331
698.056400	2562.587379
698.392388	2558.806513
698.728326	2562.957903
699.064214	2559.577810
699.400053	2559.237532
699.735842	2555.973385
700.071581	2556.253169
700.407270	2553.480534
700.742910	2552.000956
701.078501	2549.760163
701.414042	2550.481048
701.749533	2546.143135
702.084974	2542.551313
702.420366	2548.736808
702.755709	2544.802188
703.091002	2544.598021
703.426246	2543.932589
703.761440	2541.893442
704.096584	2542.841179
704.431679	2540.103833
704.766725	2540.466796
705.101721	2538.576363
705.436668	2541.815304
705.771565	2538.636857
706.106413	2540.277752
706.441212	2541.951415
706.775961	2540.401261
707.110661	2540.582742
707.445311	2541.888401
707.779913	2543.720860
708.114465	2542.778165
708.448967	2542.979811
708.783421	2551.247303
709.117825	2551.862324
709.452180	2551.670760
709.786485	2552.779814
710.120742	2557.311811
710.454949	2559.676112
710.789107	2561.430434
711.123216	2560.780125
711.457275	2567.290775
711.791286	2566.297668
712.125247	2569.022412
712.459159	2571.250602
712.793023	2573.516600
713.126837	2569.334963
713.460602	2571.263204
713.794318	2566.864798
714.127985	2565.992678
714.461602	2559.280382
714.795171	2561.821123
715.128691	2555.948179
715.462162	2550.927190
715.795584	2549.359391
716.128957	2548.010882
716.462281	2546.604400
716.795556	2544.335881
717.128782	2540.449152
717.461960	2539.375386
717.795088	2536.199459
718.128167	2537.227854
718.461198	2532.847092
718.794180	2531.130579
719.127113	2528.630166
719.459997	2526.717048
719.792833	2527.097656
720.125619	2525.930628
720.458357	2524.685463
720.791046	2522.807634
721.123686	2521.955679
721.456278	2519.135153
721.788821	2519.997190
722.121315	2517.937879
722.453761	2518.260513
722.786158	2523.470545
723.118506	2519.593898
723.450805	2519.747653
723.783056	2522.626152
724.115259	2519.344361
724.447412	2518.096675
724.779518	2519.644310
725.111574	2521.383508
725.443582	2521.479290
725.775542	2520.496265
726.107453	2526.548170
726.439315	2523.367202
726.771129	2530.442461
727.102895	2530.739889
727.434612	2532.869777
727.766281	2530.497914
728.097901	2532.499252
728.429473	2532.345497
728.760996	2532.090918
729.092471	2531.417924
729.423897	2533.835158
729.755276	2534.336752
730.086606	2534.919006
730.417887	2539.584594
730.749120	2540.227341
731.080305	2541.686755
731.411442	2545.507949
731.742530	2544.600542
732.073570	2545.911242
732.404562	2545.230686
732.735506	2545.727240
733.066401	2547.804195
733.397249	2543.491488
733.728048	2536.943029
734.058798	2533.729293
734.389501	2529.794673
734.720156	2529.277955
735.050762	2522.311080
735.381320	2523.057171
735.711831	2517.421161
736.042293	2516.922087
736.372707	2517.121212
736.703073	2514.177178
737.033391	2515.946623
737.363661	2517.761439
737.693883	2518.073990
738.024056	2518.835204
738.354182	2517.625327
738.684260	2523.188241
739.014290	2522.122037
739.344272	2524.559435
739.674207	2526.046575
740.004093	2528.373068
740.333931	2527.637059
740.663722	2529.963552
740.993464	2529.093953
741.323159	2526.979188
741.652806	2528.375588
741.982405	2523.911646
742.311956	2520.702952
742.641460	2520.428209
742.970915	2519.921573
743.300323	2520.677746
743.629683	2513.834380
743.958996	2514.323372
744.288260	2511.369256
744.617477	2509.188957
744.946647	2504.677124
745.275768	2506.562515
745.604842	2504.188132
745.933869	2504.346928
746.262847	2499.318377
746.591778	2503.676455
746.920662	2506.048318
747.249498	2503.235354
747.578286	2504.437669
747.907027	2507.853051
748.235720	2509.143586
748.564365	2507.336332
748.892963	2506.355828
749.221514	2509.380520
749.550017	2509.536796
749.878473	2506.993534
750.206881	2504.200735
750.535242	2505.861795
750.863555	2504.601507
751.191821	2501.256701
751.520039	2504.019253
751.848210	2501.317195
752.176334	2505.259377
752.504411	2502.033039
752.832440	2503.305930
753.160421	2503.726866
753.488356	2501.198728
753.816243	2503.303409
754.144082	2501.412977
754.471875	2497.982472
754.799620	2499.424242
755.127318	2499.691423
755.454969	2497.740496
755.782572	2499.434324
756.110129	2499.812410
756.437638	2498.799138
756.765100	2497.087667
757.092515	2497.334683
757.419882	2498.121103
757.747203	2499.620847
758.074477	2503.626043
758.401703	2499.343583
758.728882	2502.809376
759.056014	2504.180570
759.383099	2503.689058
759.710138	2504.964470
760.037129	2502.552278
760.364073	2506.446569
760.690970	2504.230982
761.017820	2504.775426
761.344623	2506.260046
761.671379	2509.864471
761.998088	2510.844976
762.324751	2527.440454
762.651366	2547.224462
762.977935	2577.562126
763.304456	2595.377564
763.630931	2603.841661
763.957359	2596.403439
764.283740	2579.434915
764.610074	2565.491083
764.936362	2549.571119
765.262602	2536.214582
765.588796	2526.059178
765.914943	2515.392096
766.241044	2506.859943
766.567097	2504.006650
766.893104	2498.993223
767.219064	2494.872080
767.544978	2491.938128
767.870845	2491.255052
768.196665	2487.325472
768.522438	2485.389669
768.848165	2483.380769
769.173846	2483.060656
769.499479	2483.552169
769.825066	2481.966726
770.150607	2478.949595
770.476101	2479.897332
770.801548	2478.574029
771.126949	2480.451859
771.452303	2476.358442
771.777611	2477.366673
772.102872	2475.388020
772.428087	2472.859881
772.753256	2472.640591
773.078378	2470.624130
773.403453	2467.191104
773.728482	2469.315950
774.053465	2469.288224
774.378401	2469.504993
774.703291	2467.196145
775.028135	2465.104066
775.352932	2466.757565
775.677683	2467.367544
776.002388	2466.681947
776.327046	2467.508697
776.651658	2462.611216
776.976224	2462.545681
777.300743	2461.310598
777.625216	2464.625157
777.949643	2464.005095
778.274024	2460.395628
778.598359	2459.881431
778.922647	2459.016873
779.246889	2462.475104
779.571086	2457.476800
779.895236	2461.834878
780.219339	2459.488221
780.543397	2461.557614
780.867409	2461.658437
781.191374	2461.429065
781.515294	2462.810341
781.839167	2462.954014
782.162995	2462.986782
782.486776	2463.203551
782.810511	2460.204065
783.134201	2460.330093
783.457844	2461.252625
783.781441	2461.088787
784.104993	2458.961420
784.428498	2458.038889
784.751958	2460.125927
785.075372	2460.544343
785.398739	2458.900926
785.722061	2460.320011
786.045337	2459.021914
786.368568	2460.927470
786.691752	2461.534929
787.014891	2465.497276
787.337983	2466.432410
787.661030	2470.304016
787.984031	2475.781230
788.306987	2479.148721
788.629897	2481.399596
788.952760	2476.013123
789.275579	2477.989255
789.598351	2475.695530
789.921078	2472.965746
790.243759	2469.252936
790.566395	2466.782770
790.888984	2464.728500
791.211529	2465.661114
791.534027	2463.180866
791.856480	2460.587192
792.178888	2460.420834
792.501249	2458.716924
792.823566	2459.142902
793.145836	2459.084928
793.468062	2458.631225
793.790241	2456.508899
794.112375	2461.557614
794.434464	2461.781946
794.756507	2461.446709
795.078505	2463.868983
795.400457	2459.984774
795.722364	2462.795218
796.044226	2465.436782
796.366042	2463.924436
796.687812	2464.325208
797.009538	2470.591362
797.331218	2470.417442
797.652852	2469.691516
797.974442	2468.148923
798.295986	2467.511217
798.617484	2466.744962
798.938938	2463.725311
799.260346	2463.402677
799.581709	2462.202882
799.903026	2464.249591
800.224299	2459.357151
800.545526	2459.402521
800.866708	2460.085597
801.187845	2459.657099
801.508936	2457.698611
801.829983	2457.741461
802.150984	2456.188786
802.471940	2457.328086
802.792851	2452.231480
803.113717	2458.026286
803.434538	2456.486214
803.755314	2454.757098
804.076045	2452.004628
804.396731	2453.585030
804.717372	2452.851542
805.037967	2453.244752
805.358518	2452.493620
805.679024	2456.370267
805.999485	2454.827674
806.319901	2458.122068
806.640272	2457.118878
806.960598	2456.065277
807.280879	2454.520164
807.601115	2457.086111
807.921306	2454.951182
808.241453	2457.706173
808.561554	2455.646862
808.881611	2457.582665
809.201623	2455.460339
809.521590	2456.405555
809.841513	2457.396142
810.161390	2454.308435
810.481223	2454.351285
810.801011	2455.309104
811.120755	2455.951851
811.440453	2455.014197
811.760107	2456.236677
812.079716	2451.881120
812.399281	2451.818105
812.718801	2453.993363
813.038276	2449.647888
813.357707	2456.476131
813.677093	2450.633434
813.996434	2455.044444
814.315731	2452.780966
814.634983	2453.612756
814.954191	2453.408589
815.273354	2455.495627
815.592473	2454.389094
815.911547	2456.508899
816.230577	2457.988477
816.549562	2458.003601
816.868502	2458.671554
817.187399	2458.653910
817.506250	2460.312449
817.825058	2462.028962
818.143821	2464.710856
818.462539	2467.375106
818.781213	2469.298306
819.099843	2474.311734
819.418429	2486.090390
819.736970	2492.406955
820.055466	2504.818276
820.373919	2517.728671
820.692327	2540.602907
821.010691	2574.907959
821.329011	2660.196720
821.647286	2785.408899
821.965517	2923.060126
822.283704	3005.573732
822.601847	3033.932743
822.919945	2977.396202
823.237999	2909.655698
823.556010	2840.251612
823.873976	2778.381531
824.191897	2723.644682
824.509775	2681.793023
824.827609	2643.591159
825.145398	2617.828342
825.463144	2606.730242
825.780845	2612.189812
826.098502	2624.442336
826.416116	2658.555824
826.733685	2685.533559
827.051210	2693.158304
827.368692	2679.111129
827.686129	2645.947899
828.003522	2610.518669
828.320872	2575.293607
828.638177	2552.857952
828.955439	2532.312729
829.272656	2517.065759
829.589830	2500.578666
829.906960	2494.093221
830.224046	2483.766418
830.541088	2478.069914
830.858086	2475.730818
831.175041	2470.964408
831.491952	2471.203862
831.808819	2471.682772
832.125642	2475.733339
832.442421	2485.455204
832.759157	2503.074037
833.075849	2528.839374
833.392497	2555.897768
833.709101	2575.137331
834.025662	2571.739593
834.342179	2557.485731
834.658653	2540.950746
834.975083	2522.018693
835.291469	2505.559326
835.607811	2492.195227
835.924110	2485.054433
836.240366	2479.010089
836.556578	2470.435086
836.872746	2463.730352
837.188871	2459.465536
837.504952	2456.050154
837.820990	2451.545883
838.136984	2449.826849
838.452935	2449.663012
838.768842	2452.228959
839.084706	2455.278857
839.400526	2466.782770
839.716303	2482.647282
840.032037	2490.640031
840.347727	2487.181799
840.663373	2482.546458
840.978977	2470.719912
841.294537	2464.942749
841.610054	2456.677778
841.925527	2452.859103
842.240957	2448.576643
842.556344	2446.797116
842.871687	2439.860488
843.186987	2441.181271
843.502244	2437.561722
843.817458	2436.601382
844.132629	2434.766402
844.447756	2434.053079
844.762840	2429.226174
845.077881	2429.180804
845.392879	2427.507141
845.707833	2429.566452
846.022745	2429.319436
846.337613	2430.133582
846.652438	2430.657862
846.967221	2432.429828
847.281960	2430.226843
847.596656	2430.773808
847.911309	2429.193407
848.225919	2431.688778
848.540485	2429.001843
848.855009	2427.461770
849.169490	2429.616864
849.483928	2428.742223
849.798323	2429.637028
850.112675	2425.828437
850.426984	2426.932449
850.741251	2429.127872
851.055474	2427.696184
851.369654	2429.795825
851.683792	2428.147367
851.997887	2426.624939
852.311938	2427.847419
852.625947	2429.546287
852.939914	2425.291554
853.253837	2427.421441
853.567718	2429.178283
853.881555	2426.453540
854.195350	2425.684764
854.509103	2427.365988
854.822812	2428.177614
855.136479	2426.186358
855.450103	2427.590320
855.763685	2429.203489
856.077224	2427.169383
856.390720	2430.539395
856.704173	2429.596699
857.017584	2429.823551
857.330953	2428.142326
857.644278	2428.394384
857.957561	2430.413366
858.270802	2429.725248
858.584000	2426.708118
858.897155	2430.867070
859.210268	2432.641556
859.523339	2429.027049
859.836367	2430.499066
860.149352	2429.465629
860.462295	2427.028231
860.775195	2423.764084
861.088054	2422.559248
861.400869	2425.735175
861.713642	2424.285843
862.026373	2428.089394
862.339062	2424.081677
862.651708	2428.134764
862.964312	2427.471853
863.276873	2430.864549
863.589392	2429.417738
863.901869	2432.344128
864.214303	2428.608633
864.526696	2434.501742
864.839045	2429.453026
865.151353	2434.332863
865.463619	2432.137441
865.775842	2433.193562
866.088023	2431.048551
866.400162	2432.760023
866.712258	2433.475867
867.024313	2436.233378
867.336325	2432.545774
867.648296	2434.907555
867.960224	2432.825558
868.272110	2430.211720
868.583954	2433.554005
868.895755	2434.690785
869.207515	2432.089550
869.519233	2435.323450
869.830909	2432.772626
870.142542	2433.997626
870.454134	2435.020981
870.765684	2433.942174
871.077191	2436.089705
871.388657	2435.923347
871.700081	2435.837647
872.011463	2435.293203
872.322803	2434.731114
872.634101	2434.146340
872.945357	2437.395364
873.256571	2440.616661
873.567744	2441.667742
873.878874	2439.391661
874.189963	2437.355035
874.501010	2441.990376
874.812015	2440.951898
875.122979	2442.494491
875.433900	2440.404933
875.744780	2440.740170
876.055618	2441.055242
876.366415	2445.136056
876.677169	2440.213369
876.987882	2439.008533
877.298554	2438.542227
877.609183	2442.630602
877.919771	2442.912907
878.230317	2445.897270
878.540822	2452.864145
878.851285	2456.236677
879.161707	2462.142388
879.472087	2473.908441
879.782425	2491.262613
880.092722	2520.609691
880.402977	2565.251628
880.713191	2622.241873
881.023363	2673.253308
881.333494	2706.232537
881.643583	2714.719319
881.953631	2707.223124
882.263637	2698.970755
882.573602	2679.423681
882.883526	2655.526091
883.193408	2633.193779
883.503248	2612.565378
883.813048	2590.890937
884.122806	2572.077351
884.432522	2550.962478
884.742197	2535.355066
885.051831	2519.795544
885.361424	2504.026815
885.670975	2496.051710
885.980485	2485.392190
886.289954	2478.848772
886.599382	2471.153451
886.908768	2467.140692
887.218113	2462.389405
887.527417	2459.962089
887.836680	2455.483024
888.145901	2449.925152
888.455082	2450.225101
888.764221	2445.889708
889.073319	2444.846189
889.382376	2445.849379
889.691392	2444.329471
890.000366	2444.631940
890.309300	2441.483740
890.618193	2443.464913
890.927044	2446.479523
891.235855	2447.137394
891.544625	2442.718822
891.853353	2445.357867
892.162041	2445.693103
892.470687	2450.225101
892.779293	2452.327262
893.087858	2456.970164
893.396381	2461.862604
893.704864	2479.186529
894.013306	2487.587612
894.321707	2506.764162
894.630068	2517.368229
894.938387	2521.189423
895.246665	2517.327899
895.554903	2512.279184
895.863100	2501.231495
896.171256	2494.398211
896.479371	2488.235401
896.787446	2482.201139
897.095480	2475.277115
897.403473	2469.638584
897.711425	2467.183542
898.019336	2459.909157
898.327207	2458.807665
898.635038	2457.181893
898.942827	2451.480348
899.250576	2449.068156
899.558284	2448.334668
899.865952	2445.700665
900.173579	2442.779316
900.481165	2442.746549
900.788711	2440.712443
901.096216	2437.352514
901.403681	2439.474840
901.711105	2438.217072
902.018489	2438.827052
902.325832	2443.152362
902.633135	2442.081117
902.940397	2449.342899
903.247619	2460.307408
903.554800	2487.874958
903.861941	2510.313134
904.169041	2536.320447
904.476101	2541.502753
904.783121	2536.796836
905.090100	2523.911646
905.397039	2512.264060
905.703938	2502.887514
906.010796	2491.418889
906.317614	2483.746253
906.624391	2476.706282
906.931129	2466.543316
907.237826	2461.476956
907.544483	2458.235494
907.851099	2452.221397
908.157675	2446.038422
908.464211	2440.720005
908.770707	2434.592483
909.077163	2432.823038
909.383578	2428.346493
909.689954	2429.014446
909.996289	2426.463622
910.302584	2432.175249
910.608839	2427.716349
910.915054	2429.778181
911.221229	2423.373395
911.527363	2429.672316
911.833458	2428.200299
912.139513	2428.051585
912.445527	2429.788263
912.751502	2432.949066
913.057436	2432.437389
913.363331	2438.519541
913.669186	2440.122628
913.975000	2442.542382
914.280775	2450.041098
914.586510	2458.117027
914.892205	2471.644963
915.197859	2487.277581
915.503475	2504.959428
915.809050	2524.839219
916.114585	2535.511341
916.420081	2537.800025
916.725536	2535.581917
917.030952	2530.339117
917.336328	2522.419465
917.641665	2517.826974
917.946961	2505.448420
918.252218	2501.223933
918.557435	2493.238746
918.862612	2485.258599
919.167750	2478.574029
919.472848	2473.185036
919.777906	2465.023408
920.082925	2464.075671
920.387904	2455.828343
920.692843	2451.152673
920.997743	2448.420368
921.302603	2447.472631
921.607423	2443.331323
921.912204	2441.070365
922.216946	2436.843358
922.521647	2436.188008
922.826310	2434.010229
923.130932	2434.481577
923.435516	2430.446133
923.740059	2430.330187
924.044564	2426.609815
924.349028	2429.296750
924.653454	2422.816347
924.957840	2422.604619
925.262186	2421.828281
925.566493	2424.971440
925.870761	2418.871644
926.174989	2424.810123
926.479178	2422.269382
926.783328	2419.582447
927.087438	2420.857859
927.391509	2422.080339
927.695541	2421.364495
927.999533	2421.717376
928.303486	2416.817374
928.607400	2419.073290
928.911275	2418.783424
929.215110	2417.979360
929.518906	2419.625297
929.822663	2417.225707
930.126381	2416.724113
930.430060	2422.652510
930.733699	2420.588157
931.037299	2417.213105
931.340861	2417.134967
931.644383	2416.620769
931.947866	2420.326017
932.251309	2418.521284
932.554714	2418.319638
932.858080	2417.462642
933.161407	2416.976170
933.464694	2417.308887
933.767943	2419.572365
934.071153	2419.005235
934.374323	2417.775193
934.677455	2418.687642
934.980548	2415.403330
935.283602	2418.274267
935.586617	2419.093455
935.889593	2416.126736
936.192530	2415.461304
936.495428	2418.518763
936.798287	2420.121850
937.101108	2418.612025
937.403890	2418.690163
937.706632	2421.644279
938.009336	2421.747622
938.312002	2423.736358
938.614628	2422.866759
938.917216	2425.833478
939.219765	2426.569486
939.522275	2429.397573
939.824747	2425.896492
940.127179	2425.160484
940.429573	2421.545976
940.731929	2424.399269
941.034246	2422.549166
941.336524	2426.813982
941.638763	2425.548653
941.940964	2424.805082
942.243126	2420.628486
942.545250	2425.568817
942.847335	2426.478745
943.149381	2423.111255
943.451389	2421.329207
943.753359	2421.669485
944.055290	2422.289547
944.357182	2423.494382
944.659036	2420.278126
944.960851	2424.084197
945.262628	2421.031779
945.564367	2419.907601
945.866067	2419.582447
946.167729	2417.301325
946.469352	2418.969947
946.770937	2422.478590
947.072484	2415.279822
947.373992	2419.406007
947.675462	2419.960533
947.976893	2416.870306
948.278286	2416.472055
948.579641	2418.632189
948.880958	2415.604977
949.182236	2417.676891
949.483476	2418.065060
949.784678	2417.981881
950.085841	2418.922056
950.386967	2419.017838
950.688054	2418.503640
950.989103	2417.266037
951.290114	2419.879875
951.591087	2418.826274
951.892021	2419.272416
952.192917	2421.334248
952.493776	2421.966913
952.794596	2421.780390
953.095378	2420.333579
953.396122	2420.457087
953.696828	2420.424320
953.997496	2423.295257
954.298126	2421.485482
954.598718	2420.855338
954.899272	2421.684608
955.199788	2418.727971
955.500266	2418.528846
955.800706	2416.497261
956.101108	2413.933834
956.401472	2413.767476
956.701798	2411.919893
957.002087	2412.252609
957.302337	2412.653381
957.602550	2411.352763
957.902724	2412.182033
958.202861	2412.681107
958.502960	2414.909297
958.803022	2413.560789
959.103045	2411.677918
959.403031	2410.233627
959.702979	2410.546179
960.002889	2412.270253
960.302762	2414.359812
960.602596	2409.941240
960.902393	2409.595921
961.202153	2408.408729
961.501875	2410.248751
961.801559	2410.836045
962.101205	2409.905952
962.400814	2408.663308
962.700385	2411.027609
962.999918	2411.267064
963.299414	2409.293452
963.598873	2408.726322
963.898293	2410.946950
964.197677	2408.867474
964.497022	2408.572567
964.796331	2405.857906
965.095601	2409.341343
965.394835	2407.002248
965.694030	2407.327402
965.993189	2411.110788
966.292309	2407.176167
966.591393	2404.063255
966.890439	2411.312434
967.189447	2410.261353
967.488419	2410.132804
967.787353	2408.887639
968.086249	2405.840262
968.385108	2410.049625
968.683930	2408.960736
968.982714	2411.282187
969.281462	2406.233472
969.580172	2408.315468
969.878844	2410.231107
970.177480	2412.587846
970.476078	2409.144738
970.774639	2412.648340
971.073162	2410.223545
971.371649	2408.312948
971.670098	2406.167937
971.968510	2410.278997
972.266885	2405.419325
972.565223	2410.256312
972.863524	2409.603483
973.161788	2408.796898
973.460014	2409.111970
973.758204	2409.515263
974.056356	2410.427712
974.354471	2412.484502
974.652550	2407.755900
974.950591	2406.820766
975.248595	2408.927968
975.546563	2408.287742
975.844493	2408.693555
976.142386	2409.273287
976.440243	2410.747825
976.738062	2407.486198
977.035845	2406.513256
977.333590	2410.289080
977.631299	2410.336971
977.928971	2410.684810
978.226606	2409.250602
978.524204	2410.795716
978.821765	2410.115160
979.119290	2405.749521
979.416777	2408.728843
979.714228	2407.821435
980.011642	2407.997875
980.309020	2409.295972
980.606360	2410.258833
980.903664	2410.881415
981.200931	2409.827814
981.498162	2410.727660
981.795356	2413.948957
982.092513	2417.185378
982.389633	2418.566654
982.686717	2419.741243
982.983764	2421.820719
983.280775	2424.762232
983.577749	2423.567479
983.874686	2422.576892
984.171587	2421.944227
984.468451	2422.660071
984.765279	2416.708989
985.062070	2415.141190
985.358824	2415.292425
985.655543	2417.810481
985.952224	2413.850655
986.248869	2413.054153
986.545478	2409.248082
986.842050	2407.294634
987.138586	2406.825807
987.435086	2404.332957
987.731549	2402.288769
988.027975	2405.658780
988.324366	2406.225910
988.620719	2406.432597
988.917037	2406.288924
989.213318	2404.771537
989.509563	2406.019223
989.805772	2406.692217
990.101944	2404.070817
990.398080	2406.011661
990.694180	2406.626682
990.990244	2406.682134
991.286271	2405.245405
991.582262	2407.118194
991.878217	2409.860582
992.174136	2403.796074
992.470019	2405.094171
992.765865	2405.628533
993.061676	2405.545354
993.357450	2407.486198
993.653188	2405.227761
993.948890	2408.058369
994.244556	2405.583163
994.540186	2409.885787
994.835780	2407.566857
995.131337	2407.730694
995.426859	2409.379152
995.722345	2411.730850
996.017795	2414.909297
996.313208	2413.472568
996.608586	2413.195305
996.903928	2413.157496
997.199234	2414.858886
997.494504	2414.279153
997.789738	2411.188926
998.084936	2413.742270
998.380099	2413.858217
998.675225	2411.624986
998.970316	2411.740932
999.265371	2408.892680
999.560390	2409.701785
999.855373	2410.883936
1000.150320	2408.237330
1000.445232	2409.316137
1000.740108	2407.541651
1001.034948	2405.774727
1001.329752	2406.825807
1001.624521	2406.475447
1001.919254	2399.909344
1002.213951	2405.013512
1002.508613	2399.876577
1002.803239	2402.553429
1003.097829	2400.151319
1003.392384	2406.019223
1003.686903	2405.492422
1003.981386	2404.927813
1004.275834	2405.363873
1004.570246	2403.861609
1004.864623	2403.302041
1005.158964	2405.747000
1005.453270	2404.902607
1005.747540	2404.196845
1006.041775	2403.317164
1006.335974	2404.514438
1006.630138	2405.996537
1006.924266	2402.566032
1007.218359	2402.820610
1007.512416	2404.658111
1007.806438	2403.365055
1008.100425	2403.811197
1008.394376	2402.419839
1008.688292	2403.291958
1008.982172	2404.262380
1009.276017	2403.443193
1009.569827	2402.823131
1009.863602	2405.041239
1010.157341	2404.161557
1010.451045	2405.772206
1010.744714	2402.150137
1011.038347	2401.164591
1011.331945	2404.834551
1011.625508	2402.780281
1011.919036	2403.357493
1012.212528	2403.080230
1012.505986	2402.840775
1012.799408	2403.697771
1013.092795	2404.443862
1013.386147	2402.780281
1013.679464	2404.176681
1013.972745	2404.249778
1014.265992	2402.747514
1014.559204	2402.722308
1014.852380	2402.034190
1015.145521	2403.690209
1015.438628	2403.644839
1015.731699	2403.934705
1016.024736	2401.550240
1016.317737	2401.230126
1016.610703	2405.197514
1016.903635	2399.967317
1017.196531	2400.287431
1017.489393	2402.021588
1017.782219	2398.374313
1018.075011	2406.248595
1018.367768	2400.557132
1018.660490	2401.867832
1018.953177	2401.867832
1019.245829	2401.867832
