Dividing Wavelength (nm)	Counts (n)	Blue Motor Position (mm): 0.000000	Red Motor Position (mm): 47.600000	
326.493990	1999.321615
326.888308	1999.321615
327.282561	1999.321615
327.676750	1975.819756
328.070874	1977.687504
328.464933	1982.227063
328.858929	1993.274751
329.252859	2003.011740
329.646726	2019.282064
330.040528	2033.621626
330.434265	2053.622404
330.827938	2073.741649
331.221547	2092.318301
331.615091	2113.533997
332.008571	2132.818931
332.401986	2157.087046
332.795338	2174.713440
333.188625	2194.000895
333.581847	2214.735160
333.975006	2231.900289
334.368100	2250.547517
334.761129	2267.256422
335.154095	2280.444080
335.546996	2325.300267
335.939833	2412.963412
336.332606	2427.789445
336.725315	2440.079778
337.117960	2446.222424
337.510540	2455.861111
337.903056	2464.441154
338.295508	2468.222020
338.687896	2480.930769
339.080220	2485.372025
339.472480	2494.105824
339.864676	2495.267810
340.256807	2497.727893
340.648875	2502.161588
341.040879	2501.511279
341.432818	2504.727535
341.824694	2505.415653
342.216506	2504.019253
342.608253	2505.277021
342.999937	2502.403563
343.391557	2505.022443
343.783113	2501.498676
344.174605	2500.172853
344.566033	2495.847543
344.957397	2494.486431
345.348697	2495.116576
345.739934	2492.258241
346.131106	2491.335710
346.522215	2490.161121
346.913260	2490.178765
347.304241	2485.954278
347.695159	2482.990080
348.086012	2485.750112
348.476802	2483.499237
348.867528	2483.050574
349.258191	2481.457569
349.648789	2478.858854
350.039324	2476.771817
350.429796	2476.318113
350.820203	2478.495891
351.210548	2478.306848
351.600828	2476.469347
351.991045	2477.641416
352.381198	2476.791981
352.771288	2479.599904
353.161314	2474.036991
353.551276	2478.059832
353.941175	2474.621765
354.331010	2476.648308
354.720782	2478.952116
355.110490	2479.607466
355.500135	2476.907928
355.889717	2476.126549
356.279235	2477.417084
356.668689	2477.926241
357.058080	2476.290387
357.447408	2479.879688
357.836672	2477.447331
358.225873	2478.112764
358.615010	2479.736015
359.004084	2482.569144
359.393095	2483.736171
359.782043	2485.578713
360.170927	2483.756335
360.559748	2485.377066
360.948505	2485.336737
361.337199	2487.728765
361.725830	2490.012407
362.114398	2489.551142
362.502903	2491.527274
362.891344	2490.486276
363.279722	2488.414362
363.668037	2493.258910
364.056289	2491.340751
364.444478	2493.568941
364.832603	2493.306801
365.220665	2497.589262
365.608665	2498.146309
365.996601	2498.156391
366.384474	2496.505413
366.772284	2500.283758
367.160031	2501.342401
367.547715	2500.876094
367.935336	2502.653101
368.322893	2502.368275
368.710388	2504.891373
369.097820	2507.790036
369.485189	2508.543689
369.872495	2510.040912
370.259738	2512.750532
370.646918	2516.317148
371.034035	2515.553413
371.421090	2520.103055
371.808081	2522.676564
372.195010	2527.984899
372.581875	2536.030580
372.968678	2537.961342
373.355418	2545.754966
373.742096	2558.751061
374.128710	2569.012329
374.515262	2580.854000
374.901751	2594.475197
375.288177	2615.567385
375.674540	2634.955663
376.060841	2657.111534
376.447079	2678.244051
376.833254	2703.674151
377.219367	2729.555435
377.605417	2764.004160
377.991404	2791.357461
378.377329	2833.221723
378.763191	2866.818493
379.148991	2918.470155
379.534727	2971.621561
379.920402	3016.891122
380.306013	3064.993812
380.691563	3133.082157
381.077049	3191.370498
381.462474	3247.581884
381.847835	3325.422340
382.233134	3399.718866
382.618371	3465.205975
383.003545	3552.599418
383.388657	3634.981954
383.773706	3730.569793
384.158693	3808.546360
384.543618	3906.248963
384.928480	3987.976149
385.313280	4089.820060
385.698017	4201.521947
386.082692	4327.054239
386.467305	4390.887850
386.851856	4523.523128
387.236344	4685.565977
387.620770	4750.985031
388.005133	4872.416345
388.389435	5025.458214
388.773674	5111.041883
389.157851	5250.631432
389.541965	5385.772164
389.926018	5408.752264
390.310008	5596.840235
390.693936	5722.543926
391.077802	5842.382236
391.461606	5980.368699
391.845348	6097.136945
392.229027	6224.708384
392.612645	6459.419466
392.996200	6577.458084
393.379694	6752.605412
393.763125	6983.830536
394.146494	7083.539518
394.529801	7220.530353
394.913047	7472.366235
395.296230	7474.995197
395.679351	7530.732714
396.062410	7807.323182
396.445408	7695.896038
396.828343	7858.072477
397.211217	7999.653283
397.594028	7876.089561
397.976778	8088.559072
398.359466	8256.134588
398.742092	8230.931339
399.124656	8376.403916
399.507158	8568.207217
399.889598	8597.085467
400.271977	8807.878794
400.654294	8852.477882
401.036549	9047.812512
401.418742	9073.053569
401.800874	9385.471517
402.182944	9462.553280
402.564952	9854.175316
402.946898	9661.910750
403.328783	9724.922652
403.710606	9928.083673
404.092367	10193.389517
404.474067	10568.574872
404.855705	10349.133445
405.237282	10296.589498
405.618797	10736.447815
406.000250	10997.380459
406.381642	11370.887109
406.762972	11324.606796
407.144240	11112.906061
407.525447	11379.925898
407.906593	11316.508183
408.287677	11581.919892
408.668700	11743.471228
409.049661	11704.248531
409.430560	11872.555014
409.811399	11846.877897
410.192176	12013.495593
410.572891	12089.715318
410.953545	12597.757762
411.334138	12053.119062
411.714669	12684.886544
412.095139	11955.025770
412.475547	12481.922129
412.855894	12317.988847
413.236180	12669.178309
413.616405	12332.514932
413.996568	12628.612144
414.376670	12600.651384
414.756711	12465.556023
415.136691	12767.894184
415.516609	12954.618522
415.896466	13027.062423
416.276262	13313.311742
416.655997	13760.136933
417.035670	13795.523313
417.415283	14460.101145
417.794834	14564.490838
418.174324	14293.554025
418.553753	14189.499568
418.933121	14708.440986
419.312428	14498.328215
419.691674	14417.947017
420.070859	14886.912956
420.449983	14547.030802
420.829045	15095.470532
421.208047	14831.399770
421.586988	15307.012471
421.965867	15575.494242
422.344686	15559.478496
422.723444	16147.831562
423.102141	14800.898268
423.480777	16019.919845
423.859352	15514.682803
424.237866	16663.491189
424.616319	16352.867892
424.994712	17030.008279
425.373044	16805.283723
425.751314	17510.233636
426.129524	16603.950121
426.507673	17741.327690
426.885762	17421.388340
427.263789	17640.005538
427.641756	17805.458728
428.019662	17875.364409
428.397508	17903.410868
428.775292	18232.366321
429.153016	18182.340431
429.530679	18275.387528
429.908282	18295.554664
430.285824	18014.820368
430.663305	18727.427793
431.040726	18321.070464
431.418086	18143.029513
431.795385	18806.218508
432.172624	19234.547706
432.549802	18778.840001
432.926920	18969.740935
433.303977	18836.110029
433.680974	19118.661661
434.057910	19399.486698
434.434786	19423.696839
434.811601	19340.011165
435.188355	20403.016591
435.565050	20040.363545
435.941683	19995.204889
436.318257	20898.657796
436.694770	20712.145186
437.071222	21310.411681
437.447614	20363.554439
437.823946	20405.597662
438.200218	20543.954650
438.576429	20317.405196
438.952580	20599.142682
439.328670	20552.413706
439.704700	20989.829584
440.080670	20542.351563
440.456580	21136.388529
440.832429	21330.457829
441.208218	20288.761360
441.583947	20746.878736
441.959616	20865.474401
442.335224	21112.072524
442.710773	21230.557283
443.086261	21798.037451
443.461689	21141.432204
443.837057	21268.348293
444.212365	21935.794542
444.587612	21930.425713
444.962800	21490.643013
445.337927	21925.878592
445.712995	20629.228288
446.088002	22534.174462
446.462949	22733.849525
446.837837	22914.174118
447.212664	22877.779508
447.587431	25790.543077
447.962139	28780.375806
448.336786	31199.930526
448.711374	29580.807693
449.085901	25834.121331
449.460369	25772.394923
449.834776	25707.384203
450.209124	28261.205015
450.583412	27751.355318
450.957640	28295.961250
451.331808	26920.880675
451.705917	25524.783528
452.079965	25563.371041
452.453954	25940.232579
452.827883	25809.656612
453.201752	25612.993638
453.575562	25784.549145
453.949311	26931.421727
454.323001	26997.241553
454.696632	26743.437100
455.070202	28350.468726
455.443713	28464.255130
455.817164	29090.179915
456.190556	29631.693100
456.563888	29049.162567
456.937160	29504.519912
457.310373	27799.707545
457.683526	28271.095759
458.056619	28260.801723
458.429653	28173.194031
458.802628	28770.737120
459.175542	28898.832839
459.548398	30198.580932
459.921194	31805.143731
460.293930	32494.453464
460.666607	34561.669339
461.039224	36337.098189
461.411782	36743.228666
461.784280	35535.816867
462.156719	35046.129265
462.529099	34498.004607
462.901419	33185.356201
463.273680	32109.823508
463.645882	32195.886086
464.018024	32179.288087
464.390106	33032.432799
464.762130	35782.319208
465.134094	39892.276157
465.505999	45228.995373
465.877845	49844.882522
466.249631	51026.448325
466.621358	49349.208550
466.993026	47254.246164
467.364634	45200.520416
467.736184	43182.707848
468.107674	41921.811928
468.479105	41105.187854
468.850477	40403.658365
469.221790	38951.818660
469.593043	37174.809408
469.964238	36277.201719
470.335373	36194.093257
470.706449	37980.133735
471.077467	40626.227827
471.448425	45206.668103
471.819324	47998.912807
472.190164	46116.213245
472.560945	42552.377095
472.931667	39402.762474
473.302330	38297.300450
473.672934	37464.453944
474.043479	37967.316602
474.413965	37160.142171
474.784393	36783.250386
475.154761	37696.304171
475.525070	37722.205619
475.895321	37259.641945
476.265513	37858.190744
476.635645	38843.511990
477.005719	38664.684619
477.375734	39157.109568
477.745691	39847.556081
478.115588	41207.913967
478.485427	43218.076584
478.855207	46608.169366
479.224928	49226.280013
479.594591	50857.776359
479.964194	49876.339322
480.333739	50052.262989
480.703226	50101.131934
481.072653	50730.724158
481.442022	51185.615196
481.811333	51447.341822
482.180584	50168.829589
482.549777	49662.054996
482.918912	49112.798599
483.287988	48824.149692
483.657005	47993.029780
484.025964	47336.795058
484.394864	47384.834733
484.763706	46932.156762
485.132489	46062.819864
485.501213	45896.287867
485.869879	46048.114818
486.238487	45637.437220
486.607036	45820.166444
486.975527	45277.125790
487.343959	45483.566081
487.712333	45566.941724
488.080648	45464.840715
488.448905	45927.013700
488.817104	45750.958963
489.185244	46715.404791
489.553326	48423.080533
489.921350	51119.034157
490.289315	53935.146204
490.657222	54502.729715
491.025070	54784.996522
491.392861	53904.632099
491.760593	52700.328172
492.128267	51064.347720
492.495883	49543.431605
492.863440	48141.897574
493.230939	46786.490101
493.598380	45679.251070
493.965763	45351.717223
494.333088	44513.282597
494.700354	44032.074216
495.067563	43720.893871
495.434713	43597.259573
495.801805	43659.328780
496.168839	43267.515179
496.535815	42925.971965
496.902733	42951.492807
497.269593	42542.544324
497.636395	42448.178965
498.003139	42876.946744
498.369825	42299.946357
498.736453	42630.323416
499.103023	42152.797597
499.469535	42020.396732
499.835989	42111.472738
500.202385	41783.775053
500.568723	41798.311220
500.935003	41977.957779
501.301226	41760.852927
501.667390	42384.075653
502.033497	42680.956765
502.399546	42069.159813
502.765537	41390.197049
503.131470	41784.989971
503.497345	42144.131853
503.863163	40791.123970
504.228923	41411.206057
504.594625	41829.122753
504.960269	41105.762546
505.325856	41813.711945
505.691385	41156.935299
506.056856	41289.174846
506.422270	41751.342790
506.787625	41316.946563
507.152924	41515.457119
507.518164	41616.239867
507.883347	40799.267954
508.248472	41083.694895
508.613540	41549.696636
508.978550	41875.448436
509.343503	41606.765018
509.708398	41812.370998
510.073236	42350.042823
510.438016	42344.512678
510.802738	41805.467138
511.167403	42431.752366
511.532010	42672.364118
511.896561	42989.646779
512.261053	43846.779044
512.625488	43386.103282
512.989866	43251.138991
513.354186	43095.090074
513.718449	43085.516923
514.082655	43772.666521
514.446803	43445.757777
514.810894	43985.342720
515.174927	43905.848765
515.538904	43795.896158
515.902822	44482.806302
516.266684	43928.234008
516.630488	44368.823293
516.994235	44213.727153
517.357925	44810.292258
517.721558	44980.390872
518.085133	45295.175641
518.448651	45429.764367
518.812112	45179.755903
519.175516	45296.413244
519.538863	45640.429145
519.902152	45598.237208
520.265385	46060.604277
520.628560	46123.827908
520.991678	45892.519604
521.354739	46134.510113
521.717743	46469.953531
522.080690	46357.059411
522.443580	46916.612364
522.806413	46953.049824
523.169189	46897.576967
523.531908	47087.149558
523.894569	46950.844319
524.257174	47115.362375
524.619722	47437.121581
524.982213	47423.311340
525.344647	47340.691870
525.707025	47381.290802
526.069345	47764.413453
526.431608	47699.967343
526.793815	48022.235705
527.155964	47565.602949
527.518057	47722.299654
527.880093	47499.077362
528.242072	48023.274183
528.603995	47716.711535
528.965860	47750.454498
529.327669	47839.665278
529.689421	47730.667970
530.051117	47683.762554
530.412755	47828.262187
530.774337	47894.109739
531.135862	47689.154068
531.497331	47905.354033
531.858743	47803.202612
532.220098	48157.691509
532.581396	47862.393320
532.942638	47518.490845
533.303824	47835.206377
533.664953	47778.493396
534.026025	47495.959408
534.387040	47987.043410
534.747999	47933.103064
535.108902	48091.012167
535.469748	47609.282026
535.830537	47718.213799
536.191270	47905.112057
536.551947	47567.775686
536.912567	47869.839104
537.273131	48011.440074
537.633638	47463.615365
537.994089	47830.823094
538.354483	47417.798838
538.714821	47984.931167
539.075103	48353.595789
539.435328	48104.184702
539.795497	47987.726487
540.155609	47979.859766
540.515665	48449.097928
540.875665	47882.303357
541.235609	48214.510354
541.595496	48196.979742
541.955328	48879.005007
542.315102	48237.679497
542.674821	48016.367802
543.034483	48064.528465
543.394090	48039.274805
543.753640	47996.099843
544.113134	49011.693217
544.472571	47994.065737
544.831953	49261.447103
545.191278	48465.466554
545.550548	48178.524077
545.909761	48667.473151
546.268918	48859.246205
546.628019	49164.457823
546.987064	48727.601513
547.346053	47986.246908
547.704986	48885.951717
548.063863	48426.483312
548.422684	48623.363054
548.781449	48465.181729
549.140158	48877.364112
549.498811	48728.297192
549.857408	48160.053290
550.215949	48998.276187
550.574434	48914.091438
550.932864	48686.100214
551.291237	49396.718904
551.649555	48990.480042
552.007817	49245.774155
552.366022	48887.456502
552.724173	49077.858362
553.082267	49464.328339
553.440305	49757.531929
553.798288	49071.655222
554.156215	49388.713552
554.514086	49598.314647
554.871902	49338.198670
555.229661	49354.416062
555.587365	49175.777734
555.945014	49280.132139
556.302606	49192.622750
556.660143	49422.126320
557.017625	49519.163490
557.375050	49291.084046
557.732421	49664.719246
558.089735	49623.838008
558.446994	49546.957892
558.804197	50008.142810
559.161345	49965.381223
559.518437	49201.570798
559.875474	49503.737559
560.232455	49659.302526
560.589381	49861.629235
560.946251	49552.288912
561.303065	50242.848851
561.659825	50026.326252
562.016528	49692.496003
562.373177	49414.632644
562.729770	49892.004708
563.086307	49415.792110
563.442789	49874.723632
563.799216	49914.826011
564.155587	49706.394464
564.511904	49709.030988
564.868164	49808.132511
565.224370	50064.749927
565.580520	49789.704573
565.936615	50013.065497
566.292654	49718.646989
566.648638	49983.015179
567.004567	49931.403846
567.360441	49965.963476
567.716260	49820.576599
568.072023	50109.275918
568.427732	50081.826835
568.783385	49643.044805
569.138982	50037.079033
569.494525	49991.582620
569.850013	49757.325242
570.205445	49729.707280
570.560823	49676.679383
570.916145	49574.414536
571.271412	49579.985011
571.626625	49363.805211
571.981782	49400.499770
572.336884	49096.316547
572.691931	49419.794786
573.046923	49001.699130
573.401860	48852.632211
573.756743	48857.602788
574.111570	48965.889294
574.466342	48805.449531
574.821059	48927.301782
575.175722	48442.819171
575.530330	48453.390470
575.884882	48176.401752
576.239380	48129.143455
576.593823	48114.130899
576.948211	48038.730361
577.302544	47535.613124
577.656823	47561.307886
578.011047	47779.408366
578.365216	47507.130605
578.719330	47302.585788
579.073389	47139.975809
579.427394	47210.103300
579.781344	47195.695682
580.135239	46846.570573
580.489080	46941.608926
580.842866	46415.824141
581.196597	46864.895167
581.550273	46793.051163
581.903895	46669.986515
582.257463	47076.505161
582.610975	46446.202134
582.964434	46726.923827
583.317837	46376.845940
583.671186	46189.284770
584.024481	46425.215811
584.377721	45972.338714
584.730906	46264.360153
585.084037	46292.003320
585.437113	45995.114647
585.790135	46040.122068
586.143103	45630.598895
586.496016	45762.283915
586.848874	45775.383354
587.201679	45797.614842
587.554428	45281.869516
587.907124	45454.793695
588.259765	45191.063211
588.612352	45465.349872
588.964884	44848.499163
589.317362	45144.828269
589.669786	45061.334158
590.022155	44837.799314
590.374470	45279.046469
590.726731	44786.001459
591.078937	44300.447602
591.431090	44395.712807
591.783188	44055.384511
592.135232	43725.229263
592.487222	43977.481040
592.839157	44072.625257
593.191038	43726.565169
593.542866	43486.195392
593.894639	42869.896690
594.246358	43160.423428
594.598022	43150.363805
594.949633	42737.362235
595.301190	42686.849874
595.652692	42505.227183
596.004141	42849.258207
596.355535	41849.927594
596.706876	41793.912813
597.058162	41631.877526
597.409395	42117.244859
597.760573	42189.903010
598.111698	41760.018616
598.462768	41767.335850
598.813785	41815.040289
599.164748	41247.650862
599.515657	41640.603763
599.866511	41091.264188
600.217312	41729.670869
600.568060	40664.265854
600.918753	41435.275047
601.269392	41389.461040
601.619978	41036.464325
601.970510	41261.425815
602.320988	41449.234002
602.671412	41751.483942
603.021783	41498.654953
603.372100	41134.877730
603.722363	41255.076482
604.072572	41330.590446
604.422728	41344.718279
604.772830	41155.720381
605.122878	41261.899683
605.472872	41187.116687
605.822813	41485.913437
606.172701	41288.569908
606.522534	41542.704556
606.872314	41808.355719
607.222041	41564.628534
607.571714	41948.804786
607.921333	41370.440767
608.270899	41690.743079
608.620411	42034.469113
608.969870	41832.409585
609.319276	41814.440392
609.668627	41874.465411
610.017926	42375.908984
610.367171	42540.263202
610.716362	42610.607463
611.065500	42552.344327
611.414585	42742.058070
611.763616	43049.515522
612.112594	42970.813029
612.461518	43197.425497
612.810389	43483.863858
613.159207	43351.533570
613.507971	43429.255559
613.856682	43919.059108
614.205340	43804.955112
614.553945	44501.360268
614.902496	43931.331797
615.250994	44415.222073
615.599439	44491.288043
615.947830	44689.042426
616.296169	44739.655611
616.644454	44878.854471
616.992686	45039.284151
617.340864	45551.737604
617.688990	45248.411377
618.037063	45866.774432
618.385082	45849.906731
618.733048	46138.227963
619.080961	46154.331929
619.428821	46167.048240
619.776628	46303.676112
620.124382	46114.312730
620.472083	46261.864782
620.819731	46408.622853
621.167326	46078.074395
621.514868	46058.313072
621.862357	45619.352080
622.209793	45658.690724
622.557176	45328.953892
622.904506	45096.166011
623.251783	44743.053348
623.599007	44516.871899
623.946179	44286.778514
624.293297	44250.167134
624.640363	43619.433088
624.987376	43631.118483
625.334336	43375.625244
625.681243	42997.407636
626.028097	42956.912047
626.374899	42807.000734
626.721647	42765.423818
627.068343	42650.563648
627.414987	42406.516349
627.761577	42181.348172
628.108115	42517.608257
628.454600	41944.466873
628.801032	42133.300934
629.147412	42086.592123
629.493739	42088.792587
629.840014	41718.582852
630.186236	42058.840572
630.532405	41648.727583
630.878521	41876.045812
631.224585	41739.798548
631.570597	41448.966820
631.916556	41629.724953
632.262462	41545.946017
632.608316	41559.995713
632.954117	41471.110089
633.299866	41480.174083
633.645562	41397.705848
633.991206	40901.646227
634.336797	40462.075255
634.682336	40453.381786
635.027823	40211.338345
635.373257	40041.343076
635.718639	39783.661977
636.063968	39640.490687
636.409245	39073.393647
636.754470	39122.728899
637.099642	38864.238694
637.444762	38350.474541
637.789829	38505.870629
638.134845	38138.544433
638.479808	38090.734130
638.824719	37996.106631
639.169577	37591.380115
639.514383	37640.223855
639.859137	37328.912440
640.203839	37575.901253
640.548489	37188.672582
640.893086	37265.978676
641.237632	36999.503283
641.582125	37110.363298
641.926566	37037.979890
642.270955	37003.022009
642.615292	37011.155911
642.959576	36996.425659
643.303809	36977.995201
643.647990	37132.809035
643.992118	37082.876406
644.336195	37074.170334
644.680219	37147.864441
645.024192	37461.890517
645.368112	37980.453849
645.711981	37971.205852
646.055797	38876.002227
646.399562	38781.815829
646.743274	39754.143500
647.086935	40213.831196
647.430544	40103.505544
647.774101	40230.935831
648.117606	40474.264765
648.461059	40811.341517
648.804460	40440.259662
649.147810	39813.540895
649.491108	39571.971324
649.834354	39185.029998
650.177548	38330.582148
650.520690	37874.461068
650.863781	37916.431195
651.206820	37750.967923
651.549807	37277.074255
651.892742	36790.854967
652.235626	36580.359067
652.578458	36440.212470
652.921238	35819.066699
653.263967	36143.807747
653.606644	35798.249254
653.949269	35752.246205
654.291843	35337.437381
654.634365	35753.191421
654.976836	35329.061504
655.319255	35304.717772
655.661622	35318.991799
656.003938	35081.250984
656.346203	34937.802430
656.688416	35172.442936
657.030577	34964.104651
657.372687	34807.052544
657.714746	35102.126402
658.056753	35206.080035
658.398708	34645.044983
658.740612	34686.805901
659.082465	34963.482068
659.424266	34768.442346
659.766016	34906.297739
660.107715	34790.525121
660.449362	34914.471970
660.790958	34901.191051
661.132503	34909.418214
661.473996	34931.132984
661.815438	35060.955298
662.156829	35270.836177
662.498168	35027.298035
662.839456	35042.741609
663.180693	35200.139035
663.521879	35342.972568
663.863013	35304.712731
664.204097	35300.037061
664.545129	35767.041991
664.886110	35709.892951
665.227040	35782.142767
665.567918	35894.084109
665.908746	35955.515610
666.249522	36142.285319
666.590248	36137.236603
666.930922	36255.907885
667.271545	36218.174849
667.612118	36301.545451
667.952639	36079.550680
668.293109	36143.500237
668.633528	36031.634513
668.973896	35966.354091
669.314213	36028.239295
669.654480	35739.676087
669.994695	35773.802178
670.334859	35630.945961
670.674973	35551.603240
671.015035	35713.436882
671.355047	35652.756513
671.695008	35606.226663
672.034918	35484.986913
672.374777	35568.291980
672.714585	35383.511007
673.054342	35607.388649
673.394049	35369.211774
673.733705	35661.286145
674.073310	35324.864743
674.412864	35396.819653
674.752368	34976.417669
675.091820	35313.542312
675.431223	34875.511413
675.770574	34588.435345
676.109875	34448.903769
676.449125	34164.255017
676.788324	34089.799695
677.127473	33519.045298
677.466571	33449.568115
677.805619	33081.326950
678.144616	33088.256016
678.483562	32987.145594
678.822458	32639.860505
679.161303	32563.103897
679.500098	32488.013390
679.838842	32341.356142
680.177535	32505.917047
680.516179	32767.971348
680.854771	33013.215921
681.193314	33876.173239
681.531805	34998.586143
681.870247	35777.903157
682.208638	36518.463781
682.546978	36742.475013
682.885268	36883.791159
683.223508	36343.165217
683.561697	36011.648858
683.899836	35812.911450
684.237925	35302.640817
684.575963	35137.585878
684.913951	34659.583670
685.251889	34811.304757
685.589776	34785.103360
685.927614	34753.117239
686.265401	34890.866768
686.603137	34961.011903
686.940824	35463.143593
687.278460	35824.337225
687.616046	35954.295651
687.953582	36566.420277
688.291068	36434.067303
688.628504	36755.168639
688.965889	36691.549277
689.303224	36319.902813
689.640510	36016.034662
689.977745	35276.827588
690.314930	34489.427084
690.652065	33966.777897
690.989150	33221.617221
691.326185	32289.833029
691.663170	31572.474316
692.000105	30807.809416
692.336990	30099.693658
692.673825	29612.922363
693.010610	29078.464274
693.347345	28467.698238
693.684030	27769.158153
694.020665	27471.820817
694.357251	26782.480837
694.693786	26698.263321
695.030272	26449.643695
695.366707	25876.993824
695.703093	25584.317035
696.039429	25567.708953
696.375716	25280.970643
696.711952	25237.016823
697.048139	25054.902620
697.384276	24874.910742
697.720363	24992.626726
698.056400	24783.479335
698.392388	24563.503546
698.728326	24517.583675
699.064214	24314.868797
699.400053	24268.550675
699.735842	23895.487647
700.071581	23604.260189
700.407270	23304.419920
700.742910	23115.890848
701.078501	22821.038801
701.414042	22524.785313
701.749533	22216.375082
702.084974	21848.862364
702.420366	22067.456877
702.755709	21610.897217
703.091002	21295.106737
703.426246	21318.837969
703.761440	21206.367306
704.096584	20923.974471
704.431679	20864.206551
704.766725	20765.581417
705.101721	20691.526867
705.436668	20791.661826
705.771565	20447.535021
706.106413	20808.990793
706.441212	20777.302100
706.775961	20902.574773
707.110661	20960.908484
707.445311	21313.829583
707.779913	21134.745113
708.114465	21376.753265
708.448967	21665.167759
708.783421	22382.390361
709.117825	22639.587509
709.452180	22863.190409
709.786485	23253.577363
710.120742	24071.388628
710.454949	24066.523914
710.789107	24550.331011
711.123216	25262.136893
711.457275	25381.128288
711.791286	25961.962472
712.125247	26052.594857
712.459159	25754.236687
712.793023	26480.704765
713.126837	25337.726474
713.460602	25630.244467
713.794318	25274.079386
714.127985	24882.737133
714.461602	23978.896057
714.795171	23963.515497
715.128691	22906.937542
715.462162	22344.097756
715.795584	21919.990524
716.128957	21650.026653
716.462281	21226.040409
716.795556	20978.078654
717.128782	20449.485947
717.461960	19883.886130
717.795088	19798.869591
718.128167	19368.050062
718.461198	18893.778309
718.794180	18750.145753
719.127113	18360.641001
719.459997	18158.725146
719.792833	17788.243188
720.125619	17743.669306
720.458357	17395.456645
720.791046	17220.309316
721.123686	17054.349490
721.456278	16797.653937
721.788821	16740.227633
722.121315	16471.934904
722.453761	16544.184721
722.786158	16462.495344
723.118506	16465.242772
723.450805	16313.834237
723.783056	16477.525544
724.115259	16368.840788
724.447412	16286.622089
724.779518	16534.044440
725.111574	16550.609672
725.443582	16757.090292
725.775542	16720.962863
726.107453	17211.787246
726.439315	17085.634891
726.771129	17485.794122
727.102895	17869.035240
727.434612	18088.572449
727.766281	18212.789000
728.097901	18486.992481
728.429473	18537.257826
728.760996	18530.295993
729.092471	18628.875756
729.423897	18499.345829
729.755276	18371.587867
730.086606	18496.769799
730.417887	19016.303553
730.749120	19523.345327
731.080305	19705.197391
731.411442	20056.129754
731.742530	20153.524846
732.073570	20257.687688
732.404562	20587.578275
732.735506	20405.574977
733.066401	20113.591346
733.397249	19586.611808
733.728048	18938.891594
734.058798	18075.402434
734.389501	17363.611676
734.720156	16886.579890
735.050762	16329.718913
735.381320	15943.271621
735.711831	15681.827300
736.042293	15313.472709
736.372707	15307.781247
736.703073	15071.328446
737.033391	15260.412044
737.363661	15203.885586
737.693883	15298.114834
738.024056	15468.583972
738.354182	15636.819879
738.684260	15909.304326
739.014290	16129.827081
739.344272	16320.589383
739.674207	16619.237420
740.004093	16740.136892
740.333931	16739.826861
740.663722	16795.385417
740.993464	16803.007642
741.323159	16630.786703
741.652806	16368.074532
741.982405	16156.961091
742.311956	15815.417877
742.641460	15706.133223
742.970915	15394.310132
743.300323	15044.537234
743.629683	14831.566128
743.958996	14539.282548
744.288260	14265.973872
744.617477	13960.414414
744.946647	13872.342936
745.275768	13589.723248
745.604842	13409.418819
745.933869	13222.815468
746.262847	13172.706399
746.591778	13084.917226
746.920662	12976.028303
747.249498	12976.088796
747.578286	13092.400818
747.907027	13222.321435
748.235720	13447.340899
748.564365	13474.469868
748.892963	13367.105894
749.221514	13432.514866
749.550017	13270.325823
749.878473	13248.099376
750.206881	13012.962316
750.535242	12917.051844
750.863555	12818.920743
751.191821	12715.556924
751.520039	12733.311868
751.848210	12632.652629
752.176334	12668.661591
752.504411	12571.861355
752.832440	12393.769992
753.160421	12455.657717
753.488356	12324.746514
753.816243	12230.461813
754.144082	12081.339441
754.471875	12019.610512
754.799620	11961.309568
755.127318	11927.407809
755.454969	11890.120914
755.782572	11845.446209
756.110129	11847.888648
756.437638	11760.553178
756.765100	11745.603636
757.092515	11746.710170
757.419882	11764.790268
757.747203	11759.958322
758.074477	11831.930875
758.401703	11778.850046
758.728882	11939.110847
759.056014	11984.730769
759.383099	12103.454983
759.710138	12205.543390
760.037129	12289.171091
760.364073	12305.083493
760.690970	12297.433542
761.017820	12292.561267
761.344623	12490.434117
761.671379	12849.674302
761.998088	13494.054751
762.324751	15108.943015
762.651366	18060.087409
762.977935	21767.130137
763.304456	24044.010121
763.630931	24569.706685
763.957359	23422.196397
764.283740	21500.977378
764.610074	19579.077804
764.936362	17382.319398
765.262602	15823.551779
765.588796	14293.541422
765.914943	13242.314652
766.241044	12327.957729
766.567097	11663.400061
766.893104	11087.869171
767.219064	10704.996057
767.544978	10302.280961
767.870845	9972.818872
768.196665	9777.995920
768.522438	9563.852746
768.848165	9390.371518
769.173846	9221.853307
769.499479	9092.096528
769.825066	8927.124768
770.150607	8735.858350
770.476101	8674.383999
770.801548	8558.823109
771.126949	8413.761387
771.452303	8317.649268
771.777611	8148.054770
772.102872	8128.921071
772.428087	8005.299376
772.753256	7874.486474
773.078378	7781.951054
773.403453	7632.279197
773.728482	7520.942793
774.053465	7453.630787
774.378401	7364.336829
774.703291	7265.938547
775.028135	7157.896537
775.352932	7120.879345
775.677683	7034.133690
776.002388	6944.892664
776.327046	6938.712209
776.651658	6845.831470
776.976224	6768.974039
777.300743	6755.299909
777.625216	6679.465832
777.949643	6639.769266
778.274024	6636.333719
778.598359	6563.927627
778.922647	6565.976856
779.246889	6523.979003
779.571086	6527.240630
779.895236	6535.356887
780.219339	6527.827924
780.543397	6524.508324
780.867409	6580.160142
781.191374	6568.331075
781.515294	6538.830242
781.839167	6587.338745
782.162995	6560.693727
782.486776	6517.365009
782.810511	6471.230890
783.134201	6395.293469
783.457844	6387.575462
783.781441	6338.615776
784.104993	6295.672707
784.428498	6267.192708
784.751958	6246.198823
785.075372	6220.894752
785.398739	6179.753895
785.722061	6207.752463
786.045337	6203.074273
786.368568	6321.594320
786.691752	6333.950188
787.014891	6594.913079
787.337983	6871.100254
787.661030	7305.236862
787.984031	7739.439004
788.306987	8013.234152
788.629897	8111.377855
788.952760	8030.190073
789.275579	7856.628187
789.598351	7552.268523
789.921078	7285.485621
790.243759	6998.628843
790.566395	6791.044210
790.888984	6587.636173
791.211529	6445.218536
791.534027	6278.111848
791.856480	6131.144569
792.178888	6070.076031
792.501249	5999.265464
792.823566	5888.962497
793.145836	5877.476228
793.468062	5858.982755
793.790241	5813.062885
794.112375	5853.460171
794.434464	5957.136541
794.756507	5973.885775
795.078505	6098.699703
795.400457	6311.680891
795.722364	6554.553601
796.044226	6749.951245
796.366042	6910.466624
796.687812	6862.517690
797.009538	6905.493526
797.331218	6810.699669
797.652852	6745.502427
797.974442	6625.409539
798.295986	6551.223919
798.617484	6420.484115
798.938938	6314.100645
799.260346	6241.084573
799.581709	6098.485454
799.903026	6043.007556
800.224299	5967.594415
800.545526	5844.625549
800.866708	5779.818996
801.187845	5726.523917
801.508936	5645.328573
801.829983	5620.221106
802.150984	5502.926059
802.471940	5475.313139
802.792851	5455.564419
803.113717	5433.844607
803.434538	5407.406276
803.755314	5372.221543
804.076045	5361.078072
804.396731	5319.317154
804.717372	5332.124205
805.037967	5330.422816
805.358518	5352.321588
805.679024	5413.110342
805.999485	5421.818935
806.319901	5434.169762
806.640272	5452.552329
806.960598	5496.738043
807.280879	5488.936857
807.601115	5533.188106
807.921306	5494.459441
808.241453	5490.343339
808.561554	5506.543087
808.881611	5474.350278
809.201623	5472.568231
809.521590	5423.880767
809.841513	5409.881483
810.161390	5426.673566
810.481223	5342.687943
810.801011	5325.699254
811.120755	5305.539680
811.440453	5249.983644
811.760107	5220.765117
812.079716	5199.869534
812.399281	5147.058406
812.718801	5140.061285
813.038276	5105.085759
813.357707	5065.674018
813.677093	5095.517649
813.996434	5026.899984
814.315731	5052.078027
814.634983	5044.826327
814.954191	5056.473913
815.273354	5113.877532
815.592473	5154.189118
815.911547	5239.356892
816.230577	5285.911948
816.549562	5377.250094
816.868502	5437.133960
817.187399	5502.162324
817.506250	5586.601651
817.825058	5619.913596
818.143821	5776.360764
818.462539	5958.071675
818.781213	6193.639753
819.099843	6560.938223
819.418429	7211.547017
819.736970	7849.026127
820.055466	8584.903518
820.373919	9552.905880
820.692327	11092.650705
821.010691	13942.961939
821.329011	20409.202087
821.647286	30160.263122
821.965517	40618.721549
822.283704	46067.188023
822.601847	47609.992829
822.919945	43099.380096
823.237999	38043.163282
823.556010	32806.407625
823.873976	28008.527261
824.191897	23672.169572
824.509775	20483.909466
824.827609	17599.406606
825.145398	15965.944210
825.463144	15170.215720
825.780845	15466.801924
826.098502	16765.982887
826.416116	19216.568431
826.733685	21458.379628
827.051210	21907.274214
827.368692	20427.264541
827.686129	17848.240480
828.003522	15325.115254
828.320872	13085.176845
828.638177	11364.820081
828.955439	10075.532382
829.272656	8976.333991
829.589830	8114.939431
829.906960	7347.131371
830.224046	6790.711494
830.541088	6371.907556
830.858086	6094.641574
831.175041	5882.219954
831.491952	5820.836344
831.808819	5852.824986
832.125642	6113.815603
832.442421	6684.196955
832.759157	7835.520876
833.075849	9628.571079
833.392497	11490.049904
833.709101	12608.364350
834.025662	12344.308711
834.342179	11289.827876
834.658653	9970.058840
834.975083	8849.533848
835.291469	7922.127899
835.607811	7158.093142
835.924110	6616.602643
836.240366	6104.040805
836.556578	5635.813395
836.872746	5269.485348
837.188871	4984.329960
837.504952	4755.948047
837.820990	4583.200307
838.136984	4459.203046
838.452935	4407.558946
838.768842	4437.911733
839.084706	4737.051282
839.400526	5499.074617
839.716303	6419.158291
840.032037	6990.409242
840.347727	6841.571695
840.663373	6233.089303
840.978977	5645.505013
841.294537	5185.454354
841.610054	4841.612374
841.925527	4590.666256
842.240957	4376.293709
842.556344	4181.732897
842.871687	4016.088144
843.186987	3859.149463
843.502244	3733.627253
843.817458	3642.243736
844.132629	3568.789083
844.447756	3516.741691
844.762840	3469.611943
845.077881	3430.384205
845.392879	3388.507340
845.707833	3364.186293
846.022745	3336.391891
846.337613	3323.965447
846.652438	3297.925367
846.967221	3287.923717
847.281960	3264.426899
847.596656	3253.928697
847.911309	3243.478385
848.225919	3230.479769
848.540485	3219.459807
848.855009	3210.572253
849.169490	3197.190510
849.483928	3189.933769
849.798323	3183.743232
850.112675	3174.220492
850.426984	3173.106397
850.741251	3164.975016
851.055474	3162.149450
851.369654	3163.394615
851.683792	3156.268944
851.997887	3160.546363
852.311938	3161.743637
852.625947	3163.354285
852.939914	3153.145949
853.253837	3160.894202
853.567718	3160.748009
853.881555	3150.663181
854.195350	3154.408758
854.509103	3152.992194
854.822812	3150.753921
855.136479	3149.879281
855.450103	3150.814415
855.763685	3143.514824
856.077224	3148.576143
856.390720	3154.940600
856.704173	3166.615912
857.017584	3169.275121
857.330953	3173.431552
857.644278	3183.534024
857.957561	3187.675332
858.270802	3182.462779
858.584000	3184.199457
858.897155	3178.659228
859.210268	3167.908968
859.523339	3155.306083
859.836367	3154.683501
860.149352	3146.479023
860.462295	3144.591111
860.775195	3132.383957
861.088054	3133.412352
861.400869	3131.542084
861.713642	3126.503451
862.026373	3136.694143
862.339062	3139.751603
862.651708	3148.563540
862.964312	3163.825633
863.276873	3171.553722
863.589392	3202.546736
863.901869	3228.254100
864.214303	3249.971391
864.526696	3270.377982
864.839045	3287.260806
865.151353	3303.213537
865.463619	3303.851243
865.775842	3303.566418
866.088023	3309.638488
866.400162	3304.393167
866.712258	3307.057417
867.024313	3304.017601
867.336325	3305.804690
867.648296	3305.502221
867.960224	3305.716470
868.272110	3306.918785
868.583954	3307.211172
868.895755	3316.635609
869.207515	3314.208294
869.519233	3332.953824
869.830909	3339.361131
870.142542	3349.939992
870.454134	3356.705221
870.765684	3372.176522
871.077191	3390.778379
871.388657	3401.460584
871.700081	3417.988007
872.011463	3441.749486
872.322803	3460.111889
872.634101	3480.127790
872.945357	3503.992613
873.256571	3527.197044
873.567744	3543.071637
873.878874	3550.096485
874.189963	3566.354206
874.501010	3570.097263
874.812015	3567.216243
875.122979	3585.843307
875.433900	3583.216866
875.744780	3586.004624
876.055618	3594.967795
876.366415	3594.667847
876.677169	3597.679936
876.987882	3622.739512
877.298554	3642.735249
877.609183	3681.048018
877.919771	3734.199423
878.230317	3806.237512
878.540822	3918.693051
878.851285	4077.668358
879.161707	4312.568484
879.472087	4711.918609
879.782425	5373.617942
880.092722	6612.237004
880.402977	8614.469886
880.713191	11025.726867
881.023363	13433.694496
881.333494	14769.476757
881.643583	15248.104067
881.953631	14856.673595
882.263637	14039.363924
882.573602	13016.914581
882.883526	12042.187320
883.193408	11057.783564
883.503248	10119.491243
883.813048	9264.536757
884.122806	8469.445972
884.432522	7673.868716
884.742197	6977.642520
885.051831	6389.584362
885.361424	5866.849476
885.670975	5456.882680
885.980485	5112.665134
886.289954	4832.586188
886.599382	4601.479531
886.908768	4410.949122
887.218113	4235.070826
887.527417	4100.688788
887.836680	3970.024600
888.145901	3867.250597
888.455082	3782.360087
888.764221	3709.374261
889.073319	3646.742966
889.382376	3610.933130
889.691392	3583.352977
890.000366	3576.612954
890.309300	3569.474680
890.618193	3574.485587
890.927044	3564.864545
891.235855	3572.804362
891.544625	3590.813885
891.853353	3622.984008
892.162041	3679.344108
892.470687	3776.293058
892.779293	3903.400711
893.087858	4086.182867
893.396381	4379.895614
893.704864	4811.804031
894.013306	5387.634871
894.321707	5962.785154
894.630068	6319.736655
894.938387	6357.794846
895.246665	6173.386918
895.554903	5856.870512
895.863100	5517.096742
896.171256	5243.664558
896.479371	4998.362012
896.787446	4764.114716
897.095480	4556.260381
897.403473	4400.599633
897.711425	4253.657560
898.019336	4126.751553
898.327207	4002.857635
898.635038	3894.467787
898.942827	3783.930406
899.250576	3695.443033
899.558284	3609.393057
899.865952	3554.948596
900.173579	3490.424347
900.481165	3439.082716
900.788711	3397.548649
901.096216	3362.794934
901.403681	3332.416941
901.711105	3323.960406
902.018489	3319.163748
902.325832	3353.408306
902.633135	3414.227307
902.940397	3593.447887
903.247619	4016.262063
903.554800	4794.575888
903.861941	5786.622033
904.169041	6499.935220
904.476101	6721.783798
904.783121	6446.771211
905.090100	6041.923708
905.397039	5622.310664
905.703938	5253.741824
906.010796	4918.724384
906.317614	4651.364269
906.624391	4400.496289
906.931129	4195.843087
907.237826	4005.756299
907.544483	3825.928259
907.851099	3647.090806
908.157675	3479.898418
908.464211	3332.548011
908.770707	3225.299984
909.077163	3138.032570
909.383578	3076.323805
909.689954	3029.032741
909.996289	3002.659945
910.302584	2977.244968
910.608839	2962.182000
910.915054	2951.058694
911.221229	2946.473765
911.527363	2951.504836
911.833458	2959.729479
912.139513	2972.604586
912.445527	2987.165958
912.751502	3019.661236
913.057436	3071.514545
913.363331	3130.052423
913.669186	3223.288563
913.975000	3348.210876
914.280775	3546.555074
914.586510	3832.121316
914.892205	4222.606573
915.197859	4738.535901
915.503475	5326.566333
915.809050	5819.563453
916.114585	6102.707420
916.420081	6165.295866
916.725536	6099.380259
917.030952	5865.367377
917.336328	5659.421118
917.641665	5443.936997
917.946961	5211.373447
918.252218	5011.809290
918.557435	4782.976193
918.862612	4572.853339
919.167750	4394.681318
919.472848	4196.667316
919.777906	4025.010986
920.082925	3860.243393
920.387904	3701.396635
920.692843	3584.948502
920.997743	3482.971001
921.302603	3387.395765
921.607423	3317.898418
921.912204	3246.624065
922.216946	3196.706559
922.521647	3145.896770
922.826310	3101.821962
923.130932	3062.311918
923.435516	3018.322810
923.740059	2991.660147
924.044564	2955.164714
924.349028	2934.347269
924.653454	2901.652866
924.957840	2874.259236
925.262186	2853.378777
925.566493	2830.731393
925.870761	2803.758699
926.174989	2791.238994
926.479178	2775.845830
926.783328	2759.920825
927.087438	2748.721902
927.391509	2732.456619
927.695541	2719.296687
927.999533	2706.033411
928.303486	2701.766075
928.607400	2693.778366
928.911275	2690.168900
929.215110	2679.769000
929.518906	2675.143741
929.822663	2673.830521
930.126381	2677.954184
930.430060	2680.283197
930.733699	2680.338650
931.037299	2681.344360
931.340861	2683.499454
931.644383	2686.153621
931.947866	2685.742767
932.251309	2681.200688
932.554714	2682.045081
932.858080	2677.621468
933.161407	2674.632064
933.464694	2671.856909
933.767943	2668.554953
934.071153	2666.236022
934.374323	2659.760660
934.677455	2657.514826
934.980548	2655.064825
935.283602	2655.170690
935.586617	2650.316058
935.889593	2654.417037
936.192530	2652.017448
936.495428	2661.104128
936.798287	2669.905982
937.101108	2682.521470
937.403890	2708.183463
937.706632	2730.225909
938.009336	2760.838315
938.312002	2790.240845
938.614628	2813.757828
938.917216	2836.470747
939.219765	2847.450380
939.522275	2858.813140
939.824747	2856.101000
940.127179	2855.244003
940.429573	2849.035822
940.731929	2848.990452
941.034246	2836.533761
941.336524	2838.562825
941.638763	2829.826506
941.940964	2821.455670
942.243126	2805.664255
942.545250	2796.824592
942.847335	2784.332613
943.149381	2769.428442
943.451389	2754.408324
943.753359	2741.439955
944.055290	2734.442834
944.357182	2725.724158
944.659036	2719.331975
944.960851	2715.268805
945.262628	2711.001468
945.564367	2708.254040
945.866067	2707.999461
946.167729	2706.209852
946.469352	2706.494677
946.770937	2705.249512
947.072484	2695.094107
947.373992	2696.016639
947.675462	2693.642255
947.976893	2686.166224
948.278286	2682.017354
948.579641	2680.174813
948.880958	2679.680780
949.182236	2677.908814
949.483476	2671.987979
949.784678	2675.703309
950.085841	2675.027795
950.386967	2676.945954
950.688054	2683.078517
950.989103	2693.140660
951.290114	2700.064685
951.591087	2711.155224
951.892021	2719.901626
952.192917	2735.604820
952.493776	2743.254771
952.794596	2750.214084
953.095378	2749.848600
953.396122	2751.585277
953.696828	2743.905080
953.997496	2742.390213
954.298126	2731.889489
954.598718	2723.780793
954.899272	2715.866182
955.199788	2704.813452
955.500266	2691.605629
955.800706	2677.024092
956.101108	2657.832419
956.401472	2646.212559
956.701798	2634.786784
957.002087	2618.231635
957.302337	2607.183946
957.602550	2597.358737
957.902724	2584.826429
958.202861	2575.422156
958.502960	2566.403532
958.803022	2558.536812
959.103045	2551.577499
959.403031	2546.231355
959.702979	2539.317413
960.002889	2534.876156
960.302762	2526.896009
960.602596	2525.560104
960.902393	2522.966430
961.202153	2521.973323
961.501875	2514.454442
961.801559	2512.506036
962.101205	2510.401354
962.400814	2507.711898
962.700385	2507.593431
962.999918	2503.308451
963.299414	2501.201248
963.598873	2501.523882
963.898293	2498.582369
964.197677	2495.091370
964.497022	2495.161946
964.796331	2494.647748
965.095601	2492.908550
965.394835	2493.148005
965.694030	2492.659013
965.993189	2490.463591
966.292309	2490.826554
966.591393	2489.034423
966.890439	2488.618528
967.189447	2491.822182
967.488419	2493.609271
967.787353	2490.645072
968.086249	2491.701194
968.385108	2489.992243
968.683930	2491.844867
968.982714	2493.972234
969.281462	2495.444251
969.580172	2496.560866
969.878844	2497.601864
970.177480	2500.034221
970.476078	2504.982114
970.774639	2508.967146
971.073162	2510.479492
971.371649	2508.087464
971.670098	2508.705006
971.968510	2510.562671
972.266885	2509.559481
972.565223	2520.607170
972.863524	2516.944772
973.161788	2521.368384
973.460014	2521.817047
973.758204	2522.580782
974.056356	2523.609177
974.354471	2526.555732
974.652550	2523.556245
974.950591	2523.936852
975.248595	2525.300484
975.546563	2520.670184
975.844493	2519.157838
976.142386	2517.852179
976.440243	2513.781448
976.738062	2515.452590
977.035845	2511.344050
977.333590	2508.712567
977.631299	2508.765500
977.928971	2504.954387
978.226606	2503.764675
978.524204	2505.733246
978.821765	2502.413646
979.119290	2500.704695
979.416777	2502.222082
979.714228	2500.193017
980.011642	2500.714777
980.309020	2506.471775
980.606360	2511.333967
980.903664	2520.481141
981.200931	2532.209386
981.498162	2554.105637
981.795356	2586.721903
982.092513	2623.262706
982.389633	2669.729542
982.686717	2710.262939
982.983764	2743.746283
983.280775	2762.159098
983.577749	2764.478028
983.874686	2754.504106
984.171587	2738.957187
984.468451	2722.109651
984.765279	2700.830941
985.062070	2684.180009
985.358824	2665.379026
985.655543	2642.119142
985.952224	2620.389249
986.248869	2590.308684
986.545478	2560.482697
986.842050	2542.999975
987.138586	2522.537932
987.435086	2509.042763
987.731549	2499.285610
988.027975	2492.515340
988.324366	2484.366315
988.620719	2483.776500
988.917037	2475.166209
989.213318	2474.518421
989.509563	2471.334932
989.805772	2469.903245
990.101944	2466.013994
990.398080	2468.809314
990.694180	2465.056175
990.990244	2468.615230
991.286271	2466.969293
991.582262	2467.801083
991.878217	2469.683954
992.174136	2470.298975
992.470019	2469.948615
992.765865	2473.278297
993.061676	2474.909110
993.357450	2477.114615
993.653188	2480.537559
993.948890	2484.875472
994.244556	2492.782521
994.540186	2504.956908
994.835780	2513.055522
995.131337	2529.461957
995.426859	2544.968546
995.722345	2566.947977
996.017795	2583.354412
996.313208	2598.624067
996.608586	2608.650922
996.903928	2613.576129
997.199234	2611.179061
997.494504	2610.969853
997.789738	2600.509458
998.084936	2591.125351
998.380099	2578.363670
998.675225	2566.312791
998.970316	2552.840308
999.265371	2540.484440
999.560390	2524.945083
999.855373	2515.815553
1000.150320	2504.888852
1000.445232	2495.562718
1000.740108	2487.814464
1001.034948	2479.481437
1001.329752	2479.370532
1001.624521	2469.671352
1001.919254	2464.398305
1002.213951	2462.747327
1002.508613	2457.721296
1002.803239	2458.255659
1003.097829	2455.886316
1003.392384	2457.749023
1003.686903	2453.390945
1003.981386	2455.435133
1004.275834	2452.702828
1004.570246	2450.338527
1004.864623	2449.032868
1005.158964	2448.425409
1005.453270	2447.749894
1005.747540	2446.713937
1006.041775	2450.126798
1006.335974	2448.556479
1006.630138	2446.976077
1006.924266	2446.696293
1007.218359	2447.911211
1007.512416	2444.536158
1007.806438	2446.991200
1008.100425	2447.102106
1008.394376	2446.235027
1008.688292	2446.076231
1008.982172	2444.967177
1009.276017	2442.577670
1009.569827	2443.941302
1009.863602	2444.452979
1010.157341	2446.204780
1010.451045	2443.091868
1010.744714	2442.378545
1011.038347	2441.982814
1011.331945	2442.912907
1011.625508	2441.897114
1011.919036	2441.614810
1012.212528	2440.931733
1012.505986	2440.283945
1012.799408	2442.060952
1013.092795	2441.314861
1013.386147	2439.991558
1013.679464	2440.543565
1013.972745	2440.014243
1014.265992	2441.035077
1014.559204	2439.870571
1014.852380	2442.741508
1015.145521	2440.788061
1015.438628	2440.823349
1015.731699	2442.058431
1016.024736	2438.877463
1016.317737	2439.081630
1016.610703	2441.569439
1016.903635	2435.787236
1017.196531	2436.150199
1017.489393	2440.319233
1017.782219	2435.550302
1018.075011	2442.955757
1018.367768	2439.757145
1018.660490	2442.544903
1018.953177	2442.544903
1019.245829	2442.544903
