Dividing Wavelength (nm)	Counts (n)	Blue Motor Position (mm): 0.000000	Red Motor Position (mm): 25.600000	
326.493990	1985.226549
326.888308	1985.226549
327.282561	1985.226549
327.676750	1962.122941
328.070874	1964.477160
328.464933	1972.638788
328.858929	1981.271764
329.252859	1992.800883
329.646726	2007.498367
330.040528	2022.087466
330.434265	2040.744777
330.827938	2059.971737
331.221547	2079.125601
331.615091	2099.058324
332.008571	2117.357712
332.401986	2139.750518
332.795338	2157.825575
333.188625	2181.163596
333.581847	2199.326874
333.975006	2220.318238
334.368100	2236.001268
334.761129	2251.994328
335.154095	2265.998654
335.546996	2286.344751
335.939833	2308.913997
336.332606	2324.571820
336.725315	2335.334684
337.117960	2340.882474
337.510540	2347.884636
337.903056	2360.885772
338.295508	2365.798377
338.687896	2371.840199
339.080220	2381.443598
339.472480	2386.794782
339.864676	2391.344424
340.256807	2391.157901
340.648875	2396.824158
341.040879	2395.697460
341.432818	2397.882800
341.824694	2397.083777
342.216506	2397.350958
342.608253	2399.758109
342.999937	2396.962790
343.391557	2397.892882
343.783113	2396.078067
344.174605	2398.013870
344.566033	2390.661347
344.957397	2392.491286
345.348697	2388.690256
345.739934	2383.303783
346.131106	2384.261602
346.522215	2382.366129
346.913260	2383.177754
347.304241	2380.936962
347.695159	2380.150542
348.086012	2376.374717
348.476802	2375.089223
348.867528	2375.154758
349.258191	2373.932278
349.648789	2373.332381
350.039324	2371.252905
350.429796	2375.152238
350.820203	2370.123687
351.210548	2370.017822
351.600828	2371.131917
351.991045	2373.594521
352.381198	2372.740045
352.771288	2370.292565
353.161314	2366.849457
353.551276	2368.139993
353.941175	2370.695858
354.331010	2371.769623
354.720782	2369.294417
355.110490	2369.027236
355.500135	2370.925230
355.889717	2370.403471
356.279235	2372.006558
356.668689	2371.381454
357.058080	2373.203832
357.447408	2369.911958
357.836672	2371.724253
358.225873	2369.370034
358.615010	2369.251567
359.004084	2374.469161
359.393095	2377.183823
359.782043	2378.522249
360.170927	2378.207177
360.559748	2378.766745
360.948505	2378.295397
361.337199	2382.149359
361.725830	2381.788917
362.114398	2383.197919
362.502903	2383.679349
362.891344	2383.603732
363.279722	2382.116592
363.668037	2385.075749
364.056289	2384.090203
364.444478	2388.004659
364.832603	2390.142108
365.220665	2389.131357
365.608665	2390.512633
365.996601	2389.227139
366.384474	2389.693446
366.772284	2391.742675
367.160031	2393.948180
367.547715	2391.712428
367.935336	2394.936246
368.322893	2392.576986
368.710388	2397.066133
369.097820	2399.317008
369.485189	2397.199724
369.872495	2396.614950
370.259738	2399.858933
370.646918	2407.360169
371.034035	2403.881773
371.421090	2407.786147
371.808081	2412.023237
372.195010	2414.707651
372.581875	2420.820050
372.968678	2429.029569
373.355418	2436.147678
373.742096	2446.436673
374.128710	2455.830864
374.515262	2471.105560
374.901751	2482.372539
375.288177	2499.827534
375.674540	2519.919053
376.060841	2539.231713
376.447079	2562.657955
376.833254	2593.517378
377.219367	2615.522015
377.605417	2653.582726
377.991404	2678.032322
378.377329	2719.357181
378.763191	2749.533528
379.148991	2797.928605
379.534727	2848.884588
379.920402	2896.649521
380.306013	2942.808846
380.691563	3007.191942
381.077049	3061.475087
381.462474	3118.818212
381.847835	3192.381249
382.233134	3266.463526
382.618371	3323.448729
383.003545	3410.534661
383.388657	3493.023062
383.773706	3581.404571
384.158693	3654.730674
384.543618	3752.014861
384.928480	3830.745081
385.313280	3931.840381
385.698017	4036.066236
386.082692	4160.275226
386.467305	4218.533320
386.851856	4347.090305
387.236344	4505.977392
387.620770	4565.684818
388.005133	4684.663611
388.389435	4833.977547
388.773674	4922.159930
389.157851	5051.442841
389.541965	5185.592986
389.926018	5208.588209
390.310008	5382.255959
390.693936	5505.842367
391.077802	5627.838290
391.461606	5759.712354
391.845348	5872.656885
392.229027	6001.629765
392.612645	6218.633794
392.996200	6335.659139
393.379694	6508.593402
393.763125	6736.214101
394.146494	6828.285734
394.529801	6968.633978
394.913047	7212.063736
395.296230	7205.674073
395.679351	7261.015860
396.062410	7524.680809
396.445408	7415.328100
396.828343	7575.541010
397.211217	7707.193263
397.594028	7587.269255
397.976778	7791.037734
398.359466	7961.433775
398.742092	7929.586286
399.124656	8085.279802
399.507158	8269.667566
399.889598	8288.715565
400.271977	8501.290941
400.654294	8525.861525
401.036549	8729.887103
401.418742	8756.007842
401.800874	9050.655722
402.182944	9133.587744
402.564952	9498.622735
402.946898	9323.311569
403.328783	9388.665088
403.710606	9573.677954
404.092367	9834.504734
404.474067	10198.753305
404.855705	9980.040325
405.237282	9945.034552
405.618797	10366.550631
406.000250	10614.333425
406.381642	10979.958231
406.762972	10928.122567
407.144240	10725.037164
407.525447	10983.378654
407.906593	10921.969839
408.287677	11170.428147
408.668700	11331.893784
409.049661	11300.550410
409.430560	11467.989815
409.811399	11438.567120
410.192176	11598.258271
410.572891	11674.893892
410.953545	12152.868373
411.334138	11625.445214
411.714669	12229.980383
412.095139	11534.202850
412.475547	12042.913246
412.855894	11884.409287
413.236180	12213.011859
413.616405	11900.210784
413.996568	12171.656754
414.376670	12147.426448
414.756711	12031.313551
415.136691	12301.910087
415.516609	12474.980460
415.896466	12549.455946
416.276262	12838.424967
416.655997	13284.388122
417.035670	13318.436075
417.415283	13960.784939
417.794834	14053.766501
418.174324	13800.902224
418.553753	13704.414539
418.933121	14189.184496
419.312428	13996.360362
419.691674	13910.504470
420.070859	14364.762843
420.449983	14015.083207
420.829045	14569.363113
421.208047	14315.999762
421.586988	14772.388023
421.965867	15013.052707
422.344686	15012.528427
422.723444	15574.201186
423.102141	14275.173978
423.480777	15454.685511
423.859352	14952.027020
424.237866	16059.490382
424.616319	15766.097748
424.994712	16423.166782
425.373044	16220.187243
425.751314	16884.964201
426.129524	16012.259811
426.507673	17093.017661
426.885762	16797.958926
427.263789	16990.132752
427.641756	17152.019326
428.019662	17221.380561
428.397508	17258.909431
428.775292	17562.628868
429.153016	17514.919388
429.530679	17592.981655
429.908282	17624.007437
430.285824	17343.391608
430.663305	18044.565696
431.040726	17641.081825
431.418086	17464.724619
431.795385	18120.147716
432.172624	18536.398310
432.549802	18083.743023
432.926920	18275.145553
433.303977	18157.353952
433.680974	18410.853414
434.057910	18703.666315
434.434786	18718.446978
434.811601	18640.649371
435.188355	19666.972842
435.565050	19322.173042
435.941683	19277.972205
436.318257	20150.162397
436.694770	19949.889957
437.071222	20547.377593
437.447614	19612.994687
437.823946	19642.941661
438.200218	19781.117168
438.576429	19563.011646
438.952580	19835.511218
439.328670	19796.278438
439.704700	20210.799916
440.080670	19778.468041
440.456580	20362.941939
440.832429	20531.697084
441.208218	19541.304438
441.583947	19972.376024
441.959616	20071.026363
442.335224	20300.330808
442.710773	20431.471384
443.086261	20951.877257
443.461689	20313.851183
443.837057	20439.895152
444.212365	21065.787170
444.587612	21045.430990
444.962800	20623.040271
445.337927	21034.000174
445.712995	19776.983421
446.088002	21599.239549
446.462949	21769.622987
446.837837	21928.363881
447.212664	21874.365561
447.587431	24657.813452
447.962139	27504.167380
448.336786	29828.504787
448.711374	28245.421163
449.085901	24605.324958
449.460369	24524.066599
449.834776	24410.121399
450.209124	26803.426831
450.583412	26315.659908
450.957640	26788.134491
451.331808	25416.373515
451.705917	24044.761253
452.079965	24035.616600
452.453954	24340.682025
452.827883	24158.890456
453.201752	23901.899994
453.575562	24008.033927
453.949311	25013.870148
454.323001	24995.326263
454.696632	24693.030953
455.070202	26090.065753
455.443713	26123.854087
455.817164	26576.567346
456.190556	26966.921533
456.563888	26353.453439
456.937160	26649.696845
457.310373	25004.443190
457.683526	25310.116074
458.056619	25181.838873
458.429653	25001.267263
458.802628	25395.490535
459.175542	25370.569591
459.548398	26396.550263
459.921194	27655.351584
460.293930	28092.981711
460.666607	29719.094105
461.039224	31079.114233
461.411782	31233.164333
461.784280	29996.995272
462.156719	29396.586287
462.529099	28729.157683
462.901419	27423.796265
463.273680	26347.767017
463.645882	26226.713790
464.018024	26033.970314
464.390106	26527.521961
464.762130	28535.607622
465.134094	31621.673457
465.505999	35697.925251
465.877845	39226.427954
466.249631	39918.074262
466.621358	38139.615678
466.993026	36079.671668
467.364634	34095.329841
467.736184	32246.564806
468.107674	30994.246408
468.479105	30109.715472
468.850477	29300.295208
469.221790	27945.215410
469.593043	26417.105568
469.964238	25509.334913
470.335373	25199.016605
470.706449	26116.877130
471.077467	27631.474159
471.448425	30554.327597
471.819324	32250.045722
472.190164	30657.827527
472.560945	27886.586791
472.931667	25502.355435
473.302330	24476.160514
473.672934	23668.721423
474.043479	23701.307442
474.413965	22923.767434
474.784393	22420.756062
475.154761	22686.429911
475.525070	22434.273916
475.895321	21884.493239
476.265513	21953.206687
476.635645	22229.086352
477.005719	21845.399091
477.375734	21832.929797
477.745691	21926.791041
478.115588	22351.646884
478.485427	23131.142859
478.855207	24653.135261
479.224928	25762.544508
479.594591	26302.449565
479.964194	25369.742842
480.333739	25070.038684
480.703226	24686.658934
481.072653	24659.227495
481.442022	24559.581528
481.811333	24328.590818
482.180584	23307.048882
482.549777	22686.245909
482.918912	22077.745872
483.287988	21591.642530
483.657005	20872.889938
484.025964	20246.705534
484.394864	19917.863507
484.763706	19407.300486
485.132489	18723.364623
485.501213	18343.236418
485.869879	18081.376202
486.238487	17606.476824
486.607036	17385.039100
486.975527	16893.483751
487.343959	16665.774831
487.712333	16405.308494
488.080648	16088.073724
488.448905	15953.681604
488.817104	15614.459841
489.185244	15639.211906
489.553326	15895.156328
489.921350	16489.972153
490.289315	17183.786157
490.657222	17078.610043
491.025070	16865.759925
491.392861	16236.923874
491.760593	15512.303379
492.128267	14711.173292
492.495883	13991.818282
492.863440	13352.025283
493.230939	12730.425808
493.598380	12209.329296
493.965763	11879.771425
494.333088	11475.344858
494.700354	11142.759774
495.067563	10858.690755
495.434713	10623.790630
495.801805	10428.990363
496.168839	10148.291355
496.535815	9884.457527
496.902733	9687.608031
497.269593	9423.416282
497.636395	9210.099857
498.003139	9096.701622
498.369825	8821.242893
498.736453	8687.029734
499.103023	8444.703989
499.469535	8247.098320
499.835989	8090.492355
500.202385	7879.789768
500.568723	7713.900519
500.935003	7575.465393
501.301226	7399.554329
501.667390	7318.865621
502.033497	7202.276335
502.399546	6984.069991
502.765537	6756.550115
503.131470	6657.987996
503.497345	6560.040897
503.863163	6293.898221
504.228923	6221.363579
504.594625	6128.513087
504.960269	5942.718841
505.325856	5880.705087
505.691385	5707.445671
506.056856	5605.695021
506.422270	5529.578639
506.787625	5394.110233
507.152924	5298.857631
507.518164	5205.618970
507.883347	5054.994334
508.248472	4972.415193
508.613540	4912.826234
508.978550	4844.359803
509.343503	4740.539760
509.708398	4668.940252
510.073236	4616.630719
510.438016	4538.689439
510.802738	4433.815795
511.167403	4393.289960
511.532010	4337.048327
511.896561	4283.932209
512.261053	4256.362139
512.625488	4173.354500
512.989866	4102.261627
513.354186	4037.402142
513.718449	3982.718226
514.082655	3960.348106
514.446803	3895.551635
514.810894	3863.683981
515.174927	3816.559274
515.538904	3766.538425
515.902822	3748.559150
516.266684	3692.279709
516.630488	3666.569824
516.994235	3624.554327
517.357925	3605.309722
517.721558	3577.480033
518.085133	3555.682083
518.448651	3525.861138
518.812112	3492.834018
519.175516	3467.030873
519.538863	3449.646453
519.902152	3427.455294
520.265385	3407.976276
520.628560	3389.276116
520.991678	3362.437013
521.354739	3346.653160
521.717743	3334.521623
522.080690	3314.634271
522.443580	3306.016419
522.806413	3294.678864
523.169189	3275.444341
523.531908	3269.072323
523.894569	3247.057604
524.257174	3240.488980
524.619722	3231.246025
524.982213	3217.846638
525.344647	3201.404915
525.707025	3192.116589
526.069345	3190.722710
526.431608	3178.175278
526.793815	3173.713857
527.155964	3158.986126
527.518057	3149.801143
527.880093	3136.676499
528.242072	3136.507621
528.603995	3123.642596
528.965860	3114.603807
529.327669	3107.505863
529.689421	3099.944132
530.051117	3094.141764
530.412755	3090.544900
530.774337	3079.976121
531.135862	3071.464133
531.497331	3065.513051
531.858743	3057.517781
532.220098	3055.145918
532.581396	3046.926317
532.942638	3038.038763
533.303824	3039.276366
533.664953	3035.072043
534.026025	3026.146681
534.387040	3027.036444
534.747999	3019.507481
535.108902	3016.008920
535.469748	3005.044411
535.830537	3004.341170
536.191270	2998.851353
536.551947	2996.602998
536.912567	2995.143584
537.273131	2991.158552
537.633638	2983.495998
537.994089	2983.198570
538.354483	2974.333701
538.714821	2976.423260
539.075103	2978.674135
539.435328	2969.957980
539.795497	2968.458237
540.155609	2966.174594
540.515665	2964.526137
540.875665	2955.482307
541.235609	2956.379632
541.595496	2952.903756
541.955328	2959.923563
542.315102	2946.105760
542.674821	2942.493774
543.034483	2942.778599
543.394090	2939.388423
543.753640	2935.058072
544.113134	2944.278342
544.472571	2930.016918
544.831953	2943.804474
545.191278	2933.840633
545.550548	2925.865528
545.909761	2928.418872
546.268918	2924.406114
546.628019	2931.582196
546.987064	2925.434509
547.346053	2916.070566
547.704986	2919.730443
548.063863	2915.931934
548.422684	2916.486461
548.781449	2910.429515
549.140158	2911.745256
549.498811	2911.163003
549.857408	2900.795870
550.215949	2908.110584
550.574434	2901.058010
550.932864	2902.953483
551.291237	2905.239647
551.649555	2903.140006
552.007817	2904.322157
552.366022	2897.932494
552.724173	2896.077350
553.082267	2899.759913
553.440305	2902.088926
553.798288	2894.287740
554.156215	2893.035013
554.514086	2897.998029
554.871902	2891.227760
555.229661	2889.753222
555.587365	2885.838766
555.945014	2887.351112
556.302606	2883.603014
556.660143	2884.502860
557.017625	2881.606718
557.375050	2880.621172
557.732421	2881.720143
558.089735	2881.831049
558.446994	2879.635626
558.804197	2884.195350
559.161345	2880.230483
559.518437	2872.096581
559.875474	2874.080275
560.232455	2870.264121
560.589381	2870.680017
560.946251	2869.586086
561.303065	2871.680686
561.659825	2873.866026
562.016528	2865.916126
562.373177	2865.414531
562.729770	2863.909747
563.086307	2862.503265
563.442789	2861.731968
563.799216	2863.007380
564.155587	2858.908922
564.511904	2860.159128
564.868164	2856.148891
565.224370	2857.308356
565.580520	2852.602439
565.936615	2852.272243
566.292654	2852.383149
566.648638	2850.984228
567.004567	2848.325020
567.360441	2846.147241
567.716260	2844.287056
568.072023	2843.286387
568.427732	2839.187928
568.783385	2836.029646
569.138982	2833.723318
569.494525	2834.958400
569.850013	2827.568069
570.205445	2829.811382
570.560823	2825.692760
570.916145	2825.768377
571.271412	2819.862665
571.626625	2817.702531
571.981782	2816.089362
572.336884	2811.133907
572.691931	2814.226655
573.046923	2807.330357
573.401860	2805.084523
573.756743	2799.629994
574.111570	2799.962710
574.466342	2798.778039
574.821059	2797.043882
575.175722	2792.153963
575.530330	2787.584157
575.884882	2783.369752
576.239380	2778.167282
576.593823	2778.326078
576.948211	2773.446241
577.302544	2768.904162
577.656823	2766.441558
578.011047	2767.916095
578.365216	2759.462080
578.719330	2754.279774
579.073389	2753.732809
579.427394	2752.812798
579.781344	2751.829773
580.135239	2745.031777
580.489080	2744.215111
580.842866	2739.058010
581.196597	2738.707650
581.550273	2733.966445
581.903895	2730.861094
582.257463	2732.310426
582.610975	2725.378839
582.964434	2723.871534
583.317837	2721.005638
583.671186	2717.416337
584.024481	2718.480020
584.377721	2711.624051
584.730906	2709.778989
585.084037	2711.523228
585.437113	2703.028884
585.790135	2702.890252
586.143103	2697.602082
586.496016	2697.055116
586.848874	2690.330217
587.201679	2689.949610
587.554428	2685.619259
587.907124	2687.585309
588.259765	2679.380831
588.612352	2684.729495
588.964884	2681.094823
589.317362	2676.479647
589.669786	2675.531910
590.022155	2674.357321
590.374470	2674.672393
590.726731	2669.177536
591.078937	2665.568069
591.431090	2668.285251
591.783188	2662.175373
592.135232	2660.131185
592.487222	2658.084477
592.839157	2657.540032
593.191038	2650.865544
593.542866	2650.500061
593.894639	2648.357570
594.246358	2649.106182
594.598022	2642.777013
594.949633	2644.337250
595.301190	2641.864564
595.652692	2639.268370
596.004141	2640.886580
596.355535	2633.360137
596.706876	2632.271248
597.058162	2629.881741
597.409395	2632.241001
597.760573	2631.444499
598.111698	2630.884931
598.462768	2626.040382
598.813785	2630.330404
599.164748	2623.350927
599.515657	2624.006277
599.866511	2621.367232
600.217312	2625.284209
600.568060	2617.999742
600.918753	2621.349588
601.269392	2619.179372
601.619978	2617.309104
601.970510	2617.790534
602.320988	2616.308435
602.671412	2619.582664
603.021783	2616.532766
603.372100	2614.977570
603.722363	2612.015892
604.072572	2613.631582
604.422728	2615.774072
604.772830	2606.417691
605.122878	2607.017588
605.472872	2607.713267
605.822813	2607.491457
606.172701	2609.371807
606.522534	2607.889708
606.872314	2611.456324
607.222041	2609.031529
607.571714	2610.032198
607.921333	2608.048504
608.270899	2607.801487
608.620411	2608.174533
608.969870	2607.763679
609.319276	2607.068000
609.668627	2608.514811
610.017926	2606.495829
610.367171	2609.185284
610.716362	2608.149327
611.065500	2605.989193
611.414585	2609.064297
611.763616	2608.310644
612.112594	2605.631271
612.461518	2606.737804
612.810389	2610.264091
613.159207	2608.978597
613.507971	2607.546909
613.856682	2608.030860
614.205340	2607.995572
614.553945	2611.824328
614.902496	2607.740994
615.250994	2606.301744
615.599439	2609.356683
615.947830	2609.412136
616.296169	2608.139245
616.644454	2611.486571
616.992686	2609.243257
617.340864	2611.274842
617.688990	2607.836776
618.037063	2608.948350
618.385082	2610.937085
618.733048	2611.884822
619.080961	2611.166458
619.428821	2611.620162
619.776628	2611.121087
620.124382	2611.627723
620.472083	2609.560850
620.819731	2609.326437
621.167326	2606.652104
621.514868	2607.798967
621.862357	2603.448451
622.209793	2605.815273
622.557176	2603.627412
622.904506	2599.657503
623.251783	2597.562904
623.599007	2597.633480
623.946179	2590.258272
624.293297	2591.412696
624.640363	2590.540577
624.987376	2592.141143
625.334336	2590.210381
625.681243	2588.992942
626.028097	2590.855649
626.374899	2588.496389
626.721647	2590.689291
627.068343	2588.756008
627.414987	2585.741398
627.761577	2584.954978
628.108115	2589.446646
628.454600	2586.459763
628.801032	2582.930955
629.147412	2581.799216
629.493739	2579.876016
629.840014	2580.702765
630.186236	2581.930286
630.532405	2581.645461
630.878521	2578.671180
631.224585	2579.785275
631.570597	2577.725964
631.916556	2579.477765
632.262462	2580.793506
632.608316	2576.460634
632.954117	2576.082547
633.299866	2574.411405
633.645562	2573.574573
633.991206	2572.939388
634.336797	2570.965776
634.682336	2570.012998
635.027823	2569.251784
635.373257	2569.448389
635.718639	2568.861095
636.063968	2567.714232
636.409245	2564.150136
636.754470	2563.870352
637.099642	2564.661813
637.444762	2561.843808
637.789829	2561.445557
638.134845	2562.196689
638.479808	2557.115206
638.824719	2557.440361
639.169577	2552.999104
639.514383	2555.033210
639.859137	2553.752757
640.203839	2555.975905
640.548489	2555.590257
640.893086	2552.119423
641.237632	2548.699000
641.582125	2548.134391
641.926566	2548.129349
642.270955	2549.752601
642.615292	2550.740667
642.959576	2553.404917
643.303809	2550.312169
643.647990	2552.038764
643.992118	2548.918290
644.336195	2549.871068
644.680219	2550.856614
645.024192	2552.908363
645.368112	2551.121274
645.711981	2553.561193
646.055797	2557.261400
646.399562	2553.896429
646.743274	2559.844991
647.086935	2559.948335
647.430544	2562.516803
647.774101	2559.814744
648.117606	2558.433468
648.461059	2561.269117
648.804460	2555.509599
649.147810	2556.172510
649.491108	2553.810730
649.834354	2552.497509
650.177548	2551.126315
650.520690	2547.605069
650.863781	2549.311500
651.206820	2548.517518
651.549807	2548.010882
651.892742	2543.365459
652.235626	2542.619368
652.578458	2545.134904
652.921238	2541.538041
653.263967	2541.475026
653.606644	2540.169367
653.949269	2538.994779
654.291843	2539.947557
654.634365	2537.747093
654.976836	2537.590817
655.319255	2537.293389
655.661622	2536.055786
656.003938	2539.952598
656.346203	2539.692978
656.688416	2537.185004
657.030577	2536.126362
657.372687	2537.467309
657.714746	2536.063348
658.056753	2535.816331
658.398708	2528.189065
658.740612	2531.634694
659.082465	2534.044366
659.424266	2532.582431
659.766016	2526.086904
660.107715	2534.840868
660.449362	2533.378933
660.790958	2532.978162
661.132503	2531.339787
661.473996	2530.777698
661.815438	2535.493697
662.156829	2533.676361
662.498168	2533.318439
662.839456	2530.923891
663.180693	2533.439427
663.521879	2534.568646
663.863013	2531.027235
664.204097	2534.712318
664.545129	2534.712318
664.886110	2533.459592
665.227040	2536.806918
665.567918	2535.455889
665.908746	2533.641073
666.249522	2536.035621
666.590248	2534.891279
666.930922	2534.160312
667.271545	2533.066382
667.612118	2536.920344
667.952639	2536.486805
668.293109	2536.194418
668.633528	2538.198276
668.973896	2536.965714
669.314213	2533.376413
669.654480	2533.207534
669.994695	2532.821886
670.334859	2534.639222
670.674973	2529.580424
671.015035	2531.390198
671.355047	2529.789632
671.695008	2530.268541
672.034918	2531.090249
672.374777	2534.301464
672.714585	2531.629653
673.054342	2533.424304
673.394049	2531.758202
673.733705	2532.378264
674.073310	2531.395239
674.412864	2531.138140
674.752368	2526.601102
675.091820	2533.449509
675.431223	2528.025228
675.770574	2527.203520
676.109875	2522.197654
676.449125	2523.188241
676.788324	2524.110772
677.127473	2521.106244
677.466571	2519.644310
677.805619	2519.787983
678.144616	2524.556914
678.483562	2523.299146
678.822458	2522.694208
679.161303	2519.263702
679.500098	2520.115658
679.838842	2519.830832
680.177535	2519.830832
680.516179	2521.953158
680.854771	2521.340658
681.193314	2525.126564
681.531805	2528.433561
681.870247	2530.165198
682.208638	2531.148223
682.546978	2535.939839
682.885268	2534.664427
683.223508	2533.283151
683.561697	2528.254600
683.899836	2531.508665
684.237925	2527.490866
684.575963	2526.709487
684.913951	2526.273427
685.251889	2528.166380
685.589776	2525.958355
685.927614	2523.667150
686.265401	2527.490866
686.603137	2527.886596
686.940824	2528.448685
687.278460	2531.133099
687.616046	2529.577903
687.953582	2531.054961
688.291068	2531.589324
688.628504	2535.244160
688.965889	2534.155271
689.303224	2534.009077
689.640510	2530.339117
689.977745	2529.721576
690.314930	2525.726462
690.652065	2526.391894
690.989150	2524.198992
691.326185	2521.428878
691.663170	2514.532580
692.000105	2514.232631
692.336990	2514.096520
692.673825	2509.098216
693.010610	2509.662825
693.347345	2505.206445
693.684030	2501.571773
694.020665	2501.090343
694.357251	2496.512975
694.693786	2501.503718
695.030272	2499.704026
695.366707	2500.356855
695.703093	2496.502893
696.039429	2497.468274
696.375716	2497.604385
696.711952	2496.873418
697.048139	2497.614467
697.384276	2492.459887
697.720363	2498.501710
698.056400	2495.350989
698.392388	2496.845691
698.728326	2494.294868
699.064214	2492.767398
699.400053	2495.648417
699.735842	2489.586430
700.071581	2493.379898
700.407270	2490.750936
700.742910	2491.169352
701.078501	2489.034423
701.414042	2486.637355
701.749533	2486.884371
702.084974	2482.523773
702.420366	2484.099134
702.755709	2481.389514
703.091002	2481.452528
703.426246	2484.721716
703.761440	2484.668784
704.096584	2482.201139
704.431679	2481.568475
704.766725	2480.088896
705.101721	2483.942858
705.436668	2479.536890
705.771565	2480.827425
706.106413	2482.453197
706.441212	2481.374390
706.775961	2481.611324
707.110661	2482.042343
707.445311	2484.615852
707.779913	2482.765749
708.114465	2481.931438
708.448967	2484.598208
708.783421	2486.458394
709.117825	2485.692138
709.452180	2489.404948
709.786485	2489.016779
710.120742	2493.919302
710.454949	2492.207830
710.789107	2491.552480
711.123216	2494.244456
711.457275	2495.625732
711.791286	2495.151864
712.125247	2496.719663
712.459159	2498.756289
712.793023	2499.625888
713.126837	2499.048676
713.460602	2499.744355
713.794318	2498.378202
714.127985	2498.131186
714.461602	2493.110196
714.795171	2491.686070
715.128691	2488.908395
715.462162	2490.869403
715.795584	2486.178610
716.128957	2483.945379
716.462281	2482.390183
716.795556	2488.210195
717.128782	2480.189719
717.461960	2481.271047
717.795088	2478.100161
718.128167	2477.228041
718.461198	2475.481281
718.794180	2475.645119
719.127113	2474.450365
719.459997	2474.747793
719.792833	2472.524645
720.125619	2472.864922
720.458357	2471.592031
720.791046	2470.871146
721.123686	2469.603296
721.456278	2468.133800
721.788821	2470.684623
722.121315	2469.371403
722.453761	2469.638584
722.786158	2470.727473
723.118506	2469.043728
723.450805	2466.230764
723.783056	2470.271249
724.115259	2466.999540
724.447412	2466.031638
724.779518	2469.182360
725.111574	2469.265539
725.443582	2469.930971
725.775542	2468.020374
726.107453	2473.679069
726.439315	2470.024232
726.771129	2477.356591
727.102895	2474.596559
727.434612	2476.988586
727.766281	2474.843575
728.097901	2474.198308
728.429473	2474.878863
728.760996	2475.246868
729.092471	2472.791826
729.423897	2479.819194
729.755276	2478.621920
730.086606	2478.072434
730.417887	2477.596045
730.749120	2481.840697
731.080305	2483.698362
731.411442	2485.568630
731.742530	2485.634165
732.073570	2484.981336
732.404562	2481.702065
732.735506	2484.600729
733.066401	2485.422437
733.397249	2482.745584
733.728048	2477.472537
734.058798	2476.945737
734.389501	2475.156127
734.720156	2471.024901
735.050762	2469.628502
735.381320	2471.803760
735.711831	2466.250929
736.042293	2465.477112
736.372707	2465.104066
736.703073	2466.636577
737.033391	2466.099694
737.363661	2468.206896
737.693883	2467.876701
738.024056	2468.973152
738.354182	2468.753862
738.684260	2472.693523
739.014290	2467.889304
739.344272	2470.818214
739.674207	2471.410550
740.004093	2475.201497
740.333931	2471.962556
740.663722	2473.986579
740.993464	2474.354583
741.323159	2473.676548
741.652806	2470.984572
741.982405	2472.050776
742.311956	2470.384675
742.641460	2471.339973
742.970915	2468.456433
743.300323	2467.496094
743.629683	2467.629684
743.958996	2469.089098
744.288260	2462.288582
744.617477	2462.439816
744.946647	2460.662810
745.275768	2461.177007
745.604842	2459.445371
745.933869	2459.657099
746.262847	2452.465893
746.591778	2459.924281
746.920662	2459.168107
747.249498	2462.061730
747.578286	2459.876390
747.907027	2458.328755
748.235720	2461.716411
748.564365	2458.631225
748.892963	2459.616770
749.221514	2462.089456
749.550017	2462.386884
749.878473	2459.984774
750.206881	2463.289251
750.535242	2459.251287
750.863555	2459.367233
751.191821	2454.283229
751.520039	2459.967130
751.848210	2456.813889
752.176334	2459.258848
752.504411	2458.522840
752.832440	2455.178034
753.160421	2458.548046
753.488356	2456.468570
753.816243	2461.393777
754.144082	2454.361367
754.471875	2456.844136
754.799620	2458.563169
755.127318	2457.136522
755.454969	2455.079732
755.782572	2457.416307
756.110129	2455.553600
756.437638	2455.223405
756.765100	2453.771552
757.092515	2457.950669
757.419882	2456.443364
757.747203	2457.224743
758.074477	2454.459670
758.401703	2458.104424
758.728882	2457.375977
759.056014	2457.741461
759.383099	2459.372274
759.710138	2457.998560
760.037129	2455.609053
760.364073	2458.893365
760.690970	2458.774897
761.017820	2460.970320
761.344623	2460.967799
761.671379	2464.017698
761.998088	2456.768518
762.324751	2470.283852
762.651366	2481.855820
762.977935	2502.416166
763.304456	2510.222393
763.630931	2516.239010
763.957359	2508.568895
764.283740	2503.545385
764.610074	2496.817965
764.936362	2487.446460
765.262602	2474.634368
765.588796	2475.027578
765.914943	2464.277317
766.241044	2461.600464
766.567097	2458.033848
766.893104	2452.730554
767.219064	2454.804989
767.544978	2449.804164
767.870845	2451.039247
768.196665	2445.748556
768.522438	2449.988166
768.848165	2443.754780
769.173846	2445.496498
769.499479	2442.408792
769.825066	2444.710078
770.150607	2442.912907
770.476101	2446.716457
770.801548	2442.421394
771.126949	2439.905859
771.452303	2443.364090
771.777611	2440.747731
772.102872	2438.869902
772.428087	2440.997268
772.753256	2440.223451
773.078378	2438.693461
773.403453	2439.245467
773.728482	2437.982658
774.053465	2435.288162
774.378401	2437.438214
774.703291	2435.898141
775.028135	2432.122317
775.352932	2435.000816
775.677683	2435.641043
776.002388	2436.611465
776.327046	2435.038625
776.651658	2435.162133
776.976224	2431.351021
777.300743	2429.445464
777.625216	2430.922523
777.949643	2433.163315
778.274024	2433.120466
778.598359	2430.849426
778.922647	2428.439754
779.246889	2428.764909
779.571086	2430.841864
779.895236	2431.973603
780.219339	2431.167018
780.543397	2431.043510
780.867409	2432.933943
781.191374	2433.009560
781.515294	2434.602565
781.839167	2432.460074
782.162995	2431.968562
782.486776	2430.882193
782.810511	2432.845723
783.134201	2432.112235
783.457844	2431.719025
783.781441	2431.363623
784.104993	2429.072419
784.428498	2432.434869
784.751958	2430.970413
785.075372	2430.867070
785.398739	2428.908582
785.722061	2428.749785
786.045337	2430.330187
786.368568	2432.548295
786.691752	2432.565939
787.014891	2436.152720
787.337983	2435.530137
787.661030	2439.384099
787.984031	2440.752772
788.306987	2441.937444
788.629897	2442.091199
788.952760	2441.909717
789.275579	2443.258226
789.598351	2438.935437
789.921078	2438.847216
790.243759	2438.025508
790.566395	2438.179263
790.888984	2434.877308
791.211529	2432.180290
791.534027	2432.951587
791.856480	2433.990065
792.178888	2435.557863
792.501249	2429.016966
792.823566	2431.003181
793.145836	2432.429827
793.468062	2432.845723
793.790241	2428.091915
794.112375	2432.069385
794.434464	2430.766247
794.756507	2432.369334
795.078505	2431.971083
795.400457	2433.062492
795.722364	2432.497883
796.044226	2433.271700
796.366042	2432.502924
796.687812	2434.867225
797.009538	2438.978286
797.331218	2438.658173
797.652852	2436.873605
797.974442	2433.911927
798.295986	2437.183636
798.617484	2432.875970
798.938938	2431.343459
799.260346	2434.378233
799.581709	2433.271700
799.903026	2434.244643
800.224299	2431.416556
800.545526	2431.426638
800.866708	2430.317584
801.187845	2429.405135
801.508936	2428.175094
801.829983	2431.814807
802.150984	2427.958324
802.471940	2427.731472
802.792851	2428.517892
803.113717	2427.880186
803.434538	2427.512182
803.755314	2428.323808
804.076045	2425.566297
804.396731	2429.377409
804.717372	2427.481935
805.037967	2428.938828
805.358518	2427.313056
805.679024	2428.792635
805.999485	2426.561924
806.319901	2427.630649
806.640272	2428.774991
806.960598	2427.877666
807.280879	2427.509661
807.601115	2428.333890
807.921306	2428.953952
808.241453	2432.281113
808.561554	2431.096442
808.881611	2429.079981
809.201623	2428.520413
809.521590	2428.495207
809.841513	2427.118972
810.161390	2426.224167
810.481223	2429.001843
810.801011	2428.255752
811.120755	2429.332038
811.440453	2426.045206
811.760107	2425.793148
812.079716	2426.418252
812.399281	2424.610998
812.718801	2427.376071
813.038276	2422.564289
813.357707	2426.135947
813.677093	2426.859352
813.996434	2428.248190
814.315731	2426.826585
814.634983	2426.546801
814.954191	2426.698036
815.273354	2429.349683
815.592473	2429.503438
815.911547	2430.622574
816.230577	2432.412183
816.549562	2430.173911
816.868502	2430.148705
817.187399	2433.080136
817.506250	2430.907399
817.825058	2432.787749
818.143821	2432.177770
818.462539	2436.155240
818.781213	2437.627257
819.099843	2442.197063
819.418429	2445.294852
819.736970	2450.620831
820.055466	2459.536112
820.373919	2464.133644
820.692327	2478.707620
821.010691	2501.680158
821.329011	2555.744012
821.647286	2635.948770
821.965517	2717.542366
822.283704	2766.239912
822.601847	2780.108126
822.919945	2746.977663
823.237999	2706.507280
823.556010	2664.779129
823.873976	2625.064919
824.191897	2588.680391
824.509775	2562.042934
824.827609	2537.729449
825.145398	2526.268386
825.463144	2516.715399
825.780845	2521.756553
826.098502	2530.848274
826.416116	2548.036088
826.733685	2569.660117
827.051210	2572.926785
827.368692	2565.831361
827.686129	2546.858979
828.003522	2520.450894
828.320872	2498.181597
828.638177	2487.600215
828.955439	2472.534727
829.272656	2464.637759
829.589830	2453.486727
829.906960	2453.912705
830.224046	2445.811570
830.541088	2441.967691
830.858086	2440.551126
831.175041	2438.995930
831.491952	2437.440734
831.808819	2436.891249
832.125642	2440.304110
832.442421	2446.459359
832.759157	2456.158539
833.075849	2470.969449
833.392497	2487.698518
833.709101	2496.432317
834.025662	2500.961793
834.342179	2488.530308
834.658653	2478.165696
834.975083	2466.397122
835.291469	2464.567183
835.607811	2451.417333
835.924110	2446.744184
836.240366	2444.778134
836.556578	2438.522062
836.872746	2431.923192
837.188871	2429.873963
837.504952	2427.935639
837.820990	2429.687440
838.136984	2427.744075
838.452935	2424.976482
838.768842	2423.630493
839.084706	2427.993612
839.400526	2433.969900
839.716303	2447.454987
840.032037	2451.084617
840.347727	2447.860799
840.663373	2444.848710
840.978977	2435.111721
841.294537	2434.353028
841.610054	2426.380443
841.925527	2429.687440
842.240957	2425.835998
842.556344	2423.141502
842.871687	2420.845256
843.186987	2421.243507
843.502244	2415.655388
843.817458	2419.012797
844.132629	2416.066242
844.447756	2415.660429
844.762840	2413.414595
845.077881	2414.805954
845.392879	2412.454255
845.707833	2414.367373
846.022745	2408.953174
846.337613	2416.456932
846.652438	2411.002403
846.967221	2414.644637
847.281960	2411.725809
847.596656	2414.319482
847.911309	2411.559451
848.225919	2412.174471
848.540485	2412.245047
848.855009	2413.119688
849.169490	2410.717578
849.483928	2413.283525
849.798323	2415.499112
850.112675	2411.778741
850.426984	2412.958371
850.741251	2411.514080
851.055474	2412.872671
851.369654	2414.324523
851.683792	2411.493916
851.997887	2414.299318
852.311938	2411.647671
852.625947	2411.889646
852.939914	2412.222362
853.253837	2412.141704
853.567718	2411.403175
853.881555	2413.401992
854.195350	2410.828483
854.509103	2412.318144
854.822812	2412.015675
855.136479	2413.437280
855.450103	2409.260684
855.763685	2413.333937
856.077224	2411.032650
856.390720	2410.972156
856.704173	2412.827301
857.017584	2411.740932
857.330953	2411.065418
857.644278	2413.898546
857.957561	2416.225038
858.270802	2413.759914
858.584000	2414.753022
858.897155	2413.255799
859.210268	2411.254461
859.523339	2413.228072
859.836367	2411.012485
860.149352	2413.190264
860.462295	2410.737742
860.775195	2410.145407
861.088054	2410.178174
861.400869	2409.522824
861.713642	2406.465365
862.026373	2413.137332
862.339062	2412.406364
862.651708	2412.134142
862.964312	2411.829152
863.276873	2412.597928
863.589392	2413.903587
863.901869	2413.858217
864.214303	2412.229924
864.526696	2413.717064
864.839045	2412.219842
865.151353	2414.080028
865.463619	2413.908628
865.775842	2414.153124
866.088023	2413.437280
866.400162	2414.760583
866.712258	2413.764955
867.024313	2413.356622
867.336325	2417.429874
867.648296	2413.805285
867.960224	2414.916859
868.272110	2415.262178
868.583954	2412.827301
868.895755	2416.477096
869.207515	2413.906108
869.519233	2414.856365
869.830909	2414.372414
870.142542	2415.383166
870.454134	2415.862075
870.765684	2416.610687
871.077191	2417.228228
871.388657	2416.698907
871.700081	2414.843762
872.011463	2418.095307
872.322803	2416.230080
872.634101	2416.207394
872.945357	2416.635893
873.256571	2421.644279
873.567744	2415.867117
873.878874	2418.034813
874.189963	2419.620256
874.501010	2417.465162
874.812015	2417.639082
875.122979	2416.260327
875.433900	2417.979360
875.744780	2419.383321
876.055618	2418.387693
876.366415	2419.650503
876.677169	2419.297622
876.987882	2419.894998
877.298554	2416.585481
877.609183	2420.968764
877.919771	2420.288208
878.230317	2419.713517
878.540822	2423.466656
878.851285	2428.843047
879.161707	2432.487801
879.472087	2440.999789
879.782425	2447.099585
880.092722	2466.903758
880.402977	2493.836123
880.713191	2529.734179
881.023363	2560.626370
881.333494	2581.947930
881.643583	2589.880186
881.953631	2586.119485
882.263637	2575.404512
882.573602	2561.692574
882.883526	2546.987528
883.193408	2536.519572
883.503248	2518.898219
883.813048	2509.370438
884.122806	2496.157574
884.432522	2486.682725
884.742197	2475.211580
885.051831	2466.583645
885.361424	2458.008642
885.670975	2451.316510
885.980485	2445.544389
886.289954	2440.664552
886.599382	2434.360589
886.908768	2434.337904
887.218113	2430.738520
887.527417	2429.175763
887.836680	2429.304312
888.145901	2425.931780
888.455082	2423.771646
888.764221	2423.761563
889.073319	2423.106213
889.382376	2420.905750
889.691392	2423.219639
890.000366	2421.455236
890.309300	2418.523805
890.618193	2420.056315
890.927044	2420.946079
891.235855	2421.556059
891.544625	2422.798703
891.853353	2422.861718
892.162041	2421.503127
892.470687	2423.953127
892.779293	2425.815834
893.087858	2427.650814
893.396381	2429.284147
893.704864	2438.053235
894.013306	2445.998093
894.321707	2459.289095
894.630068	2465.005764
894.938387	2468.695888
895.246665	2465.255301
895.554903	2456.753395
895.863100	2456.491255
896.171256	2449.947837
896.479371	2447.205449
896.787446	2444.805860
897.095480	2439.013574
897.403473	2438.408636
897.711425	2432.074426
898.019336	2432.394539
898.327207	2429.836154
898.635038	2428.076791
898.942827	2426.188879
899.250576	2422.743250
899.558284	2422.632345
899.865952	2422.100503
900.173579	2421.455236
900.481165	2421.500606
900.788711	2417.704617
901.096216	2420.323497
901.403681	2418.551531
901.711105	2417.724782
902.018489	2417.109761
902.325832	2422.622263
902.633135	2422.103024
902.940397	2424.933632
903.247619	2430.793973
903.554800	2444.521035
903.861941	2460.662810
904.169041	2475.735860
904.476101	2478.929431
904.783121	2474.203349
905.090100	2468.927781
905.397039	2460.430917
905.703938	2456.886985
906.010796	2448.180913
906.317614	2443.976590
906.624391	2439.253029
906.931129	2435.111721
907.237826	2435.620878
907.544483	2430.582245
907.851099	2426.995464
908.157675	2419.421130
908.464211	2419.501788
908.770707	2412.693710
909.077163	2415.294946
909.383578	2411.413257
909.689954	2410.029460
909.996289	2409.802608
910.302584	2410.397465
910.608839	2412.345871
910.915054	2411.829152
911.221229	2411.821591
911.527363	2411.874523
911.833458	2412.340829
912.139513	2415.925090
912.445527	2411.188926
912.751502	2414.448032
913.057436	2412.550037
913.363331	2417.172775
913.669186	2414.327044
913.975000	2421.238466
914.280775	2423.655699
914.586510	2429.135433
914.892205	2435.106680
915.197859	2444.016920
915.503475	2458.847994
915.809050	2469.396609
916.114585	2475.617392
916.420081	2479.010089
916.725536	2477.699389
917.030952	2471.322329
917.336328	2467.344859
917.641665	2462.028962
917.946961	2459.894034
918.252218	2457.116358
918.557435	2449.710903
918.862612	2446.673608
919.167750	2445.050356
919.472848	2438.617844
919.777906	2437.355035
920.082925	2429.629467
920.387904	2428.132244
920.692843	2422.745771
920.997743	2422.289547
921.302603	2420.305853
921.607423	2420.701583
921.912204	2418.579257
922.216946	2416.769483
922.521647	2417.797878
922.826310	2411.907290
923.130932	2414.957188
923.435516	2411.052815
923.740059	2414.536252
924.044564	2415.085738
924.349028	2408.625499
924.653454	2408.234810
924.957840	2407.473595
925.262186	2406.160375
925.566493	2405.837741
925.870761	2405.061403
926.174989	2408.171795
926.479178	2405.772206
926.783328	2406.460323
927.087438	2406.127607
927.391509	2409.091806
927.695541	2406.717422
927.999533	2405.036198
928.303486	2407.536610
928.607400	2409.001065
928.911275	2404.743811
929.215110	2405.507545
929.518906	2405.454613
929.822663	2403.816238
930.126381	2405.699109
930.430060	2403.644839
930.733699	2403.367576
931.037299	2405.378996
931.340861	2409.011147
931.644383	2405.416805
931.947866	2406.611558
932.251309	2403.095353
932.554714	2404.774058
932.858080	2406.571229
933.161407	2404.766496
933.464694	2403.382699
933.767943	2405.499984
934.071153	2403.574263
934.374323	2401.545198
934.677455	2404.890004
934.980548	2406.548544
935.283602	2403.828841
935.586617	2406.193142
935.889593	2404.350601
936.192530	2405.540313
936.495428	2405.089130
936.798287	2404.665673
937.101108	2405.825138
937.403890	2405.820097
937.706632	2405.867988
938.009336	2408.494429
938.312002	2410.052146
938.614628	2408.580129
938.917216	2408.242371
939.219765	2408.449059
939.522275	2409.248082
939.824747	2410.304203
940.127179	2405.401681
940.429573	2406.331774
940.731929	2408.010478
941.034246	2405.106774
941.336524	2411.869482
941.638763	2408.985942
941.940964	2409.832855
942.243126	2407.652556
942.545250	2405.885632
942.847335	2407.430746
943.149381	2407.579460
943.451389	2406.871177
943.753359	2405.827659
944.055290	2405.971332
944.357182	2406.810684
944.659036	2405.318502
944.960851	2403.801115
945.262628	2405.694068
945.564367	2407.166085
945.866067	2404.922772
946.167729	2403.055024
946.469352	2407.781106
946.770937	2407.869326
947.072484	2405.424366
947.373992	2404.983265
947.675462	2405.096691
947.976893	2406.810684
948.278286	2404.370765
948.579641	2405.444531
948.880958	2405.686506
949.182236	2404.161557
949.483476	2403.564181
949.784678	2404.895045
950.085841	2407.274470
950.386967	2403.808677
950.688054	2406.772875
950.989103	2408.249933
951.290114	2405.764644
951.591087	2406.311609
951.892021	2406.301527
952.192917	2408.030643
952.493776	2406.356980
952.794596	2408.570046
953.095378	2406.117525
953.396122	2408.136507
953.696828	2406.031825
953.997496	2406.006620
954.298126	2406.843451
954.598718	2404.826990
954.899272	2403.695251
955.199788	2406.787998
955.500266	2403.334808
955.800706	2403.770868
956.101108	2398.465053
956.401472	2401.151988
956.701798	2401.593089
957.002087	2400.499159
957.302337	2403.428069
957.602550	2401.688871
957.902724	2402.901269
958.202861	2401.285579
958.502960	2399.899262
958.803022	2402.591238
959.103045	2400.259704
959.403031	2400.970507
959.702979	2401.320867
960.002889	2400.229457
960.302762	2401.729201
960.602596	2400.819272
960.902393	2400.892369
961.202153	2400.153840
961.501875	2400.468912
961.801559	2402.109808
962.101205	2400.446227
962.400814	2398.742317
962.700385	2400.017729
962.999918	2401.555281
963.299414	2400.163922
963.598873	2400.282389
963.898293	2400.297513
964.197677	2401.031001
964.497022	2399.863974
964.796331	2398.691905
965.095601	2400.557132
965.394835	2399.445558
965.694030	2397.161915
965.993189	2399.349776
966.292309	2400.219375
966.591393	2400.194169
966.890439	2397.973541
967.189447	2400.665517
967.488419	2398.286093
967.787353	2401.996382
968.086249	2400.257184
968.385108	2399.642163
968.683930	2400.148799
968.982714	2400.620147
969.281462	2398.162584
969.580172	2397.784498
969.878844	2401.605692
970.177480	2397.585372
970.476078	2398.664179
970.774639	2399.332132
971.073162	2399.942112
971.371649	2397.413973
971.670098	2397.764333
971.968510	2400.234498
972.266885	2395.190824
972.565223	2400.327760
972.863524	2399.400188
973.161788	2399.289282
973.460014	2399.155692
973.758204	2399.122924
974.056356	2398.770043
974.354471	2402.472771
974.652550	2402.472771
974.950591	2401.061248
975.248595	2399.803480
975.546563	2403.022257
975.844493	2397.787018
976.142386	2401.262894
976.440243	2397.086298
976.738062	2398.765002
977.035845	2400.282389
977.333590	2400.148799
977.631299	2399.405229
977.928971	2400.244581
978.226606	2399.145609
978.524204	2401.731721
978.821765	2398.268448
979.119290	2397.676113
979.416777	2399.092677
979.714228	2397.512275
980.011642	2398.376833
980.309020	2401.968655
980.606360	2401.998902
980.903664	2400.642832
981.200931	2401.532596
981.498162	2403.034859
981.795356	2402.288769
982.092513	2404.574932
982.389633	2401.824983
982.686717	2407.340005
982.983764	2404.668193
983.280775	2409.545510
983.577749	2406.094840
983.874686	2408.156672
984.171587	2410.034502
984.468451	2404.632905
984.765279	2406.601476
985.062070	2405.555436
985.358824	2404.242216
985.655543	2403.826321
985.952224	2403.710374
986.248869	2402.800446
986.545478	2397.285423
986.842050	2398.759961
987.138586	2395.631925
987.435086	2399.243912
987.731549	2394.767367
988.027975	2399.707698
988.324366	2399.808521
988.620719	2397.545043
988.917037	2398.853222
989.213318	2397.608057
989.509563	2398.734755
989.805772	2397.802142
990.101944	2397.174518
990.398080	2397.169477
990.694180	2397.114024
990.990244	2399.760630
991.286271	2398.301216
991.582262	2397.645866
991.878217	2398.265928
992.174136	2399.687533
992.470019	2399.311967
992.765865	2398.465053
993.061676	2398.759961
993.357450	2398.575959
993.653188	2398.354148
993.948890	2399.480846
994.244556	2397.421535
994.540186	2399.929509
994.835780	2399.649725
995.131337	2400.199210
995.426859	2402.319016
995.722345	2403.866650
996.017795	2402.744993
996.313208	2403.775909
996.608586	2402.129972
996.903928	2403.841444
997.199234	2405.046280
997.494504	2405.134500
997.789738	2401.169633
998.084936	2401.961094
998.380099	2402.631567
998.675225	2401.459499
998.970316	2398.951525
999.265371	2401.119221
999.560390	2399.533778
999.855373	2403.929664
1000.150320	2399.059910
1000.445232	2399.150650
1000.740108	2398.157543
1001.034948	2398.190311
1001.329752	2396.829199
1001.624521	2394.573283
1001.919254	2392.682850
1002.213951	2394.671585
1002.508613	2395.984806
1002.803239	2394.653941
1003.097829	2392.851729
1003.392384	2395.725186
1003.686903	2396.317522
1003.981386	2398.520506
1004.275834	2396.786349
1004.570246	2396.756102
1004.864623	2396.617471
1005.158964	2396.667882
1005.453270	2399.034704
1005.747540	2395.924312
1006.041775	2397.114024
1006.335974	2397.106462
1006.630138	2398.951525
1006.924266	2396.317522
1007.218359	2396.045300
1007.512416	2397.565208
1007.806438	2394.893396
1008.100425	2398.364230
1008.394376	2396.592265
1008.688292	2397.250135
1008.982172	2396.559497
1009.276017	2399.231309
1009.569827	2398.752399
1009.863602	2396.904816
1010.157341	2397.976062
1010.451045	2394.621174
1010.744714	2397.706360
1011.038347	2397.431617
1011.331945	2397.630742
1011.625508	2397.807183
1011.919036	2395.450443
1012.212528	2395.815927
1012.505986	2397.025804
1012.799408	2395.180742
1013.092795	2396.335166
1013.386147	2396.423386
1013.679464	2396.315001
1013.972745	2395.652090
1014.265992	2399.072512
1014.559204	2396.569580
1014.852380	2396.821637
1015.145521	2398.704508
1015.438628	2397.471946
1015.731699	2398.608726
1016.024736	2395.158057
1016.317737	2398.477656
1016.610703	2397.915568
1016.903635	2393.945659
1017.196531	2392.975237
1017.489393	2393.933056
1017.782219	2390.918446
1018.075011	2396.040258
1018.367768	2399.533778
1018.660490	2397.557646
1018.953177	2397.557646
1019.245829	2397.557646
