Dividing Wavelength (nm)	Counts (n)	Blue Motor Position (mm): 0.000000	Red Motor Position (mm): 31.600000	
326.493990	1989.027579
326.888308	1989.027579
327.282561	1989.027579
327.676750	1966.503704
328.070874	1967.539661
328.464933	1971.746504
328.858929	1980.697072
329.252859	1994.172077
329.646726	2010.404592
330.040528	2022.558814
330.434265	2043.439273
330.827938	2062.353683
331.221547	2081.048802
331.615091	2103.499580
332.008571	2120.901643
332.401986	2148.360808
332.795338	2165.225988
333.188625	2185.241890
333.581847	2204.138655
333.975006	2220.527446
334.368100	2238.499160
334.761129	2256.407859
335.154095	2271.319592
335.546996	2294.224074
335.939833	2325.330514
336.332606	2338.576146
336.725315	2351.378156
337.117960	2359.544825
337.510540	2365.453058
337.903056	2373.571836
338.295508	2382.829915
338.687896	2385.620193
339.080220	2397.466905
339.472480	2403.455796
339.864676	2404.627864
340.256807	2405.840262
340.648875	2409.686662
341.040879	2413.656571
341.432818	2413.913669
341.824694	2412.726478
342.216506	2414.876530
342.608253	2416.537590
342.999937	2412.557599
343.391557	2413.777558
343.783113	2408.675911
344.174605	2409.948802
344.566033	2405.754562
344.957397	2405.540313
345.348697	2403.604510
345.739934	2405.109294
346.131106	2400.867163
346.522215	2401.663666
346.913260	2397.310629
347.304241	2399.430434
347.695159	2395.566390
348.086012	2394.172511
348.476802	2393.295350
348.867528	2389.910215
349.258191	2388.433157
349.648789	2389.915257
350.039324	2388.027344
350.429796	2386.285626
350.820203	2386.129350
351.210548	2385.431150
351.600828	2384.755636
351.991045	2385.297560
352.381198	2383.631458
352.771288	2386.031047
353.161314	2384.054915
353.551276	2390.449619
353.941175	2388.531460
354.331010	2387.974412
354.720782	2388.871738
355.110490	2386.986346
355.500135	2386.764535
355.889717	2390.973899
356.279235	2389.060781
356.668689	2389.464073
357.058080	2390.474825
357.447408	2386.890564
357.836672	2386.716644
358.225873	2387.896274
358.615010	2388.526419
359.004084	2390.958775
359.393095	2395.778118
359.782043	2394.285937
360.170927	2394.066647
360.559748	2396.897255
360.948505	2395.969682
361.337199	2396.786349
361.725830	2396.572100
362.114398	2398.911196
362.502903	2400.360527
362.891344	2401.638460
363.279722	2399.483367
363.668037	2402.051834
364.056289	2403.445713
364.444478	2407.186250
364.832603	2405.313461
365.220665	2407.208935
365.608665	2405.865467
365.996601	2409.331261
366.384474	2408.572567
366.772284	2411.100706
367.160031	2411.398134
367.547715	2411.897208
367.935336	2412.713875
368.322893	2412.466858
368.710388	2412.799574
369.097820	2418.654875
369.485189	2417.979360
369.872495	2416.479617
370.259738	2421.112437
370.646918	2423.406162
371.034035	2421.104875
371.421090	2427.043355
371.808081	2431.003181
372.195010	2435.767071
372.581875	2444.311827
372.968678	2450.449432
373.355418	2453.317848
373.742096	2463.856381
374.128710	2477.752321
374.515262	2486.463435
374.901751	2502.955570
375.288177	2521.859897
375.674540	2544.119112
376.060841	2563.484704
376.447079	2588.834146
376.833254	2614.639813
377.219367	2637.229223
377.605417	2673.220541
377.991404	2701.965200
378.377329	2742.443145
378.763191	2775.787857
379.148991	2825.881803
379.534727	2873.601365
379.920402	2924.380908
380.306013	2970.757003
380.691563	3036.173536
381.077049	3092.614294
381.462474	3147.784682
381.847835	3226.794686
382.233134	3297.847229
382.618371	3360.065150
383.003545	3447.297276
383.388657	3526.967671
383.773706	3619.515694
384.158693	3694.293650
384.543618	3794.017755
384.928480	3874.860219
385.313280	3976.149602
385.698017	4081.169440
386.082692	4203.130075
386.467305	4267.228346
386.851856	4397.403541
387.236344	4557.480340
387.620770	4618.251450
388.005133	4739.680243
388.389435	4891.683635
388.773674	4976.690091
389.157851	5112.345021
389.541965	5245.925515
389.926018	5266.596767
390.310008	5452.103667
390.693936	5573.981122
391.077802	5697.131470
391.461606	5828.675338
391.845348	5945.617505
392.229027	6067.535290
392.612645	6295.251771
392.996200	6408.405510
393.379694	6588.515855
393.763125	6823.030332
394.146494	6913.677839
394.529801	7048.253962
394.913047	7300.727549
395.296230	7295.641025
395.679351	7355.676126
396.062410	7619.585571
396.445408	7511.437698
396.828343	7674.511463
397.211217	7810.136146
397.594028	7691.265738
397.976778	7900.571925
398.359466	8069.758089
398.742092	8037.565281
399.124656	8194.115793
399.507158	8384.774752
399.889598	8403.293431
400.271977	8612.632385
400.654294	8647.141604
401.036549	8849.838838
401.418742	8873.509576
401.800874	9175.618364
402.182944	9260.599615
402.564952	9630.940421
402.946898	9454.532804
403.328783	9510.366103
403.710606	9713.164161
404.092367	9974.066558
404.474067	10338.247073
404.855705	10123.196491
405.237282	10079.018339
405.618797	10516.955977
406.000250	10761.724161
406.381642	11134.124278
406.762972	11082.066802
407.144240	10880.713036
407.525447	11140.478652
407.906593	11074.361399
408.287677	11333.156593
408.668700	11490.942188
409.049661	11460.231479
409.430560	11628.636264
409.811399	11594.661408
410.192176	11762.788930
410.572891	11838.723830
410.953545	12331.637771
411.334138	11805.074128
411.714669	12408.858166
412.095139	11710.875128
412.475547	12219.749361
412.855894	12060.504352
413.236180	12392.986093
413.616405	12073.291239
413.996568	12356.231040
414.376670	12326.342039
414.756711	12198.516021
415.136691	12492.259015
415.516609	12673.745594
415.896466	12742.396027
416.276262	13035.846634
416.655997	13486.946724
417.035670	13518.022917
417.415283	14169.831507
417.794834	14265.923461
418.174324	14006.319161
418.553753	13906.690837
418.933121	14413.790585
419.312428	14210.528742
419.691674	14127.460608
420.070859	14591.493779
420.449983	14240.301796
420.829045	14786.999807
421.208047	14530.697463
421.586988	14996.421941
421.965867	15257.130253
422.344686	15249.775210
422.723444	15820.915255
423.102141	14490.572399
423.480777	15699.189034
423.859352	15200.185379
424.237866	16319.989486
424.616319	16012.408525
424.994712	16680.061461
425.373044	16476.255173
425.751314	17155.396899
426.129524	16277.358969
426.507673	17381.948873
426.885762	17065.286274
427.263789	17259.716016
427.641756	17436.426102
428.019662	17496.052870
428.397508	17533.422943
428.775292	17838.949634
429.153016	17803.535528
429.530679	17887.364875
429.908282	17915.255059
430.285824	17627.405174
430.663305	18342.361777
431.040726	17936.448070
431.418086	17750.668948
431.795385	18419.902285
432.172624	18841.970371
432.549802	18392.884221
432.926920	18577.027489
433.303977	18460.407957
433.680974	18727.478205
434.057910	19008.414147
434.434786	19027.245377
434.811601	18952.842988
435.188355	19998.141361
435.565050	19640.479057
435.941683	19594.387788
436.318257	20480.161368
436.694770	20294.664551
437.071222	20882.226155
437.447614	19947.344174
437.823946	19983.277519
438.200218	20128.437544
438.576429	19900.940353
438.952580	20181.616676
439.328670	20142.827518
439.704700	20554.379756
440.080670	20126.405959
440.456580	20726.603215
440.832429	20909.443345
441.208218	19886.794876
441.583947	20335.235757
441.959616	20441.110070
442.335224	20680.481699
442.710773	20810.361987
443.086261	21351.383658
443.461689	20709.480936
443.837057	20829.747744
444.212365	21481.503401
444.587612	21474.896969
444.962800	21052.392824
445.337927	21476.621043
445.712995	20199.205262
446.088002	22076.997261
446.462949	22267.084049
446.837837	22442.833795
447.212664	22395.502402
447.587431	25242.138635
447.962139	28198.293936
448.336786	30611.947986
448.711374	29052.986282
449.085901	25330.815052
449.460369	25269.459168
449.834776	25192.674834
450.209124	27683.960132
450.583412	27216.824132
450.957640	27757.240865
451.331808	26400.842806
451.705917	25020.932804
452.079965	25044.177565
452.453954	25409.666260
452.827883	25295.549660
453.201752	25089.220274
453.575562	25263.654280
453.949311	26390.614304
454.323001	26444.481554
454.696632	26207.900204
455.070202	27772.873483
455.443713	27911.532940
455.817164	28498.754267
456.190556	29035.468273
456.563888	28468.610687
456.937160	28915.375385
457.310373	27240.888080
457.683526	27691.330299
458.056619	27672.620057
458.429653	27601.219674
458.802628	28178.162088
459.175542	28305.720924
459.548398	29608.070253
459.921194	31181.668947
460.293930	31855.197347
460.666607	33890.658995
461.039224	35641.542466
461.411782	36039.360081
461.784280	34853.000140
462.156719	34380.845671
462.529099	33816.869105
462.901419	32512.253778
463.273680	31438.525817
463.645882	31525.687367
464.018024	31496.037821
464.390106	32336.383044
464.762130	35030.892377
465.134094	39095.887275
465.505999	44408.179581
465.877845	49005.469913
466.249631	50194.173990
466.621358	48498.254219
466.993026	46371.766977
467.364634	44298.300071
467.736184	42319.269100
468.107674	41068.216032
468.479105	40268.999063
468.850477	39582.724105
469.221790	38127.945407
469.593043	36388.091980
469.964238	35489.158468
470.335373	35398.962143
470.706449	37120.639690
471.077467	39676.076192
471.448425	44246.121608
471.819324	47086.738704
472.190164	45244.380975
472.560945	41694.781044
472.931667	38576.401412
473.302330	37457.308108
473.672934	36631.627602
474.043479	37131.137893
474.413965	36328.354307
474.784393	35947.182583
475.154761	36838.698038
475.525070	36875.634572
475.895321	36406.676194
476.265513	36993.620257
476.635645	37967.447672
477.005719	37764.710108
477.375734	38237.310719
477.745691	38924.392262
478.115588	40271.617942
478.485427	42235.028898
478.855207	45561.189768
479.224928	48185.800983
479.594591	49820.982412
479.964194	48828.500207
480.333739	48979.621397
480.703226	49007.483854
481.072653	49632.133227
481.442022	50103.536564
481.811333	50349.572598
482.180584	49034.980828
482.549777	48515.850366
482.918912	47950.333728
483.287988	47650.884148
483.657005	46812.177301
484.025964	46149.925961
484.394864	46160.099009
484.763706	45713.833386
485.132489	44815.129246
485.501213	44632.024456
485.869879	44770.681392
486.238487	44318.172299
486.607036	44496.508158
486.975527	43926.262917
487.343959	44084.754273
487.712333	44163.008105
488.080648	44037.576635
488.448905	44448.402947
488.817104	44245.977935
489.185244	45152.090051
489.553326	46753.773013
489.921350	49391.952493
490.289315	52247.453596
490.657222	52798.600425
491.025070	53040.895923
491.392861	52093.012806
491.760593	50800.438275
492.128267	49069.013657
492.495883	47503.523660
492.863440	46062.169555
493.230939	44666.024518
493.598380	43526.748954
493.965763	43121.785504
494.333088	42265.366562
494.700354	41706.116078
495.067563	41351.803621
495.434713	41144.221509
495.801805	41145.759061
496.168839	40688.856602
496.535815	40270.471080
496.902733	40201.298888
497.269593	39707.475018
497.636395	39551.985669
498.003139	39834.199544
498.369825	39213.356242
498.736453	39410.787991
499.103023	38856.250986
499.469535	38598.365720
499.835989	38595.739278
500.202385	38161.027979
500.568723	38057.633914
500.935003	38107.642160
501.301226	37773.108670
501.667390	38241.789785
502.033497	38349.801547
502.399546	37678.839093
502.765537	36912.498009
503.131470	37143.667681
503.497345	37320.768456
503.863163	35958.275642
504.228923	36368.113888
504.594625	36577.354540
504.960269	35787.267100
505.325856	36253.135251
505.691385	35539.529677
506.056856	35501.542062
506.422270	35717.265638
506.787625	35196.685845
507.152924	35185.504566
507.518164	35114.409173
507.883347	34240.207561
508.248472	34304.499917
508.613540	34520.407495
508.978550	34596.907004
509.343503	34186.184036
509.708398	34188.351732
510.073236	34426.364770
510.438016	34251.600569
510.802738	33583.733384
511.167403	33906.440327
511.532010	33903.924791
511.896561	33931.630973
512.261053	34426.717651
512.625488	33833.199923
512.989866	33522.879095
513.354186	33184.867209
513.718449	32971.155054
514.082655	33275.620581
514.446803	32803.105670
514.810894	32984.113340
515.174927	32699.129351
515.538904	32389.327762
515.902822	32676.945753
516.266684	32018.785310
516.630488	32116.881123
516.994235	31759.932143
517.357925	31953.434312
517.721558	31839.781499
518.085133	31813.597746
518.448651	31661.004539
518.812112	31255.877252
519.175516	31079.489799
519.538863	31074.814129
519.902152	30796.391202
520.265385	30858.697343
520.628560	30626.781581
520.991678	30240.490565
521.354739	30146.147891
521.717743	30094.546640
522.080690	29772.484965
522.443580	29862.701454
522.806413	29636.714089
523.169189	29344.581744
523.531908	29197.919455
523.894569	28842.074488
524.257174	28679.996350
524.619722	28606.922305
524.982213	28309.927767
525.344647	28005.976437
525.707025	27750.339526
526.069345	27724.352378
526.431608	27401.960507
526.793815	27316.729719
527.155964	26781.583512
527.518057	26607.951050
527.880093	26205.687137
528.242072	26250.881082
528.603995	25808.035881
528.965860	25547.224225
529.327669	25337.048439
529.689421	25018.414748
530.051117	24731.063938
530.412755	24540.863724
530.774337	24311.584485
531.135862	23947.613177
531.497331	23781.340800
531.858743	23473.822854
532.220098	23397.446852
532.581396	22975.439261
532.942638	22543.825751
533.303824	22441.586110
533.664953	22160.952637
534.026025	21777.230088
534.387040	21747.643557
534.747999	21467.748613
535.108902	21296.528343
535.469748	20838.156388
535.830537	20644.732356
536.191270	20474.313630
536.551947	20080.327292
536.912567	19970.649429
537.273131	19773.242885
537.633638	19317.756991
537.994089	19223.676457
538.354483	18827.550150
538.714821	18821.652000
539.075103	18719.240960
539.435328	18395.475374
539.795497	18115.439278
540.155609	17874.464563
540.515665	17808.271692
540.875665	17382.745375
541.235609	17279.852905
541.595496	17040.750978
541.955328	17042.207871
542.315102	16614.168539
542.674821	16315.160061
543.034483	16124.874147
543.394090	15898.087759
543.753640	15677.814542
544.113134	15786.199349
544.472571	15277.466268
544.831953	15441.759992
545.191278	15000.182642
545.550548	14724.217277
545.909761	14646.351615
546.268918	14516.972922
546.628019	14398.997319
546.987064	14093.768057
547.346053	13702.977811
547.704986	13743.977515
548.063863	13443.517184
548.422684	13318.199140
548.781449	13089.509717
549.140158	13008.846214
549.498811	12787.683233
549.857408	12466.029891
550.215949	12481.861635
550.574434	12286.020370
550.932864	12074.904408
551.291237	12057.477140
551.649555	11814.995119
552.007817	11695.855010
552.366022	11463.977056
552.724173	11343.168325
553.082267	11262.633372
553.440305	11173.185658
553.798288	10880.549198
554.156215	10789.813470
554.514086	10681.358086
554.871902	10485.506739
555.229661	10345.375265
555.587365	10166.931021
555.945014	10039.384788
556.302606	9884.943999
556.660143	9785.776941
557.017625	9667.584568
557.375050	9494.458742
557.732421	9416.492257
558.089735	9278.936813
558.446994	9141.767016
558.804197	9080.582532
559.161345	8943.082540
559.518437	8716.069300
559.875474	8626.482955
560.232455	8530.373357
560.589381	8428.012728
560.946251	8278.179554
561.303065	8251.257272
561.659825	8110.619162
562.016528	7949.627393
562.373177	7805.468037
562.729770	7747.056188
563.086307	7586.129954
563.442789	7527.831530
563.799216	7431.895852
564.155587	7301.735780
564.511904	7203.624844
564.868164	7122.958821
565.224370	7053.196813
565.580520	6927.866167
565.936615	6857.058120
566.292654	6734.520273
566.648638	6669.655746
567.004567	6578.456232
567.360441	6499.007647
567.716260	6397.025105
568.072023	6337.607545
568.427732	6257.196100
568.783385	6144.062526
569.138982	6087.755358
569.494525	6019.341859
569.850013	5924.671510
570.205445	5850.032187
570.560823	5778.483090
570.916145	5698.036357
571.271412	5631.508250
571.626625	5548.593872
571.981782	5485.730683
572.336884	5399.721037
572.691931	5356.180591
573.046923	5277.599085
573.401860	5204.767015
573.756743	5145.606554
574.111570	5093.642340
574.466342	5031.860479
574.821059	4982.184949
575.175722	4896.891147
575.530330	4845.531871
575.884882	4777.831696
576.239380	4728.317482
576.593823	4684.535061
576.948211	4629.339468
577.302544	4562.065270
577.656823	4517.362838
578.011047	4484.103826
578.365216	4427.814302
578.719330	4379.467116
579.073389	4329.176565
579.427394	4298.186072
579.781344	4262.131739
580.135239	4210.351528
580.489080	4173.750230
580.842866	4119.230151
581.196597	4102.367492
581.550273	4066.280392
581.903895	4031.924928
582.257463	4012.183770
582.610975	3959.234011
582.964434	3938.713994
583.317837	3899.950041
583.671186	3865.244218
584.024481	3842.440558
584.377721	3800.311636
584.730906	3785.261271
585.084037	3759.173300
585.437113	3720.237948
585.790135	3696.617622
586.143103	3661.662261
586.496016	3640.817090
586.848874	3615.613841
587.201679	3599.277982
587.554428	3562.379256
587.907124	3547.152451
588.259765	3519.622710
588.612352	3507.518900
588.964884	3476.326760
589.317362	3464.580872
589.669786	3449.245682
590.022155	3423.944131
590.374470	3416.115219
590.726731	3389.918863
591.078937	3360.269316
591.431090	3349.597194
591.783188	3328.147084
592.135232	3303.962148
592.487222	3293.305149
592.839157	3284.984725
593.191038	3265.170470
593.542866	3246.301431
593.894639	3220.888974
594.246358	3219.474931
594.598022	3205.899103
594.949633	3186.982173
595.301190	3178.525638
595.652692	3162.197341
596.004141	3153.886998
596.355535	3130.463277
596.706876	3116.837038
597.058162	3107.687344
597.409395	3103.669544
597.760573	3097.854573
598.111698	3080.306317
598.462768	3073.629309
598.813785	3067.083370
599.164748	3053.270609
599.515657	3048.413457
599.866511	3033.042979
600.217312	3034.388967
600.568060	3014.050432
600.918753	3016.293745
601.269392	3010.995493
601.619978	2998.344717
601.970510	2995.778770
602.320988	2990.828357
602.671412	2988.617811
603.021783	2978.298569
603.372100	2970.560398
603.722363	2964.440437
604.072572	2957.816361
604.422728	2953.435598
604.772830	2944.394289
605.122878	2938.362548
605.472872	2935.365582
605.822813	2929.129675
606.172701	2926.571289
606.522534	2922.674477
606.872314	2922.558531
607.222041	2915.460586
607.571714	2913.744073
607.921333	2902.981210
608.270899	2902.865263
608.620411	2900.874008
608.969870	2892.399828
609.319276	2888.830691
609.668627	2884.399517
610.017926	2884.510422
610.367171	2881.823487
610.716362	2880.028836
611.065500	2874.639843
611.414585	2870.352342
611.763616	2870.165819
612.112594	2865.689274
612.461518	2861.825230
612.810389	2862.120137
613.159207	2854.434898
613.507971	2850.908611
613.856682	2854.291225
614.205340	2849.237469
614.553945	2847.679752
614.902496	2841.748835
615.250994	2839.487877
615.599439	2836.483349
615.947830	2836.054851
616.296169	2832.518482
616.644454	2829.856753
616.992686	2829.055209
617.340864	2825.909529
617.688990	2822.970537
618.037063	2824.014055
618.385082	2821.543890
618.733048	2818.957778
619.080961	2817.352171
619.428821	2812.658856
619.776628	2811.474185
620.124382	2802.470684
620.472083	2802.826086
620.819731	2801.139820
621.167326	2794.707307
621.514868	2794.850980
621.862357	2784.188940
622.209793	2785.083745
622.557176	2776.954884
622.904506	2773.612599
623.251783	2763.021135
623.599007	2760.316556
623.946179	2755.456884
624.293297	2752.412027
624.640363	2751.308014
624.987376	2747.660739
625.334336	2744.449524
625.681243	2739.136148
626.028097	2735.173801
626.374899	2733.742113
626.721647	2727.871690
627.068343	2727.322204
627.414987	2722.880947
627.761577	2720.196533
628.108115	2720.622511
628.454600	2715.543548
628.801032	2714.086655
629.147412	2711.944164
629.493739	2710.726726
629.840014	2707.724718
630.186236	2708.425439
630.532405	2701.821527
630.878521	2701.118286
631.224585	2702.333204
631.570597	2697.523944
631.916556	2696.994622
632.262462	2696.699715
632.608316	2694.156453
632.954117	2693.183510
633.299866	2689.009435
633.645562	2688.286029
633.991206	2684.232942
634.336797	2680.721778
634.682336	2682.355112
635.027823	2677.167764
635.373257	2674.894204
635.718639	2673.802794
636.063968	2668.517144
636.409245	2664.320384
636.754470	2663.380209
637.099642	2660.289981
637.444762	2657.131698
637.789829	2656.637665
638.134845	2654.739671
638.479808	2653.141625
638.824719	2649.043167
639.169577	2646.719195
639.514383	2647.044350
639.859137	2644.793474
640.203839	2648.294556
640.548489	2643.949081
640.893086	2641.063021
641.237632	2637.211579
641.582125	2636.379789
641.926566	2633.917185
642.270955	2638.492032
642.615292	2634.393574
642.959576	2636.987248
643.303809	2633.314767
643.647990	2636.563791
643.992118	2632.966927
644.336195	2633.828965
644.680219	2633.675210
645.024192	2634.587658
645.368112	2635.119500
645.711981	2638.907927
646.055797	2638.920530
646.399562	2637.705612
646.743274	2643.056797
647.086935	2644.788433
647.430544	2642.401447
647.774101	2642.197280
648.117606	2643.238278
648.461059	2647.578712
648.804460	2644.964874
649.147810	2641.592342
649.491108	2635.764768
649.834354	2635.469860
650.177548	2628.901237
650.520690	2626.572224
650.863781	2625.463170
651.206820	2629.296967
651.549807	2623.262706
651.892742	2620.164917
652.235626	2617.261213
652.578458	2619.310442
652.921238	2612.920779
653.263967	2615.234669
653.606644	2613.170316
653.949269	2613.838269
654.291843	2611.272322
654.634365	2614.367590
654.976836	2607.957763
655.319255	2610.861468
655.661622	2607.141096
656.003938	2608.025819
656.346203	2606.679831
656.688416	2604.363421
657.030577	2604.963318
657.372687	2604.812083
657.714746	2605.049017
658.056753	2603.728235
658.398708	2600.181783
658.740612	2602.725046
659.082465	2600.275045
659.424266	2596.869745
659.766016	2598.102307
660.107715	2601.129520
660.449362	2601.063985
660.790958	2602.243615
661.132503	2599.470981
661.473996	2605.661518
661.815438	2601.633636
662.156829	2604.025663
662.498168	2599.125662
662.839456	2601.943667
663.180693	2600.980806
663.521879	2603.355190
663.863013	2600.501897
664.204097	2601.205138
664.545129	2603.536671
664.886110	2600.108687
665.227040	2604.491970
665.567918	2605.858123
665.908746	2603.340066
666.249522	2603.140941
666.590248	2603.710591
666.930922	2606.972218
667.271545	2604.804522
667.612118	2603.808894
667.952639	2603.070365
668.293109	2604.494491
668.633528	2603.851743
668.973896	2606.745366
669.314213	2601.200097
669.654480	2602.483070
669.994695	2600.275045
670.334859	2599.322267
670.674973	2598.815631
671.015035	2603.700509
671.355047	2596.859663
671.695008	2599.433172
672.034918	2596.073243
672.374777	2596.370671
672.714585	2599.173553
673.054342	2601.379057
673.394049	2598.543408
673.733705	2597.454519
674.073310	2595.624580
674.412864	2598.298913
674.752368	2595.044848
675.091820	2595.092739
675.431223	2593.078798
675.770574	2594.679364
676.109875	2589.265165
676.449125	2588.219125
676.788324	2587.278950
677.127473	2584.168558
677.466571	2583.316603
677.805619	2585.222159
678.144616	2585.882551
678.483562	2584.375246
678.822458	2581.526994
679.161303	2577.736046
679.500098	2579.588670
679.838842	2582.376428
680.177535	2581.683269
680.516179	2584.022365
680.854771	2584.564289
681.193314	2586.772314
681.531805	2591.291709
681.870247	2596.655496
682.208638	2598.487956
682.546978	2604.373503
682.885268	2602.982144
683.223508	2597.704056
683.561697	2595.196082
683.899836	2596.526947
684.237925	2595.911926
684.575963	2595.997626
684.913951	2592.289857
685.251889	2593.401432
685.589776	2591.011925
685.927614	2593.658530
686.265401	2593.860177
686.603137	2593.713983
686.940824	2594.175249
687.278460	2597.169694
687.616046	2599.778491
687.953582	2599.518872
688.291068	2601.815117
688.628504	2600.779160
688.965889	2603.897114
689.303224	2601.459716
689.640510	2600.499376
689.977745	2596.572317
690.314930	2590.175093
690.652065	2590.021338
690.989150	2585.161666
691.326185	2580.201170
691.663170	2577.287383
692.000105	2573.468709
692.336990	2568.581311
692.673825	2568.488049
693.010610	2566.879921
693.347345	2558.614949
693.684030	2556.863148
694.020665	2555.703683
694.357251	2550.987684
694.693786	2554.128323
695.030272	2553.243600
695.366707	2550.355019
695.703093	2548.835111
696.039429	2548.280584
696.375716	2547.282436
696.711952	2545.427291
697.048139	2544.061138
697.384276	2542.011909
697.720363	2545.523073
698.056400	2546.985007
698.392388	2542.967208
698.728326	2542.135417
699.064214	2540.701209
699.400053	2544.701365
699.735842	2541.517876
700.071581	2538.016795
700.407270	2536.532175
700.742910	2539.163657
701.078501	2536.290200
701.414042	2535.075282
701.749533	2531.707791
702.084974	2529.890455
702.420366	2530.538243
702.755709	2528.373067
703.091002	2525.048427
703.426246	2528.342821
703.761440	2528.907430
704.096584	2524.458612
704.431679	2523.485669
704.766725	2527.460619
705.101721	2524.055319
705.436668	2527.579086
705.771565	2522.545494
706.106413	2525.053468
706.441212	2524.637573
706.775961	2525.134126
707.110661	2525.187058
707.445311	2528.917512
707.779913	2526.447347
708.114465	2527.241328
708.448967	2532.048069
708.783421	2533.935981
709.117825	2532.872297
709.452180	2537.673996
709.786485	2537.051414
710.120742	2547.242106
710.454949	2542.952084
710.789107	2545.049204
711.123216	2544.648433
711.457275	2549.124977
711.791286	2548.199926
712.125247	2551.998435
712.459159	2550.400389
712.793023	2555.522202
713.126837	2549.377035
713.460602	2552.956254
713.794318	2550.382745
714.127985	2551.143959
714.461602	2541.661549
714.795171	2544.290511
715.128691	2538.102494
715.462162	2538.530993
715.795584	2533.986392
716.128957	2531.780888
716.462281	2530.739889
716.795556	2527.488345
717.128782	2525.844929
717.461960	2522.711852
717.795088	2520.909639
718.128167	2521.960720
718.461198	2518.789834
718.794180	2518.724299
719.127113	2514.608197
719.459997	2517.582478
719.792833	2510.368587
720.125619	2512.130470
720.458357	2508.871364
720.791046	2512.894205
721.123686	2505.728204
721.456278	2510.895387
721.788821	2504.160406
722.121315	2508.621827
722.453761	2507.646363
722.786158	2504.878770
723.118506	2507.187618
723.450805	2506.058400
723.783056	2506.171826
724.115259	2505.075375
724.447412	2505.672752
724.779518	2506.983452
725.111574	2506.814573
725.443582	2511.102074
725.775542	2506.658297
726.107453	2514.136849
726.439315	2509.897239
726.771129	2517.958044
727.102895	2516.233969
727.434612	2519.586336
727.766281	2519.200688
728.097901	2519.402334
728.429473	2518.227745
728.760996	2517.267406
729.092471	2514.393948
729.423897	2519.190606
729.755276	2517.499299
730.086606	2520.276974
730.417887	2524.642614
730.749120	2527.468180
731.080305	2528.302491
731.411442	2531.879190
731.742530	2530.959179
732.073570	2532.736186
732.404562	2531.148223
732.735506	2534.606454
733.066401	2529.461957
733.397249	2528.478932
733.728048	2523.702438
734.058798	2521.819567
734.389501	2513.302538
734.720156	2514.966119
735.050762	2510.663494
735.381320	2508.309275
735.711831	2507.689213
736.042293	2506.529748
736.372707	2504.503204
736.703073	2503.628564
737.033391	2505.715602
737.363661	2506.149141
737.693883	2505.511435
738.024056	2506.136538
738.354182	2508.619306
738.684260	2510.068638
739.014290	2509.136024
739.344272	2512.629544
739.674207	2514.371263
740.004093	2515.170286
740.333931	2514.882940
740.663722	2518.744464
740.993464	2515.762621
741.323159	2516.090296
741.652806	2513.446211
741.982405	2513.136180
742.311956	2508.589059
742.641460	2511.812877
742.970915	2506.131497
743.300323	2507.278359
743.629683	2502.398522
743.958996	2506.005468
744.288260	2499.749396
744.617477	2499.850219
744.946647	2498.126144
745.275768	2492.313694
745.604842	2491.726400
745.933869	2492.311173
746.262847	2490.950062
746.591778	2496.170177
746.920662	2494.562049
747.249498	2494.746051
747.578286	2494.302429
747.907027	2495.393839
748.235720	2496.477687
748.564365	2495.424086
748.892963	2498.516834
749.221514	2497.604385
749.550017	2499.010867
749.878473	2494.811586
750.206881	2495.282934
750.535242	2496.102121
750.863555	2494.365444
751.191821	2492.699342
751.520039	2492.253200
751.848210	2492.162459
752.176334	2493.904178
752.504411	2495.547594
752.832440	2491.880155
753.160421	2493.644559
753.488356	2492.197747
753.816243	2493.236225
754.144082	2490.614825
754.471875	2490.960144
754.799620	2490.357726
755.127318	2493.228663
755.454969	2489.843529
755.782572	2491.491986
756.110129	2488.457211
756.437638	2490.105669
756.765100	2486.778507
757.092515	2488.953765
757.419882	2488.260606
757.747203	2490.269506
758.074477	2490.796307
758.401703	2487.564927
758.728882	2492.686739
759.056014	2493.117758
759.383099	2492.976606
759.710138	2495.408962
760.037129	2494.922491
760.364073	2497.304436
760.690970	2494.904847
761.017820	2493.833602
761.344623	2497.271669
761.671379	2499.517503
761.998088	2498.864673
762.324751	2513.063083
762.651366	2533.116793
762.977935	2564.601320
763.304456	2575.936354
763.630931	2586.116964
763.957359	2578.086406
764.283740	2563.847667
764.610074	2550.803682
764.936362	2531.780888
765.262602	2524.405679
765.588796	2513.141221
765.914943	2505.410612
766.241044	2496.790239
766.567097	2491.663385
766.893104	2488.454691
767.219064	2485.248517
767.544978	2484.273054
767.870845	2479.047898
768.196665	2478.906745
768.522438	2474.503298
768.848165	2476.597897
769.173846	2473.457258
769.499479	2476.106384
769.825066	2471.027422
770.150607	2473.427011
770.476101	2471.244192
770.801548	2471.902062
771.126949	2468.244705
771.452303	2467.473408
771.777611	2467.664972
772.102872	2467.269242
772.428087	2463.541308
772.753256	2465.063737
773.078378	2463.989971
773.403453	2461.872687
773.728482	2464.521813
774.053465	2460.312449
774.378401	2464.950311
774.703291	2460.486369
775.028135	2458.616101
775.352932	2458.706842
775.677683	2457.083590
776.002388	2457.028138
776.327046	2459.473097
776.651658	2457.743982
776.976224	2458.404373
777.300743	2459.059723
777.625216	2456.304732
777.949643	2456.581996
778.274024	2456.433282
778.598359	2452.087807
778.922647	2451.066973
779.246889	2449.473969
779.571086	2449.068156
779.895236	2455.520833
780.219339	2452.720472
780.543397	2454.875565
780.867409	2455.654423
781.191374	2456.708024
781.515294	2454.414299
781.839167	2458.578292
782.162995	2458.507716
782.486776	2456.198868
782.810511	2455.208281
783.134201	2453.524536
783.457844	2453.413630
783.781441	2456.377829
784.104993	2453.378342
784.428498	2452.319700
784.751958	2453.723661
785.075372	2453.779114
785.398739	2453.070832
785.722061	2455.185596
786.045337	2452.843980
786.368568	2454.212653
786.691752	2456.972685
787.014891	2458.059054
787.337983	2461.267748
787.661030	2461.464353
787.984031	2464.768829
788.306987	2471.642443
788.629897	2471.130766
788.952760	2470.916517
789.275579	2469.878039
789.598351	2465.940898
789.921078	2466.548357
790.243759	2461.970989
790.566395	2460.720783
790.888984	2459.165587
791.211529	2456.745833
791.534027	2457.098714
791.856480	2456.118209
792.178888	2455.014197
792.501249	2452.455811
792.823566	2455.112499
793.145836	2452.266768
793.468062	2451.747529
793.790241	2452.518826
794.112375	2452.871706
794.434464	2452.720472
794.756507	2452.052519
795.078505	2456.347582
795.400457	2456.367747
795.722364	2455.780452
796.044226	2457.277675
796.366042	2460.708180
796.687812	2461.179528
797.009538	2461.819754
797.331218	2461.986113
797.652852	2462.333952
797.974442	2460.342696
798.295986	2459.601647
798.617484	2459.793211
798.938938	2455.664506
799.260346	2456.511419
799.581709	2454.542849
799.903026	2454.656275
800.224299	2454.265585
800.545526	2450.698969
800.866708	2455.644341
801.187845	2452.677622
801.508936	2451.099741
801.829983	2452.755760
802.150984	2449.136211
802.471940	2448.632096
802.792851	2449.771397
803.113717	2451.414813
803.434538	2449.486572
803.755314	2448.115378
804.076045	2448.473300
804.396731	2447.477672
804.717372	2447.938937
805.037967	2452.924638
805.358518	2449.158897
805.679024	2450.711572
805.999485	2447.228135
806.319901	2448.639658
806.640272	2451.061932
806.960598	2450.293156
807.280879	2453.572427
807.601115	2453.033023
807.921306	2449.995728
808.241453	2454.497478
808.561554	2451.550924
808.881611	2451.588733
809.201623	2451.596294
809.521590	2451.112344
809.841513	2451.729885
810.161390	2450.847683
810.481223	2448.400203
810.801011	2451.671912
811.120755	2448.616973
811.440453	2446.771910
811.760107	2449.027827
812.079716	2444.626899
812.399281	2441.947526
812.718801	2446.613114
813.038276	2441.793771
813.357707	2448.417847
813.677093	2448.380038
813.996434	2446.971036
814.315731	2447.966664
814.634983	2448.785851
814.954191	2446.335850
815.273354	2448.531273
815.592473	2448.614452
815.911547	2452.697787
816.230577	2450.346088
816.549562	2453.126285
816.868502	2452.148301
817.187399	2454.036213
817.506250	2452.279371
817.825058	2454.434464
818.143821	2458.578293
818.462539	2463.319498
818.781213	2463.296813
819.099843	2470.072123
819.418429	2476.789461
819.736970	2483.736171
820.055466	2492.230515
820.373919	2510.376148
820.692327	2528.337779
821.010691	2563.073850
821.329011	2645.504277
821.647286	2761.163470
821.965517	2888.167779
822.283704	2966.507310
822.601847	2993.159890
822.919945	2939.506890
823.237999	2877.843496
823.556010	2813.311686
823.873976	2752.596029
824.191897	2703.853112
824.509775	2662.142605
824.827609	2625.072481
825.145398	2600.559870
825.463144	2592.584765
825.780845	2594.823037
826.098502	2608.686210
826.416116	2638.353400
826.733685	2664.595127
827.051210	2673.482681
827.368692	2659.387615
827.686129	2628.641617
828.003522	2596.975610
828.320872	2561.047306
828.638177	2541.472506
828.955439	2518.772190
829.272656	2507.492608
829.589830	2489.727582
829.906960	2484.250368
830.224046	2476.754173
830.541088	2472.484315
830.858086	2465.552729
831.175041	2463.420321
831.491952	2462.134827
831.808819	2463.901751
832.125642	2467.564149
832.442421	2477.223000
832.759157	2490.488796
833.075849	2517.693383
833.392497	2543.685572
833.709101	2561.932029
834.025662	2555.176882
834.342179	2547.237065
834.658653	2523.031965
834.975083	2509.756086
835.291469	2499.164622
835.607811	2483.708444
835.924110	2479.778865
836.240366	2470.782926
836.556578	2462.661627
836.872746	2456.564352
837.188871	2451.611418
837.504952	2451.157714
837.820990	2447.545727
838.136984	2444.521035
838.452935	2443.769903
838.768842	2442.749069
839.084706	2451.145111
839.400526	2461.101390
839.716303	2475.992958
840.032037	2483.418578
840.347727	2482.511170
840.663373	2472.509521
840.978977	2462.177676
841.294537	2457.524691
841.610054	2449.257199
841.925527	2447.253340
842.240957	2442.968360
842.556344	2441.030036
842.871687	2437.970056
843.186987	2437.508790
843.502244	2431.731628
843.817458	2431.933274
844.132629	2432.906217
844.447756	2430.970413
844.762840	2425.107552
845.077881	2428.664086
845.392879	2424.157294
845.707833	2427.711307
846.022745	2422.148394
846.337613	2426.408169
846.652438	2426.839188
846.967221	2426.231729
847.281960	2424.941193
847.596656	2425.702408
847.911309	2426.375402
848.225919	2425.457912
848.540485	2424.242994
848.855009	2425.115113
849.169490	2424.479928
849.483928	2423.781728
849.798323	2423.557397
850.112675	2423.938004
850.426984	2423.663261
850.741251	2423.285174
851.055474	2422.072777
851.369654	2424.986564
851.683792	2422.833991
851.997887	2423.557397
852.311938	2422.937335
852.625947	2423.960689
852.939914	2422.836512
853.253837	2424.051430
853.567718	2426.372881
853.881555	2425.596543
854.195350	2422.944897
854.509103	2421.344330
854.822812	2423.945566
855.136479	2422.786100
855.450103	2425.820875
855.763685	2424.472366
856.077224	2423.277613
856.390720	2423.653179
856.704173	2425.127716
857.017584	2423.028076
857.330953	2424.187541
857.644278	2425.243663
857.957561	2425.692325
858.270802	2425.841039
858.584000	2425.881369
858.897155	2423.688467
859.210268	2422.952458
859.523339	2428.165011
859.836367	2423.857345
860.149352	2423.640576
860.462295	2425.220977
860.775195	2419.630338
861.088054	2419.751326
861.400869	2422.599578
861.713642	2420.663774
862.026373	2424.091759
862.339062	2422.511357
862.651708	2425.019331
862.964312	2424.127047
863.276873	2425.515885
863.589392	2424.074115
863.901869	2424.943714
864.214303	2425.808272
864.526696	2429.049734
864.839045	2428.069229
865.151353	2426.035124
865.463619	2428.149888
865.775842	2426.476225
866.088023	2429.689960
866.400162	2431.424117
866.712258	2426.057809
867.024313	2428.563263
867.336325	2428.585948
867.648296	2427.917995
867.960224	2427.978489
868.272110	2428.293561
868.583954	2428.374219
868.895755	2430.103335
869.207515	2429.944539
869.519233	2427.643252
869.830909	2429.659713
870.142542	2429.810948
870.454134	2430.519230
870.765684	2429.684919
871.077191	2429.851277
871.388657	2431.968562
871.700081	2432.185332
872.011463	2431.872780
872.322803	2430.811617
872.634101	2433.732966
872.945357	2432.981834
873.256571	2434.300096
873.567744	2435.240271
873.878874	2435.696495
874.189963	2434.151382
874.501010	2437.039963
874.812015	2437.060127
875.122979	2435.850250
875.433900	2436.674479
875.744780	2438.257401
876.055618	2436.014088
876.366415	2438.864860
876.677169	2436.248502
876.987882	2437.410487
877.298554	2432.636515
877.609183	2441.768565
877.919771	2438.970725
878.230317	2442.164296
878.540822	2447.555810
878.851285	2451.261058
879.161707	2456.158539
879.472087	2466.928964
879.782425	2483.146356
880.092722	2512.546365
880.402977	2556.974054
880.713191	2606.455499
881.023363	2656.322593
881.333494	2685.306707
881.643583	2696.051927
881.953631	2691.663602
882.263637	2677.470234
882.573602	2662.250990
882.883526	2639.061683
883.193408	2620.727006
883.503248	2596.544591
883.813048	2576.760583
884.122806	2559.088818
884.432522	2542.062321
884.742197	2527.107738
885.051831	2511.865809
885.361424	2498.839468
885.670975	2488.681543
885.980485	2478.558906
886.289954	2473.603452
886.599382	2463.339662
886.908768	2463.105249
887.218113	2457.270113
887.527417	2450.814916
887.836680	2446.182095
888.145901	2447.470110
888.455082	2443.895932
888.764221	2442.854934
889.073319	2440.515838
889.382376	2440.311672
889.691392	2437.455858
890.000366	2440.457865
890.309300	2439.646239
890.618193	2438.816969
890.927044	2439.827721
891.235855	2437.365117
891.544625	2438.927875
891.853353	2440.097423
892.162041	2443.290993
892.470687	2444.382403
892.779293	2446.799637
893.087858	2454.421861
893.396381	2458.812706
893.704864	2466.966772
894.013306	2479.839359
894.321707	2501.352483
894.630068	2510.943278
894.938387	2512.727847
895.246665	2510.633247
895.554903	2501.491115
895.863100	2495.252687
896.171256	2485.263640
896.479371	2478.004379
896.787446	2473.132104
897.095480	2471.370220
897.403473	2463.843778
897.711425	2460.814044
898.019336	2457.917901
898.327207	2453.942952
898.635038	2450.159566
898.942827	2446.958433
899.250576	2444.732763
899.558284	2439.840324
899.865952	2441.561878
900.173579	2437.965014
900.481165	2437.808739
900.788711	2436.339242
901.096216	2436.351845
901.403681	2433.186001
901.711105	2432.593665
902.018489	2435.028542
902.325832	2437.997782
902.633135	2438.222113
902.940397	2442.779316
903.247619	2451.951696
903.554800	2477.444811
903.861941	2502.408605
904.169041	2525.053468
904.476101	2530.505476
904.783121	2525.519774
905.090100	2515.571057
905.397039	2504.659480
905.703938	2493.526092
906.010796	2481.734833
906.317614	2475.574543
906.624391	2468.181691
906.931129	2460.947635
907.237826	2455.067129
907.544483	2449.758794
907.851099	2446.209822
908.157675	2438.713626
908.464211	2437.614654
908.770707	2428.986719
909.077163	2428.134764
909.383578	2424.253076
909.689954	2424.192582
909.996289	2420.313414
910.302584	2425.160484
910.608839	2424.953796
910.915054	2422.319793
911.221229	2423.764084
911.527363	2424.227870
911.833458	2422.344999
912.139513	2425.243663
912.445527	2425.286513
912.751502	2427.481935
913.057436	2426.526636
913.363331	2430.448654
913.669186	2432.555856
913.975000	2435.628440
914.280775	2442.814604
914.586510	2451.399689
914.892205	2463.495938
915.197859	2480.464462
915.503475	2496.472646
915.809050	2515.457631
916.114585	2522.550535
916.420081	2527.271575
916.725536	2526.311236
917.030952	2521.489372
917.336328	2511.865809
917.641665	2506.068482
917.946961	2497.755620
918.252218	2494.609940
918.557435	2484.305821
918.862612	2478.747949
919.167750	2474.253760
919.472848	2467.140692
919.777906	2461.441668
920.082925	2456.292129
920.387904	2449.237034
920.692843	2445.869544
920.997743	2444.062290
921.302603	2440.422577
921.607423	2438.335539
921.912204	2433.564087
922.216946	2434.610127
922.521647	2432.646597
922.826310	2425.679722
923.130932	2430.549477
923.435516	2428.298602
923.740059	2426.849270
924.044564	2423.736358
924.349028	2422.922211
924.653454	2419.088414
924.957840	2419.950451
925.262186	2420.273085
925.566493	2418.183527
925.870761	2416.265368
926.174989	2420.479772
926.479178	2415.559606
926.783328	2416.028433
927.087438	2417.518094
927.391509	2419.174113
927.695541	2414.470717
927.999533	2417.447518
928.303486	2414.775707
928.607400	2415.219328
928.911275	2410.987280
929.215110	2413.757394
929.518906	2413.447363
929.822663	2415.189081
930.126381	2414.216139
930.430060	2414.843762
930.733699	2414.160686
931.037299	2414.261509
931.340861	2417.765111
931.644383	2412.948288
931.947866	2412.577764
932.251309	2413.122208
932.554714	2414.904256
932.858080	2415.262178
933.161407	2415.788979
933.464694	2415.478948
933.767943	2413.994328
934.071153	2412.827301
934.374323	2412.035840
934.677455	2414.616910
934.980548	2415.819226
935.283602	2412.613052
935.586617	2413.999369
935.889593	2415.826787
936.192530	2412.124060
936.495428	2413.722106
936.798287	2415.801582
937.101108	2413.366704
937.403890	2415.670512
937.706632	2416.648495
938.009336	2417.291243
938.312002	2417.755029
938.614628	2418.549010
938.917216	2422.758374
939.219765	2421.220822
939.522275	2422.720565
939.824747	2422.995308
940.127179	2416.255285
940.429573	2420.250400
940.731929	2418.869124
941.034246	2415.917528
941.336524	2422.125709
941.638763	2420.618404
941.940964	2421.984557
942.243126	2421.929104
942.545250	2417.911304
942.847335	2419.990780
943.149381	2422.743250
943.451389	2416.078845
943.753359	2417.926428
944.055290	2419.040523
944.357182	2416.068763
944.659036	2418.264185
944.960851	2417.487848
945.262628	2416.956006
945.564367	2413.243196
945.866067	2418.223856
946.167729	2416.414082
946.469352	2414.334606
946.770937	2414.037178
947.072484	2413.396951
947.373992	2411.942578
947.675462	2416.310738
947.976893	2416.179668
948.278286	2413.704462
948.579641	2414.810995
948.880958	2415.257137
949.182236	2418.886768
949.483476	2416.041036
949.784678	2417.860893
950.085841	2416.277971
950.386967	2416.560275
950.688054	2414.503484
950.989103	2416.305697
951.290114	2416.300656
951.591087	2415.857034
951.892021	2418.105389
952.192917	2419.274937
952.493776	2419.668147
952.794596	2419.045564
953.095378	2418.077663
953.396122	2414.105233
953.696828	2416.751839
953.997496	2417.341654
954.298126	2417.818043
954.598718	2417.162693
954.899272	2414.730336
955.199788	2414.155645
955.500266	2415.942734
955.800706	2412.066087
956.101108	2406.893863
956.401472	2409.432084
956.701798	2407.798750
957.002087	2409.807650
957.302337	2409.863102
957.602550	2409.084244
957.902724	2410.248751
958.202861	2410.042063
958.502960	2410.105078
958.803022	2410.785633
959.103045	2407.589542
959.403031	2411.393092
959.702979	2410.052146
960.002889	2409.694224
960.302762	2405.406722
960.602596	2406.949315
960.902393	2408.060890
961.202153	2407.788668
961.501875	2406.445200
961.801559	2408.912845
962.101205	2405.689027
962.400814	2407.264388
962.700385	2402.666855
962.999918	2406.669531
963.299414	2405.469737
963.598873	2409.036353
963.898293	2408.413771
964.197677	2405.164747
964.497022	2404.375806
964.796331	2407.113153
965.095601	2403.448234
965.394835	2406.518297
965.694030	2406.961918
965.993189	2407.072824
966.292309	2402.954201
966.591393	2407.612227
966.890439	2406.740108
967.189447	2408.711199
967.488419	2405.981414
967.787353	2406.472926
968.086249	2407.564336
968.385108	2403.788512
968.683930	2405.898235
968.982714	2406.351939
969.281462	2408.406209
969.580172	2403.740621
969.878844	2407.266908
970.177480	2407.007289
970.476078	2406.404871
970.774639	2406.866136
971.073162	2407.471075
971.371649	2405.764644
971.670098	2401.951011
971.968510	2401.595610
972.266885	2402.014026
972.565223	2405.729356
972.863524	2408.733884
973.161788	2407.881929
973.460014	2405.426887
973.758204	2410.155489
974.056356	2409.265726
974.354471	2405.532751
974.652550	2405.469737
974.950591	2407.806312
975.248595	2406.016702
975.546563	2406.941754
975.844493	2408.370921
976.142386	2407.710530
976.440243	2409.306055
976.738062	2405.474778
977.035845	2405.893194
977.333590	2405.605848
977.631299	2406.011661
977.928971	2406.329253
978.226606	2404.998389
978.524204	2408.317989
978.821765	2403.586866
979.119290	2407.506363
979.416777	2405.774727
979.714228	2402.417318
980.011642	2405.220200
980.309020	2406.515776
980.606360	2406.377144
980.903664	2406.939233
981.200931	2406.659449
981.498162	2411.478792
981.795356	2410.160530
982.092513	2412.953330
982.389633	2411.819070
982.686717	2415.050450
982.983764	2422.592016
983.280775	2417.901222
983.577749	2417.376942
983.874686	2422.279464
984.171587	2419.040523
984.468451	2417.039185
984.765279	2417.462642
985.062070	2416.605646
985.358824	2414.561458
985.655543	2412.451735
985.952224	2410.828483
986.248869	2408.078534
986.545478	2405.686506
986.842050	2406.883780
987.138586	2403.720456
987.435086	2403.178532
987.731549	2402.308933
988.027975	2405.124418
988.324366	2401.746845
988.620719	2403.609551
988.917037	2404.496794
989.213318	2403.022257
989.509563	2404.075858
989.805772	2405.434449
990.101944	2403.145765
990.398080	2401.887997
990.694180	2402.921433
990.990244	2404.554767
991.286271	2403.725497
991.582262	2405.517628
991.878217	2404.920251
992.174136	2402.392112
992.470019	2402.150137
992.765865	2405.144582
993.061676	2403.244067
993.357450	2403.826321
993.653188	2402.298851
993.948890	2404.123749
994.244556	2404.789181
994.540186	2405.041239
994.835780	2405.013512
995.131337	2406.299007
995.426859	2407.602145
995.722345	2410.578946
996.017795	2408.323030
996.313208	2410.987280
996.608586	2410.026940
996.903928	2411.632547
997.199234	2410.097516
997.494504	2410.984759
997.789738	2409.966446
998.084936	2408.179357
998.380099	2410.798236
998.675225	2409.764800
998.970316	2409.253123
999.265371	2409.583318
999.560390	2407.715571
999.855373	2408.655746
1000.150320	2405.716753
1000.445232	2406.135169
1000.740108	2401.646022
1001.034948	2402.679458
1001.329752	2404.315313
1001.624521	2402.979407
1001.919254	2398.540671
1002.213951	2400.078223
1002.508613	2398.306257
1002.803239	2402.838254
1003.097829	2398.034035
1003.392384	2401.824983
1003.686903	2400.358007
1003.981386	2402.598800
1004.275834	2402.046793
1004.570246	2403.554098
1004.864623	2400.869684
1005.158964	2399.322050
1005.453270	2403.758265
1005.747540	2402.356824
1006.041775	2401.537637
1006.335974	2399.838768
1006.630138	2401.862791
1006.924266	2400.937739
1007.218359	2404.370765
1007.512416	2401.164591
1007.806438	2403.632236
1008.100425	2401.956053
1008.394376	2401.746845
1008.688292	2402.001423
1008.982172	2401.610733
1009.276017	2402.228275
1009.569827	2404.300189
1009.863602	2400.945301
1010.157341	2402.286248
1010.451045	2400.000085
1010.744714	2399.175856
1011.038347	2401.020918
1011.331945	2402.266083
1011.625508	2398.840619
1011.919036	2398.855743
1012.212528	2399.962276
1012.505986	2401.905641
1012.799408	2401.275497
1013.092795	2401.197359
1013.386147	2404.373286
1013.679464	2401.318347
1013.972745	2400.146278
1014.265992	2400.836916
1014.559204	2401.953532
1014.852380	2398.089487
1015.145521	2402.752555
1015.438628	2399.304406
1015.731699	2402.031670
1016.024736	2402.860940
1016.317737	2401.283058
1016.610703	2402.147616
1016.903635	2401.222565
1017.196531	2393.907850
1017.489393	2397.900444
1017.782219	2398.165105
1018.075011	2402.384551
1018.367768	2398.996895
1018.660490	2399.054868
1018.953177	2399.054868
1019.245829	2399.054868
