Dividing Wavelength (nm)	Counts (n)	Blue Motor Position (mm): 0.000000	Red Motor Position (mm): 48.600000	
326.493990	2001.597696
326.888308	2001.597696
327.282561	2001.597696
327.676750	1975.335805
328.070874	1975.991155
328.464933	1983.084059
328.858929	1993.022694
329.252859	2006.590959
329.646726	2021.159894
330.040528	2033.634229
330.434265	2054.381098
330.827938	2073.671073
331.221547	2092.270410
331.615091	2112.808071
332.008571	2134.991668
332.401986	2154.354740
332.795338	2176.959274
333.188625	2194.371419
333.581847	2216.544935
333.975006	2231.154198
334.368100	2251.099524
334.761129	2266.596031
335.154095	2282.894081
335.546996	2325.872438
335.939833	2412.867630
336.332606	2428.099476
336.725315	2439.840324
337.117960	2449.584874
337.510540	2456.299691
337.903056	2465.461988
338.295508	2473.633698
338.687896	2480.913125
339.080220	2490.148518
339.472480	2493.437871
339.864676	2492.984167
340.256807	2502.927843
340.648875	2501.279386
341.040879	2503.893224
341.432818	2505.506394
341.824694	2502.433810
342.216506	2506.025633
342.608253	2504.069665
342.999937	2502.958090
343.391557	2501.518841
343.783113	2500.833244
344.174605	2499.406597
344.566033	2497.541371
344.957397	2498.048007
345.348697	2496.850732
345.739934	2492.626246
346.131106	2491.494507
346.522215	2490.453508
346.913260	2490.801348
347.304241	2486.581902
347.695159	2486.241624
348.086012	2485.019144
348.476802	2480.240131
348.867528	2484.124340
349.258191	2479.826756
349.648789	2480.822384
350.039324	2477.643936
350.429796	2476.416415
350.820203	2477.994297
351.210548	2477.127218
351.600828	2477.379276
351.991045	2474.767958
352.381198	2476.013123
352.771288	2479.337764
353.161314	2476.245016
353.551276	2476.539924
353.941175	2473.386682
354.331010	2476.809625
354.720782	2476.260140
355.110490	2482.516212
355.500135	2478.639564
355.889717	2478.626961
356.279235	2478.752990
356.668689	2482.243989
357.058080	2479.123515
357.447408	2479.365490
357.836672	2478.271560
358.225873	2477.956488
358.615010	2474.987248
359.004084	2481.228197
359.393095	2481.709627
359.782043	2484.101654
360.170927	2485.016624
360.559748	2484.935965
360.948505	2488.076604
361.337199	2488.295894
361.725830	2488.868065
362.114398	2490.599702
362.502903	2492.822851
362.891344	2491.257572
363.279722	2493.422748
363.668037	2495.860146
364.056289	2494.932573
364.444478	2494.551966
364.832603	2491.703714
365.220665	2494.741010
365.608665	2497.808552
365.996601	2497.012049
366.384474	2498.456340
366.772284	2501.982627
367.160031	2501.347442
367.547715	2505.163595
367.935336	2504.281393
368.322893	2503.250477
368.710388	2505.365241
369.097820	2510.116529
369.485189	2504.982114
369.872495	2512.337157
370.259738	2513.529390
370.646918	2517.635410
371.034035	2515.843280
371.421090	2521.317973
371.808081	2526.142357
372.195010	2527.279137
372.581875	2533.169725
372.968678	2540.716333
373.355418	2550.584391
373.742096	2558.667882
374.128710	2570.267577
374.515262	2585.007910
374.901751	2598.719849
375.288177	2617.477982
375.674540	2637.471198
376.060841	2657.880310
376.447079	2683.295287
376.833254	2708.755634
377.219367	2733.086763
377.605417	2766.058430
377.991404	2794.551032
378.377329	2838.462002
378.763191	2869.757485
379.148991	2923.067687
379.534727	2974.484936
379.920402	3023.668953
380.306013	3072.333732
380.691563	3139.663383
381.077049	3195.854604
381.462474	3250.576329
381.847835	3328.603308
382.233134	3402.405801
382.618371	3467.960965
383.003545	3558.749626
383.388657	3643.216679
383.773706	3735.192531
384.158693	3811.177843
384.543618	3908.303233
384.928480	3988.712158
385.313280	4098.354733
385.698017	4201.940363
386.082692	4327.823015
386.467305	4392.982449
386.851856	4526.356257
387.236344	4684.403991
387.620770	4749.732304
388.005133	4876.633270
388.389435	5027.643554
388.773674	5116.234271
389.157851	5250.583542
389.541965	5388.766610
389.926018	5410.677985
390.310008	5596.883084
390.693936	5723.589966
391.077802	5845.061609
391.461606	5983.968083
391.845348	6096.589980
392.229027	6221.731583
392.612645	6453.571728
392.996200	6571.811991
393.379694	6753.558190
393.763125	6984.012018
394.146494	7076.675987
394.529801	7220.653862
394.913047	7481.326886
395.296230	7474.405382
395.679351	7529.905965
396.062410	7807.025754
396.445408	7696.926954
396.828343	7858.611881
397.211217	7999.045824
397.594028	7878.821867
397.976778	8087.739885
398.359466	8257.651975
398.742092	8227.891524
399.124656	8386.624855
399.507158	8578.029905
399.889598	8595.283254
400.271977	8807.606572
400.654294	8846.554527
401.036549	9048.669508
401.418742	9078.838293
401.800874	9398.157580
402.182944	9469.182397
402.564952	9848.451086
402.946898	9668.633128
403.328783	9725.842663
403.710606	9933.137429
404.092367	10199.794303
404.474067	10565.527494
404.855705	10351.132262
405.237282	10306.046703
405.618797	10743.044165
406.000250	10995.059008
406.381642	11374.962882
406.762972	11324.115284
407.144240	11116.843202
407.525447	11382.396063
407.906593	11318.093626
408.287677	11578.136506
408.668700	11746.901733
409.049661	11712.377391
409.430560	11883.476673
409.811399	11848.105418
410.192176	12022.163857
410.572891	12091.842685
410.953545	12606.710851
411.334138	12060.569887
411.714669	12687.581041
412.095139	11963.202522
412.475547	12495.518121
412.855894	12319.254177
413.236180	12666.456086
413.616405	12336.268071
413.996568	12628.455868
414.376670	12600.631220
414.756711	12470.413175
415.136691	12772.466510
415.516609	12959.566415
415.896466	13022.785004
416.276262	13319.174604
416.655997	13768.013736
417.035670	13796.317295
417.415283	14468.408967
417.794834	14566.512341
418.174324	14307.437362
418.553753	14201.376527
418.933121	14716.438777
419.312428	14506.946067
419.691674	14431.227936
420.070859	14883.447163
420.449983	14538.118042
420.829045	15097.320635
421.208047	14845.492315
421.586988	15309.104549
421.965867	15581.581435
422.344686	15572.116669
422.723444	16149.001109
423.102141	14805.037056
423.480777	16027.920156
423.859352	15526.602612
424.237866	16660.451373
424.616319	16353.805546
424.994712	17038.820216
425.373044	16819.605641
425.751314	17515.098349
426.129524	16615.048221
426.507673	17756.962828
426.885762	17418.298113
427.263789	17638.268861
427.641756	17813.542218
428.019662	17881.673413
428.397508	17922.950380
428.775292	18237.016786
429.153016	18188.160443
429.530679	18289.190207
429.908282	18301.200756
430.285824	18009.333072
430.663305	18737.043794
431.040726	18327.830652
431.418086	18149.605698
431.795385	18809.333941
432.172624	19230.058558
432.549802	18785.837122
432.926920	18971.081882
433.303977	18854.487556
433.680974	19127.040059
434.057910	19413.435571
434.434786	19437.260064
434.811601	19342.998048
435.188355	20406.656304
435.565050	20049.815709
435.941683	20004.525983
436.318257	20902.415976
436.694770	20697.215809
437.071222	21320.695634
437.447614	20367.269769
437.823946	20403.253525
438.200218	20554.866227
438.576429	20330.734007
438.952580	20598.157136
439.328670	20560.827392
439.704700	20994.069194
440.080670	20545.610669
440.456580	21152.759676
440.832429	21344.328564
441.208218	20298.601692
441.583947	20763.181828
441.959616	20861.214626
442.335224	21114.572936
442.710773	21240.750496
443.086261	21802.849232
443.461689	21153.984677
443.837057	21269.202768
444.212365	21926.596956
444.587612	21932.187596
444.962800	21496.679795
445.337927	21928.474786
445.712995	20622.868872
446.088002	22530.789327
446.462949	22726.275191
446.837837	22917.682761
447.212664	22874.399414
447.587431	25801.782329
447.962139	28805.253900
448.336786	31193.366944
448.711374	29585.019577
449.085901	25829.037328
449.460369	25785.096110
449.834776	25720.660082
450.209124	28273.770091
450.583412	27764.563141
450.957640	28299.358988
451.331808	26914.848934
451.705917	25526.038776
452.079965	25575.084162
452.453954	25938.332064
452.827883	25813.399668
453.201752	25605.174809
453.575562	25796.050537
453.949311	26947.014016
454.323001	27010.998861
454.696632	26750.351043
455.070202	28356.475261
455.443713	28484.923861
455.817164	29094.636295
456.190556	29638.377670
456.563888	29056.520131
456.937160	29505.306332
457.310373	27790.111709
457.683526	28290.168965
458.056619	28256.234437
458.429653	28188.690538
458.802628	28775.317008
459.175542	28909.376412
459.548398	30222.662524
459.921194	31810.230255
460.293930	32489.046826
460.666607	34558.536262
461.039224	36326.917578
461.411782	36721.171097
461.784280	35524.774220
462.156719	35057.091254
462.529099	34494.793392
462.901419	33195.589743
463.273680	32112.901132
463.645882	32193.088246
464.018024	32177.334640
464.390106	33022.983156
464.762130	35774.805368
465.134094	39891.136856
465.505999	45240.950470
465.877845	49839.075113
466.249631	51014.495750
466.621358	49351.580413
466.993026	47247.682581
467.364634	45165.960786
467.736184	43174.435315
468.107674	41905.894484
468.479105	41090.739907
468.850477	40403.993601
469.221790	38941.017988
469.593043	37169.370003
469.964238	36280.125588
470.335373	36196.603752
470.706449	37966.832651
471.077467	40607.714190
471.448425	45220.788375
471.819324	48003.918673
472.190164	46123.328833
472.560945	42542.546845
472.931667	39391.921473
473.302330	38275.973849
473.672934	37457.103942
474.043479	37976.977973
474.413965	37151.441140
474.784393	36772.220342
475.154761	37693.017339
475.525070	37704.518731
475.895321	37254.063909
476.265513	37853.787297
476.635645	38843.943009
477.005719	38659.091459
477.375734	39150.631685
477.745691	39845.297644
478.115588	41210.532846
478.485427	43212.639699
478.855207	46613.928884
479.224928	49210.397858
479.594591	50848.258660
479.964194	49867.328260
480.333739	50051.743750
480.703226	50086.870510
481.072653	50712.069369
481.442022	51178.194618
481.811333	51428.321548
482.180584	50159.528660
482.549777	49641.857613
482.918912	49109.869689
483.287988	48814.165686
483.657005	47989.483329
484.025964	47332.230293
484.394864	47386.193324
484.763706	46945.399873
485.132489	46063.646613
485.501213	45883.818573
485.869879	46029.727209
486.238487	45625.282998
486.607036	45824.600139
486.975527	45276.684689
487.343959	45478.847561
487.712333	45541.748558
488.080648	45472.346993
488.448905	45937.068281
488.817104	45769.192817
489.185244	46726.046667
489.553326	48436.701730
489.921350	51126.459777
490.289315	53942.982677
490.657222	54510.520818
491.025070	54785.813189
491.392861	53910.174848
491.760593	52708.575500
492.128267	51074.982034
492.495883	49570.608465
492.863440	48169.490330
493.230939	46799.897050
493.598380	45706.942128
493.965763	45365.587958
494.333088	44547.809460
494.700354	44056.690170
495.067563	43740.503960
495.434713	43612.604845
495.801805	43684.736195
496.168839	43291.937049
496.535815	42956.367602
496.902733	42990.327335
497.269593	42551.023545
497.636395	42493.405677
498.003139	42906.281218
498.369825	42343.393542
498.736453	42651.014832
499.103023	42189.663555
499.469535	42057.555077
499.835989	42154.647700
500.202385	41816.666061
500.568723	41836.041736
500.935003	42012.214940
501.301226	41814.551297
501.667390	42428.836058
502.033497	42719.466139
502.399546	42127.503608
502.765537	41425.253233
503.131470	41834.904956
503.497345	42175.785258
503.863163	40834.437564
504.228923	41453.060237
504.594625	41874.278888
504.960269	41163.793788
505.325856	41862.084337
505.691385	41213.950749
506.056856	41365.611342
506.422270	41785.010136
506.787625	41363.330219
507.152924	41568.928638
507.518164	41658.779643
507.883347	40862.297500
508.248472	41142.532722
508.613540	41611.423044
508.978550	41932.640326
509.343503	41661.363235
509.708398	41880.635783
510.073236	42417.470777
510.438016	42410.685384
510.802738	41862.689275
511.167403	42498.575380
511.532010	42737.342071
511.896561	43034.472719
512.261053	43905.211059
512.625488	43440.041108
512.989866	43319.151718
513.354186	43156.067871
513.718449	43150.913291
514.082655	43836.578270
514.446803	43505.934030
514.810894	44037.962283
515.174927	43951.826608
515.538904	43855.825395
515.902822	44533.071647
516.266684	43968.036438
516.630488	44411.128656
516.994235	44277.371721
517.357925	44863.400814
517.721558	45029.058171
518.085133	45334.589903
518.448651	45466.968082
518.812112	45236.310088
519.175516	45334.726014
519.538863	45691.964860
519.902152	45620.781248
520.265385	46107.434075
520.628560	46162.831315
520.991678	45943.589013
521.354739	46179.628439
521.717743	46505.775970
522.080690	46404.448777
522.443580	46960.672049
522.806413	47003.852052
523.169189	46943.080942
523.531908	47132.817370
523.894569	46991.637336
524.257174	47141.173083
524.619722	47465.417578
524.982213	47462.163513
525.344647	47374.238228
525.707025	47410.292560
526.069345	47794.577198
526.431608	47737.130729
526.793815	48067.911080
527.155964	47594.818956
527.518057	47753.675796
527.880093	47516.683592
528.242072	48062.164164
528.603995	47745.052902
528.965860	47746.313191
529.327669	47859.928195
529.689421	47737.725585
530.051117	47695.115232
530.412755	47857.027011
530.774337	47906.427798
531.135862	47702.603866
531.497331	47911.418541
531.858743	47809.078077
532.220098	48174.566772
532.581396	47885.068430
532.942638	47533.599183
533.303824	47832.895008
533.664953	47782.889282
534.026025	47512.174280
534.387040	47997.491202
534.747999	47937.118343
535.108902	48097.147251
535.469748	47603.131818
535.830537	47723.325529
536.191270	47913.858459
536.551947	47553.736073
536.912567	47878.343530
537.273131	48005.874640
537.633638	47471.020820
537.994089	47834.379628
538.354483	47416.747758
538.714821	47980.195003
539.075103	48352.108648
539.435328	48101.709496
539.795497	47994.552209
540.155609	47965.237899
540.515665	48434.816339
540.875665	47884.095487
541.235609	48209.953151
541.595496	48176.800003
541.955328	48853.927787
542.315102	48214.999346
542.674821	48020.579686
543.034483	48055.008246
543.394090	48012.438223
543.753640	47982.521495
544.113134	48981.622735
544.472571	47983.675919
544.831953	49256.491648
545.191278	48461.181573
545.550548	48153.666148
545.909761	48630.670207
546.268918	48836.724850
546.628019	49153.082459
546.987064	48708.160303
547.346053	47976.293150
547.704986	48868.547133
548.063863	48402.439528
548.422684	48600.435887
548.781449	48454.098752
549.140158	48852.251604
549.498811	48707.406651
549.857408	48125.339904
550.215949	48975.197784
550.574434	48902.474099
550.932864	48651.961520
551.291237	49389.250435
551.649555	48986.502572
552.007817	49222.148788
552.366022	48872.028050
552.724173	49047.810564
553.082267	49455.677719
553.440305	49753.388101
553.798288	49058.495290
554.156215	49369.504235
554.514086	49596.088977
554.871902	49335.819245
555.229661	49350.433550
555.587365	49167.192649
555.945014	49268.592938
556.302606	49176.095327
556.660143	49431.195355
557.017625	49514.747439
557.375050	49300.712650
557.732421	49650.581330
558.089735	49641.091357
558.446994	49554.265044
558.804197	50028.594771
559.161345	49970.404733
559.518437	49223.235156
559.875474	49514.195433
560.232455	49666.168577
560.589381	49846.518377
560.946251	49558.204706
561.303065	50246.733060
561.659825	50049.369366
562.016528	49727.993288
562.373177	49434.174677
562.729770	49921.482855
563.086307	49426.184448
563.442789	49886.744264
563.799216	49941.539086
564.155587	49737.999978
564.511904	49758.681312
564.868164	49854.480879
565.224370	50094.031469
565.580520	49816.934365
565.936615	50023.785511
566.292654	49757.259707
566.648638	50004.931595
567.004567	49960.259410
567.360441	50006.065855
567.716260	49866.640142
568.072023	50138.048304
568.427732	50126.375512
568.783385	49674.562098
569.138982	50060.996788
569.494525	50035.796060
569.850013	49799.953239
570.205445	49761.174163
570.560823	49722.828626
570.916145	49606.340163
571.271412	49642.238220
571.626625	49398.087578
571.981782	49453.895671
572.336884	49144.946037
572.691931	49476.865689
573.046923	49062.066947
573.401860	48904.372093
573.756743	48909.156148
574.111570	49031.177277
574.466342	48865.187204
574.821059	48975.406992
575.175722	48490.601747
575.530330	48511.661168
575.884882	48218.477742
576.239380	48198.368579
576.593823	48163.652673
576.948211	48095.604658
577.302544	47604.986963
577.656823	47634.394534
578.011047	47853.515848
578.365216	47579.249352
578.719330	47384.524702
579.073389	47231.059377
579.427394	47293.998182
579.781344	47266.428112
580.135239	46916.821572
580.489080	47011.451592
580.842866	46487.222003
581.196597	46924.229548
581.550273	46865.837863
581.903895	46725.792088
582.257463	47153.632295
582.610975	46518.850202
582.964434	46803.592216
583.317837	46461.759135
583.671186	46275.669982
584.024481	46500.659199
584.377721	46058.837352
584.730906	46344.718666
585.084037	46391.659370
585.437113	46086.992196
585.790135	46109.390043
586.143103	45709.490432
586.496016	45835.516757
586.848874	45885.570374
587.201679	45886.833183
587.554428	45373.749586
587.907124	45545.093364
588.259765	45313.752293
588.612352	45552.012347
588.964884	44937.402432
589.317362	45236.783956
589.669786	45178.409915
590.022155	44948.888701
590.374470	45377.084309
590.726731	44899.278706
591.078937	44403.037604
591.431090	44506.754303
591.783188	44171.749465
592.135232	43827.284903
592.487222	44081.482565
592.839157	44167.535061
593.191038	43838.287221
593.542866	43598.214872
593.894639	42983.670492
594.246358	43257.901699
594.598022	43252.013631
594.949633	42842.266126
595.301190	42779.536528
595.652692	42616.092238
596.004141	42949.660347
596.355535	41947.675567
596.706876	41893.561302
597.058162	41720.513613
597.409395	42211.015362
597.760573	42282.040179
598.111698	41846.517254
598.462768	41881.202913
598.813785	41929.887856
599.164748	41336.665036
599.515657	41746.863725
599.866511	41204.443132
600.217312	41832.462517
600.568060	40772.892637
600.918753	41538.071735
601.269392	41495.731084
601.619978	41136.279171
601.970510	41349.033507
602.320988	41540.120964
602.671412	41832.528052
603.021783	41580.616553
603.372100	41241.190623
603.722363	41355.188756
604.072572	41424.572677
604.422728	41431.441249
604.772830	41254.607654
605.122878	41358.180681
605.472872	41290.762810
605.822813	41558.349777
606.172701	41395.258367
606.522534	41642.655513
606.872314	41905.584453
607.222041	41641.884216
607.571714	42036.677139
607.921333	41461.116001
608.270899	41763.358380
608.620411	42120.619912
608.969870	41910.265165
609.319276	41902.645461
609.668627	41957.573873
610.017926	42458.142806
610.367171	42624.820996
610.716362	42711.722927
611.065500	42647.138184
611.414585	42825.874814
611.763616	43122.786173
612.112594	43055.796800
612.461518	43287.430258
612.810389	43550.664188
613.159207	43426.324128
613.507971	43494.835930
613.856682	43990.545190
614.205340	43862.716652
614.553945	44573.479015
614.902496	44012.859858
615.250994	44479.889994
615.599439	44564.500720
615.947830	44762.837357
616.296169	44816.127394
616.644454	44955.948837
616.992686	45108.683196
617.340864	45611.447551
617.688990	45324.056412
618.037063	45946.543130
618.385082	45899.894813
618.733048	46206.749847
619.080961	46214.069602
619.428821	46216.055817
619.776628	46361.593929
620.124382	46177.092739
620.472083	46321.423494
620.819731	46454.764534
621.167326	46129.514329
621.514868	46083.728049
621.862357	45668.624318
622.209793	45706.984978
622.557176	45370.256066
622.904506	45135.229912
623.251783	44787.949865
623.599007	44561.919650
623.946179	44339.566956
624.293297	44282.324654
624.640363	43671.699771
624.987376	43665.368082
625.334336	43398.247422
625.681243	43023.102397
626.028097	42977.351405
626.374899	42835.246319
626.721647	42790.763178
627.068343	42672.233048
627.414987	42437.935341
627.761577	42197.986500
628.108115	42526.344576
628.454600	41958.597227
628.801032	42140.003148
629.147412	42118.306022
629.493739	42113.645476
629.840014	41715.033879
630.186236	42055.405025
630.532405	41659.243430
630.878521	41867.465769
631.224585	41764.162444
631.570597	41461.244551
631.916556	41625.893676
632.262462	41569.573906
632.608316	41567.348236
632.954117	41468.990283
633.299866	41473.620583
633.645562	41384.319063
633.991206	40888.713147
634.336797	40446.359458
634.682336	40459.451335
635.027823	40209.374816
635.373257	40022.998317
635.718639	39774.030852
636.063968	39653.645578
636.409245	39048.439935
636.754470	39113.049883
637.099642	38847.154224
637.444762	38340.828293
637.789829	38498.266048
638.134845	38135.156778
638.479808	38074.567150
638.824719	37970.051428
639.169577	37572.629544
639.514383	37629.879407
639.859137	37322.716862
640.203839	37563.187462
640.548489	37175.714296
640.893086	37250.341017
641.237632	36988.095152
641.582125	37093.722449
641.926566	37029.069651
642.270955	36982.224729
642.615292	36991.308888
642.959576	36953.326314
643.303809	36965.909034
643.647990	37099.280321
643.992118	37059.591317
644.336195	37037.387555
644.680219	37129.507079
645.024192	37423.897861
645.368112	37943.998745
645.711981	37932.681354
646.055797	38826.898868
646.399562	38741.234540
646.743274	39724.181402
647.086935	40171.919043
647.430544	40063.778731
647.774101	40178.540598
648.117606	40428.841449
648.461059	40770.079673
648.804460	40397.440101
649.147810	39756.679201
649.491108	39525.867451
649.834354	39146.618927
650.177548	38290.691498
650.520690	37831.465067
650.863781	37857.918522
651.206820	37697.193935
651.549807	37242.983453
651.892742	36748.337875
652.235626	36537.426081
652.578458	36404.019506
652.921238	35769.401251
653.263967	36087.072081
653.606644	35757.799036
653.949269	35716.290175
654.291843	35297.251823
654.634365	35698.326023
654.976836	35283.350841
655.319255	35269.979181
655.661622	35279.285151
656.003938	35032.056884
656.346203	34893.578908
656.688416	35114.474708
657.030577	34915.369296
657.372687	34752.746714
657.714746	35042.693718
658.056753	35159.194784
658.398708	34593.274853
658.740612	34638.249507
659.082465	34930.802788
659.424266	34711.497473
659.766016	34846.955797
660.107715	34722.721602
660.449362	34858.237899
660.790958	34829.158003
661.132503	34864.877099
661.473996	34887.080861
661.815438	34996.297459
662.156829	35216.792487
662.498168	34970.948017
662.839456	34986.298330
663.180693	35137.008666
663.521879	35286.637674
663.863013	35242.184779
664.204097	35243.442547
664.545129	35706.119647
664.886110	35648.592520
665.227040	35706.306170
665.567918	35822.348490
665.908746	35907.352426
666.249522	36064.180202
666.590248	36066.776396
666.930922	36196.964194
667.271545	36149.012739
667.612118	36237.631182
667.952639	36004.210636
668.293109	36063.121559
668.633528	35974.949258
668.973896	35904.678094
669.314213	35943.265606
669.654480	35681.012180
669.994695	35705.799534
670.334859	35569.063277
670.674973	35476.527857
671.015035	35646.661758
671.355047	35591.718222
671.695008	35521.719280
672.034918	35414.128454
672.374777	35485.407849
672.714585	35311.825799
673.054342	35534.861568
673.394049	35296.719981
673.733705	35588.975834
674.073310	35240.485910
674.412864	35325.237789
674.752368	34899.056122
675.091820	35230.370835
675.431223	34801.242614
675.770574	34522.769275
676.109875	34378.251998
676.449125	34083.326853
676.788324	34009.799104
677.127473	33444.766416
677.466571	33382.248547
677.805619	33011.328009
678.144616	33011.537217
678.483562	32924.395831
678.822458	32578.774323
679.161303	32501.269104
679.500098	32399.319329
679.838842	32266.442075
680.177535	32433.649587
680.516179	32687.580068
680.854771	32928.179217
681.193314	33793.629386
681.531805	34917.302578
681.870247	35684.906472
682.208638	36426.931550
682.546978	36670.051277
682.885268	36783.396580
683.223508	36272.221059
683.561697	35929.041991
683.899836	35746.363178
684.237925	35220.265842
684.575963	35069.573151
684.913951	34575.963531
685.251889	34735.294239
685.589776	34712.288934
685.927614	34679.796177
686.265401	34806.185465
686.603137	34870.268613
686.940824	35378.701746
687.278460	35745.775884
687.616046	35877.586933
687.953582	36491.100398
688.291068	36352.269541
688.628504	36663.412077
688.965889	36611.168079
689.303224	36240.030771
689.640510	35926.276918
689.977745	35185.363413
690.314930	34406.653858
690.652065	33896.221908
690.989150	33146.075530
691.326185	32220.673439
691.663170	31519.464063
692.000105	30734.712685
692.336990	30019.879590
692.673825	29554.724763
693.010610	29013.929943
693.347345	28412.432069
693.684030	27701.147946
694.020665	27406.842864
694.357251	26722.838946
694.693786	26639.675031
695.030272	26402.917240
695.366707	25842.711457
695.703093	25528.471133
696.039429	25509.397927
696.375716	25221.323711
696.711952	25185.778535
697.048139	25002.830021
697.384276	24816.798841
697.720363	24941.552275
698.056400	24718.024993
698.392388	24506.621686
698.728326	24471.419309
699.064214	24267.847434
699.400053	24204.134811
699.735842	23857.368962
700.071581	23547.582496
700.407270	23260.135904
700.742910	23065.678435
701.078501	22787.048821
701.414042	22491.483451
701.749533	22182.412829
702.084974	21819.825318
702.420366	22038.855891
702.755709	21561.012479
703.091002	21253.567630
703.426246	21275.005137
703.761440	21171.353972
704.096584	20894.166128
704.431679	20830.766057
704.766725	20722.028368
705.101721	20672.403250
705.436668	20755.362998
705.771565	20402.578011
706.106413	20769.246336
706.441212	20743.251626
706.775961	20860.075325
707.110661	20926.744585
707.445311	21289.422837
707.779913	21095.840008
708.114465	21341.591217
708.448967	21621.508846
708.783421	22337.511489
709.117825	22600.037137
709.452180	22819.027381
709.786485	23215.897258
710.120742	24036.667681
710.454949	24035.954357
710.789107	24499.594318
711.123216	25219.549225
711.457275	25341.837535
711.791286	25915.299032
712.125247	26002.102660
712.459159	25711.893515
712.793023	26437.446624
713.126837	25299.910258
713.460602	25606.069614
713.794318	25244.739871
714.127985	24870.444280
714.461602	23957.390495
714.795171	23932.729171
715.128691	22878.228171
715.462162	22323.837359
715.795584	21888.624465
716.128957	21626.902881
716.462281	21205.348993
716.795556	20956.346240
717.128782	20427.410735
717.461960	19860.817810
717.795088	19778.329409
718.128167	19362.716522
718.461198	18873.318786
718.794180	18717.867245
719.127113	18349.338734
719.459997	18140.919790
719.792833	17768.383562
720.125619	17731.678921
720.458357	17375.622225
720.791046	17201.117643
721.123686	17034.295780
721.456278	16776.390350
721.788821	16727.188688
722.121315	16456.750949
722.453761	16525.887853
722.786158	16440.465501
723.118506	16454.000999
723.450805	16304.145140
723.783056	16465.504912
724.115259	16358.214035
724.447412	16269.572907
724.779518	16515.924013
725.111574	16536.537291
725.443582	16736.880306
725.775542	16708.906944
726.107453	17195.784103
726.439315	17069.956903
726.771129	17476.410014
727.102895	17860.694651
727.434612	18071.913956
727.766281	18200.975056
728.097901	18480.804465
728.429473	18530.989152
728.760996	18511.268158
729.092471	18614.904198
729.423897	18503.484616
729.755276	18364.628554
730.086606	18485.893510
730.417887	19015.411269
730.749120	19522.672333
731.080305	19695.273879
731.411442	20050.468538
731.742530	20128.389653
732.073570	20241.077086
732.404562	20576.369269
732.735506	20400.251518
733.066401	20121.465628
733.397249	19586.571479
733.728048	18939.597356
734.058798	18089.124455
734.389501	17365.844907
734.720156	16884.177781
735.050762	16328.236814
735.381320	15942.999399
735.711831	15691.279464
736.042293	15306.646987
736.372707	15304.091122
736.703073	15076.866153
737.033391	15258.067908
737.363661	15207.056472
737.693883	15298.336645
738.024056	15460.513085
738.354182	15639.355579
738.684260	15916.513176
739.014290	16143.365099
739.344272	16331.778224
739.674207	16622.350332
740.004093	16748.858088
740.333931	16734.674802
740.663722	16809.205741
740.993464	16810.241698
741.323159	16633.917260
741.652806	16375.474946
741.982405	16156.056204
742.311956	15827.446070
742.641460	15719.184771
742.970915	15395.381377
743.300323	15051.317586
743.629683	14837.519731
743.958996	14550.920052
744.288260	14277.729843
744.617477	13965.279128
744.946647	13889.898754
745.275768	13601.524589
745.604842	13414.762442
745.933869	13230.563722
746.262847	13179.761494
746.591778	13105.946399
746.920662	12992.248215
747.249498	12981.918891
747.578286	13098.155296
747.907027	13240.585536
748.235720	13459.459833
748.564365	13488.116272
748.892963	13375.814488
749.221514	13433.611317
749.550017	13287.420376
749.878473	13251.476949
750.206881	13027.344728
750.535242	12926.579624
750.863555	12835.012106
751.191821	12728.084192
751.520039	12761.391095
751.848210	12648.290288
752.176334	12686.945856
752.504411	12573.640882
752.832440	12404.623596
753.160421	12474.519194
753.488356	12335.839573
753.816243	12247.563928
754.144082	12099.122112
754.471875	12029.077799
754.799620	11969.415744
755.127318	11941.949017
755.454969	11907.349058
755.782572	11855.762930
756.110129	11868.736340
756.437638	11777.836774
756.765100	11766.342943
757.092515	11761.705082
757.419882	11784.786005
757.747203	11780.783328
758.074477	11856.476253
758.401703	11800.315279
758.728882	11971.001187
759.056014	12010.536436
759.383099	12127.415587
759.710138	12221.942263
760.037129	12315.858959
760.364073	12332.766989
760.690970	12310.361581
761.017820	12322.175525
761.344623	12517.121986
761.671379	12867.865306
761.998088	13527.288558
762.324751	15144.866278
762.651366	18095.851875
762.977935	21811.988844
763.304456	24096.377627
763.630931	24621.343224
763.957359	23469.873110
764.283740	21547.592928
764.610074	19640.504263
764.936362	17431.516018
765.262602	15862.144332
765.588796	14328.428727
765.914943	13280.264458
766.241044	12353.299609
766.567097	11698.279805
766.893104	11112.354055
767.219064	10735.868083
767.544978	10325.618983
767.870845	9995.672943
768.196665	9790.379514
768.522438	9590.296118
768.848165	9415.073172
769.173846	9243.363910
769.499479	9118.330692
769.825066	8955.758522
770.150607	8757.772246
770.476101	8694.936783
770.801548	8578.415553
771.126949	8430.014067
771.452303	8341.146086
771.777611	8171.213831
772.102872	8154.179772
772.428087	8030.981534
772.753256	7895.187973
773.078378	7810.932648
773.403453	7652.592526
773.728482	7545.757873
774.053465	7477.510733
774.378401	7385.202164
774.703291	7282.909591
775.028135	7177.680546
775.352932	7142.977243
775.677683	7056.239150
776.002388	6957.472863
776.327046	6959.852288
776.651658	6866.744697
776.976224	6788.437934
777.300743	6773.987466
777.625216	6696.343615
777.949643	6656.377347
778.274024	6656.276524
778.598359	6586.043169
778.922647	6585.155926
779.246889	6542.497682
779.571086	6541.766714
779.895236	6557.429579
780.219339	6545.847528
780.543397	6543.236211
780.867409	6597.073213
781.191374	6589.685402
781.515294	6554.414969
781.839167	6608.304904
782.162995	6583.084011
782.486776	6539.669594
782.810511	6495.496484
783.134201	6416.148722
783.457844	6407.714872
783.781441	6359.080340
784.104993	6313.677188
784.428498	6291.826307
784.751958	6269.279746
785.075372	6244.550366
785.398739	6199.585794
785.722061	6227.044959
786.045337	6225.502366
786.368568	6339.256003
786.691752	6360.196956
787.014891	6616.232118
787.337983	6888.189766
787.661030	7342.997624
787.984031	7776.801516
788.306987	8045.232876
788.629897	8134.539437
788.952760	8062.312305
789.275579	7891.026500
789.598351	7580.735919
789.921078	7318.790004
790.243759	7026.594644
790.566395	6817.109496
790.888984	6614.011490
791.211529	6474.610983
791.534027	6303.708306
791.856480	6155.231202
792.178888	6089.469350
792.501249	6017.567373
792.823566	5903.559158
793.145836	5903.339868
793.468062	5880.284151
793.790241	5833.527449
794.112375	5881.282299
794.434464	5979.587320
794.756507	6004.626731
795.078505	6119.386078
795.400457	6342.197516
795.722364	6579.996305
796.044226	6776.576099
796.366042	6943.128260
796.687812	6899.234934
797.009538	6935.682476
797.331218	6839.983732
797.652852	6777.249093
797.974442	6657.201576
798.295986	6581.067550
798.617484	6453.574248
798.938938	6340.838925
799.260346	6265.672801
799.581709	6127.910669
799.903026	6070.822122
800.224299	6003.268140
800.545526	5872.684611
800.866708	5805.503675
801.187845	5753.562146
801.508936	5673.362429
801.829983	5642.777749
802.150984	5526.611920
802.471940	5500.307180
802.792851	5482.176670
803.113717	5454.659532
803.434538	5431.243372
803.755314	5391.420777
804.076045	5380.249580
804.396731	5341.447819
804.717372	5353.115570
805.037967	5356.067165
805.358518	5380.869642
805.679024	5435.838384
805.999485	5439.062202
806.319901	5457.457372
806.640272	5475.923118
806.960598	5526.926992
807.280879	5516.143964
807.601115	5556.095109
807.921306	5522.480695
808.241453	5517.343759
808.561554	5527.957908
808.881611	5498.217621
809.201623	5496.866592
809.521590	5450.200631
809.841513	5438.341317
810.161390	5455.017453
810.481223	5366.550245
810.801011	5355.610941
811.120755	5325.759748
811.440453	5273.936687
811.760107	5250.575980
812.079716	5222.867278
812.399281	5171.623949
812.718801	5162.592722
813.038276	5127.561744
813.357707	5091.860292
813.677093	5115.604127
813.996434	5055.377462
814.315731	5074.322118
814.634983	5070.989915
814.954191	5075.952931
815.273354	5140.812417
815.592473	5181.925547
815.911547	5259.657618
816.230577	5323.337474
816.549562	5412.190331
816.868502	5470.884485
817.187399	5531.539648
817.506250	5620.011898
817.825058	5648.764119
818.143821	5820.614533
818.462539	5990.819011
818.781213	6234.710034
819.099843	6606.742146
819.418429	7257.358503
819.736970	7904.025115
820.055466	8650.501533
820.373919	9630.012849
820.692327	11193.357835
821.010691	14069.255446
821.329011	20631.027980
821.647286	30515.087256
821.965517	41076.725500
822.283704	46618.168495
822.601847	48166.511008
822.919945	43617.933345
823.237999	38494.452415
823.556010	33202.344890
823.873976	28345.346914
824.191897	23951.850267
824.509775	20714.600228
824.827609	17791.766954
825.145398	16130.658871
825.463144	15323.444112
825.780845	15635.010104
826.098502	16935.287519
826.416116	19425.420914
826.733685	21696.856452
827.051210	22139.739462
827.368692	20641.957201
827.686129	18036.865334
828.003522	15488.917466
828.320872	13219.505951
828.638177	11475.586833
828.955439	10169.925467
829.272656	9057.645282
829.589830	8181.192795
829.906960	7409.465238
830.224046	6845.798703
830.541088	6419.243991
830.858086	6145.894985
831.175041	5927.970946
831.491952	5860.124577
831.808819	5893.663373
832.125642	6157.414022
832.442421	6737.290387
832.759157	7911.480982
833.075849	9721.315707
833.392497	11604.025351
833.709101	12739.741860
834.025662	12472.243113
834.342179	11401.859958
834.658653	10067.685826
834.975083	8931.439996
835.291469	7992.207499
835.607811	7216.144550
835.924110	6663.709705
836.240366	6154.089381
836.556578	5680.049520
836.872746	5308.052695
837.188871	5020.626268
837.504952	4784.120535
837.820990	4610.745172
838.136984	4486.102643
838.452935	4434.244293
838.768842	4475.569152
839.084706	4769.002115
839.400526	5535.343199
839.716303	6475.286498
840.032037	7055.021711
840.347727	6900.527990
840.663373	6284.100738
840.978977	5689.607548
841.294537	5226.456579
841.610054	4874.485738
841.925527	4621.379486
842.240957	4405.517278
842.556344	4208.367834
842.871687	4037.296278
843.186987	3879.402298
843.502244	3749.504367
843.817458	3662.362981
844.132629	3582.616968
844.447756	3532.124772
844.762840	3480.624344
845.077881	3442.835855
845.392879	3402.410842
845.707833	3376.285062
846.022745	3347.870598
846.337613	3336.754854
846.652438	3309.323416
846.967221	3300.662713
847.281960	3278.302675
847.596656	3267.287754
847.911309	3253.255702
848.225919	3241.598034
848.540485	3231.190572
848.855009	3223.941393
849.169490	3211.620813
849.483928	3199.726210
849.798323	3194.523740
850.112675	3183.271884
850.426984	3185.830270
850.741251	3174.790143
851.055474	3171.321829
851.369654	3175.422808
851.683792	3170.099349
851.997887	3174.076820
852.311938	3174.923733
852.625947	3172.713187
852.939914	3165.113648
853.253837	3172.393074
853.567718	3171.157992
853.881555	3163.830674
854.195350	3168.007270
854.509103	3165.867301
854.822812	3162.950993
855.136479	3158.171979
855.450103	3162.383863
855.763685	3155.026299
856.077224	3157.125940
856.390720	3164.017197
856.704173	3175.228723
857.017584	3181.081503
857.330953	3186.415044
857.644278	3193.371836
857.957561	3197.727393
858.270802	3198.060109
858.584000	3194.027186
858.897155	3194.657330
859.210268	3180.998324
859.523339	3169.456602
859.836367	3167.624143
860.149352	3159.850683
860.462295	3155.916063
860.775195	3146.131183
861.088054	3142.292345
861.400869	3144.765031
861.713642	3140.091881
862.026373	3146.410967
862.339062	3149.450783
862.651708	3158.252638
862.964312	3176.216789
863.276873	3184.723737
863.589392	3216.772872
863.901869	3240.045359
864.214303	3263.542177
864.526696	3281.145886
864.839045	3302.454843
865.151353	3315.617296
865.463619	3321.656598
865.775842	3319.120898
866.088023	3323.514264
866.400162	3317.951350
866.712258	3321.633913
867.024313	3321.268430
867.336325	3318.768017
867.648296	3325.107268
867.960224	3319.130980
868.272110	3324.499809
868.583954	3319.120898
868.895755	3332.127075
869.207515	3327.602639
869.519233	3348.720033
869.830909	3354.411496
870.142542	3368.055378
870.454134	3371.395143
870.765684	3388.086403
871.077191	3407.250350
871.388657	3421.443718
871.700081	3436.957869
872.011463	3461.170531
872.322803	3478.224755
872.634101	3498.006242
872.945357	3517.129859
873.256571	3547.611196
873.567744	3563.150553
873.878874	3570.228333
874.189963	3586.039912
874.501010	3591.665840
874.812015	3587.708534
875.122979	3607.434569
875.433900	3603.449537
875.744780	3609.445989
876.055618	3616.007051
876.366415	3614.877832
876.677169	3623.276395
876.987882	3644.958397
877.298554	3667.903209
877.609183	3708.101370
877.919771	3765.676388
878.230317	3837.028880
878.540822	3949.524748
878.851285	4112.795118
879.161707	4353.245554
879.472087	4756.101802
879.782425	5433.705976
880.092722	6699.002823
880.402977	8742.467302
880.713191	11207.417613
881.023363	13668.902131
881.333494	15029.910326
881.643583	15521.790830
881.953631	15133.120389
882.263637	14290.851966
882.573602	13253.420313
882.883526	12245.499575
883.193408	11245.049827
883.503248	10283.704309
883.813048	9408.648222
884.122806	8601.289789
884.432522	7779.561548
884.742197	7077.590957
885.051831	6474.384132
885.361424	5943.613646
885.670975	5519.544223
885.980485	5169.030275
886.289954	4878.347262
886.599382	4648.838651
886.908768	4452.238692
887.218113	4279.473309
887.527417	4130.426554
887.836680	4000.926873
888.145901	3893.283115
888.455082	3811.845796
888.764221	3736.866194
889.073319	3672.435207
889.382376	3636.746358
889.691392	3610.204683
890.000366	3599.209926
890.309300	3590.821446
890.618193	3594.360336
890.927044	3592.253134
891.235855	3594.569544
891.544625	3616.238944
891.853353	3642.089981
892.162041	3709.664128
892.470687	3806.819765
892.779293	3935.747275
893.087858	4125.645020
893.396381	4420.837345
893.704864	4863.987535
894.013306	5453.696671
894.321707	6039.458583
894.630068	6401.733543
894.938387	6435.791578
895.246665	6258.184167
895.554903	5932.374393
895.863100	5584.988482
896.171256	5303.687056
896.479371	5050.598448
896.787446	4815.897448
897.095480	4605.885500
897.403473	4445.294503
897.711425	4291.655257
898.019336	4164.429137
898.327207	4033.522974
898.635038	3928.339299
898.942827	3814.323523
899.250576	3724.469997
899.558284	3634.127478
899.865952	3576.113880
900.173579	3511.017460
900.481165	3464.217909
900.788711	3419.843152
901.096216	3386.503481
901.403681	3351.815301
901.711105	3340.170236
902.018489	3334.814010
902.325832	3374.918909
902.633135	3431.818413
902.940397	3621.832104
903.247619	4051.950912
903.554800	4850.182336
903.861941	5863.003075
904.169041	6593.453665
904.476101	6820.724004
904.783121	6543.263937
905.090100	6132.377131
905.397039	5702.064239
905.703938	5320.642977
906.010796	4978.225123
906.317614	4705.715469
906.624391	4445.586890
906.931129	4237.311618
907.237826	4038.117986
907.544483	3859.482179
907.851099	3672.084846
908.157675	3504.751306
908.464211	3353.614993
908.770707	3244.358066
909.077163	3156.967143
909.383578	3094.683688
909.689954	3048.965463
909.996289	3014.776358
910.302584	2989.994046
910.608839	2975.732622
910.915054	2963.180148
911.221229	2955.941052
911.527363	2962.003039
911.833458	2970.265490
912.139513	2980.826708
912.445527	2996.214830
912.751502	3035.586241
913.057436	3084.455187
913.363331	3146.922644
913.669186	3244.300093
913.975000	3370.437324
914.280775	3570.427458
914.586510	3865.776059
914.892205	4264.707769
915.197859	4789.406185
915.503475	5396.812291
915.809050	5902.601339
916.114585	6189.551377
916.420081	6254.738538
916.725536	6195.956163
917.030952	5948.727897
917.336328	5742.312811
917.641665	5518.500704
917.946961	5283.174601
918.252218	5075.531995
918.557435	4837.639945
918.862612	4626.813850
919.167750	4443.915747
919.472848	4242.385540
919.777906	4063.409455
920.082925	3896.345616
920.387904	3734.133888
920.692843	3618.119294
920.997743	3510.097450
921.302603	3409.717994
921.607423	3339.633353
921.912204	3268.580810
922.216946	3213.082747
922.521647	3162.746826
922.826310	3120.852317
923.130932	3076.825400
923.435516	3035.530788
923.740059	3005.977024
924.044564	2973.048207
924.349028	2945.208435
924.653454	2911.906573
924.957840	2884.465052
925.262186	2863.559387
925.566493	2840.203721
925.870761	2810.337405
926.174989	2801.409522
926.479178	2784.657767
926.783328	2766.237391
927.087438	2757.165835
927.391509	2740.794688
927.695541	2728.292626
927.999533	2717.265102
928.303486	2708.387630
928.607400	2699.139633
928.911275	2696.145188
929.215110	2687.492047
929.518906	2680.363856
929.822663	2684.021213
930.126381	2684.416944
930.430060	2684.724454
930.733699	2688.684280
931.037299	2690.781400
931.340861	2691.797193
931.644383	2694.794159
931.947866	2691.555217
932.251309	2689.432892
932.554714	2685.606656
932.858080	2686.730833
933.161407	2682.597087
933.464694	2678.163392
933.767943	2676.618279
934.071153	2669.290962
934.374323	2666.099911
934.677455	2661.799807
934.980548	2660.577327
935.283602	2655.871410
935.586617	2655.485762
935.889593	2660.105979
936.192530	2660.345434
936.495428	2666.417504
936.798287	2674.669873
937.101108	2691.683767
937.403890	2711.308979
937.706632	2738.921899
938.009336	2769.912392
938.312002	2802.190900
938.614628	2827.610919
938.917216	2847.248733
939.219765	2856.592512
939.522275	2870.397712
939.824747	2873.689585
940.127179	2863.599716
940.429573	2857.129395
940.731929	2858.256093
941.034246	2848.100688
941.336524	2848.834176
941.638763	2844.181191
941.940964	2836.193483
942.243126	2818.355360
942.545250	2809.306489
942.847335	2794.157822
943.149381	2777.970677
943.451389	2765.556835
943.753359	2753.833632
944.055290	2743.592528
944.357182	2730.165415
944.659036	2726.971844
944.960851	2723.311966
945.262628	2717.645709
945.564367	2717.071018
945.866067	2716.559341
946.167729	2717.280226
946.469352	2713.572457
946.770937	2711.198073
947.072484	2704.558874
947.373992	2703.714481
947.675462	2701.526620
947.976893	2696.031762
948.278286	2692.893644
948.579641	2687.696214
948.880958	2685.397448
949.182236	2684.444670
949.483476	2680.943589
949.784678	2681.419978
950.085841	2681.246058
950.386967	2685.241172
950.688054	2692.563448
950.989103	2697.382791
951.290114	2707.006354
951.591087	2718.956409
951.892021	2729.479818
952.192917	2742.851478
952.493776	2755.184661
952.794596	2759.247831
953.095378	2760.001484
953.396122	2758.290012
953.696828	2755.235073
953.997496	2747.945564
954.298126	2739.799060
954.598718	2734.379819
954.899272	2722.941441
955.199788	2711.276211
955.500266	2698.461598
955.800706	2681.838393
956.101108	2662.830723
956.401472	2653.330668
956.701798	2639.046559
957.002087	2622.985443
957.302337	2614.899432
957.602550	2603.519027
957.902724	2588.438416
958.202861	2577.831828
958.502960	2571.840417
958.803022	2565.380178
959.103045	2553.503219
959.403031	2547.300080
959.702979	2541.906045
960.002889	2538.533513
960.302762	2533.356248
960.602596	2526.180166
960.902393	2525.577748
961.202153	2520.662623
961.501875	2516.443177
961.801559	2515.268588
962.101205	2514.220028
962.400814	2507.890859
962.700385	2507.762310
962.999918	2505.455982
963.299414	2502.466578
963.598873	2501.763337
963.898293	2499.492297
964.197677	2499.991371
964.497022	2497.579179
964.796331	2496.470125
965.095601	2495.799652
965.394835	2496.233191
965.694030	2495.497183
965.993189	2492.033910
966.292309	2494.264621
966.591393	2491.592809
966.890439	2492.235556
967.189447	2493.710094
967.488419	2491.242449
967.787353	2496.011380
968.086249	2490.690443
968.385108	2492.457367
968.683930	2494.156236
968.982714	2493.679847
969.281462	2496.888541
969.580172	2496.981802
969.878844	2497.644714
970.177480	2502.958090
970.476078	2507.283400
970.774639	2510.645850
971.073162	2511.427229
971.371649	2510.940758
971.670098	2512.649709
971.968510	2516.493588
972.266885	2511.316323
972.565223	2521.343178
972.863524	2519.707324
973.161788	2523.170597
973.460014	2524.705628
973.758204	2526.016328
974.056356	2526.966586
974.354471	2526.500279
974.652550	2524.372912
974.950591	2528.753675
975.248595	2527.982378
975.546563	2526.359127
975.844493	2523.107582
976.142386	2517.595081
976.440243	2520.095493
976.738062	2517.189268
977.035845	2512.755573
977.333590	2510.792043
977.631299	2508.095026
977.928971	2509.972856
978.226606	2506.121414
978.524204	2503.305930
978.821765	2504.992196
979.119290	2501.130672
979.416777	2501.826351
979.714228	2502.396002
980.011642	2502.126300
980.309020	2508.213493
980.606360	2512.203567
980.903664	2523.309228
981.200931	2537.298430
981.498162	2560.303736
981.795356	2591.213571
982.092513	2631.431896
982.389633	2677.462672
982.686717	2721.499671
982.983764	2753.445463
983.280775	2775.457662
983.577749	2774.832558
983.874686	2766.149171
984.171587	2748.250554
984.468451	2730.263717
984.765279	2713.085986
985.062070	2693.564117
985.358824	2674.190963
985.655543	2646.661222
985.952224	2626.509209
986.248869	2596.970568
986.545478	2567.744479
986.842050	2545.782692
987.138586	2524.713190
987.435086	2512.163237
987.731549	2496.205465
988.027975	2494.385608
988.324366	2485.571151
988.620719	2482.455718
988.917037	2477.517908
989.213318	2473.752166
989.509563	2472.285190
989.805772	2470.830817
990.101944	2469.205045
990.398080	2469.721763
990.694180	2467.947277
990.990244	2468.703450
991.286271	2467.987606
991.582262	2468.274952
991.878217	2470.185549
992.174136	2469.578090
992.470019	2470.193111
992.765865	2472.852320
993.061676	2475.254429
993.357450	2477.407002
993.653188	2478.979842
993.948890	2488.517705
994.244556	2493.725217
994.540186	2503.124448
994.835780	2516.105420
995.131337	2533.232740
995.426859	2550.677653
995.722345	2572.231106
996.017795	2590.550659
996.313208	2605.875767
996.608586	2617.518312
996.903928	2617.026799
997.199234	2616.908332
997.494504	2613.180399
997.789738	2609.336519
998.084936	2595.911926
998.380099	2586.242993
998.675225	2570.885118
998.970316	2557.132850
999.265371	2541.981662
999.560390	2525.744106
999.855373	2516.428053
1000.150320	2506.312978
1000.445232	2495.819817
1000.740108	2489.195740
1001.034948	2484.141984
1001.329752	2476.479430
1001.624521	2471.244192
1001.919254	2464.766309
1002.213951	2465.000722
1002.508613	2459.851184
1002.803239	2460.408231
1003.097829	2454.938579
1003.392384	2457.416307
1003.686903	2453.950513
1003.981386	2456.859259
1004.275834	2453.673250
1004.570246	2450.288115
1004.864623	2453.345575
1005.158964	2448.702672
1005.453270	2449.368104
1005.747540	2450.842642
1006.041775	2450.336006
1006.335974	2446.212342
1006.630138	2446.111519
1006.924266	2447.732250
1007.218359	2446.708896
1007.512416	2444.339553
1007.806438	2447.119750
1008.100425	2445.206632
1008.394376	2445.809050
1008.688292	2445.786365
1008.982172	2444.082455
1009.276017	2447.563371
1009.569827	2443.548092
1009.863602	2444.949533
1010.157341	2444.934410
1010.451045	2443.749738
1010.744714	2441.478699
1011.038347	2447.190326
1011.331945	2442.912907
1011.625508	2444.400047
1011.919036	2442.633123
1012.212528	2443.943823
1012.505986	2439.555498
1012.799408	2439.575663
1013.092795	2439.346291
1013.386147	2442.290324
1013.679464	2439.991558
1013.972745	2438.897628
1014.265992	2442.612958
1014.559204	2441.108174
1014.852380	2442.870057
1015.145521	2437.712957
1015.438628	2441.017433
1015.731699	2441.667742
1016.024736	2437.745724
1016.317737	2438.123811
1016.610703	2441.629933
1016.903635	2440.987186
1017.196531	2438.040632
1017.489393	2441.332505
1017.782219	2438.758996
1018.075011	2441.614810
1018.367768	2444.183278
1018.660490	2443.500201
1018.953177	2443.500201
1019.245829	2443.500201
