Dividing Wavelength (nm)	Counts (n)	Blue Motor Position (mm): 0.000000	Red Motor Position (mm): 49.200000	
326.493990	2002.169867
326.888308	2002.169867
327.282561	2002.169867
327.676750	1976.664149
328.070874	1977.995014
328.464933	1984.256127
328.858929	1992.372385
329.252859	2004.183808
329.646726	2017.971364
330.040528	2033.654394
330.434265	2057.017621
330.827938	2072.814077
331.221547	2092.930801
331.615091	2113.576847
332.008571	2134.991668
332.401986	2155.592343
332.795338	2175.451969
333.188625	2195.235977
333.581847	2215.516539
333.975006	2231.784343
334.368100	2249.647671
334.761129	2267.238778
335.154095	2281.981632
335.546996	2324.982674
335.939833	2414.029616
336.332606	2428.593509
336.725315	2442.469285
337.117960	2448.720316
337.510540	2457.033179
337.903056	2469.162195
338.295508	2474.495736
338.687896	2482.395224
339.080220	2487.035606
339.472480	2494.846874
339.864676	2497.294354
340.256807	2500.172853
340.648875	2500.014057
341.040879	2505.977742
341.432818	2505.892042
341.824694	2504.281393
342.216506	2500.583707
342.608253	2502.320384
342.999937	2505.995386
343.391557	2503.215189
343.783113	2500.187976
344.174605	2500.432472
344.566033	2499.285610
344.957397	2498.058089
345.348697	2497.248984
345.739934	2493.760505
346.131106	2495.363592
346.522215	2489.140288
346.913260	2490.582058
347.304241	2490.017448
347.695159	2486.980153
348.086012	2485.399752
348.476802	2481.833135
348.867528	2482.148207
349.258191	2481.860862
349.648789	2479.615028
350.039324	2479.453711
350.429796	2481.984370
350.820203	2478.367342
351.210548	2479.438587
351.600828	2478.145531
351.991045	2478.705099
352.381198	2477.888432
352.771288	2477.669142
353.161314	2476.408854
353.551276	2476.902887
353.941175	2474.397433
354.331010	2476.466827
354.720782	2479.494040
355.110490	2480.930769
355.500135	2478.667291
355.889717	2477.835500
356.279235	2478.374904
356.668689	2483.428660
357.058080	2477.951447
357.447408	2475.572022
357.836672	2477.142342
358.225873	2478.200984
358.615010	2477.170068
359.004084	2485.669453
359.393095	2482.629638
359.782043	2486.014772
360.170927	2485.341778
360.559748	2487.431337
360.948505	2488.764722
361.337199	2487.030565
361.725830	2489.319249
362.114398	2490.065339
362.502903	2493.974754
362.891344	2492.999291
363.279722	2493.546256
363.668037	2493.395022
364.056289	2494.677995
364.444478	2497.256545
364.832603	2495.401401
365.220665	2498.675630
365.608665	2496.812924
365.996601	2497.816113
366.384474	2498.562204
366.772284	2501.357524
367.160031	2500.170332
367.547715	2505.425735
367.935336	2502.839623
368.322893	2504.825838
368.710388	2506.794408
369.097820	2508.672238
369.485189	2508.394975
369.872495	2511.724657
370.259738	2511.686848
370.646918	2513.292456
371.034035	2518.119361
371.421090	2520.269413
371.808081	2522.490041
372.195010	2530.891124
372.581875	2533.033614
372.968678	2540.232382
373.355418	2549.210677
373.742096	2558.793910
374.128710	2572.500808
374.515262	2584.065215
374.901751	2598.888727
375.288177	2617.722478
375.674540	2635.394243
376.060841	2657.744199
376.447079	2680.194977
376.833254	2708.367466
377.219367	2734.304202
377.605417	2767.638832
377.991404	2796.655713
378.377329	2839.606344
378.763191	2874.183618
379.148991	2924.083480
379.534727	2975.432673
379.920402	3024.241124
380.306013	3072.384144
380.691563	3138.095584
381.077049	3197.256045
381.462474	3254.964654
381.847835	3332.369050
382.233134	3402.839340
382.618371	3465.909216
383.003545	3556.115623
383.388657	3639.559322
383.773706	3731.540215
384.158693	3807.175167
384.543618	3908.058737
384.928480	3986.612517
385.313280	4093.666460
385.698017	4200.914488
386.082692	4328.526256
386.467305	4391.366759
386.851856	4522.325854
387.236344	4679.108259
387.620770	4745.875821
388.005133	4870.548597
388.389435	5024.147514
388.773674	5108.332262
389.157851	5245.744034
389.541965	5381.318305
389.926018	5403.123816
390.310008	5592.088947
390.693936	5717.041507
391.077802	5844.242421
391.461606	5973.288398
391.845348	6096.148879
392.229027	6216.264452
392.612645	6448.956552
392.996200	6568.389048
393.379694	6749.641214
393.763125	6979.192675
394.146494	7067.919503
394.529801	7216.888120
394.913047	7466.694937
395.296230	7468.794577
395.679351	7526.462857
396.062410	7799.935371
396.445408	7693.793877
396.828343	7853.167435
397.211217	7997.833427
397.594028	7872.666618
397.976778	8079.643792
398.359466	8255.479238
398.742092	8224.876914
399.124656	8379.408444
399.507158	8569.273421
399.889598	8594.514478
400.271977	8805.149009
400.654294	8844.079320
401.036549	9044.969301
401.418742	9075.226306
401.800874	9388.082834
402.182944	9470.772881
402.564952	9850.805305
402.946898	9663.828909
403.328783	9720.607424
403.710606	9929.180124
404.092367	10194.758191
404.474067	10565.199819
404.855705	10346.602786
405.237282	10303.087546
405.618797	10743.462581
406.000250	10996.271405
406.381642	11366.705472
406.762972	11319.666466
407.144240	11118.960487
407.525447	11374.524302
407.906593	11307.260186
408.287677	11581.718245
408.668700	11739.279509
409.049661	11712.170704
409.430560	11876.834953
409.811399	11837.186278
410.192176	12009.785304
410.572891	12084.777508
410.953545	12599.776744
411.334138	12055.480843
411.714669	12692.743183
412.095139	11953.644494
412.475547	12486.544867
412.855894	12319.614619
413.236180	12670.894822
413.616405	12331.368069
413.996568	12628.924696
414.376670	12602.047784
414.756711	12467.766569
415.136691	12766.737239
415.516609	12951.281278
415.896466	13028.589893
416.276262	13321.843895
416.655997	13765.052058
417.035670	13792.044917
417.415283	14453.643427
417.794834	14556.177976
418.174324	14299.119459
418.553753	14199.735631
418.933121	14706.628692
419.312428	14501.887269
419.691674	14422.083283
420.070859	14885.209046
420.449983	14538.312126
420.829045	15097.721407
421.208047	14832.029914
421.586988	15302.538447
421.965867	15573.369396
422.344686	15565.474949
422.723444	16150.561347
423.102141	14801.755265
423.480777	16024.504774
423.859352	15516.295973
424.237866	16659.042370
424.616319	16343.753485
424.994712	17032.690173
425.373044	16817.100187
425.751314	17510.115168
426.129524	16608.870287
426.507673	17748.728103
426.885762	17425.585101
427.263789	17645.240777
427.641756	17808.322104
428.019662	17867.918624
428.397508	17907.164007
428.775292	18236.593329
429.153016	18191.268314
429.530679	18280.640410
429.908282	18298.448286
430.285824	18002.706475
430.663305	18724.955107
431.040726	18322.018201
431.418086	18151.712901
431.795385	18807.438467
432.172624	19232.120390
432.549802	18778.378735
432.926920	18968.982242
433.303977	18844.861472
433.680974	19116.990519
434.057910	19408.094468
434.434786	19431.898797
434.811601	19340.772379
435.188355	20426.412586
435.565050	20046.032323
435.941683	20008.568988
436.318257	20905.758261
436.694770	20704.134793
437.071222	21317.895273
437.447614	20360.126454
437.823946	20398.436703
438.200218	20541.234947
438.576429	20322.451391
438.952580	20595.394584
439.328670	20556.078625
439.704700	20982.920683
440.080670	20544.456245
440.456580	21149.301445
440.832429	21340.993840
441.208218	20287.175917
441.583947	20757.825602
441.959616	20865.297961
442.335224	21109.123449
442.710773	21252.365315
443.086261	21786.712499
443.461689	21137.900875
443.837057	21254.780027
444.212365	21936.621291
444.587612	21929.727513
444.962800	21482.872074
445.337927	21923.980597
445.712995	20626.362392
446.088002	22531.873175
446.462949	22734.439340
446.837837	22913.065064
447.212664	22879.886710
447.587431	25801.182432
447.962139	28789.961560
448.336786	31201.689889
448.711374	29586.032849
449.085901	25830.716032
449.460369	25777.572188
449.834776	25713.413423
450.209124	28267.027548
450.583412	27766.350230
450.957640	28293.307083
451.331808	26904.312922
451.705917	25516.342116
452.079965	25573.203811
452.453954	25942.629647
452.827883	25811.662991
453.201752	25615.141170
453.575562	25788.337572
453.949311	26939.169981
454.323001	27012.097833
454.696632	26754.202484
455.070202	28357.811167
455.443713	28479.320619
455.817164	29087.707229
456.190556	29630.798295
456.563888	29059.849813
456.937160	29506.233904
457.310373	27801.517319
457.683526	28268.101314
458.056619	28250.137162
458.429653	28190.250775
458.802628	28786.256312
459.175542	28917.089378
459.548398	30205.777179
459.921194	31815.316779
460.293930	32503.320853
460.666607	34553.285900
461.039224	36345.544642
461.411782	36745.454335
461.784280	35519.629722
462.156719	35066.646761
462.529099	34504.336296
462.901419	33189.404248
463.273680	32112.003807
463.645882	32201.443958
464.018024	32188.478110
464.390106	33035.800290
464.762130	35790.720291
465.134094	39911.127552
465.505999	45255.423622
465.877845	49852.040961
466.249631	51019.489013
466.621358	49342.586994
466.993026	47244.700739
467.364634	45171.367423
467.736184	43176.502188
468.107674	41899.472054
468.479105	41100.139139
468.850477	40405.707594
469.221790	38926.368395
469.593043	37161.674682
469.964238	36258.972907
470.335373	36173.895874
470.706449	37967.624112
471.077467	40610.655703
471.448425	45193.089755
471.819324	47985.168101
472.190164	46091.219204
472.560945	42518.331662
472.931667	39386.474506
473.302330	38266.032693
473.672934	37441.907383
474.043479	37942.168806
474.413965	37141.923441
474.784393	36762.490915
475.154761	37667.723349
475.525070	37683.340844
475.895321	37220.288178
476.265513	37830.393822
476.635645	38818.984256
477.005719	38645.535796
477.375734	39123.046491
477.745691	39814.980145
478.115588	41189.682634
478.485427	43200.382134
478.855207	46581.728514
479.224928	49206.921982
479.594591	50829.732420
479.964194	49836.952787
480.333739	50021.143946
480.703226	50065.722869
481.072653	50699.698377
481.442022	51160.719458
481.811333	51426.501692
482.180584	50143.258336
482.549777	49616.888778
482.918912	49081.722406
483.287988	48791.306574
483.657005	47967.569433
484.025964	47322.178232
484.394864	47362.399078
484.763706	46924.272397
485.132489	46035.784156
485.501213	45880.241874
485.869879	46025.069183
486.238487	45616.803777
486.607036	45804.221274
486.975527	45273.526406
487.343959	45466.690818
487.712333	45539.437189
488.080648	45462.057998
488.448905	45917.622030
488.817104	45747.258756
489.185244	46716.143320
489.553326	48421.343855
489.921350	51126.288377
490.289315	53962.418846
490.657222	54522.818713
491.025070	54797.485981
491.392861	53927.909627
491.760593	52715.476839
492.128267	51085.051739
492.495883	49572.037632
492.863440	48170.367490
493.230939	46806.763101
493.598380	45709.087139
493.965763	45374.727569
494.333088	44564.853601
494.700354	44080.534828
495.067563	43772.144762
495.434713	43629.530519
495.801805	43705.364597
496.168839	43314.534021
496.535815	42984.063702
496.902733	43012.773073
497.269593	42600.136986
497.636395	42522.735110
498.003139	42942.582567
498.369825	42386.510530
498.736453	42712.093452
499.103023	42232.440266
499.469535	42086.216558
499.835989	42202.077396
500.202385	41852.836340
500.568723	41884.998902
500.935003	42066.538413
501.301226	41860.156096
501.667390	42499.341636
502.033497	42757.365534
502.399546	42185.562576
502.765537	41494.516166
503.131470	41883.978068
503.497345	42238.615679
503.863163	40882.958669
504.228923	41510.105934
504.594625	41930.081941
504.960269	41239.469069
505.325856	41924.650097
505.691385	41273.184306
506.056856	41417.144537
506.422270	41861.401261
506.787625	41438.539194
507.152924	41643.187355
507.518164	41744.239804
507.883347	40940.695004
508.248472	41195.986597
508.613540	41691.995806
508.978550	42000.345543
509.343503	41745.915988
509.708398	41932.859616
510.073236	42464.066162
510.438016	42483.159532
510.802738	41925.136569
511.167403	42575.833584
511.532010	42802.546875
511.896561	43094.701905
512.261053	43974.312675
512.625488	43500.872712
512.989866	43375.262281
513.354186	43229.038573
513.718449	43199.991444
514.082655	43906.378086
514.446803	43580.308693
514.810894	44091.625366
515.174927	44012.834652
515.538904	43900.001026
515.902822	44602.334580
516.266684	44038.088312
516.630488	44484.157331
516.994235	44322.711858
517.357925	44901.834571
517.721558	45096.092914
518.085133	45394.909829
518.448651	45526.841866
518.812112	45294.938707
519.175516	45400.656744
519.538863	45732.425161
519.902152	45693.414192
520.265385	46169.702408
520.628560	46211.556587
520.991678	45990.577608
521.354739	46237.105155
521.717743	46558.816470
522.080690	46454.157075
522.443580	46993.069024
522.806413	47036.949748
523.169189	46999.804006
523.531908	47194.170733
523.894569	47017.904268
524.257174	47195.496557
524.619722	47513.467336
524.982213	47494.273142
525.344647	47399.665808
525.707025	47442.056871
526.069345	47847.637862
526.431608	47780.252759
526.793815	48098.236141
527.155964	47627.369686
527.518057	47768.753887
527.880093	47560.597083
528.242072	48069.204136
528.603995	47781.124878
528.965860	47779.141184
529.327669	47878.910660
529.689421	47774.258827
530.051117	47718.286896
530.412755	47874.393786
530.774337	47932.490564
531.135862	47733.211232
531.497331	47941.665464
531.858743	47833.215121
532.220098	48199.853199
532.581396	47882.880569
532.942638	47540.687046
533.303824	47845.150053
533.664953	47804.296542
534.026025	47526.037453
534.387040	48003.157458
534.747999	47934.549875
535.108902	48102.034650
535.469748	47631.105181
535.830537	47717.465188
536.191270	47912.625897
536.551947	47566.659070
536.912567	47885.522133
537.273131	47999.154782
537.633638	47468.396900
537.994089	47834.140173
538.354483	47405.316942
538.714821	47990.368051
539.075103	48340.781176
539.435328	48088.224409
539.795497	47979.958068
540.155609	47964.574987
540.515665	48432.991441
540.875665	47879.502996
541.235609	48199.538127
541.595496	48167.052932
541.955328	48862.165033
542.315102	48216.148729
542.674821	48002.003034
543.034483	48038.984939
543.394090	48006.580402
543.753640	47978.402872
544.113134	48983.467797
544.472571	47979.418665
544.831953	49252.345299
545.191278	48454.272672
545.550548	48148.196496
545.909761	48637.125404
546.268918	48834.791567
546.628019	49148.457201
546.987064	48696.285865
547.346053	47966.122622
547.704986	48864.937667
548.063863	48394.471985
548.422684	48612.141446
548.781449	48463.465216
549.140158	48846.673567
549.498811	48699.827276
549.857408	48128.465420
550.215949	48973.897167
550.574434	48915.689484
550.932864	48679.589564
551.291237	49397.835520
551.649555	48994.422224
552.007817	49213.737622
552.366022	48877.409482
552.724173	49060.728521
553.082267	49458.160487
553.440305	49745.894425
553.798288	49060.017718
554.156215	49365.491477
554.514086	49583.503737
554.871902	49344.369042
555.229661	49367.160099
555.587365	49182.439619
555.945014	49289.735537
556.302606	49192.602585
556.660143	49422.459036
557.017625	49518.538387
557.375050	49306.784720
557.732421	49674.259629
558.089735	49636.335029
558.446994	49550.050640
558.804197	50032.443692
559.161345	49985.825622
559.518437	49235.033977
559.875474	49515.485968
560.232455	49688.538698
560.589381	49882.817205
560.946251	49567.495553
561.303065	50270.673500
561.659825	50061.979813
562.016528	49738.436038
562.373177	49456.527153
562.729770	49945.256937
563.086307	49444.982911
563.442789	49909.474827
563.799216	49969.240226
564.155587	49738.123487
564.511904	49771.679927
564.868164	49862.138392
565.224370	50105.510176
565.580520	49844.580053
565.936615	50053.803061
566.292654	49779.019847
566.648638	50033.693898
567.004567	49989.046919
567.360441	50027.669720
567.716260	49893.254914
568.072023	50164.743734
568.427732	50156.667805
568.783385	49704.612417
569.138982	50091.886458
569.494525	50056.858000
569.850013	49847.463593
570.205445	49806.665535
570.560823	49763.472929
570.916145	49651.138377
571.271412	49680.994611
571.626625	49439.465368
571.981782	49500.458289
572.336884	49178.981387
572.691931	49502.363845
573.046923	49099.983986
573.401860	48947.733578
573.756743	48953.722469
574.111570	49057.655938
574.466342	48891.882635
574.821059	49009.424698
575.175722	48532.806287
575.530330	48554.944514
575.884882	48264.800905
576.239380	48253.556611
576.593823	48221.073936
576.948211	48149.731527
577.302544	47647.478849
577.656823	47680.241308
578.011047	47909.631452
578.365216	47641.379053
578.719330	47424.218748
579.073389	47273.606715
579.427394	47359.001341
579.781344	47325.984303
580.135239	46984.284813
580.489080	47067.206753
580.842866	46541.258131
581.196597	46997.492637
581.550273	46933.109540
581.903895	46799.443346
582.257463	47229.284890
582.610975	46589.469206
582.964434	46877.472846
583.317837	46523.475461
583.671186	46359.000255
584.024481	46594.805267
584.377721	46122.247506
584.730906	46410.026814
585.084037	46452.185984
585.437113	46170.932449
585.790135	46188.306786
586.143103	45799.502754
586.496016	45923.316013
586.848874	45944.135979
587.201679	45980.901114
587.554428	45447.063086
587.907124	45635.912271
588.259765	45388.021092
588.612352	45643.721018
588.964884	45021.572057
589.317362	45323.398541
589.669786	45263.983502
590.022155	45025.947779
590.374470	45471.520244
590.726731	44986.059649
591.078937	44505.516700
591.431090	44600.527326
591.783188	44255.634265
592.135232	43926.308288
592.487222	44180.732802
592.839157	44284.474707
593.191038	43930.215182
593.542866	43691.640055
593.894639	43061.848705
594.246358	43355.183365
594.598022	43348.697921
594.949633	42926.773509
595.301190	42885.196592
595.652692	42706.217987
596.004141	43050.506109
596.355535	42034.600183
596.706876	41993.285407
597.058162	41819.819303
597.409395	42322.777743
597.760573	42397.429670
598.111698	41945.971658
598.462768	41970.539721
598.813785	42019.164170
599.164748	41453.198869
599.515657	41841.024917
599.866511	41302.738071
600.217312	41930.480192
600.568060	40877.930118
600.918753	41642.113589
601.269392	41598.195057
601.619978	41241.699780
601.970510	41465.912659
602.320988	41637.291725
602.671412	41941.777417
603.021783	41688.835003
603.372100	41341.030675
603.722363	41463.845786
604.072572	41516.908971
604.422728	41551.506410
604.772830	41360.776875
605.122878	41457.783798
605.472872	41378.919988
605.822813	41675.675071
606.172701	41478.218116
606.522534	41738.830646
606.872314	42016.323480
607.222041	41751.544436
607.571714	42133.437046
607.921333	41560.189798
608.270899	41867.007024
608.620411	42228.349370
608.969870	42016.436906
609.319276	42004.501974
609.668627	42061.262846
610.017926	42556.657034
610.367171	42722.435379
610.716362	42799.494456
611.065500	42743.905653
611.414585	42925.041872
611.763616	43242.853855
612.112594	43146.461952
612.461518	43363.261814
612.810389	43665.181559
613.159207	43513.594063
613.507971	43598.895427
613.856682	44093.669554
614.205340	43964.127024
614.553945	44674.758317
614.902496	44107.308396
615.250994	44563.578189
615.599439	44650.462476
615.947830	44854.437643
616.296169	44905.360858
616.644454	45017.546696
616.992686	45199.365992
617.340864	45715.494446
617.688990	45424.163645
618.037063	46026.211004
618.385082	45999.802920
618.733048	46287.451158
619.080961	46310.713563
619.428821	46306.098387
619.776628	46433.155628
620.124382	46254.696261
620.472083	46384.029584
620.819731	46542.331897
621.167326	46214.924078
621.514868	46193.262240
621.862357	45752.856958
622.209793	45794.829605
622.557176	45437.631087
622.904506	45201.332042
623.251783	44864.527512
623.599007	44615.502074
623.946179	44394.369340
624.293297	44355.854924
624.640363	43736.281993
624.987376	43726.857556
625.334336	43477.716171
625.681243	43085.985750
626.028097	43052.998960
626.374899	42885.751119
626.721647	42851.950183
627.068343	42715.143350
627.414987	42473.546052
627.761577	42252.647731
628.108115	42576.768718
628.454600	42008.182017
628.801032	42188.002495
629.147412	42160.268587
629.493739	42156.477639
629.840014	41772.603856
630.186236	42109.894857
630.532405	41713.619836
630.878521	41929.229986
631.224585	41791.450210
631.570597	41506.052847
631.916556	41679.569362
632.262462	41609.020934
632.608316	41620.605506
632.954117	41506.904802
633.299866	41510.698270
633.645562	41427.050404
633.991206	40932.740064
634.336797	40496.460966
634.682336	40499.654537
635.027823	40238.510165
635.373257	40062.478113
635.718639	39797.399121
636.063968	39668.829533
636.409245	39074.353986
636.754470	39140.693050
637.099642	38888.307683
637.444762	38370.215699
637.789829	38522.372846
638.134845	38169.386212
638.479808	38112.950495
638.824719	37995.151333
639.169577	37590.056813
639.514383	37650.475041
639.859137	37329.275403
640.203839	37586.921215
640.548489	37199.163223
640.893086	37269.734335
641.237632	37002.361618
641.582125	37120.352344
641.926566	37049.705614
642.270955	37002.301124
642.615292	37014.725048
642.959576	36992.869125
643.303809	36986.907961
643.647990	37121.196737
643.992118	37085.270954
644.336195	37061.136430
644.680219	37144.905284
645.024192	37431.938502
645.368112	37957.572051
645.711981	37956.140364
646.055797	38837.185342
646.399562	38749.754090
646.743274	39741.487683
647.086935	40185.623420
647.430544	40079.880177
647.774101	40197.500378
648.117606	40458.216252
648.461059	40773.416917
648.804460	40415.552967
649.147810	39774.681161
649.491108	39531.284171
649.834354	39162.939662
650.177548	38303.458220
650.520690	37838.661314
650.863781	37853.048768
651.206820	37697.458595
651.549807	37239.373986
651.892742	36752.771570
652.235626	36534.557664
652.578458	36403.454897
652.921238	35767.936796
653.263967	36093.630622
653.606644	35755.820383
653.949269	35703.836004
654.291843	35289.122963
654.634365	35682.980751
654.976836	35270.455570
655.319255	35257.547695
655.661622	35270.924397
656.003938	35037.329931
656.346203	34883.209255
656.688416	35100.984580
657.030577	34916.072537
657.372687	34750.349645
657.714746	35023.161768
658.056753	35150.065254
658.398708	34575.270372
658.740612	34608.748675
659.082465	34905.549128
659.424266	34708.283737
659.766016	34834.799054
660.107715	34715.119542
660.449362	34846.638204
660.790958	34832.621276
661.132503	34847.366651
661.473996	34865.484558
661.815438	34985.269935
662.156829	35196.721133
662.498168	34946.203513
662.839456	34956.401768
663.180693	35106.068584
663.521879	35263.488695
663.863013	35219.277776
664.204097	35227.005865
664.545129	35682.579979
664.886110	35629.988142
665.227040	35691.724632
665.567918	35798.960057
665.908746	35859.093460
666.249522	36053.107307
666.590248	36051.715949
666.930922	36164.458834
667.271545	36119.751361
667.612118	36221.844809
667.952639	35971.853990
668.293109	36041.109361
668.633528	35941.947344
668.973896	35875.116768
669.314213	35913.691677
669.654480	35636.196323
669.994695	35674.733423
670.334859	35541.321807
670.674973	35450.938960
671.015035	35612.717148
671.355047	35559.023819
671.695008	35499.553327
672.034918	35391.108025
672.374777	35449.119103
672.714585	35273.225684
673.054342	35506.802506
673.394049	35256.070637
673.733705	35564.974901
674.073310	35220.664093
674.412864	35290.605062
674.752368	34886.231427
675.091820	35201.197678
675.431223	34776.760250
675.770574	34488.575129
676.109875	34342.132130
676.449125	34063.547886
676.788324	33976.885411
677.127473	33403.819644
677.466571	33341.619368
677.805619	32975.397185
678.144616	32984.935048
678.483562	32876.348594
678.822458	32534.757489
679.161303	32453.846969
679.500098	32359.035468
679.838842	32241.407705
680.177535	32401.033321
680.516179	32654.976405
680.854771	32900.034455
681.193314	33761.421454
681.531805	34907.920991
681.870247	35645.063712
682.208638	36400.712509
682.546978	36631.703219
682.885268	36753.802486
683.223508	36232.889977
683.561697	35895.321712
683.899836	35700.352567
684.237925	35181.070871
684.575963	35023.973394
684.913951	34536.304773
685.251889	34704.182758
685.589776	34670.908622
685.927614	34642.942821
686.265401	34780.863749
686.603137	34849.977969
686.940824	35343.373340
687.278460	35722.826031
687.616046	35833.058421
687.953582	36468.306820
688.291068	36325.884142
688.628504	36644.684191
688.965889	36581.221105
689.303224	36214.152008
689.640510	35898.777423
689.977745	35178.341086
690.314930	34376.341400
690.652065	33853.377141
690.989150	33111.856178
691.326185	32186.970805
691.663170	31482.285553
692.000105	30705.743694
692.336990	29996.377731
692.673825	29521.485915
693.010610	28980.401229
693.347345	28387.551454
693.684030	27688.461883
694.020665	27390.824598
694.357251	26697.928084
694.693786	26621.781455
695.030272	26363.394594
695.366707	25796.163963
695.703093	25497.132800
696.039429	25476.580015
696.375716	25207.455497
696.711952	25152.010366
697.048139	24976.721885
697.384276	24790.451251
697.720363	24919.172073
698.056400	24702.785585
698.392388	24493.101312
698.728326	24442.445277
699.064214	24243.160904
699.400053	24185.384240
699.735842	23817.228774
700.071581	23534.911556
700.407270	23236.944076
700.742910	23040.671792
701.078501	22764.343464
701.414042	22453.183284
701.749533	22149.892345
702.084974	21792.900515
702.420366	22013.198938
702.755709	21543.076054
703.091002	21248.118142
703.426246	21264.222108
703.761440	21142.233747
704.096584	20867.427848
704.431679	20824.439409
704.766725	20708.066893
705.101721	20635.602827
705.436668	20731.815768
705.771565	20393.163656
706.106413	20750.614231
706.441212	20710.831966
706.775961	20838.395843
707.110661	20908.082233
707.445311	21259.299422
707.779913	21079.804098
708.114465	21316.980304
708.448967	21611.020726
708.783421	22319.464158
709.117825	22579.910330
709.452180	22805.446512
709.786485	23205.169683
710.120742	24018.983313
710.454949	24017.352500
710.789107	24485.597554
711.123216	25227.451233
711.457275	25328.977551
711.791286	25904.163123
712.125247	25988.804096
712.459159	25694.935074
712.793023	26423.674191
713.126837	25287.624966
713.460602	25594.359013
713.794318	25223.632559
714.127985	24846.150959
714.461602	23948.754999
714.795171	23919.871708
715.128691	22858.408874
715.462162	22310.221202
715.795584	21876.419832
716.128957	21622.355760
716.462281	21187.591529
716.795556	20938.946698
717.128782	20412.070503
717.461960	19849.109730
717.795088	19767.753069
718.128167	19347.807309
718.461198	18858.147433
718.794180	18709.745946
719.127113	18339.773145
719.459997	18135.215725
719.792833	17763.110515
720.125619	17720.658959
720.458357	17370.959158
720.791046	17196.852827
721.123686	17022.101229
721.456278	16772.755678
721.788821	16719.022019
722.121315	16448.289372
722.453761	16529.177206
722.786158	16438.065912
723.118506	16439.555573
723.450805	16297.014427
723.783056	16456.332533
724.115259	16356.341247
724.447412	16266.270951
724.779518	16522.260743
725.111574	16539.267076
725.443582	16733.958958
725.775542	16712.854167
726.107453	17198.274433
726.439315	17066.685194
726.771129	17477.004870
727.102895	17863.048870
727.434612	18070.404130
727.766281	18200.957412
728.097901	18482.568869
728.429473	18526.804994
728.760996	18513.405607
729.092471	18613.719527
729.423897	18503.446807
729.755276	18370.246920
730.086606	18491.811824
730.417887	19013.530918
730.749120	19520.267703
731.080305	19700.499035
731.411442	20056.250742
731.742530	20153.355967
732.073570	20251.353478
732.404562	20580.109805
732.735506	20396.019470
733.066401	20112.441963
733.397249	19587.057950
733.728048	18939.393189
734.058798	18074.711796
734.389501	17362.976491
734.720156	16881.321967
735.050762	16324.307234
735.381320	15941.411435
735.711831	15692.527149
736.042293	15306.563808
736.372707	15311.068079
736.703073	15077.846658
737.033391	15273.884528
737.363661	15205.841554
737.693883	15304.348221
738.024056	15462.985771
738.354182	15647.993596
738.684260	15917.380255
739.014290	16142.777805
739.344272	16332.731003
739.674207	16635.744678
740.004093	16739.854587
740.333931	16746.559322
740.663722	16806.501162
740.993464	16817.884087
741.323159	16644.120555
741.652806	16379.631377
741.982405	16170.166394
742.311956	15839.275138
742.641460	15711.512135
742.970915	15399.807510
743.300323	15059.660695
743.629683	14848.721174
743.958996	14555.280650
744.288260	14276.847641
744.617477	13978.713803
744.946647	13894.229105
745.275768	13608.123460
745.604842	13422.200665
745.933869	13237.170154
746.262847	13186.002442
746.591778	13116.424437
746.920662	12993.558915
747.249498	12997.851457
747.578286	13114.102986
747.907027	13248.295981
748.235720	13470.928458
748.564365	13497.323939
748.892963	13391.154719
749.221514	13448.397021
749.550017	13299.420842
749.878473	13267.515380
750.206881	13034.044422
750.535242	12939.789968
750.863555	12844.852438
751.191821	12734.753638
751.520039	12769.088937
751.848210	12653.764981
752.176334	12696.226620
752.504411	12587.514137
752.832440	12422.663365
753.160421	12481.261738
753.488356	12349.773322
753.816243	12251.299423
754.144082	12109.756426
754.471875	12043.366950
754.799620	11981.554842
755.127318	11958.990638
755.454969	11917.247363
755.782572	11865.542769
756.110129	11879.637835
756.437638	11791.432766
756.765100	11781.854574
757.092515	11779.276023
757.419882	11790.895883
757.747203	11790.623661
758.074477	11868.108716
758.401703	11810.599233
758.728882	11976.856487
759.056014	12019.645801
759.383099	12138.561579
759.710138	12235.755025
760.037129	12323.695433
760.364073	12352.525792
760.690970	12329.502842
761.017820	12333.666835
761.344623	12535.547403
761.671379	12890.779870
761.998088	13546.601218
762.324751	15158.537887
762.651366	18125.629971
762.977935	21853.709433
763.304456	24142.100893
763.630931	24667.200080
763.957359	23513.353062
764.283740	21584.912590
764.610074	19657.588734
764.936362	17462.060369
765.262602	15880.237033
765.588796	14342.019678
765.914943	13290.782825
766.241044	12369.857279
766.567097	11703.210053
766.893104	11127.227979
767.219064	10745.171532
767.544978	10335.557618
767.870845	10004.656279
768.196665	9799.186410
768.522438	9601.222819
768.848165	9425.284029
769.173846	9253.226928
769.499479	9128.443247
769.825066	8961.487793
770.150607	8775.002909
770.476101	8706.733083
770.801548	8594.695960
771.126949	8443.539482
771.452303	8355.553704
771.777611	8179.463679
772.102872	8154.119278
772.428087	8040.383286
772.753256	7909.449397
773.078378	7810.426012
773.403453	7663.040318
773.728482	7551.091414
774.053465	7482.602298
774.378401	7384.138481
774.703291	7288.931249
775.028135	7187.820827
775.352932	7150.717934
775.677683	7062.248205
776.002388	6967.109029
776.327046	6968.676828
776.651658	6878.724999
776.976224	6794.260467
777.300743	6781.808817
777.625216	6702.907197
777.949643	6664.186094
778.274024	6666.101733
778.598359	6595.273521
778.922647	6594.487101
779.246889	6554.152829
779.571086	6553.961266
779.895236	6563.128604
780.219339	6554.616616
780.543397	6550.855915
780.867409	6605.360870
781.191374	6600.672597
781.515294	6566.289407
781.839167	6622.442820
782.162995	6590.436534
782.486776	6548.630245
782.810511	6503.655591
783.134201	6423.937305
783.457844	6418.205513
783.781441	6369.114757
784.104993	6325.355021
784.428498	6300.517256
784.751958	6277.282578
785.075372	6252.601089
785.398739	6209.085849
785.722061	6235.020065
786.045337	6233.306072
786.368568	6350.200348
786.691752	6373.162803
787.014891	6626.816021
787.337983	6904.555872
787.661030	7351.232349
787.984031	7789.074205
788.306987	8053.853249
788.629897	8153.544587
788.952760	8075.618431
789.275579	7896.914568
789.598351	7596.292920
789.921078	7323.347207
790.243759	7039.729371
790.566395	6827.431259
790.888984	6623.463654
791.211529	6478.575851
791.534027	6313.689791
791.856480	6162.979456
792.178888	6102.427636
792.501249	6029.235123
792.823566	5915.433596
793.145836	5910.488224
793.468062	5888.297065
793.790241	5847.395663
794.112375	5887.137599
794.434464	5988.210213
794.756507	6009.206619
795.078505	6134.166741
795.400457	6358.916503
795.722364	6590.756648
796.044226	6792.702750
796.366042	6955.549663
796.687812	6907.320944
797.009538	6941.850328
797.331218	6855.558377
797.652852	6787.953983
797.974442	6669.582650
798.295986	6595.298727
798.617484	6464.889118
798.938938	6351.385019
799.260346	6279.263751
799.581709	6133.438294
799.903026	6080.024748
800.224299	6003.926011
800.545526	5885.277414
800.866708	5812.992309
801.187845	5761.877529
801.508936	5685.688051
801.829983	5652.514738
802.150984	5535.391090
802.471940	5509.950907
802.792851	5491.442311
803.113717	5471.502027
803.434538	5444.373057
803.755314	5405.548611
804.076045	5387.954984
804.396731	5351.935940
804.717372	5362.056056
805.037967	5360.405078
805.358518	5387.854161
805.679024	5441.686122
805.999485	5449.325991
806.319901	5468.250482
806.640272	5485.667669
806.960598	5536.905957
807.280879	5523.098236
807.601115	5567.898970
807.921306	5525.515469
808.241453	5522.450448
808.561554	5544.986926
808.881611	5507.725237
809.201623	5510.311349
809.521590	5460.403926
809.841513	5444.347851
810.161390	5464.638496
810.481223	5374.411924
810.801011	5360.205952
811.120755	5340.205175
811.440453	5285.485970
811.760107	5256.867340
812.079716	5228.956992
812.399281	5176.649979
812.718801	5174.013456
813.038276	5136.119102
813.357707	5100.795737
813.677093	5125.348677
813.996434	5062.699738
814.315731	5084.996761
814.634983	5079.295216
814.954191	5087.545064
815.273354	5147.958252
815.592473	5191.284449
815.911547	5271.690853
816.230577	5328.096323
816.549562	5421.329943
816.868502	5476.512933
817.187399	5538.534249
817.506250	5628.866685
817.825058	5664.542931
818.143821	5827.031922
818.462539	6006.630590
818.781213	6246.539101
819.099843	6616.791687
819.418429	7274.735360
819.736970	7919.947600
820.055466	8677.943054
820.373919	9665.177417
820.692327	11227.236910
821.010691	14127.586637
821.329011	20708.545802
821.647286	30624.326539
821.965517	41244.721952
822.283704	46775.795293
822.601847	48312.311259
822.919945	43741.343312
823.237999	38599.557952
823.556010	33313.540141
823.873976	28425.791127
824.191897	24023.704353
824.509775	20774.809249
824.827609	17849.117641
825.145398	16179.122004
825.463144	15370.004208
825.780845	15680.544327
826.098502	16990.838514
826.416116	19485.685387
826.733685	21757.582191
827.051210	22210.885266
827.368692	20704.787622
827.686129	18097.460003
828.003522	15532.349527
828.320872	13253.581630
828.638177	11508.515650
828.955439	10195.216936
829.272656	9084.050846
829.589830	8204.646763
829.906960	7426.708505
830.224046	6864.725715
830.541088	6429.827893
830.858086	6154.691799
831.175041	5938.138953
831.491952	5879.437237
831.808819	5910.203399
832.125642	6175.869686
832.442421	6758.566577
832.759157	7930.506297
833.075849	9753.231252
833.392497	11636.271092
833.709101	12794.602217
834.025662	12511.304494
834.342179	11435.242479
834.658653	10094.277912
834.975083	8952.554868
835.291469	8017.307404
835.607811	7232.674493
835.924110	6687.637542
836.240366	6169.825342
836.556578	5692.715419
836.872746	5315.253984
837.188871	5028.251013
837.504952	4794.152431
837.820990	4616.489567
838.136984	4492.053725
838.452935	4447.373979
838.768842	4478.316581
839.084706	4779.165081
839.400526	5551.427000
839.716303	6491.942470
840.032037	7071.788589
840.347727	6915.969044
840.663373	6299.009951
840.978977	5701.688673
841.294537	5239.112396
841.610054	4886.531575
841.925527	4634.335251
842.240957	4407.816044
842.556344	4213.303123
842.871687	4046.476219
843.186987	3884.531672
843.502244	3759.856376
843.817458	3664.470183
844.132629	3589.175510
844.447756	3537.783467
844.762840	3487.535766
845.077881	3444.585135
845.392879	3410.469126
845.707833	3381.963922
846.022745	3356.271681
846.337613	3340.893642
846.652438	3313.678973
846.967221	3304.398208
847.281960	3281.103036
847.596656	3270.360337
847.911309	3262.241559
848.225919	3244.262284
848.540485	3234.275758
848.855009	3231.394739
849.169490	3211.925803
849.483928	3204.568239
849.798323	3197.850901
850.112675	3191.007535
850.426984	3189.497709
850.741251	3179.891791
851.055474	3176.420956
851.369654	3175.493384
851.683792	3174.822910
851.997887	3175.639577
852.311938	3178.825587
852.625947	3178.825587
852.939914	3168.201355
853.253837	3177.603107
853.567718	3173.363496
853.881555	3165.214471
854.195350	3174.502797
854.509103	3169.852333
854.822812	3166.441992
855.136479	3159.880930
855.450103	3165.179183
855.763685	3158.489572
856.077224	3162.933349
856.390720	3167.694719
856.704173	3179.823735
857.017584	3184.544776
857.330953	3188.623069
857.644278	3199.441385
857.957561	3202.259390
858.270802	3197.981971
858.584000	3199.920295
858.897155	3192.582895
859.210268	3182.924045
859.523339	3168.975172
859.836367	3170.187569
860.149352	3163.855880
860.462295	3161.073163
860.775195	3151.908346
861.088054	3146.330309
861.400869	3148.036739
861.713642	3141.614309
862.026373	3153.869354
862.339062	3157.309942
862.651708	3161.612567
862.964312	3182.815660
863.276873	3190.526105
863.589392	3219.290928
863.901869	3244.103488
864.214303	3267.239863
864.526696	3288.397586
864.839045	3310.293838
865.151353	3320.171979
865.463619	3324.136846
865.775842	3325.349244
866.088023	3328.663802
866.400162	3323.352947
866.712258	3325.525684
867.024313	3325.540808
867.336325	3324.950993
867.648296	3327.766477
867.960224	3321.714572
868.272110	3327.882423
868.583954	3328.447033
868.895755	3335.829803
869.207515	3333.233608
869.519233	3354.363605
869.830909	3361.673278
870.142542	3373.061244
870.454134	3378.992162
870.765684	3390.465828
871.077191	3416.493305
871.388657	3427.039399
871.700081	3443.667645
872.011463	3467.411480
872.322803	3483.399499
872.634101	3503.180987
872.945357	3523.577495
873.256571	3549.978018
873.567744	3569.701532
873.878874	3578.818459
874.189963	3592.578288
874.501010	3598.025255
874.812015	3595.839915
875.122979	3612.644601
875.433900	3607.237964
875.744780	3610.423973
876.055618	3627.193371
876.366415	3621.166672
876.677169	3632.204278
876.987882	3650.836383
877.298554	3675.774971
877.609183	3716.018502
877.919771	3765.416769
878.230317	3843.567256
878.540822	3957.938434
878.851285	4122.501860
879.161707	4364.530177
879.472087	4773.939925
879.782425	5456.144151
880.092722	6728.201187
880.402977	8785.649826
880.713191	11263.364339
881.023363	13740.196649
881.333494	15106.616523
881.643583	15596.959475
881.953631	15202.287541
882.263637	14359.033572
882.573602	13316.288543
882.883526	12293.125876
883.193408	11302.201388
883.503248	10328.373973
883.813048	9445.660373
884.122806	8630.004201
884.432522	7813.264182
884.742197	7103.822601
885.051831	6497.510425
885.361424	5961.774403
885.670975	5532.424371
885.980485	5190.256053
886.289954	4894.859562
886.599382	4660.435825
886.908768	4466.432061
887.218113	4286.523362
887.527417	4145.534892
887.836680	4013.249974
888.145901	3905.492790
888.455082	3822.618741
888.764221	3743.328953
889.073319	3679.568439
889.382376	3645.250784
889.691392	3619.127525
890.000366	3606.252418
890.309300	3602.592541
890.618193	3604.762757
890.927044	3597.274123
891.235855	3604.977006
891.544625	3625.491982
891.853353	3651.942916
892.162041	3716.071434
892.470687	3815.084737
892.779293	3945.844706
893.087858	4134.023417
893.396381	4435.524747
893.704864	4875.914905
894.013306	5475.207275
894.321707	6064.243416
894.630068	6428.401247
894.938387	6466.252750
895.246665	6282.230470
895.554903	5959.498322
895.863100	5604.119661
896.171256	5324.093647
896.479371	5074.155760
896.787446	4835.149615
897.095480	4620.993838
897.403473	4460.319662
897.711425	4303.239828
898.019336	4175.940612
898.327207	4045.399933
898.635038	3939.381947
898.942827	3822.361642
899.250576	3732.072057
899.558284	3644.822286
899.865952	3588.464707
900.173579	3517.318903
900.481165	3472.757623
900.788711	3427.782969
901.096216	3388.676218
901.403681	3361.212012
901.711105	3347.391689
902.018489	3341.082685
902.325832	3382.674725
902.633135	3444.968263
902.940397	3627.483238
903.247619	4066.446750
903.554800	4865.557855
903.861941	5887.341766
904.169041	6624.161853
904.476101	6854.015784
904.783121	6572.807619
905.090100	6152.801366
905.397039	5716.963369
905.703938	5335.242159
906.010796	4990.817925
906.317614	4719.835741
906.624391	4460.622131
906.931129	4250.847117
907.237826	4052.472672
907.544483	3864.735061
907.851099	3682.666228
908.157675	3512.504601
908.464211	3358.270499
908.770707	3250.581370
909.077163	3165.000222
909.383578	3098.640993
909.689954	3050.077038
909.996289	3020.523273
910.302584	2994.029489
910.608839	2978.817808
910.915054	2967.812969
911.221229	2961.708132
911.527363	2965.584779
911.833458	2973.345635
912.139513	2988.320383
912.445527	3001.313957
912.751502	3038.941129
913.057436	3086.126329
913.363331	3148.598828
913.669186	3246.427460
913.975000	3376.181718
914.280775	3582.513625
914.586510	3875.863408
914.892205	4278.507928
915.197859	4806.296571
915.503475	5417.750724
915.809050	5929.911790
916.114585	6221.948353
916.420081	6287.526202
916.725536	6224.592438
917.030952	5974.762936
917.336328	5766.361636
917.641665	5543.378798
917.946961	5305.842149
918.252218	5091.399027
918.557435	4855.072255
918.862612	4645.272035
919.167750	4457.678097
919.472848	4254.804422
919.777906	4078.104418
920.082925	3906.493459
920.387904	3746.240219
920.692843	3623.760346
920.997743	3516.474509
921.302603	3415.424581
921.607423	3345.980166
921.912204	3276.011471
922.216946	3223.011300
922.521647	3167.122548
922.826310	3122.188223
923.130932	3083.396544
923.435516	3038.343752
923.740059	3008.457272
924.044564	2974.830255
924.349028	2949.737912
924.653454	2915.142993
924.957840	2885.402706
925.262186	2866.493338
925.566493	2841.514421
925.870761	2815.779331
926.174989	2803.877166
926.479178	2786.762449
926.783328	2768.899120
927.087438	2756.812954
927.391509	2744.086561
927.695541	2727.919581
927.999533	2718.502705
928.303486	2708.473330
928.607400	2700.137782
928.911275	2697.236598
929.215110	2690.219312
929.518906	2685.969619
929.822663	2685.740247
930.126381	2685.016841
930.430060	2686.574557
930.733699	2690.569672
931.037299	2692.013962
931.340861	2691.923222
931.644383	2697.347503
931.947866	2693.070084
932.251309	2689.321986
932.554714	2687.832325
932.858080	2689.339630
933.161407	2685.982222
933.464694	2679.834535
933.767943	2675.708350
934.071153	2673.417146
934.374323	2668.348266
934.677455	2668.204593
934.980548	2664.685867
935.283602	2661.598161
935.586617	2658.439878
935.889593	2662.485404
936.192530	2663.546567
936.495428	2669.459840
936.798287	2678.339833
937.101108	2690.549507
937.403890	2714.197560
937.706632	2741.006416
938.009336	2771.661673
938.312002	2803.196611
938.614628	2828.573779
938.917216	2849.522294
939.219765	2860.564941
939.522275	2873.472816
939.824747	2875.789226
940.127179	2866.503421
940.429573	2859.670137
940.731929	2863.488811
941.034246	2855.125536
941.336524	2852.715865
941.638763	2847.485668
941.940964	2838.759430
942.243126	2820.394507
942.545250	2811.897642
942.847335	2795.246711
943.149381	2783.105092
943.451389	2767.810231
943.753359	2755.628283
944.055290	2744.457086
944.357182	2736.494583
944.659036	2732.411249
944.960851	2726.233315
945.262628	2719.876420
945.564367	2718.023796
945.866067	2719.062273
946.167729	2716.382900
946.469352	2716.786192
946.770937	2714.847869
947.072484	2707.124821
947.373992	2706.222455
947.675462	2703.938812
947.976893	2696.828264
948.278286	2696.908923
948.579641	2692.785259
948.880958	2687.648323
949.182236	2685.964578
949.483476	2680.303362
949.784678	2685.422654
950.085841	2680.510049
950.386967	2686.214115
950.688054	2691.519929
950.989103	2705.511652
951.290114	2708.589276
951.591087	2722.369270
951.892021	2733.628687
952.192917	2746.667632
952.493776	2755.910587
952.794596	2762.481732
953.095378	2761.531474
953.396122	2764.069695
953.696828	2759.328490
953.997496	2753.601739
954.298126	2742.851478
954.598718	2733.996692
954.899272	2722.734754
955.199788	2712.677652
955.500266	2700.450333
955.800706	2687.267716
956.101108	2668.328101
956.401472	2657.018272
956.701798	2641.695685
957.002087	2626.625156
957.302337	2616.331120
957.602550	2601.479881
957.902724	2589.340782
958.202861	2584.173599
958.502960	2574.091292
958.803022	2566.489232
959.103045	2555.766697
959.403031	2548.915769
959.702979	2544.711447
960.002889	2540.451672
960.302762	2532.491690
960.602596	2527.074970
960.902393	2524.544311
961.202153	2523.455422
961.501875	2518.615914
961.801559	2516.264216
962.101205	2511.540655
962.400814	2511.238186
962.700385	2509.297341
962.999918	2506.625530
963.299414	2504.440190
963.598873	2505.007319
963.898293	2501.869201
964.197677	2498.640342
964.497022	2497.685043
964.796331	2498.229488
965.095601	2497.387615
965.394835	2497.967348
965.694030	2496.354179
965.993189	2495.562718
966.292309	2492.613643
966.591393	2494.539363
966.890439	2494.796462
967.189447	2494.945176
967.488419	2491.018118
967.787353	2493.190855
968.086249	2492.966523
968.385108	2494.511637
968.683930	2497.264107
968.982714	2496.497852
969.281462	2498.854591
969.580172	2499.162102
969.878844	2506.398678
970.177480	2503.295848
970.476078	2509.877074
970.774639	2510.124091
971.073162	2512.811026
971.371649	2515.051818
971.670098	2513.602487
971.968510	2517.516943
972.266885	2513.952847
972.565223	2521.766635
972.863524	2522.154804
973.161788	2525.058509
973.460014	2525.849970
973.758204	2525.550021
974.056356	2527.732841
974.354471	2528.166380
974.652550	2527.193438
974.950591	2528.678057
975.248595	2525.103879
975.546563	2524.309897
975.844493	2523.558766
976.142386	2521.305370
976.440243	2517.930317
976.738062	2519.977026
977.035845	2513.158865
977.333590	2512.899246
977.631299	2510.260202
977.928971	2508.531086
978.226606	2508.800788
978.524204	2506.000427
978.821765	2504.788029
979.119290	2506.842299
979.416777	2504.772906
979.714228	2504.777947
980.011642	2504.278873
980.309020	2510.960922
980.606360	2514.106602
980.903664	2524.662778
981.200931	2538.175591
981.498162	2559.209806
981.795356	2594.633994
982.092513	2632.137658
982.389633	2680.963753
982.686717	2725.567882
982.983764	2756.742378
983.280775	2775.676952
983.577749	2780.140893
983.874686	2767.946342
984.171587	2751.292891
984.468451	2734.800756
984.765279	2715.503219
985.062070	2694.814323
985.358824	2674.995027
985.655543	2652.551810
985.952224	2627.613222
986.248869	2599.208841
986.545478	2568.641804
986.842050	2544.983669
987.138586	2526.165042
987.435086	2510.224914
987.731549	2500.929026
988.027975	2496.384426
988.324366	2485.540904
988.620719	2482.354895
988.917037	2481.134935
989.213318	2478.296766
989.509563	2473.051445
989.805772	2472.615385
990.101944	2467.415435
990.398080	2471.715539
990.694180	2468.758903
990.990244	2469.676393
991.286271	2468.597586
991.582262	2468.237143
991.878217	2472.622947
992.174136	2472.068420
992.470019	2472.466671
992.765865	2473.651343
993.061676	2476.996148
993.357450	2479.063021
993.653188	2481.601242
993.948890	2488.953765
994.244556	2493.884013
994.540186	2507.573267
994.835780	2517.423681
995.131337	2532.305168
995.426859	2553.203271
995.722345	2572.253791
996.017795	2591.659713
996.313208	2610.702672
996.608586	2614.657457
996.903928	2621.258848
997.199234	2620.245576
997.494504	2619.325565
997.789738	2609.833073
998.084936	2600.169181
998.380099	2584.904567
998.675225	2572.009295
998.970316	2559.676112
999.265371	2544.421581
999.560390	2528.998171
999.855373	2520.105575
1000.150320	2506.552433
1000.445232	2497.518685
1000.740108	2489.689773
1001.034948	2481.669298
1001.329752	2478.500933
1001.624521	2475.556899
1001.919254	2465.101546
1002.213951	2464.032821
1002.508613	2460.834209
1002.803239	2460.148612
1003.097829	2456.823971
1003.392384	2459.904116
1003.686903	2455.722479
1003.981386	2454.709207
1004.275834	2454.747016
1004.570246	2452.982612
1004.864623	2450.116716
1005.158964	2449.037909
1005.453270	2448.808536
1005.747540	2447.255861
1006.041775	2447.061777
1006.335974	2449.221911
1006.630138	2449.466407
1006.924266	2448.385079
1007.218359	2448.143104
1007.512416	2447.076900
1007.806438	2447.669236
1008.100425	2444.447938
1008.394376	2447.276026
1008.688292	2445.025150
1008.982172	2446.323247
1009.276017	2445.002465
1009.569827	2444.163113
1009.863602	2443.444749
1010.157341	2447.097065
1010.451045	2442.088678
1010.744714	2445.635130
1011.038347	2446.514811
1011.331945	2441.445931
1011.625508	2445.425922
1011.919036	2441.647577
1012.212528	2442.466765
1012.505986	2441.904676
1012.799408	2441.173709
1013.092795	2443.157403
1013.386147	2441.766044
1013.679464	2441.042639
1013.972745	2441.602207
1014.265992	2439.671445
1014.559204	2441.975252
1014.852380	2439.048863
1015.145521	2443.258226
1015.438628	2442.418874
1015.731699	2440.533482
1016.024736	2440.941816
1016.317737	2440.886363
1016.610703	2442.617999
1016.903635	2440.077258
1017.196531	2439.976435
1017.489393	2440.934254
1017.782219	2436.593821
1018.075011	2444.488267
1018.367768	2444.558844
1018.660490	2445.804009
1018.953177	2445.804009
1019.245829	2445.804009
