Dividing Wavelength (nm)	Counts (n)	Blue Motor Position (mm): 0.000000	Red Motor Position (mm): 10.400000	
326.493990	1978.368059
326.888308	1978.368059
327.282561	1978.368059
327.676750	1954.044492
328.070874	1954.246138
328.464933	1959.473815
328.858929	1968.966307
329.252859	1983.651189
329.646726	1996.919506
330.040528	2012.771414
330.434265	2033.298992
330.827938	2052.210881
331.221547	2070.336350
331.615091	2090.768146
332.008571	2108.467637
332.401986	2132.450927
332.795338	2152.121509
333.188625	2172.737308
333.581847	2193.980730
333.975006	2209.590663
334.368100	2229.193190
334.761129	2241.733060
335.154095	2260.226533
335.546996	2276.441404
335.939833	2289.051850
336.332606	2302.975517
336.725315	2313.650161
337.117960	2321.418579
337.510540	2328.060299
337.903056	2341.318533
338.295508	2340.390961
338.687896	2353.293794
339.080220	2357.341841
339.472480	2365.853829
339.864676	2365.011957
340.256807	2369.251567
340.648875	2369.990096
341.040879	2372.586290
341.432818	2373.297093
341.824694	2375.789943
342.216506	2375.737011
342.608253	2372.745087
342.999937	2375.885725
343.391557	2370.337936
343.783113	2371.789788
344.174605	2368.568491
344.566033	2370.857174
344.957397	2367.189735
345.348697	2365.425331
345.739934	2365.014477
346.131106	2363.081195
346.522215	2359.096163
346.913260	2357.039372
347.304241	2357.724969
347.695159	2355.088445
348.086012	2353.412262
348.476802	2350.783300
348.867528	2352.315811
349.258191	2346.891529
349.648789	2348.691221
350.039324	2348.897908
350.429796	2349.628876
350.820203	2343.138390
351.210548	2345.016220
351.600828	2343.556806
351.991045	2347.609893
352.381198	2344.370952
352.771288	2346.084944
353.161314	2345.674090
353.551276	2347.335151
353.941175	2344.996055
354.331010	2346.868844
354.720782	2346.238700
355.110490	2344.426405
355.500135	2346.273988
355.889717	2346.145438
356.279235	2347.312465
356.668689	2348.378669
357.058080	2345.482527
357.447408	2348.038392
357.836672	2345.636282
358.225873	2349.167610
358.615010	2344.837259
359.004084	2351.708352
359.393095	2350.531242
359.782043	2351.799092
360.170927	2354.070132
360.559748	2351.264730
360.948505	2352.837570
361.337199	2352.749350
361.725830	2353.966788
362.114398	2357.697242
362.502903	2354.682632
362.891344	2357.147757
363.279722	2357.694722
363.668037	2357.571213
364.056289	2357.954341
364.444478	2357.493076
364.832603	2358.476101
365.220665	2360.306039
365.608665	2358.435771
365.996601	2362.093128
366.384474	2362.551873
366.772284	2364.275948
367.160031	2364.220495
367.547715	2363.426514
367.935336	2365.145547
368.322893	2365.168232
368.710388	2366.723428
369.097820	2366.622605
369.485189	2368.097143
369.872495	2369.901876
370.259738	2369.060003
370.646918	2371.827597
371.034035	2373.160982
371.421090	2374.590149
371.808081	2378.923021
372.195010	2383.583567
372.581875	2386.719165
372.968678	2393.877603
373.355418	2400.020249
373.742096	2408.696075
374.128710	2419.380801
374.515262	2430.796494
374.901751	2443.485078
375.288177	2461.436627
375.674540	2477.051601
376.060841	2497.339724
376.447079	2522.923580
376.833254	2546.816129
377.219367	2572.410067
377.605417	2607.405757
377.991404	2633.428193
378.377329	2672.429080
378.763191	2703.901003
379.148991	2748.487488
379.534727	2797.963893
379.920402	2843.971983
380.306013	2890.968140
380.691563	2949.969805
381.077049	3004.179853
381.462474	3059.604819
381.847835	3129.530664
382.233134	3201.326777
382.618371	3259.529418
383.003545	3341.876667
383.388657	3420.473296
383.773706	3512.098788
384.158693	3577.996751
384.543618	3672.989733
384.928480	3747.593769
385.313280	3848.557998
385.698017	3949.348308
386.082692	4067.603695
386.467305	4122.821973
386.851856	4245.450561
387.236344	4392.541348
387.620770	4454.867654
388.005133	4567.849994
388.389435	4704.785376
388.773674	4779.651552
389.157851	4901.085387
389.541965	5020.505280
389.926018	5034.479358
390.310008	5192.519532
390.693936	5295.296056
391.077802	5390.301641
391.461606	5497.491695
391.845348	5583.392957
392.229027	5673.977450
392.612645	5856.321026
392.996200	5935.036123
393.379694	6056.515328
393.763125	6220.559515
394.146494	6267.517863
394.529801	6339.843297
394.913047	6504.182392
395.296230	6456.896369
395.679351	6448.432272
396.062410	6606.966478
396.445408	6461.511545
396.828343	6526.827255
397.211217	6564.618265
397.594028	6410.613535
397.976778	6490.856102
398.359466	6544.362909
398.742092	6450.771367
399.124656	6472.808771
399.507158	6525.317429
399.889598	6458.759075
400.271977	6513.165728
400.654294	6442.251817
401.036549	6475.049564
401.418742	6395.845475
401.800874	6490.455330
402.182944	6435.219407
402.564952	6542.311159
402.946898	6334.154355
403.328783	6257.959835
403.710606	6254.289875
404.092367	6280.690398
404.474067	6343.062074
404.855705	6124.853209
405.237282	5981.742413
405.618797	6062.882305
406.000250	6052.568104
406.381642	6085.577579
406.762972	5940.949396
407.144240	5734.594805
407.525447	5705.124219
407.906593	5557.942692
408.287677	5534.518970
408.668700	5465.021623
409.049661	5330.387527
409.430560	5260.920427
409.811399	5134.926869
410.192176	5066.697373
410.572891	4969.650120
410.953545	4974.318228
411.334138	4731.122885
411.714669	4754.939816
412.095139	4488.809743
412.475547	4485.636336
412.855894	4355.962736
413.236180	4317.738187
413.616405	4155.440759
413.996568	4102.851443
414.376670	4006.346114
414.756711	3896.093559
415.136691	3847.527082
415.516609	3783.978297
415.896466	3708.819734
416.276262	3659.136643
416.655997	3627.112713
417.035670	3552.649829
417.415283	3541.786143
417.794834	3471.691419
418.174324	3380.527193
418.553753	3306.959114
418.933121	3271.746655
419.312428	3197.818134
419.691674	3130.279275
420.070859	3100.725511
420.449983	3029.738503
420.829045	3007.812004
421.208047	2948.586008
421.586988	2922.200609
421.965867	2888.006462
422.344686	2849.940710
422.723444	2829.705518
423.102141	2759.618356
423.480777	2758.196751
423.859352	2715.001624
424.237866	2715.987170
424.616319	2681.372087
424.994712	2673.651560
425.373044	2645.259781
425.751314	2636.072278
426.129524	2602.533482
426.507673	2601.646239
426.885762	2579.850810
427.263789	2568.268759
427.641756	2555.907850
428.019662	2546.158258
428.397508	2533.653676
428.775292	2527.344672
429.153016	2519.571213
429.530679	2513.511746
429.908282	2507.172495
430.285824	2498.141268
430.663305	2497.039776
431.040726	2489.437716
431.418086	2481.437405
431.795385	2484.013434
432.172624	2481.061839
432.549802	2477.207877
432.926920	2470.757720
433.303977	2468.922740
433.680974	2468.900055
434.057910	2467.281845
434.434786	2465.812348
434.811601	2465.036011
435.188355	2464.778912
435.565050	2462.381843
435.941683	2457.945628
436.318257	2456.561831
436.694770	2454.343723
437.071222	2456.942438
437.447614	2446.502208
437.823946	2448.813578
438.200218	2449.373146
438.576429	2452.299535
438.952580	2447.250820
439.328670	2448.775769
439.704700	2445.531786
440.080670	2447.107147
440.456580	2445.935079
440.832429	2447.243258
441.208218	2442.224789
441.583947	2442.338215
441.959616	2442.212187
442.335224	2445.637651
442.710773	2443.568257
443.086261	2442.854934
443.461689	2442.144131
443.837057	2443.051539
444.212365	2443.333843
444.587612	2443.951385
444.962800	2442.512135
445.337927	2440.639347
445.712995	2438.292689
446.088002	2443.684203
446.462949	2445.375511
446.837837	2440.659511
447.212664	2443.482557
447.587431	2449.978084
447.962139	2455.936728
448.336786	2465.030969
448.711374	2460.256997
449.085901	2451.066973
449.460369	2450.996397
449.834776	2450.401541
450.209124	2457.098714
450.583412	2453.121243
450.957640	2454.815071
451.331808	2449.302569
451.705917	2448.377518
452.079965	2446.625717
452.453954	2447.586057
452.827883	2450.789710
453.201752	2448.352312
453.575562	2449.257199
453.949311	2451.203084
454.323001	2449.383228
454.696632	2450.507405
455.070202	2452.105451
455.443713	2454.663837
455.817164	2453.065791
456.190556	2451.621500
456.563888	2455.790534
456.937160	2451.195523
457.310373	2452.198712
457.683526	2450.630913
458.056619	2452.899433
458.429653	2450.356171
458.802628	2455.049485
459.175542	2456.370267
459.548398	2457.590226
459.921194	2460.199023
460.293930	2464.133644
460.666607	2463.700105
461.039224	2468.312761
461.411782	2469.467185
461.784280	2468.262349
462.156719	2467.634725
462.529099	2468.343008
462.901419	2463.995012
463.273680	2459.452933
463.645882	2458.235494
464.018024	2461.834878
464.390106	2458.792542
464.762130	2466.417287
465.134094	2478.316930
465.505999	2488.905874
465.877845	2499.673779
466.249631	2501.486073
466.621358	2497.521206
466.993026	2494.199086
467.364634	2492.091883
467.736184	2483.237097
468.107674	2481.223156
468.479105	2479.849441
468.850477	2474.762917
469.221790	2470.152782
469.593043	2469.565487
469.964238	2466.777729
470.335373	2468.862246
470.706449	2468.945425
471.077467	2476.721405
471.448425	2485.924032
471.819324	2493.284116
472.190164	2486.844042
472.560945	2480.650985
472.931667	2473.684110
473.302330	2471.458441
473.672934	2472.007926
474.043479	2469.036166
474.413965	2469.192442
474.784393	2463.410238
475.154761	2468.900055
475.525070	2461.945783
475.895321	2467.349900
476.265513	2463.032152
476.635645	2473.207721
477.005719	2470.624130
477.375734	2471.314768
477.745691	2473.971456
478.115588	2472.988431
478.485427	2479.199132
478.855207	2489.326810
479.224928	2493.195896
479.594591	2496.059271
479.964194	2495.275372
480.333739	2496.092039
480.703226	2494.539363
481.072653	2494.070536
481.442022	2498.048007
481.811333	2495.661020
482.180584	2491.222284
482.549777	2494.778818
482.918912	2492.328818
483.287988	2491.983498
483.657005	2488.008549
484.025964	2489.727582
484.394864	2487.895123
484.763706	2485.813126
485.132489	2486.138281
485.501213	2483.363125
485.869879	2482.821201
486.238487	2486.070225
486.607036	2485.051912
486.975527	2485.853455
487.343959	2481.182826
487.712333	2483.819350
488.080648	2484.179792
488.448905	2482.730461
488.817104	2482.503609
489.185244	2484.446973
489.553326	2488.812613
489.921350	2495.308139
490.289315	2501.833913
490.657222	2504.271311
491.025070	2502.978255
491.392861	2502.348111
491.760593	2499.630929
492.128267	2497.145640
492.495883	2489.609115
492.863440	2488.038796
493.230939	2485.485451
493.598380	2482.193578
493.965763	2476.822228
494.333088	2480.169554
494.700354	2473.396764
495.067563	2478.047229
495.434713	2475.672845
495.801805	2480.209884
496.168839	2477.298617
496.535815	2482.077631
496.902733	2479.269708
497.269593	2480.903042
497.636395	2480.451859
498.003139	2479.380614
498.369825	2481.013948
498.736453	2481.712148
499.103023	2480.845069
499.469535	2481.402117
499.835989	2481.439925
500.202385	2481.749956
500.568723	2484.633496
500.935003	2484.262971
501.301226	2485.848414
501.667390	2487.370843
502.033497	2492.326297
502.399546	2486.415544
502.765537	2486.271871
503.131470	2493.566421
503.497345	2494.912409
503.863163	2491.577686
504.228923	2497.783346
504.594625	2496.165136
504.960269	2496.034066
505.325856	2501.299551
505.691385	2501.962463
506.056856	2503.074037
506.422270	2506.960767
506.787625	2508.523524
507.152924	2507.734584
507.518164	2511.835562
507.883347	2511.523011
508.248472	2515.397137
508.613540	2517.748836
508.978550	2521.081038
509.343503	2520.627335
509.708398	2525.124044
510.073236	2527.647141
510.438016	2530.490352
510.802738	2530.966741
511.167403	2534.641742
511.532010	2537.860519
511.896561	2538.495704
512.261053	2548.451983
512.625488	2544.923176
512.989866	2542.939482
513.354186	2547.378218
513.718449	2544.330840
514.082655	2553.876265
514.446803	2551.539690
514.810894	2557.087480
515.174927	2558.292316
515.538904	2555.239897
515.902822	2559.902964
516.266684	2561.284240
516.630488	2560.195351
516.994235	2560.553273
517.357925	2562.415979
517.721558	2563.179714
518.085133	2565.032338
518.448651	2565.571742
518.812112	2562.388253
519.175516	2563.973696
519.538863	2564.077040
519.902152	2564.926474
520.265385	2562.103428
520.628560	2562.231977
520.991678	2560.742316
521.354739	2562.726010
521.717743	2560.182748
522.080690	2562.032852
522.443580	2559.698798
522.806413	2559.149312
523.169189	2555.623025
523.531908	2553.929197
523.894569	2551.900132
524.257174	2550.559186
524.619722	2549.452652
524.982213	2548.494833
525.344647	2546.793444
525.707025	2542.647095
526.069345	2539.791281
526.431608	2537.575694
526.793815	2537.414377
527.155964	2535.912113
527.518057	2527.314425
527.880093	2529.945908
528.242072	2525.310567
528.603995	2525.577748
528.965860	2518.721778
529.327669	2517.736233
529.689421	2511.883453
530.051117	2515.021572
530.412755	2510.149296
530.774337	2510.933196
531.135862	2505.466064
531.497331	2502.572442
531.858743	2494.972903
532.220098	2499.457009
532.581396	2489.931749
532.942638	2489.571306
533.303824	2490.118272
533.664953	2490.456029
534.026025	2483.153918
534.387040	2484.177272
534.747999	2483.423619
535.108902	2480.976139
535.469748	2477.084368
535.830537	2475.934985
536.191270	2477.495222
536.551947	2475.325006
536.912567	2469.416773
537.273131	2470.162864
537.633638	2466.689509
537.994089	2468.955508
538.354483	2468.073306
538.714821	2464.526854
539.075103	2465.449385
539.435328	2464.680609
539.795497	2462.180197
540.155609	2462.664148
540.515665	2457.277675
540.875665	2457.988478
541.235609	2458.543004
541.595496	2457.043261
541.955328	2458.046451
542.315102	2457.323045
542.674821	2454.865483
543.034483	2452.571758
543.394090	2455.556121
543.753640	2453.380863
544.113134	2455.730041
544.472571	2450.847683
544.831953	2452.934721
545.191278	2454.953703
545.550548	2451.634103
545.909761	2452.821295
546.268918	2451.989504
546.628019	2453.025462
546.987064	2447.966664
547.346053	2450.333485
547.704986	2450.456994
548.063863	2448.616973
548.422684	2446.545058
548.781449	2450.169648
549.140158	2447.170161
549.498811	2449.680656
549.857408	2448.843824
550.215949	2447.399534
550.574434	2443.779985
550.932864	2443.371652
551.291237	2444.014399
551.649555	2447.644030
552.007817	2446.973556
552.366022	2448.528752
552.724173	2446.459359
553.082267	2445.312496
553.440305	2448.609411
553.798288	2445.667898
554.156215	2447.742332
554.514086	2450.126798
554.871902	2446.134204
555.229661	2445.541869
555.587365	2445.809050
555.945014	2444.480706
556.302606	2446.661005
556.660143	2446.093875
557.017625	2444.546241
557.375050	2446.376180
557.732421	2443.492640
558.089735	2445.955243
558.446994	2445.204111
558.804197	2444.624379
559.161345	2445.637651
559.518437	2447.155038
559.875474	2442.718823
560.232455	2448.737960
560.589381	2443.492640
560.946251	2446.509770
561.303065	2445.100768
561.659825	2445.010027
562.016528	2444.253854
562.373177	2444.515994
562.729770	2440.949378
563.086307	2446.897939
563.442789	2443.666559
563.799216	2446.078752
564.155587	2444.359718
564.511904	2443.595983
564.868164	2445.614965
565.224370	2443.298555
565.580520	2445.176385
565.936615	2444.579008
566.292654	2443.974070
566.648638	2442.905345
567.004567	2443.482557
567.360441	2442.973401
567.716260	2445.438525
568.072023	2443.658998
568.427732	2439.895776
568.783385	2441.153544
569.138982	2438.479212
569.494525	2441.818977
569.850013	2435.000816
570.205445	2443.709409
570.560823	2442.910386
570.916145	2443.041456
571.271412	2443.288473
571.626625	2441.161106
571.981782	2439.558019
572.336884	2441.466096
572.691931	2443.366611
573.046923	2440.616661
573.401860	2445.118412
573.756743	2443.626230
574.111570	2441.476178
574.466342	2440.314192
574.821059	2438.454006
575.175722	2439.840324
575.530330	2439.225303
575.884882	2438.249840
576.239380	2440.294027
576.593823	2439.253029
576.948211	2438.206990
577.302544	2440.309151
577.656823	2439.235385
578.011047	2438.635488
578.365216	2439.028698
578.719330	2439.832762
579.073389	2436.074582
579.427394	2441.476178
579.781344	2437.952412
580.135239	2441.806374
580.489080	2437.476023
580.842866	2435.199942
581.196597	2440.122628
581.550273	2435.363779
581.903895	2435.484767
582.257463	2438.179263
582.610975	2437.665066
582.964434	2439.391661
583.317837	2437.528955
583.671186	2438.040632
584.024481	2437.977617
584.377721	2437.435693
584.730906	2436.800508
585.084037	2438.244798
585.437113	2435.923347
585.790135	2436.102308
586.143103	2435.895621
586.496016	2439.860488
586.848874	2433.380085
587.201679	2433.942174
587.554428	2432.785229
587.907124	2432.760023
588.259765	2433.644746
588.612352	2432.155085
588.964884	2434.156423
589.317362	2435.890580
589.669786	2436.946701
590.022155	2436.452668
590.374470	2435.504931
590.726731	2435.552822
591.078937	2432.507965
591.431090	2435.257915
591.783188	2435.832606
592.135232	2433.801021
592.487222	2433.682554
592.839157	2434.816814
593.191038	2434.262287
593.542866	2433.443099
593.894639	2431.656010
594.246358	2436.732452
594.598022	2432.049220
594.949633	2434.325301
595.301190	2434.128696
595.652692	2436.314037
596.004141	2434.771443
596.355535	2433.919488
596.706876	2433.682554
597.058162	2431.668613
597.409395	2432.132399
597.760573	2432.414704
598.111698	2431.855136
598.462768	2434.723552
598.813785	2431.840013
599.164748	2431.555187
599.515657	2430.907399
599.866511	2432.359251
600.217312	2431.557708
600.568060	2430.468819
600.918753	2434.658017
601.269392	2430.100814
601.619978	2432.381937
601.970510	2429.664755
602.320988	2433.876639
602.671412	2434.138779
603.021783	2434.441248
603.372100	2430.496545
603.722363	2428.432192
604.072572	2427.423962
604.422728	2430.839343
604.772830	2427.126534
605.122878	2426.622418
605.472872	2429.213571
605.822813	2423.333065
606.172701	2427.360947
606.522534	2433.435538
606.872314	2430.690629
607.222041	2430.541915
607.571714	2430.123500
607.921333	2429.863880
608.270899	2430.264652
608.620411	2427.118972
608.969870	2432.679365
609.319276	2431.109045
609.668627	2431.648449
610.017926	2436.061979
610.367171	2431.860177
610.716362	2430.841864
611.065500	2430.438572
611.414585	2430.310022
611.763616	2429.437903
612.112594	2428.994281
612.461518	2430.753644
612.810389	2431.333377
613.159207	2429.319436
613.507971	2429.697522
613.856682	2429.732810
614.205340	2431.431679
614.553945	2429.571493
614.902496	2433.526278
615.250994	2429.851277
615.599439	2430.894796
615.947830	2433.138110
616.296169	2429.901689
616.644454	2433.367482
616.992686	2432.898655
617.340864	2430.554518
617.688990	2431.857657
618.037063	2428.354055
618.385082	2430.935125
618.733048	2431.638366
619.080961	2433.932091
619.428821	2434.088367
619.776628	2429.742892
620.124382	2431.161977
620.472083	2430.884714
620.819731	2433.054931
621.167326	2430.367996
621.514868	2433.765733
621.862357	2431.504776
622.209793	2430.768767
622.557176	2430.736000
622.904506	2427.449167
623.251783	2424.192582
623.599007	2429.150557
623.946179	2425.566297
624.293297	2427.847419
624.640363	2428.331369
624.987376	2426.264496
625.334336	2427.973447
625.681243	2426.108221
626.028097	2427.111410
626.374899	2427.277768
626.721647	2426.440937
627.068343	2426.002356
627.414987	2428.525454
627.761577	2428.200299
628.108115	2428.044024
628.454600	2428.585948
628.801032	2424.948755
629.147412	2427.791966
629.493739	2426.929929
629.840014	2427.418921
630.186236	2424.679053
630.532405	2425.362130
630.878521	2428.467481
631.224585	2427.187027
631.570597	2423.501944
631.916556	2427.567635
632.262462	2427.302974
632.608316	2424.575710
632.954117	2428.263314
633.299866	2424.421955
633.645562	2425.036975
633.991206	2424.442119
634.336797	2424.880700
634.682336	2422.798703
635.027823	2424.283323
635.373257	2426.428334
635.718639	2424.285843
636.063968	2423.751481
636.409245	2424.769794
636.754470	2423.665782
637.099642	2423.426327
637.444762	2423.459094
637.789829	2422.271903
638.134845	2423.363312
638.479808	2424.064033
638.824719	2422.534043
639.169577	2423.292736
639.514383	2422.942376
639.859137	2421.079670
640.203839	2423.070925
640.548489	2421.482962
640.893086	2418.969947
641.237632	2419.620256
641.582125	2418.901891
641.926566	2418.080183
642.270955	2421.926583
642.615292	2419.423651
642.959576	2422.894485
643.303809	2421.462797
643.647990	2420.608322
643.992118	2423.449012
644.336195	2423.650658
644.680219	2420.295770
645.024192	2423.378436
645.368112	2422.826429
645.711981	2421.147725
646.055797	2423.443971
646.399562	2423.983374
646.743274	2421.356933
647.086935	2425.165525
647.430544	2423.436409
647.774101	2424.905905
648.117606	2420.946079
648.461059	2422.609660
648.804460	2424.600916
649.147810	2422.647468
649.491108	2424.837850
649.834354	2421.823240
650.177548	2419.242169
650.520690	2422.642427
650.863781	2420.419278
651.206820	2423.655699
651.549807	2419.905081
651.892742	2421.200657
652.235626	2423.116296
652.578458	2419.688311
652.921238	2419.549679
653.263967	2419.506830
653.606644	2420.222673
653.949269	2419.574885
654.291843	2416.898033
654.634365	2419.423651
654.976836	2417.588671
655.319255	2421.729978
655.661622	2416.829977
656.003938	2417.318969
656.346203	2416.519946
656.688416	2416.000707
657.030577	2417.087076
657.372687	2416.144380
657.714746	2418.743095
658.056753	2416.514905
658.398708	2413.898546
658.740612	2414.558937
659.082465	2415.307548
659.424266	2415.186561
659.766016	2416.058680
660.107715	2418.811150
660.449362	2416.691345
660.790958	2418.569175
661.132503	2417.203022
661.473996	2420.464649
661.815438	2419.932807
662.156829	2418.092786
662.498168	2419.315266
662.839456	2418.208733
663.180693	2417.472724
663.521879	2418.244021
663.863013	2416.872827
664.204097	2419.171593
664.545129	2418.770821
664.886110	2416.635892
665.227040	2419.552200
665.567918	2418.425502
665.908746	2420.527663
666.249522	2419.471542
666.590248	2417.417271
666.930922	2421.545976
667.271545	2416.973650
667.612118	2418.735533
667.952639	2420.406676
668.293109	2418.554052
668.633528	2415.005079
668.973896	2419.771490
669.314213	2418.415420
669.654480	2417.558424
669.994695	2418.967426
670.334859	2420.131933
670.674973	2417.994483
671.015035	2417.008938
671.355047	2419.501788
671.695008	2414.667322
672.034918	2417.190419
672.374777	2419.118661
672.714585	2414.952147
673.054342	2417.003897
673.394049	2415.428536
673.733705	2420.550348
674.073310	2419.486665
674.412864	2417.767632
674.752368	2416.141859
675.091820	2417.069432
675.431223	2416.240162
675.770574	2416.787127
676.109875	2414.379976
676.449125	2412.555078
676.788324	2413.137332
677.127473	2415.547003
677.466571	2412.431570
677.805619	2418.576737
678.144616	2417.145049
678.483562	2417.402148
678.822458	2415.090779
679.161303	2415.347878
679.500098	2416.582960
679.838842	2416.522467
680.177535	2415.652868
680.516179	2417.011458
680.854771	2414.385017
681.193314	2418.511202
681.531805	2416.434246
681.870247	2420.560431
682.208638	2419.166552
682.546978	2420.028589
682.885268	2418.997673
683.223508	2418.937179
683.561697	2417.452559
683.899836	2421.079670
684.237925	2413.613721
684.575963	2416.772004
684.913951	2415.118505
685.251889	2416.527508
685.589776	2417.944072
685.927614	2416.159503
686.265401	2415.506674
686.603137	2416.721592
686.940824	2417.094637
687.278460	2419.456418
687.616046	2418.470872
687.953582	2418.533887
688.291068	2418.564134
688.628504	2418.846438
688.965889	2420.653692
689.303224	2418.211253
689.640510	2416.189750
689.977745	2415.534400
690.314930	2418.428023
690.652065	2419.015317
690.989150	2416.719072
691.326185	2416.441808
691.663170	2414.874009
692.000105	2413.618762
692.336990	2411.892167
692.673825	2415.862075
693.010610	2413.318813
693.347345	2409.225396
693.684030	2410.520973
694.020665	2411.529204
694.357251	2410.379821
694.693786	2412.285377
695.030272	2412.534914
695.366707	2415.753691
695.703093	2413.275963
696.039429	2410.868812
696.375716	2410.515932
696.711952	2412.781930
697.048139	2412.691190
697.384276	2410.178174
697.720363	2411.224214
698.056400	2412.991138
698.392388	2410.679769
698.728326	2409.752197
699.064214	2411.771179
699.400053	2410.488205
699.735842	2411.660274
700.071581	2413.850655
700.407270	2410.556261
700.742910	2409.444687
701.078501	2412.295459
701.414042	2411.688000
701.749533	2410.775551
702.084974	2408.839748
702.420366	2408.726322
702.755709	2411.325037
703.091002	2409.689183
703.426246	2409.064079
703.761440	2413.089441
704.096584	2409.490057
704.431679	2409.784964
704.766725	2411.859399
705.101721	2408.300345
705.436668	2408.287742
705.771565	2409.048956
706.106413	2408.794378
706.441212	2408.189439
706.775961	2410.145407
707.110661	2409.694224
707.445311	2411.524162
707.779913	2410.117681
708.114465	2410.526014
708.448967	2409.946281
708.783421	2410.233627
709.117825	2412.121539
709.452180	2412.880233
709.786485	2410.596590
710.120742	2414.868968
710.454949	2409.159861
710.789107	2411.229255
711.123216	2405.613410
711.457275	2410.631878
711.791286	2408.219686
712.125247	2411.052815
712.459159	2410.745304
712.793023	2414.173289
713.126837	2409.437125
713.460602	2413.487692
713.794318	2412.451735
714.127985	2411.085582
714.461602	2411.035171
714.795171	2413.807805
715.128691	2412.502146
715.462162	2411.667835
715.795584	2409.888308
716.128957	2412.514749
716.462281	2408.499470
716.795556	2414.808474
717.128782	2409.903432
717.461960	2408.688513
717.795088	2407.997875
718.128167	2410.067269
718.461198	2407.433266
718.794180	2410.951992
719.127113	2406.445200
719.459997	2408.885118
719.792833	2409.180026
720.125619	2406.893863
720.458357	2405.313461
720.791046	2405.910838
721.123686	2405.903276
721.456278	2408.794378
721.788821	2407.395458
722.121315	2407.100550
722.453761	2405.961249
722.786158	2407.460993
723.118506	2405.464696
723.450805	2405.620971
723.783056	2405.711712
724.115259	2409.389234
724.447412	2408.416291
724.779518	2404.557288
725.111574	2407.735735
725.443582	2406.881260
725.775542	2406.500653
726.107453	2405.310940
726.439315	2407.425704
726.771129	2412.111457
727.102895	2406.483009
727.434612	2410.997362
727.766281	2408.559964
728.097901	2406.866136
728.429473	2402.586197
728.760996	2407.375293
729.092471	2402.787843
729.423897	2408.827145
729.755276	2405.694068
730.086606	2407.670200
730.417887	2408.529717
730.749120	2408.045766
731.080305	2407.962587
731.411442	2410.278997
731.742530	2409.457289
732.073570	2411.289749
732.404562	2411.919893
732.735506	2409.638771
733.066401	2408.146589
733.397249	2411.078020
733.728048	2407.715571
734.058798	2411.335119
734.389501	2408.030643
734.720156	2407.718091
735.050762	2405.671383
735.381320	2407.166085
735.711831	2408.015519
736.042293	2407.720612
736.372707	2404.398492
736.703073	2405.033677
737.033391	2404.128790
737.363661	2408.953174
737.693883	2405.593245
738.024056	2406.835889
738.354182	2408.043246
738.684260	2408.552402
739.014290	2407.382855
739.344272	2409.656415
739.674207	2408.610376
740.004093	2406.974521
740.333931	2406.513256
740.663722	2408.814542
740.993464	2408.363359
741.323159	2406.437638
741.652806	2404.421177
741.982405	2407.471075
742.311956	2405.439490
742.641460	2409.578277
742.970915	2405.754562
743.300323	2407.148441
743.629683	2407.443348
743.958996	2406.200704
744.288260	2404.859757
744.617477	2406.760272
744.946647	2402.024108
745.275768	2404.146434
745.604842	2401.502349
745.933869	2402.785322
746.262847	2399.173336
746.591778	2405.406722
746.920662	2403.367576
747.249498	2406.293965
747.578286	2404.970663
747.907027	2405.772206
748.235720	2406.235992
748.564365	2405.396640
748.892963	2408.116343
749.221514	2405.694068
749.550017	2404.438821
749.878473	2404.277504
750.206881	2404.456465
750.535242	2404.947977
750.863555	2404.940416
751.191821	2406.634243
751.520039	2406.893863
751.848210	2407.939902
752.176334	2404.511918
752.504411	2406.624161
752.832440	2403.854047
753.160421	2407.755900
753.488356	2403.130641
753.816243	2406.311609
754.144082	2403.312123
754.471875	2405.041239
754.799620	2405.978893
755.127318	2405.936043
755.454969	2404.869839
755.782572	2404.658111
756.110129	2404.232133
756.437638	2402.646691
756.765100	2405.300858
757.092515	2404.451424
757.419882	2404.385889
757.747203	2401.000754
758.074477	2406.115004
758.401703	2405.946126
758.728882	2403.481002
759.056014	2405.074006
759.383099	2405.280693
759.710138	2404.360683
760.037129	2404.607699
760.364073	2407.138359
760.690970	2403.773388
761.017820	2403.876732
761.344623	2404.985786
761.671379	2405.013512
761.998088	2400.955383
762.324751	2405.867988
762.651366	2405.482340
762.977935	2412.524832
763.304456	2409.913514
763.630931	2418.226377
763.957359	2413.858217
764.283740	2413.656571
764.610074	2412.045922
764.936362	2412.323185
765.262602	2407.463513
765.588796	2408.938051
765.914943	2404.247257
766.241044	2406.135169
766.567097	2403.874212
766.893104	2408.323030
767.219064	2403.927144
767.544978	2402.440003
767.870845	2402.636608
768.196665	2401.217523
768.522438	2403.123080
768.848165	2403.314643
769.173846	2404.280024
769.499479	2402.906310
769.825066	2400.063099
770.150607	2403.168450
770.476101	2402.525703
770.801548	2401.953532
771.126949	2403.508728
771.452303	2401.532596
771.777611	2400.662997
772.102872	2400.978069
772.428087	2400.978069
772.753256	2402.848337
773.078378	2398.833058
773.403453	2402.838254
773.728482	2402.036711
774.053465	2402.545867
774.378401	2400.219375
774.703291	2399.697616
775.028135	2399.201062
775.352932	2398.225599
775.677683	2398.412121
776.002388	2402.394633
776.327046	2400.534447
776.651658	2399.125445
776.976224	2398.097049
777.300743	2397.787018
777.625216	2398.885990
777.949643	2399.508572
778.274024	2398.946484
778.598359	2396.337687
778.922647	2396.156205
779.246889	2397.744168
779.571086	2396.161246
779.895236	2400.988151
780.219339	2397.464384
780.543397	2399.594272
780.867409	2399.075033
781.191374	2399.581669
781.515294	2398.891031
781.839167	2400.395815
782.162995	2400.942781
782.486776	2398.734755
782.810511	2401.288100
783.134201	2399.813562
783.457844	2399.453120
783.781441	2400.231978
784.104993	2397.671072
784.428498	2400.597462
784.751958	2399.344735
785.075372	2397.396329
785.398739	2398.757440
785.722061	2400.151319
786.045337	2398.661658
786.368568	2400.504200
786.691752	2399.644683
787.014891	2400.060579
787.337983	2401.603172
787.661030	2403.223903
787.984031	2400.307595
788.306987	2399.332132
788.629897	2401.215003
788.952760	2402.210631
789.275579	2401.751886
789.598351	2402.916392
789.921078	2401.151988
790.243759	2399.614437
790.566395	2400.937739
790.888984	2397.797101
791.211529	2398.883469
791.534027	2400.743655
791.856480	2401.575445
792.178888	2398.381874
792.501249	2399.498490
792.823566	2399.513613
793.145836	2398.480177
793.468062	2399.415311
793.790241	2398.865825
794.112375	2401.840106
794.434464	2402.185425
794.756507	2399.569066
795.078505	2400.148799
795.400457	2398.533109
795.722364	2393.678478
796.044226	2399.405229
796.366042	2394.835423
796.687812	2398.064282
797.009538	2398.172667
797.331218	2397.451782
797.652852	2398.427245
797.974442	2401.008316
798.295986	2397.910527
798.617484	2401.865312
798.938938	2399.778274
799.260346	2401.759448
799.581709	2402.442524
799.903026	2400.441186
800.224299	2399.138048
800.545526	2401.033521
800.866708	2398.129817
801.187845	2398.109652
801.508936	2400.675599
801.829983	2398.815414
802.150984	2397.363561
802.471940	2403.584345
802.792851	2396.647718
803.113717	2399.032183
803.434538	2396.864487
803.755314	2396.186452
804.076045	2397.267779
804.396731	2397.023283
804.717372	2399.952194
805.037967	2398.245763
805.358518	2397.572769
805.679024	2397.633263
805.999485	2395.400032
806.319901	2399.133006
806.640272	2397.867677
806.960598	2400.514282
807.280879	2399.286762
807.601115	2399.531257
807.921306	2398.124776
808.241453	2399.271638
808.561554	2395.994888
808.881611	2398.712070
809.201623	2398.601165
809.521590	2399.387585
809.841513	2396.816596
810.161390	2398.172667
810.481223	2399.105280
810.801011	2395.826009
811.120755	2398.475136
811.440453	2398.770043
811.760107	2397.935732
812.079716	2395.122768
812.399281	2394.880793
812.718801	2395.384908
813.038276	2393.118910
813.357707	2397.615619
813.677093	2397.212327
813.996434	2396.677964
814.315731	2395.377347
814.634983	2397.411452
814.954191	2397.698798
815.273354	2397.769374
815.592473	2396.254507
815.911547	2399.369941
816.230577	2398.465053
816.549562	2396.065464
816.868502	2398.943963
817.187399	2400.410939
817.506250	2399.916906
817.825058	2398.003788
818.143821	2400.103428
818.462539	2398.991854
818.781213	2399.621998
819.099843	2400.476474
819.418429	2400.136196
819.736970	2402.064437
820.055466	2403.493604
820.373919	2405.681465
820.692327	2406.634243
821.010691	2414.601787
821.329011	2421.089752
821.647286	2442.602876
821.965517	2456.430761
822.283704	2465.126751
822.601847	2471.251753
822.919945	2464.088274
823.237999	2454.174845
823.556010	2444.271498
823.873976	2434.935281
824.191897	2428.686771
824.509775	2424.583272
824.827609	2419.196799
825.145398	2416.698907
825.463144	2416.575399
825.780845	2416.199833
826.098502	2418.669998
826.416116	2420.086562
826.733685	2425.336924
827.051210	2427.630649
827.368692	2424.915988
827.686129	2419.852149
828.003522	2417.462642
828.320872	2407.970149
828.638177	2405.457134
828.955439	2404.980745
829.272656	2402.223234
829.589830	2398.732235
829.906960	2402.008985
830.224046	2400.524365
830.541088	2397.824827
830.858086	2401.565363
831.175041	2399.427914
831.491952	2396.849364
831.808819	2402.245919
832.125642	2401.237688
832.442421	2401.446896
832.759157	2403.443193
833.075849	2406.404871
833.392497	2410.712537
833.709101	2414.836201
834.025662	2413.575912
834.342179	2409.505180
834.658653	2408.839748
834.975083	2405.936043
835.291469	2409.255643
835.607811	2401.043604
835.924110	2399.039745
836.240366	2399.422873
836.556578	2398.969169
836.872746	2397.847512
837.188871	2399.977400
837.504952	2398.399518
837.820990	2394.356513
838.136984	2400.967986
838.452935	2398.366751
838.768842	2398.313819
839.084706	2397.129148
839.400526	2399.987482
839.716303	2400.791546
840.032037	2402.175343
840.347727	2399.891700
840.663373	2401.116700
840.978977	2400.146278
841.294537	2398.840619
841.610054	2397.792059
841.925527	2397.847512
842.240957	2397.161915
842.556344	2397.983623
842.871687	2396.327604
843.186987	2396.037738
843.502244	2398.281051
843.817458	2394.767367
844.132629	2397.214847
844.447756	2395.228633
844.762840	2389.504403
845.077881	2391.717469
845.392879	2391.046996
845.707833	2393.459188
846.022745	2391.258724
846.337613	2390.326111
846.652438	2394.414486
846.967221	2394.432130
847.281960	2393.993550
847.596656	2394.449774
847.911309	2393.708725
848.225919	2394.122099
848.540485	2396.758623
848.855009	2393.469270
849.169490	2391.462891
849.483928	2395.132851
849.798323	2393.330638
850.112675	2396.483880
850.426984	2393.902809
850.741251	2396.597306
851.055474	2393.381050
851.369654	2392.831564
851.683792	2392.824002
851.997887	2392.710576
852.311938	2392.589589
852.625947	2395.977244
852.939914	2394.890875
853.253837	2392.345093
853.567718	2394.227964
853.881555	2398.311298
854.195350	2392.201420
854.509103	2395.621843
854.822812	2393.486914
855.136479	2396.441030
855.450103	2391.982130
855.763685	2396.546894
856.077224	2391.888868
856.390720	2393.456667
856.704173	2395.936915
857.017584	2394.633777
857.330953	2394.391801
857.644278	2392.672768
857.957561	2397.620660
858.270802	2397.459343
858.584000	2393.249980
858.897155	2395.354662
859.210268	2392.803838
859.523339	2395.584034
859.836367	2395.629404
860.149352	2393.507079
860.462295	2396.665362
860.775195	2391.147819
861.088054	2389.917777
861.400869	2390.855432
861.713642	2388.982643
862.026373	2392.884496
862.339062	2394.054044
862.651708	2393.912892
862.964312	2393.212171
863.276873	2392.196379
863.589392	2390.978940
863.901869	2394.938766
864.214303	2393.053375
864.526696	2394.132182
864.839045	2392.408107
865.151353	2393.451626
865.463619	2391.868704
865.775842	2394.661503
866.088023	2394.021276
866.400162	2395.329456
866.712258	2395.115207
867.024313	2393.875083
867.336325	2395.513458
867.648296	2393.731410
867.960224	2393.640669
868.272110	2392.967675
868.583954	2393.496996
868.895755	2393.058416
869.207515	2393.557490
869.519233	2394.356513
869.830909	2394.840464
870.142542	2398.321381
870.454134	2394.437172
870.765684	2395.321894
871.077191	2392.733262
871.388657	2396.592265
871.700081	2393.983468
872.011463	2391.609084
872.322803	2395.001781
872.634101	2395.687378
872.945357	2393.680998
873.256571	2395.573952
873.567744	2395.793242
873.878874	2396.206617
874.189963	2396.254507
874.501010	2394.837943
874.812015	2395.301729
875.122979	2396.302398
875.433900	2395.936915
875.744780	2396.541853
876.055618	2394.507748
876.366415	2394.575803
876.677169	2397.429096
876.987882	2391.694784
877.298554	2389.209495
877.609183	2392.534136
877.919771	2388.642365
878.230317	2393.547408
878.540822	2398.059241
878.851285	2396.196534
879.161707	2399.904303
879.472087	2399.644683
879.782425	2401.504869
880.092722	2404.113666
880.402977	2410.901580
880.713191	2418.690163
881.023363	2424.658889
881.333494	2430.862029
881.643583	2429.863880
881.953631	2430.146185
882.263637	2430.153747
882.573602	2423.353230
882.883526	2422.344999
883.193408	2416.164545
883.503248	2414.450552
883.813048	2413.815367
884.122806	2408.746487
884.432522	2408.542320
884.742197	2404.784140
885.051831	2404.395971
885.361424	2400.849519
885.670975	2401.467061
885.980485	2398.586041
886.289954	2401.295661
886.599382	2396.796432
886.908768	2395.853736
887.218113	2395.455485
887.527417	2395.294168
887.836680	2394.197717
888.145901	2394.086811
888.455082	2395.659651
888.764221	2392.392984
889.073319	2392.473642
889.382376	2397.529919
889.691392	2394.994219
890.000366	2393.726369
890.309300	2395.914230
890.618193	2395.878942
890.927044	2394.243087
891.235855	2395.919271
891.544625	2393.915412
891.853353	2393.716287
892.162041	2393.766698
892.470687	2397.456823
892.779293	2394.283416
893.087858	2394.207799
893.396381	2395.851215
893.704864	2398.066802
894.013306	2396.269631
894.321707	2401.706515
894.630068	2402.319016
894.938387	2404.043090
895.246665	2402.424880
895.554903	2404.494273
895.863100	2403.758265
896.171256	2401.575445
896.479371	2402.114849
896.787446	2399.133006
897.095480	2397.666031
897.403473	2397.706360
897.711425	2395.382388
898.019336	2400.809190
898.327207	2396.824158
898.635038	2396.481359
898.942827	2396.282234
899.250576	2395.578993
899.558284	2397.474467
899.865952	2394.817779
900.173579	2395.331976
900.481165	2397.247615
900.788711	2395.747872
901.096216	2393.441544
901.403681	2393.234856
901.711105	2396.110835
902.018489	2390.774773
902.325832	2396.965310
902.633135	2396.209137
902.940397	2397.267779
903.247619	2395.193345
903.554800	2398.770043
903.861941	2402.389592
904.169041	2405.288255
904.476101	2406.672052
904.783121	2406.200704
905.090100	2404.272463
905.397039	2403.213820
905.703938	2401.908162
906.010796	2400.960425
906.317614	2399.342214
906.624391	2396.400701
906.931129	2399.327091
907.237826	2399.019580
907.544483	2395.644528
907.851099	2397.628222
908.157675	2393.318035
908.464211	2395.092522
908.770707	2390.510113
909.077163	2391.110010
909.383578	2388.798641
909.689954	2391.730072
909.996289	2388.470966
910.302584	2389.355688
910.608839	2392.738303
910.915054	2393.164280
911.221229	2389.549773
911.527363	2396.700650
911.833458	2392.856770
912.139513	2394.346431
912.445527	2393.023128
912.751502	2394.674106
913.057436	2393.277706
913.363331	2394.202758
913.669186	2395.334497
913.975000	2392.284599
914.280775	2395.021945
914.586510	2398.399518
914.892205	2395.823489
915.197859	2400.211813
915.503475	2403.551578
915.809050	2406.062072
916.114585	2406.301527
916.420081	2406.485529
916.725536	2404.678276
917.030952	2407.692886
917.336328	2404.353121
917.641665	2405.648698
917.946961	2402.530744
918.252218	2404.070817
918.557435	2400.017729
918.862612	2400.549571
919.167750	2402.319016
919.472848	2399.435476
919.777906	2396.277193
920.082925	2397.774415
920.387904	2397.088818
920.692843	2393.660834
920.997743	2394.253169
921.302603	2394.835423
921.607423	2393.388612
921.912204	2396.037738
922.216946	2392.708056
922.521647	2393.887686
922.826310	2395.218550
923.130932	2392.415669
923.435516	2396.940104
923.740059	2394.795093
924.044564	2391.150339
924.349028	2392.725700
924.653454	2389.517005
924.957840	2390.550442
925.262186	2388.932232
925.566493	2394.946328
925.870761	2387.568599
926.174989	2392.760988
926.479178	2393.975906
926.783328	2392.312325
927.087438	2390.578168
927.391509	2389.985833
927.695541	2390.074053
927.999533	2390.535318
928.303486	2389.789228
928.607400	2389.829557
928.911275	2389.406100
929.215110	2392.128323
929.518906	2393.174363
929.822663	2392.208982
930.126381	2387.780328
930.430060	2390.434495
930.733699	2391.714948
931.037299	2393.433982
931.340861	2392.319887
931.644383	2391.241080
931.947866	2391.046996
932.251309	2392.420710
932.554714	2390.381563
932.858080	2392.156049
933.161407	2389.403579
933.464694	2390.706718
933.767943	2389.204454
934.071153	2391.772922
934.374323	2389.315359
934.677455	2391.813251
934.980548	2390.837788
935.283602	2391.082284
935.586617	2390.989022
935.889593	2389.406100
936.192530	2389.297715
936.495428	2393.060937
936.798287	2391.248642
937.101108	2390.744526
937.403890	2389.617828
937.706632	2391.435164
938.009336	2393.146636
938.312002	2391.135216
938.614628	2392.065309
938.917216	2390.449619
939.219765	2392.271996
939.522275	2392.592109
939.824747	2392.080432
940.127179	2388.334855
940.429573	2389.635472
940.731929	2388.715462
941.034246	2386.406613
941.336524	2394.459857
941.638763	2391.934239
941.940964	2388.959958
942.243126	2391.984650
942.545250	2390.353837
942.847335	2390.615977
943.149381	2395.279044
943.451389	2390.119423
943.753359	2392.294681
944.055290	2391.296533
944.357182	2390.333672
944.659036	2391.440206
944.960851	2391.568755
945.262628	2390.353837
945.564367	2389.421223
945.866067	2390.442057
946.167729	2390.885679
946.469352	2389.872407
946.770937	2393.686040
947.072484	2389.917777
947.373992	2392.947511
947.675462	2389.317880
947.976893	2390.126985
948.278286	2387.593805
948.579641	2391.112531
948.880958	2391.104969
949.182236	2391.102448
949.483476	2393.008004
949.784678	2391.586399
950.085841	2390.593292
950.386967	2392.440875
950.688054	2391.548590
950.989103	2391.576317
951.290114	2389.630431
951.591087	2389.315359
951.892021	2390.454660
952.192917	2390.512633
952.493776	2391.147819
952.794596	2390.961296
953.095378	2390.109341
953.396122	2393.486914
953.696828	2390.651265
953.997496	2393.005484
954.298126	2391.974568
954.598718	2390.174876
954.899272	2391.089845
955.199788	2392.521533
955.500266	2389.325442
955.800706	2391.402397
956.101108	2385.857128
956.401472	2388.017262
956.701798	2387.545914
957.002087	2387.533311
957.302337	2388.501213
957.602550	2392.239228
957.902724	2390.396687
958.202861	2391.926677
958.502960	2390.321069
958.803022	2391.730072
959.103045	2388.959958
959.403031	2391.314177
959.702979	2390.943652
960.002889	2391.321738
960.302762	2387.639176
960.602596	2389.443909
960.902393	2388.947355
961.202153	2386.242776
961.501875	2388.352499
961.801559	2388.995246
962.101205	2386.434340
962.400814	2391.795607
962.700385	2391.427603
962.999918	2387.503064
963.299414	2390.429454
963.598873	2387.523229
963.898293	2389.738816
964.197677	2388.211347
964.497022	2390.303425
964.796331	2388.113044
965.095601	2388.642365
965.394835	2391.994732
965.694030	2389.222098
965.993189	2389.799310
966.292309	2388.307128
966.591393	2386.923332
966.890439	2389.063302
967.189447	2390.220246
967.488419	2387.762684
967.787353	2390.494989
968.086249	2388.864176
968.385108	2390.053888
968.683930	2388.165976
968.982714	2388.070194
969.281462	2387.850904
969.580172	2389.012890
969.878844	2387.782848
970.177480	2388.400390
970.476078	2389.605226
970.774639	2392.763508
971.073162	2389.574979
971.371649	2387.790410
971.670098	2385.718496
971.968510	2386.066336
972.266885	2383.623897
972.565223	2391.626728
972.863524	2388.556666
973.161788	2388.826367
973.460014	2387.097252
973.758204	2390.643703
974.056356	2390.174876
974.354471	2385.423588
974.652550	2389.012890
974.950591	2388.672612
975.248595	2387.525750
975.546563	2388.803682
975.844493	2387.127498
976.142386	2389.582540
976.440243	2388.453322
976.738062	2388.811244
977.035845	2389.106151
977.333590	2389.048178
977.631299	2389.033055
977.928971	2390.368960
978.226606	2390.573127
978.524204	2391.311656
978.821765	2388.319731
979.119290	2389.703528
979.416777	2388.917108
979.714228	2390.066491
980.011642	2386.787221
980.309020	2389.975750
980.606360	2388.924670
980.903664	2388.029865
981.200931	2390.709238
981.498162	2389.849722
981.795356	2391.609084
982.092513	2390.462222
982.389633	2389.257386
982.686717	2390.454660
982.983764	2393.476832
983.280775	2389.779145
983.577749	2390.568086
983.874686	2389.985833
984.171587	2388.513816
984.468451	2389.222098
984.765279	2390.139588
985.062070	2393.585217
985.358824	2392.176214
985.655543	2391.178066
985.952224	2389.083466
986.248869	2386.520039
986.545478	2382.885368
986.842050	2385.519370
987.138586	2386.792262
987.435086	2385.562220
987.731549	2384.821171
988.027975	2389.035575
988.324366	2387.203116
988.620719	2389.259907
988.917037	2389.857283
989.213318	2388.468445
989.509563	2386.663712
989.805772	2386.706562
990.101944	2386.973743
990.398080	2390.593292
990.694180	2386.769577
990.990244	2386.184803
991.286271	2387.644217
991.582262	2391.901471
991.878217	2389.895092
992.174136	2388.740668
992.470019	2386.900647
992.765865	2386.870400
993.061676	2389.411141
993.357450	2387.077087
993.653188	2389.854763
993.948890	2387.203116
994.244556	2390.941131
994.540186	2388.241593
994.835780	2390.628580
995.131337	2388.723024
995.426859	2388.518857
995.722345	2390.656306
996.017795	2388.292005
996.313208	2391.674619
996.608586	2387.866028
996.903928	2389.811913
997.199234	2387.961809
997.494504	2389.383415
997.789738	2388.241593
998.084936	2388.806203
998.380099	2386.457025
998.675225	2390.759650
998.970316	2387.147663
999.265371	2391.145298
999.560390	2388.332334
999.855373	2388.322252
1000.150320	2389.602705
1000.445232	2390.434495
1000.740108	2387.306459
1001.034948	2389.648075
1001.329752	2386.499875
1001.624521	2386.991387
1001.919254	2382.545090
1002.213951	2384.927035
1002.508613	2382.119112
1002.803239	2386.704042
1003.097829	2384.942158
1003.392384	2387.492982
1003.686903	2386.832591
1003.981386	2387.858466
1004.275834	2388.314690
1004.570246	2388.244114
1004.864623	2388.566748
1005.158964	2387.462735
1005.453270	2387.782848
1005.747540	2388.004659
1006.041775	2388.460884
1006.335974	2388.357540
1006.630138	2388.826367
1006.924266	2387.939124
1007.218359	2386.595657
1007.512416	2386.935935
1007.806438	2387.785369
1008.100425	2385.279916
1008.394376	2391.064640
1008.688292	2389.033055
1008.982172	2386.535163
1009.276017	2389.627911
1009.569827	2384.904350
1009.863602	2389.799310
1010.157341	2387.457694
1010.451045	2385.915101
1010.744714	2385.544576
1011.038347	2388.589433
1011.331945	2385.854607
1011.625508	2386.764535
1011.919036	2386.192364
1012.212528	2386.857797
1012.505986	2388.276882
1012.799408	2388.770915
1013.092795	2387.031717
1013.386147	2388.118085
1013.679464	2388.728065
1013.972745	2387.097252
1014.265992	2386.570451
1014.559204	2385.272354
1014.852380	2388.917108
1015.145521	2389.000287
1015.438628	2383.427292
1015.731699	2386.920811
1016.024736	2388.498692
1016.317737	2387.165307
1016.610703	2390.885679
1016.903635	2385.279916
1017.196531	2382.847559
1017.489393	2384.700183
1017.782219	2381.249513
1018.075011	2387.218239
1018.367768	2388.344937
1018.660490	2387.959289
1018.953177	2387.959289
1019.245829	2387.959289
