Dividing Wavelength (nm)	Counts (n)	Blue Motor Position (mm): 0.000000	Red Motor Position (mm): 20.400000	
326.493990	1983.202526
326.888308	1983.202526
327.282561	1983.202526
327.676750	1954.704883
328.070874	1961.732252
328.464933	1968.752058
328.858929	1975.270270
329.252859	1989.672847
329.646726	2002.205155
330.040528	2018.472959
330.434265	2038.070444
330.827938	2059.417210
331.221547	2075.024623
331.615091	2097.543457
332.008571	2116.425099
332.401986	2138.540641
332.795338	2157.409679
333.188625	2178.842145
333.581847	2197.300330
333.975006	2218.168186
334.368100	2233.636967
334.761129	2250.804616
335.154095	2264.403129
335.546996	2282.357198
335.939833	2298.745989
336.332606	2314.544965
336.725315	2326.006029
337.117960	2334.003819
337.510540	2339.859119
337.903056	2350.586695
338.295508	2354.768332
338.687896	2364.432224
339.080220	2369.087729
339.472480	2376.420088
339.864676	2379.278422
340.256807	2380.788248
340.648875	2386.802344
341.040879	2386.010883
341.432818	2384.937117
341.824694	2387.795451
342.216506	2386.043650
342.608253	2386.126829
342.999937	2387.669423
343.391557	2386.923332
343.783113	2382.708927
344.174605	2386.343599
344.566033	2381.642723
344.957397	2381.015099
345.348697	2377.829090
345.739934	2374.146527
346.131106	2375.127032
346.522215	2373.329860
346.913260	2370.955477
347.304241	2368.543285
347.695159	2368.848275
348.086012	2368.550847
348.476802	2360.676564
348.867528	2361.367202
349.258191	2363.885259
349.648789	2363.355938
350.039324	2358.771008
350.429796	2360.449712
350.820203	2361.389887
351.210548	2359.582634
351.600828	2360.001050
351.991045	2359.847294
352.381198	2358.503827
352.771288	2359.244877
353.161314	2359.514578
353.551276	2358.397963
353.941175	2356.623477
354.331010	2359.002901
354.720782	2357.631707
355.110490	2358.697911
355.500135	2361.851153
355.889717	2359.184383
356.279235	2360.772346
356.668689	2362.350227
357.058080	2359.060874
357.447408	2360.600947
357.836672	2358.682788
358.225873	2361.107583
358.615010	2359.174300
359.004084	2367.111597
359.393095	2364.795187
359.782043	2365.117821
360.170927	2363.711339
360.559748	2367.109077
360.948505	2368.263501
361.337199	2366.438603
361.725830	2371.389016
362.114398	2370.390868
362.502903	2373.329860
362.891344	2372.540920
363.279722	2372.452700
363.668037	2374.522093
364.056289	2373.274408
364.444478	2376.183153
364.832603	2373.287011
365.220665	2374.131404
365.608665	2375.132073
365.996601	2377.196425
366.384474	2380.304297
366.772284	2378.365973
367.160031	2376.974615
367.547715	2379.757332
367.935336	2380.949564
368.322893	2385.111037
368.710388	2382.320758
369.097820	2388.624721
369.485189	2385.766387
369.872495	2386.426778
370.259738	2386.492313
370.646918	2388.896943
371.034035	2389.809392
371.421090	2396.698129
371.808081	2395.359703
372.195010	2405.000909
372.581875	2407.269429
372.968678	2416.492220
373.355418	2419.910122
373.742096	2431.343459
374.128710	2444.881478
374.515262	2451.445060
374.901751	2466.266052
375.288177	2485.240955
375.674540	2501.672596
376.060841	2522.474918
376.447079	2546.042312
376.833254	2573.398133
377.219367	2597.436875
377.605417	2633.753347
377.991404	2657.691267
378.377329	2695.991433
378.763191	2731.191290
379.148991	2778.931017
379.534727	2827.472287
379.920402	2872.134389
380.306013	2920.678180
380.691563	2982.076914
381.077049	3037.108670
381.462474	3095.076898
381.847835	3169.653207
382.233134	3235.838516
382.618371	3296.564255
383.003545	3381.008623
383.388657	3461.510809
383.773706	3549.330230
384.158693	3622.656333
384.543618	3719.630489
384.928480	3792.742343
385.313280	3894.674474
385.698017	4000.548787
386.082692	4115.441724
386.467305	4180.396992
386.851856	4305.654541
387.236344	4458.076348
387.620770	4520.700082
388.005133	4639.920850
388.389435	4780.453096
388.773674	4866.266137
389.157851	4997.701621
389.541965	5127.854131
389.926018	5144.426924
390.310008	5327.239327
390.693936	5450.130055
391.077802	5562.638526
391.461606	5697.834711
391.845348	5806.738757
392.229027	5925.833496
392.612645	6143.134953
392.996200	6260.430001
393.379694	6438.838956
393.763125	6654.829713
394.146494	6748.396049
394.529801	6880.050823
394.913047	7122.535364
395.296230	7115.301308
395.679351	7174.925555
396.062410	7424.238339
396.445408	7324.466343
396.828343	7470.853889
397.211217	7605.664425
397.594028	7482.362843
397.976778	7690.996036
398.359466	7849.792382
398.742092	7828.818662
399.124656	7974.792833
399.507158	8151.271026
399.889598	8175.178698
400.271977	8381.626551
400.654294	8410.519925
401.036549	8603.989327
401.418742	8636.098956
401.800874	8925.551928
402.182944	9005.882714
402.564952	9367.222540
402.946898	9189.907515
403.328783	9250.182071
403.710606	9437.705432
404.092367	9697.715545
404.474067	10049.459534
404.855705	9844.740797
405.237282	9796.723806
405.618797	10219.961439
406.000250	10466.063008
406.381642	10814.172325
406.762972	10764.804306
407.144240	10567.334748
407.525447	10816.314816
407.906593	10754.709395
408.287677	11006.348672
408.668700	11157.860551
409.049661	11133.910029
409.430560	11288.565067
409.811399	11265.713517
410.192176	11422.828638
410.572891	11497.508291
410.953545	11966.267543
411.334138	11449.365272
411.714669	12035.709437
412.095139	11365.636748
412.475547	11854.336284
412.855894	11701.801051
413.236180	12017.100018
413.616405	11714.688760
413.996568	11979.218267
414.376670	11948.033690
414.756711	11833.566730
415.136691	12100.326947
415.516609	12275.703648
415.896466	12328.424035
416.276262	12620.395063
416.655997	13064.377044
417.035670	13095.659924
417.415283	13725.922622
417.794834	13806.533193
418.174324	13556.507086
418.553753	13447.308132
418.933121	13931.851236
419.312428	13733.217172
419.691674	13645.632165
420.070859	14083.715996
420.449983	13742.107247
420.829045	14270.387402
421.208047	14005.119366
421.586988	14444.967601
421.965867	14679.348488
422.344686	14652.741277
422.723444	15182.047308
423.102141	13893.145257
423.480777	15025.920253
423.859352	14528.297874
424.237866	15563.617284
424.616319	15246.558954
424.994712	15841.669686
425.373044	15605.615136
425.751314	16204.806682
426.129524	15331.724207
426.507673	16317.897407
426.885762	15987.137221
427.263789	16105.553925
427.641756	16198.948862
428.019662	16205.409100
428.397508	16168.911147
428.775292	16357.493150
429.153016	16254.419198
429.530679	16243.878145
429.908282	16174.327866
430.285824	15838.960066
430.663305	16352.570463
431.040726	15903.673357
431.418086	15649.233720
431.795385	16102.042761
432.172624	16334.702094
432.549802	15848.308885
432.926920	15875.397526
433.303977	15669.257183
433.680974	15745.156795
434.057910	15846.604975
434.434786	15724.793054
434.811601	15514.299676
435.188355	16199.105137
435.565050	15767.935249
435.941683	15575.680765
436.318257	16075.795994
436.694770	15771.794252
437.071222	16039.534974
437.447614	15179.665363
437.823946	15020.072514
438.200218	14954.103975
438.576429	14620.291370
438.952580	14629.050375
439.328670	14421.072532
439.704700	14518.707079
440.080670	14049.582343
440.456580	14247.742539
440.832429	14158.604857
441.208218	13342.598325
441.583947	13422.240994
441.959616	13288.093370
442.335224	13223.110376
442.710773	13109.376904
443.086261	13210.789796
443.461689	12649.043941
443.837057	12497.307730
444.212365	12644.852221
444.587612	12434.280704
444.962800	12010.067608
445.337927	12013.193124
445.712995	11208.340145
446.088002	11882.211344
446.462949	11763.436718
446.837837	11630.831687
447.212664	11399.727550
447.587431	12401.036815
447.962139	13465.829331
448.336786	14242.270367
448.711374	13345.376001
449.085901	11583.580952
449.460369	11278.046699
449.834776	11008.465956
450.209124	11670.034220
450.583412	11298.075204
450.957640	11247.756927
451.331808	10567.339789
451.705917	9873.674499
452.079965	9649.169233
452.453954	9551.945540
452.827883	9308.551071
453.201752	9047.189929
453.575562	8893.727124
453.949311	8999.354420
454.323001	8804.413001
454.696632	8547.248620
455.070202	8734.351045
455.443713	8579.015451
455.817164	8508.046087
456.190556	8428.433665
456.563888	8113.684183
456.937160	8002.761155
457.310373	7467.524207
457.683526	7367.439659
458.056619	7183.077101
458.429653	6988.412945
458.802628	6919.250835
459.175542	6774.310100
459.548398	6825.382030
459.921194	6911.000987
460.293930	6871.498505
460.666607	7017.412183
461.039224	7099.451920
461.411782	6965.236240
461.784280	6622.452902
462.156719	6357.920875
462.529099	6109.565910
462.901419	5794.040091
463.273680	5521.848030
463.645882	5381.378799
464.018024	5246.774950
464.390106	5191.405437
464.762130	5325.558102
465.134094	5599.285194
465.505999	5960.856913
465.877845	6204.952102
466.249631	6111.030365
466.621358	5766.182675
466.993026	5421.675262
467.364634	5118.565805
467.736184	4849.131255
468.107674	4654.842665
468.479105	4502.768698
468.850477	4356.683621
469.221790	4184.286242
469.593043	4017.575284
469.964238	3886.023854
470.335373	3806.915547
470.706449	3798.211995
471.077467	3827.526305
471.448425	3925.382662
471.819324	3966.720124
472.190164	3836.628108
472.560945	3654.402999
472.931667	3499.992457
473.302330	3409.864188
473.672934	3337.178311
474.043479	3303.251346
474.413965	3245.769589
474.784393	3195.048020
475.154761	3179.927079
475.525070	3143.338384
475.895321	3103.253649
476.265513	3084.503078
476.635645	3076.228023
477.005719	3051.271791
477.375734	3031.422248
477.745691	3021.382790
478.115588	3019.220135
478.485427	3027.152391
478.855207	3053.459652
479.224928	3076.863209
479.594591	3078.370514
479.964194	3044.314999
480.333739	3028.299253
480.703226	3011.885256
481.072653	3002.947291
481.442022	2995.004953
481.811333	2984.973057
482.180584	2958.300312
482.549777	2938.796087
482.918912	2921.903181
483.287988	2907.427508
483.657005	2886.161400
484.025964	2871.506766
484.394864	2865.285982
484.763706	2852.589836
485.132489	2834.476970
485.501213	2825.196206
485.869879	2820.119764
486.238487	2809.969401
486.607036	2804.338432
486.975527	2795.566824
487.343959	2788.990639
487.712333	2787.274126
488.080648	2778.971346
488.448905	2778.994031
488.817104	2773.050511
489.185244	2775.936571
489.553326	2783.279012
489.921350	2797.505148
490.289315	2817.458035
490.657222	2820.817964
491.025070	2818.362922
491.392861	2806.992599
491.760593	2792.481638
492.128267	2775.553443
492.495883	2759.363778
492.863440	2746.503794
493.230939	2732.272617
493.598380	2720.572099
493.965763	2711.208156
494.333088	2705.065510
494.700354	2697.539067
495.067563	2697.045034
495.434713	2690.138653
495.801805	2693.322142
496.168839	2689.586647
496.535815	2684.081707
496.902733	2685.520956
497.269593	2680.527693
497.636395	2679.700944
498.003139	2676.802281
498.369825	2674.647187
498.736453	2675.630212
499.103023	2670.573935
499.469535	2669.875735
499.835989	2668.766682
500.202385	2670.697443
500.568723	2667.944973
500.935003	2669.621157
501.301226	2667.367761
501.667390	2669.951353
502.033497	2676.754390
502.399546	2673.379337
502.765537	2668.761640
503.131470	2671.360355
503.497345	2672.355983
503.863163	2665.371464
504.228923	2670.241219
504.594625	2674.112825
504.960269	2669.293482
505.325856	2674.805984
505.691385	2673.510407
506.056856	2677.016530
506.422270	2679.668177
506.787625	2679.824452
507.152924	2677.954184
507.518164	2683.131449
507.883347	2682.133301
508.248472	2682.153466
508.613540	2688.346523
508.978550	2691.383818
509.343503	2694.085877
509.708398	2695.928418
510.073236	2699.033769
510.438016	2701.738348
510.802738	2699.840354
511.167403	2705.672969
511.532010	2710.189843
511.896561	2713.857282
512.261053	2726.548387
512.625488	2719.891543
512.989866	2720.085628
513.354186	2721.857593
513.718449	2722.230639
514.082655	2730.122565
514.446803	2728.310270
514.810894	2734.647001
515.174927	2739.867115
515.538904	2736.086250
515.902822	2741.883577
516.266684	2741.681931
516.630488	2747.406161
516.994235	2742.317116
517.357925	2747.010430
517.721558	2753.216091
518.085133	2756.757501
518.448651	2758.756319
518.812112	2757.717841
519.175516	2757.929570
519.538863	2761.420569
519.902152	2761.037441
520.265385	2766.055910
520.628560	2766.537340
520.991678	2765.221599
521.354739	2770.136724
521.717743	2770.441713
522.080690	2772.453134
522.443580	2776.556633
522.806413	2776.526386
523.169189	2778.008485
523.531908	2778.777261
523.894569	2778.484874
524.257174	2780.871861
524.619722	2784.549382
524.982213	2783.210956
525.344647	2781.990997
525.707025	2784.176337
526.069345	2784.231790
526.431608	2784.385545
526.793815	2788.862090
527.155964	2786.843107
527.518057	2785.154321
527.880093	2785.371091
528.242072	2788.105917
528.603995	2787.193468
528.965860	2785.207253
529.327669	2786.974177
529.689421	2785.043416
530.051117	2787.982408
530.412755	2788.047943
530.774337	2786.003755
531.135862	2787.899229
531.497331	2787.654733
531.858743	2782.835390
532.220098	2788.060546
532.581396	2784.572068
532.942638	2778.847837
533.303824	2786.548200
533.664953	2786.865793
534.026025	2785.098868
534.387040	2786.709517
534.747999	2784.806481
535.108902	2787.122892
535.469748	2783.873868
535.830537	2783.319341
536.191270	2785.814712
536.551947	2780.687859
536.912567	2781.832201
537.273131	2785.340844
537.633638	2779.987138
537.994089	2782.517797
538.354483	2776.440687
538.714821	2784.498971
539.075103	2784.821605
539.435328	2782.323713
539.795497	2780.955040
540.155609	2781.149124
540.515665	2784.065432
540.875665	2780.660132
541.235609	2784.743467
541.595496	2781.461676
541.955328	2789.189765
542.315102	2782.187602
542.674821	2778.424381
543.034483	2780.239196
543.394090	2776.574277
543.753640	2776.682662
544.113134	2783.223559
544.472571	2776.682662
544.831953	2785.343364
545.191278	2777.761469
545.550548	2773.834410
545.909761	2775.014040
546.268918	2776.332302
546.628019	2780.342540
546.987064	2775.366921
547.346053	2767.215375
547.704986	2773.012702
548.063863	2769.577156
548.422684	2766.270159
548.781449	2765.125817
549.140158	2765.229160
549.498811	2763.835281
549.857408	2756.331524
550.215949	2757.939652
550.574434	2755.653489
550.932864	2754.846904
551.291237	2755.159456
551.649555	2754.670464
552.007817	2753.321955
552.366022	2749.341964
552.724173	2746.420615
553.082267	2749.881367
553.440305	2746.743249
553.798288	2740.154461
554.156215	2741.598752
554.514086	2739.030284
554.871902	2736.010633
555.229661	2732.096177
555.587365	2730.989643
555.945014	2726.485372
556.302606	2723.768191
556.660143	2720.914897
557.017625	2717.859958
557.375050	2713.390975
557.732421	2713.080944
558.089735	2708.818649
558.446994	2706.348483
558.804197	2706.845037
559.161345	2703.311188
559.518437	2693.538912
559.875474	2692.739889
560.232455	2689.183355
560.589381	2691.560259
560.946251	2687.078673
561.303065	2685.294104
561.659825	2681.178002
562.016528	2677.689524
562.373177	2672.759275
562.729770	2671.025118
563.086307	2665.757113
563.442789	2665.449602
563.799216	2659.745537
564.155587	2658.775115
564.511904	2655.384939
564.868164	2650.326141
565.224370	2654.038951
565.580520	2647.729947
565.936615	2645.418577
566.292654	2639.245685
566.648638	2640.994965
567.004567	2638.497073
567.360441	2634.456588
567.716260	2636.619243
568.072023	2628.273613
568.427732	2623.025772
568.783385	2621.349588
569.138982	2619.229783
569.494525	2620.822788
569.850013	2613.891201
570.205445	2614.153341
570.560823	2613.681993
570.916145	2611.231993
571.271412	2609.351642
571.626625	2606.929368
571.981782	2604.738987
572.336884	2603.728235
572.691931	2599.392843
573.046923	2598.061978
573.401860	2596.156422
573.756743	2594.129878
574.111570	2595.687595
574.466342	2591.163159
574.821059	2590.860690
575.175722	2588.677870
575.530330	2587.034454
575.884882	2583.319124
576.239380	2581.612693
576.593823	2582.205029
576.948211	2579.281160
577.302544	2578.434246
577.656823	2574.897876
578.011047	2574.537434
578.365216	2574.444172
578.719330	2573.869481
579.073389	2570.809501
579.427394	2574.136662
579.781344	2570.176836
580.135239	2568.364541
580.489080	2567.767164
580.842866	2565.496124
581.196597	2568.457802
581.550273	2563.335990
581.903895	2562.993192
582.257463	2563.998902
582.610975	2561.211144
582.964434	2564.301371
583.317837	2562.484035
583.671186	2560.568397
584.024481	2561.453119
584.377721	2559.187120
584.730906	2561.062430
585.084037	2559.366081
585.437113	2559.315670
585.790135	2556.611091
586.143103	2555.388611
586.496016	2558.073025
586.848874	2551.068342
587.201679	2552.462221
587.554428	2552.384083
587.907124	2552.084135
588.259765	2548.789741
588.612352	2552.202602
588.964884	2551.748898
589.317362	2552.663867
589.669786	2550.478527
590.022155	2549.717313
590.374470	2552.338713
590.726731	2548.603218
591.078937	2547.559699
591.431090	2546.102806
591.783188	2545.162630
592.135232	2546.236396
592.487222	2545.717157
592.839157	2546.896787
593.191038	2546.823691
593.542866	2543.453679
593.894639	2540.832279
594.246358	2544.313196
594.598022	2539.997968
594.949633	2541.878319
595.301190	2540.668442
595.652692	2541.722043
596.004141	2538.193235
596.355535	2539.723225
596.706876	2537.568132
597.058162	2536.554860
597.409395	2536.345652
597.760573	2536.728780
598.111698	2535.602082
598.462768	2536.980838
598.813785	2536.995961
599.164748	2532.443799
599.515657	2536.494366
599.866511	2531.816176
600.217312	2534.619057
600.568060	2531.894313
600.918753	2533.499921
601.269392	2532.413552
601.619978	2531.304498
601.970510	2533.376413
602.320988	2529.940866
602.671412	2534.321629
603.021783	2531.470857
603.372100	2529.842564
603.722363	2529.928263
604.072572	2531.705270
604.422728	2531.556556
604.772830	2526.943900
605.122878	2525.189579
605.472872	2525.257634
605.822813	2526.177645
606.172701	2528.299971
606.522534	2528.703263
606.872314	2527.223684
607.222041	2529.189734
607.571714	2528.252080
607.921333	2525.681091
608.270899	2528.988088
608.620411	2531.178470
608.969870	2528.594878
609.319276	2528.178983
609.668627	2526.906092
610.017926	2530.409694
610.367171	2527.173273
610.716362	2527.367357
611.065500	2528.176462
611.414585	2528.710825
611.763616	2533.021011
612.112594	2527.886596
612.461518	2530.452543
612.810389	2527.092614
613.159207	2526.875845
613.507971	2527.992460
613.856682	2531.763243
614.205340	2526.144877
614.553945	2531.705270
614.902496	2525.071112
615.250994	2527.611853
615.599439	2527.780732
615.947830	2528.799045
616.296169	2528.342821
616.644454	2530.734848
616.992686	2530.213089
617.340864	2531.206196
617.688990	2530.785260
618.037063	2529.698891
618.385082	2528.917512
618.733048	2530.674354
619.080961	2530.850795
619.428821	2531.775846
619.776628	2528.393232
620.124382	2527.082532
620.472083	2526.555732
620.819731	2528.796524
621.167326	2526.167563
621.514868	2527.929446
621.862357	2524.267048
622.209793	2526.780063
622.557176	2524.355268
622.904506	2523.052130
623.251783	2517.307735
623.599007	2517.932838
623.946179	2517.179185
624.293297	2518.686490
624.640363	2516.778414
624.987376	2518.268075
625.334336	2514.920748
625.681243	2514.799761
626.028097	2515.918897
626.374899	2514.618279
626.721647	2511.253309
627.068343	2513.998217
627.414987	2510.940758
627.761577	2513.950326
628.108115	2513.390758
628.454600	2510.590397
628.801032	2508.999913
629.147412	2511.449914
629.493739	2509.982938
629.840014	2507.285921
630.186236	2506.930520
630.532405	2510.560150
630.878521	2508.639471
631.224585	2505.302227
631.570597	2505.897083
631.916556	2509.695593
632.262462	2507.626199
632.608316	2507.394306
632.954117	2506.073523
633.299866	2505.758451
633.645562	2504.667042
633.991206	2502.998420
634.336797	2503.086640
634.682336	2504.440190
635.027823	2500.293841
635.373257	2498.824344
635.718639	2500.218223
636.063968	2498.710918
636.409245	2496.162615
636.754470	2496.696977
637.099642	2494.062974
637.444762	2495.824858
637.789829	2494.400732
638.134845	2495.298057
638.479808	2493.694970
638.824719	2495.698829
639.169577	2492.880824
639.514383	2493.221102
639.859137	2492.734630
640.203839	2494.342758
640.548489	2493.190855
640.893086	2486.763384
641.237632	2486.261789
641.582125	2488.883189
641.926566	2481.437405
642.270955	2490.234218
642.615292	2488.658858
642.959576	2491.517192
643.303809	2487.524598
643.647990	2488.721872
643.992118	2489.664568
644.336195	2490.206492
644.680219	2487.123826
645.024192	2490.209012
645.368112	2490.559372
645.711981	2487.743888
646.055797	2490.745895
646.399562	2490.569455
646.743274	2493.553818
647.086935	2492.255721
647.430544	2493.636997
647.774101	2497.039776
648.117606	2494.030207
648.461059	2492.979126
648.804460	2493.329487
649.147810	2495.484580
649.491108	2493.679847
649.834354	2489.755308
650.177548	2489.848570
650.520690	2485.447643
650.863781	2487.534680
651.206820	2491.360916
651.549807	2487.287664
651.892742	2485.702221
652.235626	2481.845738
652.578458	2484.885554
652.921238	2483.327837
653.263967	2483.811788
653.606644	2482.332209
653.949269	2482.571664
654.291843	2480.598053
654.634365	2483.436222
654.976836	2481.752477
655.319255	2480.527476
655.661622	2483.302632
656.003938	2480.063690
656.346203	2478.942033
656.688416	2479.690645
657.030577	2478.644605
657.372687	2478.090078
657.714746	2477.812815
658.056753	2479.824235
658.398708	2474.634368
658.740612	2477.923720
659.082465	2473.769810
659.424266	2477.497743
659.766016	2474.220993
660.107715	2479.413381
660.449362	2476.013123
660.790958	2479.385655
661.132503	2476.282825
661.473996	2476.920531
661.815438	2479.408340
662.156829	2476.749132
662.498168	2478.430356
662.839456	2476.381127
663.180693	2479.196612
663.521879	2478.715182
663.863013	2476.313072
664.204097	2477.003710
664.545129	2477.996817
664.886110	2477.817856
665.227040	2476.227372
665.567918	2478.140490
665.908746	2476.035808
666.249522	2477.313741
666.590248	2475.256950
666.930922	2479.264667
667.271545	2477.386838
667.612118	2479.741056
667.952639	2479.609986
668.293109	2477.578401
668.633528	2476.819708
668.973896	2481.104688
669.314213	2477.447331
669.654480	2476.665953
669.994695	2474.861219
670.334859	2476.182002
670.674973	2477.795171
671.015035	2475.335088
671.355047	2475.098154
671.695008	2476.865078
672.034918	2476.418936
672.374777	2476.267701
672.714585	2474.384830
673.054342	2475.002372
673.394049	2474.614203
673.733705	2476.524800
674.073310	2477.540593
674.412864	2477.134780
674.752368	2472.542289
675.091820	2475.269553
675.431223	2473.963894
675.770574	2475.498925
676.109875	2469.220168
676.449125	2472.728811
676.788324	2468.915178
677.127473	2469.608337
677.466571	2466.926443
677.805619	2472.605303
678.144616	2471.339973
678.483562	2470.422483
678.822458	2469.968780
679.161303	2471.287041
679.500098	2469.237812
679.838842	2470.094808
680.177535	2469.177318
680.516179	2470.770323
680.854771	2468.486680
681.193314	2471.639922
681.531805	2473.495067
681.870247	2475.463637
682.208638	2475.866930
682.546978	2478.047229
682.885268	2474.092443
683.223508	2476.963381
683.561697	2474.863740
683.899836	2474.818370
684.237925	2473.447176
684.575963	2476.144193
684.913951	2473.487505
685.251889	2474.157978
685.589776	2472.254943
685.927614	2472.481795
686.265401	2470.099850
686.603137	2471.503811
686.940824	2476.839872
687.278460	2474.636888
687.616046	2476.091261
687.953582	2474.460448
688.291068	2475.337608
688.628504	2474.881384
688.965889	2477.124697
689.303224	2473.568163
689.640510	2475.108236
689.977745	2474.536065
690.314930	2473.517752
690.652065	2472.643112
690.989150	2467.107925
691.326185	2469.142030
691.663170	2464.516772
692.000105	2466.732359
692.336990	2462.432255
692.673825	2462.578448
693.010610	2462.454940
693.347345	2458.996708
693.684030	2452.773404
694.020665	2456.977726
694.357251	2452.221398
694.693786	2461.287913
695.030272	2454.946141
695.366707	2457.370936
695.703093	2453.096038
696.039429	2454.653754
696.375716	2454.903291
696.711952	2455.919084
697.048139	2451.886161
697.384276	2455.669547
697.720363	2454.472273
698.056400	2453.847170
698.392388	2455.170472
698.728326	2452.733075
699.064214	2448.831222
699.400053	2452.226439
699.735842	2451.014041
700.071581	2450.290636
700.407270	2450.588064
700.742910	2447.235696
701.078501	2450.671243
701.414042	2448.455656
701.749533	2448.241407
702.084974	2445.529266
702.420366	2447.752415
702.755709	2447.215532
703.091002	2446.915583
703.426246	2445.004986
703.761440	2447.744853
704.096584	2449.627724
704.431679	2444.788216
704.766725	2448.266612
705.101721	2446.446756
705.436668	2443.109512
705.771565	2445.821653
706.106413	2447.777620
706.441212	2444.395006
706.775961	2447.913732
707.110661	2446.149328
707.445311	2448.727878
707.779913	2444.672270
708.114465	2446.983639
708.448967	2447.134873
708.783421	2449.289967
709.117825	2446.106478
709.452180	2448.387600
709.786485	2452.241562
710.120742	2453.063270
710.454949	2451.775255
710.789107	2451.281222
711.123216	2452.163424
711.457275	2453.983281
711.791286	2452.118054
712.125247	2454.631069
712.459159	2456.256841
712.793023	2456.534105
713.126837	2456.019907
713.460602	2458.192644
713.794318	2454.925977
714.127985	2457.975875
714.461602	2453.101079
714.795171	2451.303907
715.128691	2448.236365
715.462162	2450.300718
715.795584	2446.562702
716.128957	2447.893567
716.462281	2444.178237
716.795556	2445.582198
717.128782	2444.936930
717.461960	2441.284614
717.795088	2442.867537
718.128167	2443.222938
718.461198	2440.137752
718.794180	2445.272167
719.127113	2441.602207
719.459997	2441.297217
719.792833	2440.644388
720.125619	2440.397371
720.458357	2439.401743
720.791046	2438.123811
721.123686	2439.958791
721.456278	2439.530293
721.788821	2436.722370
722.121315	2438.378389
722.453761	2440.881322
722.786158	2438.549788
723.118506	2436.926537
723.450805	2436.515683
723.783056	2437.682710
724.115259	2438.176743
724.447412	2435.560384
724.779518	2437.186156
725.111574	2441.196394
725.443582	2440.175560
725.775542	2440.732608
726.107453	2439.626075
726.439315	2441.080448
726.771129	2445.075562
727.102895	2442.973401
727.434612	2439.888215
727.766281	2440.664552
728.097901	2439.247988
728.429473	2439.999120
728.760996	2442.870057
729.092471	2441.108174
729.423897	2441.191353
729.755276	2443.094388
730.086606	2443.469954
730.417887	2445.050356
730.749120	2444.969698
731.080305	2445.554472
731.411442	2447.878443
731.742530	2448.223763
732.073570	2449.841973
732.404562	2448.135542
732.735506	2449.347940
733.066401	2446.328289
733.397249	2446.938268
733.728048	2445.617486
734.058798	2443.288473
734.389501	2439.449634
734.720156	2440.727567
735.050762	2436.808070
735.381320	2437.286979
735.711831	2435.976279
736.042293	2436.941660
736.372707	2435.295723
736.703073	2436.457709
737.033391	2436.674479
737.363661	2434.108532
737.693883	2437.849068
738.024056	2442.207145
738.354182	2438.958122
738.684260	2440.452824
739.014290	2439.961311
739.344272	2442.002979
739.674207	2439.792433
740.004093	2443.951385
740.333931	2441.289655
740.663722	2441.372834
740.993464	2440.684717
741.323159	2440.508277
741.652806	2439.668924
741.982405	2437.286979
742.311956	2437.430652
742.641460	2437.952412
742.970915	2436.417380
743.300323	2437.516352
743.629683	2438.491815
743.958996	2436.392174
744.288260	2436.424942
744.617477	2433.710281
744.946647	2428.283478
745.275768	2431.114086
745.604842	2429.236257
745.933869	2430.796494
746.262847	2427.434044
746.591778	2434.625250
746.920662	2431.479570
747.249498	2432.601227
747.578286	2433.186001
747.907027	2432.117276
748.235720	2432.598706
748.564365	2432.513007
748.892963	2431.161977
749.221514	2432.916299
749.550017	2431.663572
749.878473	2431.708943
750.206881	2435.414191
750.535242	2432.618871
750.863555	2433.334715
751.191821	2428.964034
751.520039	2433.795980
751.848210	2431.683737
752.176334	2430.453695
752.504411	2433.221289
752.832440	2429.707604
753.160421	2433.448141
753.488356	2432.114755
753.816243	2432.442430
754.144082	2432.293716
754.471875	2431.630805
754.799620	2430.151226
755.127318	2432.253387
755.454969	2428.769950
755.782572	2429.591658
756.110129	2430.247008
756.437638	2429.876483
756.765100	2431.119128
757.092515	2427.701225
757.419882	2429.596699
757.747203	2429.319436
758.074477	2430.579724
758.401703	2432.076947
758.728882	2432.601227
759.056014	2435.641043
759.383099	2433.276741
759.710138	2432.225661
760.037129	2430.622574
760.364073	2437.342432
760.690970	2432.031576
761.017820	2432.772626
761.344623	2435.169695
761.671379	2434.438727
761.998088	2432.465116
762.324751	2440.765375
762.651366	2445.430963
762.977935	2460.163735
763.304456	2463.889148
763.630931	2468.514407
763.957359	2464.710856
764.283740	2457.985957
764.610074	2453.990843
764.936362	2449.032868
765.262602	2442.645726
765.588796	2439.237906
765.914943	2437.720518
766.241044	2434.695826
766.567097	2431.096442
766.893104	2429.369847
767.219064	2428.754826
767.544978	2426.859352
767.870845	2428.527974
768.196665	2427.000505
768.522438	2424.351378
768.848165	2424.716862
769.173846	2423.499423
769.499479	2423.927922
769.825066	2421.732499
770.150607	2421.495565
770.476101	2422.526481
770.801548	2422.697880
771.126949	2421.493044
771.452303	2422.788621
771.777611	2420.666295
772.102872	2419.501788
772.428087	2420.610842
772.753256	2422.639907
773.078378	2420.187385
773.403453	2420.757036
773.728482	2417.833167
774.053465	2420.835174
774.378401	2421.576223
774.703291	2418.092786
775.028135	2419.027920
775.352932	2420.671336
775.677683	2418.843918
776.002388	2417.384504
776.327046	2416.283012
776.651658	2415.715882
776.976224	2416.562796
777.300743	2419.337951
777.625216	2414.763104
777.949643	2416.630851
778.274024	2419.332910
778.598359	2412.741601
778.922647	2413.764955
779.246889	2414.576581
779.571086	2411.314955
779.895236	2417.654206
780.219339	2416.527508
780.543397	2419.002714
780.867409	2417.185378
781.191374	2421.016655
781.515294	2417.230749
781.839167	2416.812333
782.162995	2417.346695
782.486776	2416.751839
782.810511	2418.750657
783.134201	2418.301994
783.457844	2416.640934
783.781441	2418.022210
784.104993	2417.424833
784.428498	2418.629669
784.751958	2415.998187
785.075372	2415.541962
785.398739	2415.564647
785.722061	2417.303845
786.045337	2417.311407
786.368568	2416.731674
786.691752	2416.330903
787.014891	2419.070770
787.337983	2418.614545
787.661030	2422.067736
787.984031	2420.842735
788.306987	2424.414393
788.629897	2423.259969
788.952760	2423.459094
789.275579	2423.630493
789.598351	2420.918353
789.921078	2422.987746
790.243759	2420.920873
790.566395	2418.186047
790.888984	2421.646799
791.211529	2418.675039
791.534027	2418.843918
791.856480	2416.918197
792.178888	2416.605646
792.501249	2417.152611
792.823566	2416.845100
793.145836	2415.352919
793.468062	2419.297622
793.790241	2413.462486
794.112375	2415.287384
794.434464	2416.963567
794.756507	2417.611356
795.078505	2416.610687
795.400457	2416.580440
795.722364	2417.230749
796.044226	2415.655388
796.366042	2415.864596
796.687812	2415.022723
797.009538	2421.021696
797.331218	2421.238466
797.652852	2419.763928
797.974442	2420.943558
798.295986	2418.304514
798.617484	2418.985070
798.938938	2416.547672
799.260346	2417.281160
799.581709	2418.601942
799.903026	2421.591347
800.224299	2416.993814
800.545526	2415.058011
800.866708	2415.136149
801.187845	2414.994997
801.508936	2413.608680
801.829983	2416.935841
802.150984	2416.156983
802.471940	2413.401992
802.792851	2413.495254
803.113717	2417.976839
803.434538	2415.489030
803.755314	2413.790161
804.076045	2414.483320
804.396731	2414.657240
804.717372	2412.552558
805.037967	2415.476427
805.358518	2413.033988
805.679024	2415.385686
805.999485	2413.875861
806.319901	2417.278640
806.640272	2417.238310
806.960598	2415.390728
807.280879	2417.384504
807.601115	2414.223700
807.921306	2413.873340
808.241453	2415.657909
808.561554	2416.146901
808.881611	2416.734195
809.201623	2418.334761
809.521590	2415.862075
809.841513	2415.194123
810.161390	2414.047260
810.481223	2413.906108
810.801011	2414.750501
811.120755	2415.368042
811.440453	2412.786972
811.760107	2412.063566
812.079716	2415.141190
812.399281	2411.904770
812.718801	2412.993659
813.038276	2406.145251
813.357707	2413.921231
813.677093	2414.528690
813.996434	2414.770666
814.315731	2415.766293
814.634983	2415.741088
814.954191	2412.161868
815.273354	2411.745973
815.592473	2413.979204
815.911547	2416.197312
816.230577	2413.800243
816.549562	2415.536921
816.868502	2415.930131
817.187399	2416.051119
817.506250	2416.809812
817.825058	2419.300142
818.143821	2417.369380
818.462539	2419.854669
818.781213	2419.859710
819.099843	2424.240473
819.418429	2425.253745
819.736970	2432.374375
820.055466	2433.463264
820.373919	2438.753955
820.692327	2447.749894
821.010691	2462.094497
821.329011	2492.931235
821.647286	2547.015254
821.965517	2596.171546
822.283704	2628.273613
822.601847	2637.135962
822.919945	2616.754577
823.237999	2589.728951
823.556010	2560.568397
823.873976	2535.665097
824.191897	2514.867816
824.509775	2496.674292
824.827609	2484.066366
825.145398	2474.367186
825.463144	2470.079685
825.780845	2472.524645
826.098502	2478.957157
826.416116	2487.391007
826.733685	2500.808038
827.051210	2501.629746
827.368692	2498.784015
827.686129	2486.725575
828.003522	2471.352576
828.320872	2457.577623
828.638177	2451.346757
828.955439	2437.808739
829.272656	2434.274890
829.589830	2428.868252
829.906960	2429.367327
830.224046	2427.169383
830.541088	2423.814496
830.858086	2421.288877
831.175041	2421.155287
831.491952	2421.616552
831.808819	2416.923238
832.125642	2422.723086
832.442421	2422.997829
832.759157	2429.495876
833.075849	2442.703699
833.392497	2450.736778
833.709101	2459.455453
834.025662	2455.629217
834.342179	2451.694597
834.658653	2446.272836
834.975083	2439.973914
835.291469	2439.837803
835.607811	2429.024528
835.924110	2425.818354
836.240366	2422.942376
836.556578	2422.400452
836.872746	2416.585481
837.188871	2415.995666
837.504952	2415.360481
837.820990	2411.327557
838.136984	2415.443660
838.452935	2411.118350
838.768842	2410.755387
839.084706	2412.660943
839.400526	2419.900040
839.716303	2423.796852
840.032037	2426.990423
840.347727	2428.215423
840.663373	2424.255597
840.978977	2421.679567
841.294537	2416.260327
841.610054	2415.211767
841.925527	2413.081879
842.240957	2410.936868
842.556344	2412.033319
842.871687	2409.767320
843.186987	2409.154820
843.502244	2409.631209
843.817458	2405.590724
844.132629	2407.271949
844.447756	2410.430232
844.762840	2401.499828
845.077881	2403.070148
845.392879	2401.038562
845.707833	2404.884963
846.022745	2402.452606
846.337613	2407.710530
846.652438	2407.322361
846.967221	2406.296486
847.281960	2404.632905
847.596656	2407.685324
847.911309	2404.098543
848.225919	2405.338667
848.540485	2402.941598
848.855009	2403.579304
849.169490	2405.694068
849.483928	2404.471588
849.798323	2405.237844
850.112675	2406.135169
850.426984	2405.389078
850.741251	2402.868501
851.055474	2405.152144
851.369654	2404.123749
851.683792	2402.797925
851.997887	2405.505025
852.311938	2405.230282
852.625947	2407.007289
852.939914	2404.416136
853.253837	2406.084757
853.567718	2406.104922
853.881555	2401.905641
854.195350	2402.591238
854.509103	2404.600138
854.822812	2401.756927
855.136479	2407.695406
855.450103	2405.089130
855.763685	2406.319171
856.077224	2404.552247
856.390720	2406.407391
856.704173	2404.781619
857.017584	2404.960580
857.330953	2405.114335
857.644278	2403.899417
857.957561	2409.459810
858.270802	2406.767834
858.584000	2403.052503
858.897155	2407.589542
859.210268	2404.179201
859.523339	2405.542833
859.836367	2403.198697
860.149352	2405.429407
860.462295	2405.048800
860.775195	2402.639129
861.088054	2400.587379
861.400869	2402.545868
861.713642	2401.346073
862.026373	2406.341856
862.339062	2401.625857
862.651708	2404.590055
862.964312	2406.039387
863.276873	2405.172309
863.589392	2404.655590
863.901869	2407.881929
864.214303	2406.941754
864.526696	2404.494273
864.839045	2408.751528
865.151353	2405.457134
865.463619	2406.324212
865.775842	2405.502504
866.088023	2407.647515
866.400162	2406.243554
866.712258	2407.156003
867.024313	2404.146434
867.336325	2407.992834
867.648296	2406.041908
867.960224	2406.972001
868.272110	2405.555436
868.583954	2404.607699
868.895755	2403.876732
869.207515	2406.629202
869.519233	2405.590724
869.830909	2403.667524
870.142542	2405.041239
870.454134	2405.734397
870.765684	2407.365211
871.077191	2406.858575
871.388657	2405.729356
871.700081	2405.600807
872.011463	2407.939902
872.322803	2404.680796
872.634101	2408.156672
872.945357	2410.163051
873.256571	2406.868657
873.567744	2408.033163
873.878874	2407.294634
874.189963	2406.813204
874.501010	2407.937382
874.812015	2406.724984
875.122979	2408.232289
875.433900	2409.603483
875.744780	2408.809501
876.055618	2409.187588
876.366415	2409.364028
876.677169	2409.588359
876.987882	2409.011147
877.298554	2405.656259
877.609183	2406.417474
877.919771	2406.235992
878.230317	2408.799419
878.540822	2410.357135
878.851285	2416.197312
879.161707	2416.487178
879.472087	2421.760225
879.782425	2425.223498
880.092722	2439.343770
880.402977	2458.038889
880.713191	2478.952116
881.023363	2499.303254
881.333494	2511.467558
881.643583	2517.884947
881.953631	2513.804133
882.263637	2507.391785
882.573602	2500.621516
882.883526	2491.668426
883.193408	2482.115440
883.503248	2471.070272
883.813048	2463.173304
884.122806	2459.581482
884.432522	2449.053032
884.742197	2444.775613
885.051831	2437.798656
885.361424	2434.002668
885.670975	2428.404466
885.980485	2424.880700
886.289954	2424.159815
886.599382	2419.579926
886.908768	2418.271747
887.218113	2415.587333
887.527417	2417.071952
887.836680	2415.010120
888.145901	2412.512229
888.455082	2410.105078
888.764221	2411.887126
889.073319	2409.689182
889.382376	2409.265726
889.691392	2411.042732
890.000366	2410.710016
890.309300	2409.142217
890.618193	2411.806467
890.927044	2411.168761
891.235855	2408.010478
891.544625	2411.206570
891.853353	2410.392423
892.162041	2412.098854
892.470687	2410.102557
892.779293	2415.173958
893.087858	2413.580953
893.396381	2414.130439
893.704864	2420.983888
894.013306	2424.963879
894.321707	2435.031063
894.630068	2439.575663
894.938387	2440.432659
895.246665	2437.029880
895.554903	2438.569953
895.863100	2431.353541
896.171256	2428.674168
896.479371	2426.168714
896.787446	2424.752150
897.095480	2422.740730
897.403473	2421.777869
897.711425	2417.878537
898.019336	2415.990625
898.327207	2413.926272
898.635038	2412.454255
898.942827	2413.679256
899.250576	2411.183885
899.558284	2409.104409
899.865952	2414.188412
900.173579	2411.834193
900.481165	2407.697927
900.788711	2407.725653
901.096216	2407.957546
901.403681	2405.386558
901.711105	2408.963256
902.018489	2409.240520
902.325832	2409.790006
902.633135	2409.636250
902.940397	2410.949471
903.247619	2415.080697
903.554800	2426.909764
903.861941	2436.722370
904.169041	2446.794595
904.476101	2445.582198
904.783121	2445.856941
905.090100	2438.156578
905.397039	2433.833789
905.703938	2431.260280
906.010796	2428.903540
906.317614	2423.068405
906.624391	2424.472366
906.931129	2418.014648
907.237826	2414.173289
907.544483	2412.696231
907.851099	2410.674728
908.157675	2413.328896
908.464211	2405.081568
908.770707	2403.816238
909.077163	2404.103584
909.383578	2401.774571
909.689954	2401.439334
909.996289	2398.407080
910.302584	2405.731877
910.608839	2401.038563
910.915054	2404.348080
911.221229	2403.178532
911.527363	2406.369583
911.833458	2403.125600
912.139513	2402.898748
912.445527	2404.698440
912.751502	2404.663152
913.057436	2404.501835
913.363331	2407.445869
913.669186	2409.263205
913.975000	2410.788154
914.280775	2410.473082
914.586510	2415.912487
914.892205	2418.526325
915.197859	2424.308529
915.503475	2433.513676
915.809050	2441.168668
916.114585	2445.246961
916.420081	2446.030861
916.725536	2442.726384
917.030952	2444.163113
917.336328	2440.939295
917.641665	2434.466454
917.946961	2433.886721
918.252218	2433.286824
918.557435	2428.643921
918.862612	2426.950093
919.167750	2424.056471
919.472848	2422.087900
919.777906	2418.135636
920.082925	2413.618762
920.387904	2413.323854
920.692843	2412.786972
920.997743	2409.205232
921.302603	2408.330592
921.607423	2408.249933
921.912204	2408.146589
922.216946	2407.365211
922.521647	2404.763975
922.826310	2406.866136
923.130932	2404.045611
923.435516	2404.070817
923.740059	2403.007133
924.044564	2403.213820
924.349028	2406.815725
924.653454	2399.082595
924.957840	2400.587379
925.262186	2399.483367
925.566493	2398.404560
925.870761	2399.145609
926.174989	2399.082595
926.479178	2402.122411
926.783328	2400.887328
927.087438	2402.969324
927.391509	2400.647873
927.695541	2398.971689
927.999533	2399.788356
928.303486	2398.444889
928.607400	2399.488408
928.911275	2401.623336
929.215110	2398.301216
929.518906	2399.664848
929.822663	2400.877246
930.126381	2398.996895
930.430060	2398.139899
930.733699	2399.190980
931.037299	2399.289282
931.340861	2397.817265
931.644383	2401.318347
931.947866	2398.094529
932.251309	2398.664179
932.554714	2400.642832
932.858080	2401.003274
933.161407	2396.879611
933.464694	2398.830537
933.767943	2399.488408
934.071153	2399.833727
934.374323	2398.021432
934.677455	2399.276679
934.980548	2399.271638
935.283602	2399.253994
935.586617	2398.031514
935.889593	2401.305744
936.192530	2398.485218
936.495428	2399.044786
936.798287	2398.021432
937.101108	2401.446896
937.403890	2400.862122
937.706632	2399.972358
938.009336	2401.514952
938.312002	2401.585528
938.614628	2401.671227
938.917216	2402.109808
939.219765	2399.180897
939.522275	2405.048800
939.824747	2404.262380
940.127179	2396.516648
940.429573	2398.659138
940.731929	2400.723490
941.034246	2397.615619
941.336524	2402.810528
941.638763	2401.683830
941.940964	2405.535272
942.243126	2400.400857
942.545250	2404.143913
942.847335	2398.346586
943.149381	2403.365055
943.451389	2401.598131
943.753359	2400.559653
944.055290	2401.739283
944.357182	2400.577297
944.659036	2402.858419
944.960851	2398.356669
945.262628	2400.063099
945.564367	2401.393964
945.866067	2399.982441
946.167729	2401.010836
946.469352	2401.903120
946.770937	2397.519837
947.072484	2399.319529
947.373992	2402.422359
947.675462	2400.662997
947.976893	2403.276835
948.278286	2398.457492
948.579641	2399.644683
948.880958	2400.355486
949.182236	2401.807338
949.483476	2398.540671
949.784678	2400.627708
950.085841	2400.789025
950.386967	2401.867832
950.688054	2399.657286
950.989103	2400.252143
951.290114	2401.207441
951.591087	2398.853222
951.892021	2400.385733
952.192917	2400.826834
952.493776	2399.929509
952.794596	2401.036042
953.095378	2401.832544
953.396122	2400.852040
953.696828	2402.404715
953.997496	2400.622667
954.298126	2400.912534
954.598718	2400.138717
954.899272	2403.246588
955.199788	2404.035528
955.500266	2400.428583
955.800706	2397.005639
956.101108	2392.829043
956.401472	2398.026473
956.701798	2395.450443
957.002087	2396.609909
957.302337	2397.323232
957.602550	2398.931360
957.902724	2396.625032
958.202861	2397.983623
958.502960	2396.380536
958.803022	2396.002450
959.103045	2395.306771
959.403031	2398.681823
959.702979	2395.659651
960.002889	2396.478839
960.302762	2397.660989
960.602596	2398.787687
960.902393	2395.959600
961.202153	2396.360372
961.501875	2397.434138
961.801559	2395.210989
962.101205	2394.041441
962.400814	2394.719476
962.700385	2395.586555
962.999918	2397.746689
963.299414	2395.427758
963.598873	2395.319373
963.898293	2395.044631
964.197677	2394.096894
964.497022	2393.635628
964.796331	2395.400032
965.095601	2395.531102
965.394835	2397.388767
965.694030	2396.604868
965.993189	2395.498334
966.292309	2396.766185
966.591393	2397.378685
966.890439	2394.293499
967.189447	2398.502862
967.488419	2396.393139
967.787353	2393.680998
968.086249	2395.372306
968.385108	2398.689385
968.683930	2395.248797
968.982714	2396.320042
969.281462	2394.353993
969.580172	2396.549415
969.878844	2395.205948
970.177480	2395.873900
970.476078	2397.446740
970.774639	2396.993037
971.073162	2395.223592
971.371649	2392.584548
971.670098	2391.077243
971.968510	2393.602861
972.266885	2392.057747
972.565223	2398.099570
972.863524	2394.601009
973.161788	2396.924981
973.460014	2394.835423
973.758204	2397.035886
974.056356	2397.676113
974.354471	2396.859446
974.652550	2394.422048
974.950591	2395.236194
975.248595	2395.642007
975.546563	2396.458674
975.844493	2396.287275
976.142386	2394.341390
976.440243	2395.768036
976.738062	2395.735269
977.035845	2395.072357
977.333590	2398.366751
977.631299	2397.114024
977.928971	2396.204096
978.226606	2395.447923
978.524204	2396.047820
978.821765	2394.172511
979.119290	2396.746020
979.416777	2394.467418
979.714228	2396.783829
980.011642	2397.817265
980.309020	2398.510424
980.606360	2396.579662
980.903664	2394.873231
981.200931	2397.686195
981.498162	2396.826678
981.795356	2398.936401
982.092513	2400.128634
982.389633	2398.901113
982.686717	2396.650238
982.983764	2398.112173
983.280775	2400.312636
983.577749	2401.288100
983.874686	2401.845147
984.171587	2400.912534
984.468451	2400.569735
984.765279	2399.937070
985.062070	2400.095867
985.358824	2398.828017
985.655543	2397.671072
985.952224	2401.028480
986.248869	2398.757440
986.545478	2392.221584
986.842050	2397.522358
987.138586	2392.660165
987.435086	2393.081101
987.731549	2394.454816
988.027975	2394.961452
988.324366	2396.251987
988.620719	2395.468087
988.917037	2395.483211
989.213318	2394.752244
989.509563	2394.351472
989.805772	2396.685526
990.101944	2397.698798
990.398080	2396.829199
990.694180	2394.280896
990.990244	2395.851215
991.286271	2393.643190
991.582262	2394.492624
991.878217	2392.720659
992.174136	2395.231153
992.470019	2392.440875
992.765865	2396.025135
993.061676	2393.202089
993.357450	2396.067985
993.653188	2396.572100
993.948890	2396.320043
994.244556	2391.672099
994.540186	2398.139899
994.835780	2395.127810
995.131337	2394.961452
995.426859	2394.021276
995.722345	2396.708211
996.017795	2394.268293
996.313208	2398.427245
996.608586	2398.875907
996.903928	2399.304406
997.199234	2398.197872
997.494504	2397.217368
997.789738	2397.028325
998.084936	2397.996226
998.380099	2396.004970
998.675225	2398.298695
998.970316	2400.234498
999.265371	2398.512944
999.560390	2398.114693
999.855373	2396.088149
1000.150320	2397.802142
1000.445232	2396.562018
1000.740108	2395.858777
1001.034948	2396.357851
1001.329752	2394.550598
1001.624521	2395.634446
1001.919254	2392.143447
1002.213951	2392.428272
1002.508613	2392.065309
1002.803239	2393.791904
1003.097829	2390.580689
1003.392384	2393.484393
1003.686903	2394.444733
1003.981386	2395.934394
1004.275834	2393.285268
1004.570246	2395.072357
1004.864623	2394.691750
1005.158964	2392.944990
1005.453270	2395.047151
1005.747540	2394.530433
1006.041775	2394.313663
1006.335974	2395.558828
1006.630138	2395.052192
1006.924266	2392.718138
1007.218359	2394.142264
1007.512416	2393.723848
1007.806438	2396.267110
1008.100425	2392.720659
1008.394376	2394.855587
1008.688292	2393.973385
1008.982172	2392.723179
1009.276017	2395.021945
1009.569827	2393.895247
1009.863602	2394.550598
1010.157341	2395.589075
1010.451045	2390.878117
1010.744714	2395.473129
1011.038347	2393.481873
1011.331945	2392.866852
1011.625508	2393.577655
1011.919036	2395.122768
1012.212528	2392.198899
1012.505986	2392.387943
1012.799408	2394.328787
1013.092795	2393.567572
1013.386147	2391.364588
1013.679464	2392.677809
1013.972745	2391.566234
1014.265992	2393.055895
1014.559204	2395.677295
1014.852380	2394.293499
1015.145521	2393.323077
1015.438628	2391.747716
1015.731699	2392.768550
1016.024736	2393.315515
1016.317737	2394.056564
1016.610703	2397.045969
1016.903635	2391.117572
1017.196531	2389.542211
1017.489393	2392.274517
1017.782219	2385.985677
1018.075011	2394.336348
1018.367768	2394.893396
1018.660490	2392.513971
1018.953177	2392.513971
1019.245829	2392.513971
