Dividing Wavelength (nm)	Counts (n)	Blue Motor Position (mm): 0.000000	Red Motor Position (mm): 41.800000	
326.493990	1994.832468
326.888308	1994.832468
327.282561	1994.832468
327.676750	1971.711216
328.070874	1971.186936
328.464933	1980.981898
328.858929	1989.496407
329.252859	1998.053765
329.646726	2015.576816
330.040528	2028.111645
330.434265	2050.980839
330.827938	2067.684703
331.221547	2089.061716
331.615091	2106.864550
332.008571	2128.977572
332.401986	2150.457928
332.795338	2170.375527
333.188625	2191.946624
333.581847	2208.451362
333.975006	2230.203941
334.368100	2246.411251
334.761129	2262.641245
335.154095	2278.727567
335.546996	2308.999696
335.939833	2359.741430
336.332606	2376.609131
336.725315	2387.956768
337.117960	2396.090670
337.510540	2404.247257
337.903056	2414.024575
338.295508	2420.678898
338.687896	2426.937490
339.080220	2435.492328
339.472480	2440.616661
339.864676	2441.634974
340.256807	2446.766869
340.648875	2447.528083
341.040879	2450.348609
341.432818	2453.234669
341.824694	2449.572271
342.216506	2453.675770
342.608253	2449.925152
342.999937	2451.946655
343.391557	2449.630244
343.783113	2449.307611
344.174605	2446.983639
344.566033	2447.654112
344.957397	2446.595470
345.348697	2441.201435
345.739934	2442.376024
346.131106	2440.505756
346.522215	2438.123811
346.913260	2434.068203
347.304241	2437.821342
347.695159	2434.002667
348.086012	2436.193049
348.476802	2429.566452
348.867528	2431.935794
349.258191	2428.419590
349.648789	2428.371699
350.039324	2427.088725
350.429796	2428.301123
350.820203	2426.534198
351.210548	2425.594023
351.600828	2423.932963
351.991045	2427.590320
352.381198	2423.562438
352.771288	2426.798859
353.161314	2424.956317
353.551276	2424.129568
353.941175	2426.609815
354.331010	2422.980185
354.720782	2425.989753
355.110490	2426.461101
355.500135	2425.112593
355.889717	2427.943201
356.279235	2427.292892
356.668689	2430.141144
357.058080	2428.608633
357.447408	2426.887079
357.836672	2426.811462
358.225873	2428.434713
358.615010	2428.119641
359.004084	2431.154416
359.393095	2432.702050
359.782043	2433.382606
360.170927	2432.691968
360.559748	2435.338573
360.948505	2435.401588
361.337199	2437.778492
361.725830	2436.170364
362.114398	2440.057093
362.502903	2437.753286
362.891344	2439.444593
363.279722	2441.556837
363.668037	2443.172526
364.056289	2440.911569
364.444478	2443.419543
364.832603	2444.783175
365.220665	2444.790737
365.608665	2448.296859
365.996601	2447.205449
366.384474	2449.640327
366.772284	2448.511108
367.160031	2452.584361
367.547715	2451.238373
367.935336	2453.970678
368.322893	2452.743157
368.710388	2454.139557
369.097820	2457.779270
369.485189	2456.985288
369.872495	2461.509723
370.259738	2460.178859
370.646918	2465.010805
371.034035	2467.659931
371.421090	2471.594552
371.808081	2470.314099
372.195010	2479.057980
372.581875	2482.662405
372.968678	2489.762870
373.355418	2495.968531
373.742096	2506.917917
374.128710	2519.480472
374.515262	2531.352389
374.901751	2546.579195
375.288177	2567.689026
375.674540	2585.073445
376.060841	2605.258225
376.447079	2631.578090
376.833254	2657.386277
377.219367	2683.534742
377.605417	2722.104610
377.991404	2745.445152
378.377329	2788.423509
378.763191	2821.800989
379.148991	2872.388968
379.534727	2918.762542
379.920402	2968.299440
380.306013	3019.111750
380.691563	3087.918459
381.077049	3145.324599
381.462474	3202.554298
381.847835	3278.365690
382.233134	3352.652133
382.618371	3412.578849
383.003545	3504.181656
383.388657	3583.894901
383.773706	3677.451155
384.158693	3759.594236
384.543618	3855.812219
384.928480	3933.640072
385.313280	4045.770457
385.698017	4149.159482
386.082692	4275.657155
386.467305	4339.657124
386.851856	4470.593533
387.236344	4632.283502
387.620770	4694.723233
388.005133	4821.692255
388.389435	4971.291016
388.773674	5054.099529
389.157851	5194.919121
389.541965	5333.898691
389.926018	5360.057238
390.310008	5542.635228
390.693936	5668.646430
391.077802	5789.820645
391.461606	5924.699237
391.845348	6044.847577
392.229027	6170.931876
392.612645	6398.310599
392.996200	6513.838722
393.379694	6698.687751
393.763125	6928.274500
394.146494	7022.995261
394.529801	7168.062024
394.913047	7419.587875
395.296230	7418.451095
395.679351	7474.372614
396.062410	7750.852176
396.445408	7637.945454
396.828343	7795.736090
397.211217	7942.289994
397.594028	7820.538567
397.976778	8029.562449
398.359466	8201.599386
398.742092	8178.689862
399.124656	8326.549425
399.507158	8514.488682
399.889598	8542.956077
400.271977	8757.431968
400.654294	8794.736506
401.036549	8989.496444
401.418742	9020.396196
401.800874	9334.989402
402.182944	9413.389427
402.564952	9788.226942
402.946898	9610.760682
403.328783	9666.530967
403.710606	9870.183500
404.092367	10139.660900
404.474067	10506.112455
404.855705	10295.167893
405.237282	10240.443647
405.618797	10679.976810
406.000250	10944.468508
406.381642	11308.520474
406.762972	11264.208732
407.144240	11055.792309
407.525447	11318.592700
407.906593	11255.031312
408.287677	11517.803976
408.668700	11684.819924
409.049661	11651.462609
409.430560	11819.227168
409.811399	11787.566201
410.192176	11958.299999
410.572891	12029.556709
410.953545	12539.171992
411.334138	11990.117242
411.714669	12623.442441
412.095139	11899.187429
412.475547	12428.715271
412.855894	12257.643715
413.236180	12612.326697
413.616405	12276.283381
413.996568	12564.728122
414.376670	12536.296014
414.756711	12404.563103
415.136691	12705.328423
415.516609	12895.458061
415.896466	12959.596662
416.276262	13251.290426
416.655997	13693.381974
417.035670	13724.558990
417.415283	14394.223347
417.794834	14496.112627
418.174324	14235.858019
418.553753	14137.212721
418.933121	14639.568743
419.312428	14439.936530
419.691674	14354.622562
420.070859	14825.063039
420.449983	14475.063290
420.829045	15023.850859
421.208047	14766.106745
421.586988	15239.496297
421.965867	15503.894734
422.344686	15505.059241
422.723444	16079.995275
423.102141	14732.058792
423.480777	15953.873168
423.859352	15447.426249
424.237866	16590.016371
424.616319	16278.773012
424.994712	16954.650591
425.373044	16742.344917
425.751314	17447.814069
426.129524	16544.247736
426.507673	17675.207916
426.885762	17357.406016
427.263789	17564.236996
427.641756	17736.354591
428.019662	17808.501065
428.397508	17846.793669
428.775292	18162.395106
429.153016	18106.922249
429.530679	18207.316828
429.908282	18222.483139
430.285824	17939.757587
430.663305	18658.726949
431.040726	18245.969875
431.418086	18071.044357
431.795385	18737.016068
432.172624	19143.176792
432.549802	18704.399803
432.926920	18897.443227
433.303977	18777.350340
433.680974	19040.947233
434.057910	19342.753553
434.434786	19361.879690
434.811601	19264.202293
435.188355	20338.237764
435.565050	19969.731939
435.941683	19924.643859
436.318257	20823.612659
436.694770	20626.052361
437.071222	21243.923902
437.447614	20287.700197
437.823946	20322.721093
438.200218	20479.528704
438.576429	20256.712224
438.952580	20522.365908
439.328670	20483.700258
439.704700	20907.631050
440.080670	20478.059207
440.456580	21085.903894
440.832429	21257.708938
441.208218	20221.623273
441.583947	20682.321720
441.959616	20791.664347
442.335224	21042.895290
442.710773	21176.639622
443.086261	21722.939382
443.461689	21064.857077
443.837057	21200.905216
444.212365	21868.595961
444.587612	21850.036953
444.962800	21416.023854
445.337927	21851.551820
445.712995	20551.692821
446.088002	22450.123304
446.462949	22646.536740
446.837837	22842.163756
447.212664	22788.742649
447.587431	25694.642687
447.962139	28681.407873
448.336786	31114.999687
448.711374	29528.964467
449.085901	25763.381340
449.460369	25708.773041
449.834776	25628.790094
450.209124	28170.164297
450.583412	27684.915431
450.957640	28215.038128
451.331808	26855.181837
451.705917	25457.879855
452.079965	25493.319167
452.453954	25867.009819
452.827883	25734.006537
453.201752	25535.871546
453.575562	25701.929675
453.949311	26851.569850
454.323001	26906.727635
454.696632	26663.670923
455.070202	28253.487009
455.443713	28393.784841
455.817164	28993.452776
456.190556	29532.117708
456.563888	28966.338930
456.937160	29424.514280
457.310373	27727.450167
457.683526	28188.108284
458.056619	28176.753085
458.429653	28099.966230
458.802628	28694.545120
459.175542	28818.043307
459.548398	30122.353645
459.921194	31719.560062
460.293930	32387.875910
460.666607	34464.478413
461.039224	36255.854953
461.411782	36654.436303
461.784280	35456.917768
462.156719	34976.342052
462.529099	34414.797842
462.901419	33100.281689
463.273680	32026.447864
463.645882	32114.380711
464.018024	32080.660433
464.390106	32925.068825
464.762130	35664.741856
465.134094	39768.762846
465.505999	45117.853055
465.877845	49729.220809
466.249631	50940.174018
466.621358	49251.513509
466.993026	47176.980399
467.364634	45087.384321
467.736184	43087.782921
468.107674	41814.238746
468.479105	41000.258758
468.850477	40305.282768
469.221790	38841.790436
469.593043	37066.414518
469.964238	36177.333941
470.335373	36088.619716
470.706449	37840.070317
471.077467	40460.963681
471.448425	45066.617287
471.819324	47907.831760
472.190164	46042.892182
472.560945	42454.354379
472.931667	39304.623812
473.302330	38185.167545
473.672934	37349.185441
474.043479	37865.863381
474.413965	37037.692544
474.784393	36672.009765
475.154761	37588.935156
475.525070	37611.580019
475.895321	37152.101531
476.265513	37747.960874
476.635645	38743.021629
477.005719	38555.490706
477.375734	39024.234835
477.745691	39733.633566
478.115588	41086.028949
478.485427	43080.158176
478.855207	46481.923750
479.224928	49093.826217
479.594591	50758.178282
479.964194	49769.645822
480.333739	49930.032652
480.703226	49975.924796
481.072653	50600.319591
481.442022	51080.118970
481.811333	51335.176149
482.180584	50070.378375
482.549777	49539.486902
482.918912	49002.689717
483.287988	48706.259788
483.657005	47882.782266
484.025964	47221.040083
484.394864	47253.762213
484.763706	46829.798654
485.132489	45960.131560
485.501213	45780.164888
485.869879	45930.411437
486.238487	45515.151430
486.607036	45714.193828
486.975527	45174.394636
487.343959	45360.841711
487.712333	45441.217868
488.080648	45350.827459
488.448905	45828.186920
488.817104	45631.448329
489.185244	46594.923734
489.553326	48275.493192
489.921350	50990.882985
490.289315	53834.310524
490.657222	54417.183855
491.025070	54703.012237
491.392861	53828.465306
491.760593	52613.156540
492.128267	50978.179277
492.495883	49450.170258
492.863440	48061.027384
493.230939	46689.760441
493.598380	45586.960146
493.965763	45263.204643
494.333088	44419.111323
494.700354	43928.566724
495.067563	43631.201662
495.434713	43502.329605
495.801805	43555.566710
496.168839	43170.115046
496.535815	42832.778675
496.902733	42854.488404
497.269593	42453.376395
497.636395	42385.615726
498.003139	42795.148982
498.369825	42216.071639
498.736453	42553.158474
499.103023	42051.188100
499.469535	41914.837491
499.835989	42027.610623
500.202385	41683.209075
500.568723	41705.090203
500.935003	41898.277301
501.301226	41677.794876
501.667390	42313.496979
502.033497	42581.469594
502.399546	41999.559123
502.765537	41296.925620
503.131470	41683.168746
503.497345	42048.765826
503.863163	40695.510925
504.228923	41325.728253
504.594625	41736.615059
504.960269	41015.382219
505.325856	41708.029196
505.691385	41060.266132
506.056856	41210.656355
506.422270	41643.230204
506.787625	41218.162633
507.152924	41403.765314
507.518164	41524.861392
507.883347	40700.191637
508.248472	40977.054327
508.613540	41446.965482
508.978550	41759.968204
509.343503	41506.667867
509.708398	41700.868237
510.073236	42237.927562
510.438016	42222.247053
510.802738	41687.612523
511.167403	42299.885863
511.532010	42549.057495
511.896561	42847.090510
512.261053	43716.324065
512.625488	43237.666507
512.989866	43117.361892
513.354186	42969.630878
513.718449	42931.618058
514.082655	43629.109583
514.446803	43291.478304
514.810894	43826.548894
515.174927	43730.540119
515.538904	43619.589364
515.902822	44317.683307
516.266684	43723.038882
516.630488	44189.504409
516.994235	44038.849527
517.357925	44610.037463
517.721558	44783.044822
518.085133	45081.997848
518.448651	45226.255506
518.812112	44983.166027
519.175516	45093.375732
519.538863	45431.496003
519.902152	45389.891360
520.265385	45843.869949
520.628560	45885.935858
520.991678	45679.538416
521.354739	45913.284117
521.717743	46233.525936
522.080690	46115.386495
522.443580	46669.807554
522.806413	46723.011892
523.169189	46664.708427
523.531908	46832.578850
523.894569	46699.101699
524.257174	46865.661422
524.619722	47168.349943
524.982213	47153.483581
525.344647	47063.246927
525.707025	47102.993904
526.069345	47484.712594
526.431608	47416.904034
526.793815	47753.471629
527.155964	47279.358672
527.518057	47443.559135
527.880093	47219.268118
528.242072	47740.399917
528.603995	47436.279708
528.965860	47436.070501
529.327669	47527.063328
529.689421	47428.044984
530.051117	47365.814460
530.412755	47522.672482
530.774337	47580.305474
531.135862	47385.608551
531.497331	47585.258408
531.858743	47473.367477
532.220098	47830.329061
532.581396	47529.566260
532.942638	47199.353039
533.303824	47498.071652
533.664953	47464.053946
534.026025	47155.260587
534.387040	47645.961462
534.747999	47576.864886
535.108902	47742.824712
535.469748	47252.683406
535.830537	47372.345275
536.191270	47564.937516
536.551947	47219.409270
536.912567	47539.061274
537.273131	47649.429775
537.633638	47120.791698
537.994089	47455.090774
538.354483	47053.061275
538.714821	47631.213566
539.075103	47979.179210
539.435328	47733.818691
539.795497	47636.766397
540.155609	47604.583671
540.515665	48054.166374
540.875665	47531.544913
541.235609	47846.831278
541.595496	47820.982761
541.955328	48500.888222
542.315102	47863.641005
542.674821	47624.899521
543.034483	47691.818317
543.394090	47651.438675
543.753640	47610.824619
544.113134	48620.981109
544.472571	47615.787635
544.831953	48882.929545
545.191278	48083.258873
545.550548	47794.284811
545.909761	48267.535731
546.268918	48465.728694
546.628019	48768.218090
546.987064	48333.655505
547.346053	47580.164322
547.704986	48502.844189
548.063863	48028.839617
548.422684	48243.350795
548.781449	48067.187674
549.140158	48483.614708
549.498811	48313.647165
549.857408	47748.901823
550.215949	48599.407491
550.574434	48522.081233
550.932864	48264.848796
551.291237	49011.862096
551.649555	48613.973905
552.007817	48826.012398
552.366022	48497.155247
552.724173	48679.282053
553.082267	49071.214121
553.440305	49359.953769
553.798288	48687.806645
554.156215	48985.383436
554.514086	49197.253049
554.871902	48931.430487
555.229661	48960.054158
555.587365	48775.066497
555.945014	48871.004696
556.302606	48781.761149
556.660143	49029.939674
557.017625	49107.722157
557.375050	48885.286285
557.732421	49242.976315
558.089735	49218.244414
558.446994	49143.297580
558.804197	49609.778230
559.161345	49553.748326
559.518437	48784.780801
559.875474	49091.116596
560.232455	49245.000338
560.589381	49443.480647
560.946251	49113.627869
561.303065	49818.219860
561.659825	49613.659919
562.016528	49280.313621
562.373177	48995.531278
562.729770	49488.104941
563.086307	48989.456688
563.442789	49440.561819
563.799216	49502.767137
564.155587	49283.915525
564.511904	49289.818716
564.868164	49375.646881
565.224370	49627.417228
565.580520	49358.091063
565.936615	49555.968954
566.292654	49257.033572
566.648638	49519.418068
567.004567	49461.069233
567.360441	49499.170274
567.716260	49349.505978
568.072023	49632.375202
568.427732	49595.458833
568.783385	49146.649947
569.138982	49536.989010
569.494525	49485.871710
569.850013	49253.605588
570.205445	49204.436694
570.560823	49156.618829
570.916145	49037.191374
571.271412	49043.089524
571.626625	48799.208583
571.981782	48827.068520
572.336884	48523.452426
572.691931	48835.978759
573.046923	48410.419675
573.401860	48264.390051
573.756743	48226.611644
574.111570	48339.629272
574.466342	48183.681178
574.821059	48278.207853
575.175722	47779.773849
575.530330	47793.561405
575.884882	47486.466916
576.239380	47435.596632
576.593823	47410.196778
576.948211	47290.068603
577.302544	46813.316601
577.656823	46814.652507
578.011047	47013.243722
578.365216	46728.829383
578.719330	46514.416508
579.073389	46342.601382
579.427394	46403.339724
579.781344	46354.324585
580.135239	46001.148908
580.489080	46063.386993
580.842866	45511.972983
581.196597	45929.259534
581.550273	45844.205186
581.903895	45697.426951
582.257463	46091.088134
582.610975	45426.543069
582.964434	45685.577718
583.317837	45308.111242
583.671186	45113.747035
584.024481	45308.859853
584.377721	44830.895454
584.730906	45097.103665
585.084037	45087.459938
585.437113	44763.961534
585.790135	44780.141117
586.143103	44358.042785
586.496016	44448.362618
586.848874	44451.183144
587.201679	44430.887458
587.554428	43877.966143
587.907124	44032.023804
588.259765	43729.289913
588.612352	43953.568327
588.964884	43316.212726
589.317362	43569.354266
589.669786	43469.763751
590.022155	43190.829147
590.374470	43589.488634
590.726731	43083.991974
591.078937	42566.484764
591.431090	42610.027730
591.783188	42283.265179
592.135232	41904.404823
592.487222	42113.463994
592.839157	42159.111642
593.191038	41801.411530
593.542866	41517.914682
593.894639	40896.917624
594.246358	41120.598662
594.598022	41070.131671
594.949633	40635.279219
595.301190	40545.481146
595.652692	40334.178662
596.004141	40628.609773
596.355535	39631.232608
596.706876	39542.021829
597.058162	39345.978917
597.409395	39761.178430
597.760573	39793.693873
598.111698	39325.088376
598.462768	39302.466198
598.813785	39299.895209
599.164748	38704.648366
599.515657	39042.234275
599.866511	38488.181220
600.217312	39026.364722
600.568060	37972.713157
600.918753	38647.035539
601.269392	38558.270903
601.619978	38162.426900
601.970510	38318.511105
602.320988	38443.095661
602.671412	38682.011065
603.021783	38386.135663
603.372100	38019.530353
603.722363	38068.525327
604.072572	38085.019982
604.422728	38043.949702
604.772830	37813.679877
605.122878	37836.607044
605.472872	37716.544404
605.822813	37925.200282
606.172701	37708.735656
606.522534	37871.983341
606.872314	38069.674710
607.222041	37758.461598
607.571714	38062.775891
607.921333	37465.623492
608.270899	37692.021711
608.620411	37940.079247
608.969870	37704.985038
609.319276	37633.574573
609.668627	37607.479040
610.017926	37988.471804
610.367171	38082.658202
610.716362	38078.620238
611.065500	37959.981723
611.414585	38044.784013
611.763616	38249.923686
612.112594	38086.759180
612.461518	38247.682893
612.810389	38418.567927
613.159207	38215.356494
613.507971	38205.957263
613.856682	38562.197961
614.205340	38385.160200
614.553945	38935.381978
614.902496	38362.585913
615.250994	38706.130465
615.599439	38678.081485
615.947830	38769.792677
616.296169	38726.153928
616.644454	38741.204293
616.992686	38810.497473
617.340864	39183.351294
617.688990	38826.208229
618.037063	39259.616390
618.385082	39126.850042
618.733048	39310.955501
619.080961	39221.351512
619.428821	39152.237293
619.776628	39160.139301
620.124382	38912.336343
620.472083	38950.744894
620.819731	39000.939663
621.167326	38657.100203
621.514868	38549.509377
621.862357	38121.888461
622.209793	38068.590862
622.557176	37722.195537
622.904506	37440.790768
623.251783	37080.418844
623.599007	36824.875194
623.946179	36560.443989
624.293297	36429.885666
624.640363	35846.498137
624.987376	35770.112054
625.334336	35482.826778
625.681243	35101.980208
626.028097	34993.391234
626.374899	34770.058036
626.721647	34673.613201
627.068343	34480.166484
627.414987	34188.329047
627.761577	33906.853701
628.108115	34105.258393
628.454600	33562.212698
628.801032	33615.681696
629.147412	33491.853314
629.493739	33394.720362
629.840014	33006.516227
630.186236	33191.430792
630.532405	32771.842954
630.878521	32857.212374
631.224585	32649.224448
631.570597	32338.013857
631.916556	32378.280073
632.262462	32233.727507
632.608316	32152.055774
632.954117	31987.625938
633.299866	31897.512793
633.645562	31759.057502
633.991206	31294.938632
634.336797	30882.305067
634.682336	30814.476342
635.027823	30543.589940
635.373257	30339.297180
635.718639	30075.455791
636.063968	29897.616486
636.409245	29394.842048
636.754470	29356.461223
637.099642	29085.552136
637.444762	28632.899371
637.789829	28664.943465
638.134845	28312.125710
638.479808	28200.728813
638.824719	28044.715184
639.169577	27662.255444
639.514383	27636.404407
639.859137	27321.642323
640.203839	27433.555938
640.548489	27067.013642
640.893086	27051.723823
641.237632	26773.416842
641.582125	26775.884487
641.926566	26646.601576
642.270955	26540.949074
642.615292	26471.542468
642.959576	26369.035645
643.303809	26294.822299
643.647990	26300.289430
643.992118	26203.620264
644.336195	26101.607475
644.680219	26086.816730
645.024192	26201.858381
645.368112	26473.742931
645.711981	26370.147220
646.055797	26891.926807
646.399562	26726.629893
646.743274	27274.865457
647.086935	27491.199012
647.430544	27311.872567
647.774101	27293.752139
648.117606	27390.370894
648.461059	27532.503706
648.804460	27205.262245
649.147810	26709.558026
649.491108	26469.793187
649.834354	26156.803068
650.177548	25519.654154
650.520690	25132.606965
650.863781	25069.126235
651.206820	24891.886828
651.549807	24523.232288
651.892742	24121.626246
652.235626	23903.563575
652.578458	23741.135078
652.921238	23256.644905
653.263967	23394.006265
653.606644	23102.630093
653.949269	22993.118588
654.291843	22640.051296
654.634365	22820.915293
654.976836	22485.083706
655.319255	22399.835274
655.661622	22327.759377
656.003938	22106.654369
656.346203	21940.349224
656.688416	22011.915965
657.030577	21809.826189
657.372687	21647.803505
657.714746	21736.653841
658.056753	21733.230898
658.398708	21322.092034
658.740612	21277.618975
659.082465	21363.341275
659.424266	21172.392450
659.766016	21172.705002
660.107715	21022.541631
660.449362	21034.501769
660.790958	20942.568767
661.132503	20891.053216
661.473996	20826.231539
661.815438	20818.327010
662.156829	20856.826302
662.498168	20646.653036
662.839456	20589.080538
663.180693	20587.053995
663.521879	20614.195567
663.863013	20511.285452
664.204097	20441.717529
664.545129	20610.560895
664.886110	20511.424084
665.227040	20475.210955
665.567918	20466.076385
665.908746	20426.621794
666.249522	20435.045562
666.590248	20368.237671
666.930922	20359.009839
667.271545	20268.450551
667.612118	20237.659183
667.952639	20044.288083
668.293109	19991.615588
668.633528	19870.010354
668.973896	19771.536455
669.314213	19707.783503
669.654480	19493.393312
669.994695	19433.156564
670.334859	19302.910793
670.674973	19175.026802
671.015035	19178.548048
671.355047	19093.667620
671.695008	18991.947218
672.034918	18855.261373
672.374777	18808.083734
672.714585	18660.577052
673.054342	18702.655563
673.394049	18500.228031
673.733705	18588.178521
674.073310	18356.847533
674.412864	18315.328590
674.752368	18040.651240
675.091820	18134.136918
675.431223	17842.168411
675.770574	17635.584447
676.109875	17488.682703
676.449125	17281.745858
676.788324	17169.943148
677.127473	16841.706059
677.466571	16738.634628
677.805619	16509.715832
678.144616	16447.991944
678.483562	16336.433730
678.822458	16112.813187
679.161303	16015.760893
679.500098	15907.313071
679.838842	15789.526511
680.177535	15796.853828
680.516179	15853.435739
680.854771	15892.063580
681.193314	16226.700414
681.531805	16663.528997
681.870247	16944.865711
682.208638	17221.773771
682.546978	17262.017303
682.885268	17246.223368
683.223508	16951.716639
683.561697	16738.813589
683.899836	16587.112667
684.237925	16304.891230
684.575963	16172.318967
684.913951	15906.284675
685.251889	15921.786223
685.589776	15849.428022
685.927614	15783.572908
686.265401	15773.823317
686.603137	15752.010244
686.940824	15906.748461
687.278460	16013.000861
687.616046	16022.546286
687.953582	16227.587657
688.291068	16124.478417
688.628504	16191.709765
688.965889	16116.341994
689.303224	15902.710497
689.640510	15703.521906
689.977745	15348.123080
690.314930	14965.262569
690.652065	14695.465056
690.989150	14352.318755
691.326185	13918.842539
691.663170	13581.750663
692.000105	13222.800345
692.336990	12888.254252
692.673825	12644.653096
693.010610	12378.467570
693.347345	12095.043818
693.684030	11797.212449
694.020665	11639.925928
694.357251	11343.226298
694.693786	11273.164342
695.030272	11129.993052
695.366707	10890.787782
695.703093	10746.446944
696.039429	10691.619355
696.375716	10563.619418
696.711952	10505.676395
697.048139	10409.259287
697.384276	10314.898969
697.720363	10316.847375
698.056400	10210.879801
698.392388	10096.387635
698.728326	10049.678824
699.064214	9935.209344
699.400053	9884.359225
699.735842	9722.112209
700.071581	9581.476619
700.407270	9447.888563
700.742910	9346.268984
701.078501	9210.225886
701.414042	9077.835103
701.749533	8942.467520
702.084974	8791.434550
702.420366	8816.443715
702.755709	8637.452506
703.091002	8502.377309
703.426246	8480.954926
703.761440	8410.300634
704.096584	8288.917212
704.431679	8238.692196
704.766725	8177.195160
705.101721	8127.688509
705.436668	8127.948128
705.771565	7996.552974
706.106413	8064.069147
706.441212	8037.156947
706.775961	8047.700521
707.110661	8041.096609
707.445311	8118.022096
707.779913	8041.182309
708.114465	8084.937003
708.448967	8155.140112
708.783421	8331.320877
709.117825	8392.885968
709.452180	8439.433463
709.786485	8537.735962
710.120742	8759.892051
710.454949	8760.040765
710.789107	8879.488385
711.123216	9081.621010
711.457275	9111.489846
711.791286	9265.499617
712.125247	9272.781564
712.459159	9172.855812
712.793023	9335.773302
713.126837	8983.736926
713.460602	9015.639868
713.794318	8878.898570
714.127985	8723.550373
714.461602	8427.911905
714.795171	8371.133390
715.128691	8044.562402
715.462162	7853.066612
715.795584	7690.340686
716.128957	7575.498160
716.462281	7427.913340
716.795556	7322.107083
717.128782	7165.213772
717.461960	6986.570403
717.795088	6935.105264
718.128167	6806.402086
718.461198	6665.431259
718.794180	6601.879953
719.127113	6484.612633
719.459997	6413.466828
719.792833	6301.432225
720.125619	6272.511126
720.458357	6170.079921
720.791046	6108.056084
721.123686	6049.369492
721.456278	5969.772193
721.788821	5945.315035
722.121315	5864.419640
722.453761	5858.153485
722.786158	5825.096119
723.118506	5811.548018
723.450805	5765.975987
723.783056	5783.834275
724.115259	5749.987968
724.447412	5716.970931
724.779518	5762.104381
725.111574	5753.829327
725.443582	5786.193535
725.775542	5767.490854
726.107453	5870.156473
726.439315	5838.989539
726.771129	5920.993989
727.102895	5994.461244
727.434612	6039.085538
727.766281	6056.280914
728.097901	6098.508139
728.429473	6095.803560
728.760996	6075.616259
729.092471	6076.508544
729.423897	6034.346853
729.755276	5983.514379
730.086606	5990.773640
730.417887	6086.522796
730.749120	6173.744840
731.080305	6195.482295
731.411442	6244.010962
731.742530	6244.154635
732.073570	6251.426500
732.404562	6302.016999
732.735506	6252.490183
733.066401	6172.320714
733.397249	6029.162027
733.728048	5870.242172
734.058798	5669.931924
734.389501	5502.046378
734.720156	5378.964086
735.050762	5254.039252
735.381320	5161.211446
735.711831	5097.428247
736.042293	5009.392056
736.372707	4995.869161
736.703073	4942.322025
737.033391	4968.636848
737.363661	4951.295279
737.693883	4968.001663
738.024056	4996.436291
738.354182	5028.876116
738.684260	5083.113890
739.014290	5125.678873
739.344272	5163.853010
739.674207	5215.338314
740.004093	5232.760542
740.333931	5227.762238
740.663722	5227.971446
740.993464	5214.314960
741.323159	5163.782434
741.652806	5098.791879
741.982405	5037.587230
742.311956	4958.446156
742.641460	4918.878139
742.970915	4842.252601
743.300323	4758.818984
743.629683	4704.568607
743.958996	4637.438082
744.288260	4571.371240
744.617477	4501.936907
744.946647	4474.326508
745.275768	4411.627157
745.604842	4368.419427
745.933869	4330.585568
746.262847	4308.953976
746.591778	4289.648878
746.920662	4261.388169
747.249498	4249.417949
747.578286	4268.075260
747.907027	4284.900111
748.235720	4321.766069
748.564365	4323.507788
748.892963	4299.564827
749.221514	4299.872338
749.550017	4264.155763
749.878473	4249.082713
750.206881	4209.413873
750.535242	4178.413298
750.863555	4158.261285
751.191821	4135.447543
751.520039	4128.798261
751.848210	4106.959983
752.176334	4104.678861
752.504411	4086.434925
752.832440	4054.078279
753.160421	4059.633631
753.488356	4033.331410
753.816243	4015.382382
754.144082	3986.486488
754.471875	3972.126762
754.799620	3958.225780
755.127318	3948.014923
755.454969	3936.972275
755.782572	3920.223042
756.110129	3920.086930
756.437638	3901.535484
756.765100	3894.666912
757.092515	3892.290008
757.419882	3890.666757
757.747203	3888.063001
758.074477	3898.672109
758.401703	3891.274216
758.728882	3910.770878
759.056014	3914.675252
759.383099	3926.668157
759.710138	3939.961679
760.037129	3949.623051
760.364073	3951.016930
760.690970	3943.760189
761.017820	3936.052265
761.344623	3952.975418
761.671379	3992.976974
761.998088	4074.109304
762.324751	4303.706135
762.651366	4743.889607
762.977935	5288.283811
763.304456	5616.657010
763.630931	5673.911915
763.957359	5477.891689
764.283740	5184.428480
764.610074	4895.953492
764.936362	4574.484152
765.262602	4340.146116
765.588796	4119.472127
765.914943	3965.636276
766.241044	3834.974609
766.567097	3734.093559
766.893104	3652.157165
767.219064	3594.874534
767.544978	3530.788866
767.870845	3480.147955
768.196665	3450.805919
768.522438	3415.837955
768.848165	3388.653533
769.173846	3356.455683
769.499479	3341.233919
769.825066	3312.912717
770.150607	3281.597069
770.476101	3268.384205
770.801548	3252.300404
771.126949	3223.369222
771.452303	3209.138045
771.777611	3184.892615
772.102872	3175.006912
772.428087	3158.010662
772.753256	3142.965339
773.078378	3124.857514
773.403453	3106.033846
773.728482	3087.779828
774.053465	3075.970925
774.378401	3062.904254
774.703291	3047.775751
775.028135	3032.758154
775.352932	3024.573841
775.677683	3016.765093
776.002388	2997.512927
776.327046	2996.053513
776.651658	2984.705875
776.976224	2970.376396
777.300743	2968.919502
777.625216	2956.223356
777.949643	2951.411575
778.274024	2949.027109
778.598359	2937.074533
778.922647	2935.975562
779.246889	2931.418359
779.571086	2929.434665
779.895236	2932.368616
780.219339	2930.760488
780.543397	2929.074222
780.867409	2935.922630
781.191374	2933.480191
781.515294	2929.729572
781.839167	2935.400870
782.162995	2928.063471
782.486776	2917.383786
782.810511	2907.724936
783.134201	2897.632546
783.457844	2896.125241
783.781441	2886.693242
784.104993	2881.508415
784.428498	2875.965666
784.751958	2872.867877
785.075372	2868.870242
785.398739	2863.758512
785.722061	2862.657020
786.045337	2862.099973
786.368568	2873.059441
786.691752	2871.917620
787.014891	2903.969276
787.337983	2939.282559
787.661030	2996.565190
787.984031	3047.226265
788.306987	3075.519741
788.629897	3078.143662
788.952760	3060.718914
789.275579	3033.229502
789.598351	2994.011845
789.921078	2962.953297
790.243759	2926.190682
790.566395	2904.652352
790.888984	2876.920965
791.211529	2864.219778
791.534027	2842.988958
791.856480	2824.026658
792.178888	2817.853765
792.501249	2810.324802
792.823566	2796.023049
793.145836	2796.479273
793.468062	2792.138840
793.790241	2788.166410
794.112375	2794.571196
794.434464	2803.488997
794.756507	2801.908596
795.078505	2817.326965
795.400457	2843.699761
795.722364	2870.193545
796.044226	2892.329252
796.366042	2908.312230
796.687812	2901.662948
797.009538	2901.494069
797.331218	2891.010990
797.652852	2879.300390
797.974442	2863.672813
798.295986	2856.181658
798.617484	2839.646673
798.938938	2825.891885
799.260346	2815.885195
799.581709	2804.935809
799.903026	2796.917853
800.224299	2786.991822
800.545526	2779.034360
800.866708	2772.546395
801.187845	2764.722524
801.508936	2756.031575
801.829983	2756.497882
802.150984	2742.508680
802.471940	2739.612537
802.792851	2736.855026
803.113717	2735.390571
803.434538	2731.357648
803.755314	2726.994529
804.076045	2727.662482
804.396731	2724.577296
804.717372	2728.408573
805.037967	2728.335476
805.358518	2726.865980
805.679024	2736.640777
805.999485	2736.834861
806.319901	2739.799060
806.640272	2740.303175
806.960598	2743.514390
807.280879	2740.625809
807.601115	2745.382138
807.921306	2740.787126
808.241453	2739.350397
808.561554	2740.361148
808.881611	2734.773029
809.201623	2734.188256
809.521590	2728.479149
809.841513	2727.125599
810.161390	2725.328428
810.481223	2715.107488
810.801011	2712.660008
811.120755	2708.889225
811.440453	2704.286652
811.760107	2698.012936
812.079716	2695.063861
812.399281	2688.497758
812.718801	2687.842408
813.038276	2685.407530
813.357707	2683.171779
813.677093	2683.509536
813.996434	2677.986952
814.315731	2677.724812
814.634983	2676.633402
814.954191	2677.956705
815.273354	2684.202695
815.592473	2685.715041
815.911547	2694.254755
816.230577	2700.142823
816.549562	2709.317723
816.868502	2711.429967
817.187399	2713.998434
817.506250	2719.266440
817.825058	2721.439177
818.143821	2736.303020
818.462539	2748.772314
818.781213	2769.234357
819.099843	2800.363482
819.418429	2858.767770
819.736970	2913.073600
820.055466	2972.599544
820.373919	3049.966132
820.692327	3171.452899
821.010691	3426.709203
821.329011	4090.772838
821.647286	5221.733018
821.965517	6474.701724
822.283704	7114.756863
822.601847	7146.533777
822.919945	6490.788046
823.237999	5852.789698
823.556010	5283.668634
823.873976	4799.894305
824.191897	4383.235378
824.509775	4076.708019
824.827609	3802.217192
825.145398	3629.356026
825.463144	3544.173129
825.780845	3563.374884
826.098502	3673.385464
826.416116	3886.626272
826.733685	4074.663831
827.051210	4109.246146
827.368692	3970.874035
827.686129	3752.937392
828.003522	3536.376985
828.320872	3344.356914
828.638177	3201.856098
828.955439	3093.443564
829.272656	2998.889162
829.589830	2922.903850
829.906960	2860.007894
830.224046	2813.024340
830.541088	2778.797426
830.858086	2751.733992
831.175041	2735.645149
831.491952	2727.438151
831.808819	2726.591237
832.125642	2743.874833
832.442421	2788.582306
832.759157	2879.136552
833.075849	3029.284799
833.392497	3180.511852
833.709101	3272.147427
834.025662	3248.461565
834.342179	3163.434944
834.658653	3052.317831
834.975083	2961.922381
835.291469	2894.290261
835.607811	2830.358347
835.924110	2785.471914
836.240366	2746.428177
836.556578	2708.112887
836.872746	2678.486026
837.188871	2655.223622
837.504952	2638.313071
837.820990	2619.877572
838.136984	2611.804164
838.452935	2610.233844
838.768842	2609.439862
839.084706	2635.618574
839.400526	2698.418748
839.716303	2769.705705
840.032037	2817.768066
840.347727	2801.409522
840.663373	2753.752974
840.978977	2706.093905
841.294537	2674.556447
841.610054	2644.362456
841.925527	2625.669857
842.240957	2604.509614
842.556344	2590.364136
842.871687	2574.345870
843.186987	2563.749365
843.502244	2551.078424
843.817458	2544.484595
844.132629	2536.935467
844.447756	2530.366844
844.762840	2525.184538
845.077881	2522.603467
845.392879	2520.178672
845.707833	2519.394772
846.022745	2511.901097
846.337613	2516.528877
846.652438	2512.604338
846.967221	2514.101561
847.281960	2513.685666
847.596656	2511.969153
847.911309	2506.817094
848.225919	2507.689213
848.540485	2504.029336
848.855009	2507.411950
849.169490	2506.335663
849.483928	2503.373986
849.798323	2504.767865
850.112675	2503.126969
850.426984	2504.293996
850.741251	2503.893224
851.055474	2500.427431
851.369654	2502.658142
851.683792	2502.416166
851.997887	2502.075888
852.311938	2498.794097
852.625947	2501.261742
852.939914	2503.316012
853.253837	2501.349962
853.567718	2500.099756
853.881555	2500.233347
854.195350	2502.716115
854.509103	2501.944818
854.822812	2502.136382
855.136479	2500.979438
855.450103	2501.415497
855.763685	2500.140085
856.077224	2501.891886
856.390720	2500.321567
856.704173	2502.784171
857.017584	2503.096722
857.330953	2502.743841
857.644278	2503.046311
857.957561	2506.418842
858.270802	2504.377175
858.584000	2501.430621
858.897155	2502.096053
859.210268	2502.466578
859.523339	2501.692761
859.836367	2502.237205
860.149352	2502.131341
860.462295	2500.203100
860.775195	2498.610095
861.088054	2499.000785
861.400869	2498.894920
861.713642	2492.379229
862.026373	2500.238388
862.339062	2501.758296
862.651708	2502.655621
862.964312	2501.213851
863.276873	2502.625374
863.589392	2502.632936
863.901869	2506.693585
864.214303	2508.657115
864.526696	2511.583505
864.839045	2511.220542
865.151353	2513.836900
865.463619	2511.767507
865.775842	2512.130470
866.088023	2513.519308
866.400162	2514.144411
866.712258	2513.539472
867.024313	2512.609379
867.336325	2515.387055
867.648296	2512.453104
867.960224	2513.705830
868.272110	2513.496623
868.583954	2515.061901
868.895755	2516.118023
869.207515	2515.601304
869.519233	2516.652385
869.830909	2517.973167
870.142542	2518.010976
870.454134	2519.571213
870.765684	2517.990811
871.077191	2522.343848
871.388657	2523.891482
871.700081	2521.943076
872.011463	2526.306194
872.322803	2525.040865
872.634101	2528.620084
872.945357	2527.765608
873.256571	2535.229037
873.567744	2535.259284
873.878874	2534.200641
874.189963	2536.958153
874.501010	2536.867412
874.812015	2536.292720
875.122979	2537.328677
875.433900	2537.573173
875.744780	2539.135931
876.055618	2540.386137
876.366415	2542.609286
876.677169	2541.260777
876.987882	2541.588452
877.298554	2543.433515
877.609183	2545.165151
877.919771	2549.082127
878.230317	2557.447922
878.540822	2569.077864
878.851285	2585.169227
879.161707	2603.589603
879.472087	2637.866929
879.782425	2688.580937
880.092722	2788.478962
880.402977	2958.945579
880.713191	3193.392001
881.023363	3428.987805
881.333494	3560.118299
881.643583	3585.681990
881.953631	3529.248793
882.263637	3446.384827
882.573602	3354.721527
882.883526	3268.454781
883.193408	3186.473017
883.503248	3108.756069
883.813048	3035.104811
884.122806	2966.066209
884.432522	2899.109604
884.742197	2839.442507
885.051831	2787.027110
885.361424	2742.491036
885.670975	2704.591641
885.980485	2676.671211
886.289954	2650.726912
886.599382	2633.702936
886.908768	2616.202570
887.218113	2598.566094
887.527417	2587.841039
887.836680	2577.360480
888.145901	2568.432597
888.455082	2559.280382
888.764221	2552.772252
889.073319	2548.197405
889.382376	2546.690100
889.691392	2542.899152
890.000366	2541.296065
890.309300	2540.320602
890.618193	2541.931251
890.927044	2541.122146
891.235855	2538.185673
891.544625	2539.934954
891.853353	2544.464431
892.162041	2550.239072
892.470687	2560.891030
892.779293	2569.309757
893.087858	2581.363156
893.396381	2602.974583
893.704864	2641.836838
894.013306	2683.154135
894.321707	2735.080540
894.630068	2761.624735
894.938387	2764.712442
895.246665	2755.829929
895.554903	2735.110787
895.863100	2703.817824
896.171256	2684.205215
896.479371	2662.770229
896.787446	2645.204328
897.095480	2627.255300
897.403473	2614.523866
897.711425	2601.253029
898.019336	2592.194075
898.327207	2580.370049
898.635038	2572.273956
898.942827	2560.739796
899.250576	2555.754095
899.558284	2546.344781
899.865952	2541.860675
900.173579	2534.596372
900.481165	2529.293078
900.788711	2530.588655
901.096216	2524.667819
901.403681	2521.761594
901.711105	2521.179341
902.018489	2520.244207
902.325832	2531.145702
902.633135	2531.145702
902.940397	2546.075079
903.247619	2584.276943
903.554800	2649.791778
903.861941	2730.873697
904.169041	2789.973664
904.476101	2805.843216
904.783121	2790.530712
905.090100	2759.784714
905.397039	2724.085783
905.703938	2694.035465
906.010796	2667.924809
906.317614	2646.033598
906.624391	2620.401852
906.931129	2602.167998
907.237826	2585.968250
907.544483	2567.590724
907.851099	2551.184289
908.157675	2537.671476
908.464211	2524.844260
908.770707	2512.170799
909.077163	2503.852895
909.383578	2499.928357
909.689954	2493.208499
909.996289	2493.064826
910.302584	2490.594661
910.608839	2491.237408
910.915054	2490.937459
911.221229	2489.606594
911.527363	2486.569299
911.833458	2489.752788
912.139513	2489.992243
912.445527	2490.735813
912.751502	2493.304281
913.057436	2498.990702
913.363331	2506.131497
913.669186	2512.652229
913.975000	2528.249559
914.280775	2541.437218
914.586510	2568.258677
914.892205	2604.287803
915.197859	2646.517549
915.503475	2695.141998
915.809050	2735.191445
916.114585	2755.582912
916.420081	2767.832916
916.725536	2763.414345
917.030952	2744.346181
917.336328	2726.936556
917.641665	2711.072045
917.946961	2690.494055
918.252218	2677.034174
918.557435	2654.308652
918.862612	2638.275262
919.167750	2624.946452
919.472848	2608.371138
919.777906	2590.588468
920.082925	2575.051632
920.387904	2561.627039
920.692843	2550.148332
920.997743	2542.679862
921.302603	2529.376257
921.607423	2525.539939
921.912204	2514.580471
922.216946	2511.076869
922.521647	2508.936899
922.826310	2502.469098
923.130932	2498.095898
923.435516	2493.836123
923.740059	2494.141112
924.044564	2490.771101
924.349028	2488.061481
924.653454	2477.830459
924.957840	2479.990593
925.262186	2477.500263
925.566493	2477.144862
925.870761	2473.696713
926.174989	2473.232927
926.479178	2472.093626
926.783328	2472.985910
927.087438	2467.788481
927.391509	2469.847792
927.695541	2461.134157
927.999533	2466.286217
928.303486	2464.325208
928.607400	2461.676082
928.911275	2462.175156
929.215110	2463.674899
929.518906	2458.759774
929.822663	2462.079374
930.126381	2463.271607
930.430060	2463.536267
930.733699	2464.428552
931.037299	2462.565845
931.340861	2462.883438
931.644383	2461.950824
931.947866	2461.968468
932.251309	2461.096349
932.554714	2461.587861
932.858080	2463.150619
933.161407	2462.149950
933.464694	2462.185238
933.767943	2458.348920
934.071153	2458.946297
934.374323	2459.412603
934.677455	2457.290278
934.980548	2457.912860
935.283602	2458.714404
935.586617	2458.754733
935.889593	2459.790690
936.192530	2460.040227
936.495428	2461.308077
936.798287	2460.017542
937.101108	2461.890331
937.403890	2461.590382
937.706632	2469.429376
938.009336	2471.594552
938.312002	2471.095478
938.614628	2476.252578
938.917216	2475.687969
939.219765	2478.180819
939.522275	2478.924389
939.824747	2480.303145
940.127179	2474.997331
940.429573	2472.990951
940.731929	2477.366673
941.034246	2474.737711
941.336524	2479.415902
941.638763	2476.930613
941.940964	2474.649491
942.243126	2473.086733
942.545250	2474.553709
942.847335	2471.022381
943.149381	2470.893831
943.451389	2469.535240
943.753359	2467.765795
944.055290	2469.898203
944.357182	2464.317646
944.659036	2464.549539
944.960851	2463.286730
945.262628	2464.163891
945.564367	2463.793366
945.866067	2463.684981
946.167729	2462.442337
946.469352	2465.918213
946.770937	2465.202369
947.072484	2462.492748
947.373992	2462.248253
947.675462	2462.560804
947.976893	2460.836729
948.278286	2457.408745
948.579641	2461.965948
948.880958	2459.848663
949.182236	2455.503189
949.483476	2460.453602
949.784678	2460.027624
950.085841	2460.766153
950.386967	2461.781946
950.688054	2460.972841
950.989103	2459.175669
951.290114	2461.691205
951.591087	2465.106587
951.892021	2463.105249
952.192917	2464.332770
952.493776	2466.248408
952.794596	2464.829323
953.095378	2465.968624
953.396122	2465.557770
953.696828	2463.057358
953.997496	2463.737913
954.298126	2466.016515
954.598718	2464.728500
954.899272	2459.800772
955.199788	2459.523509
955.500266	2460.849332
955.800706	2455.893878
956.101108	2451.997066
956.401472	2454.273147
956.701798	2450.197374
957.002087	2450.068825
957.302337	2448.435491
957.602550	2449.005141
957.902724	2448.569082
958.202861	2449.163938
958.502960	2444.634461
958.803022	2446.169492
959.103045	2446.015737
959.403031	2444.742846
959.702979	2443.590942
960.002889	2444.561364
960.302762	2442.688576
960.602596	2442.093719
960.902393	2440.800663
961.202153	2438.499377
961.501875	2440.427618
961.801559	2441.370314
962.101205	2438.448965
962.400814	2441.788730
962.700385	2440.588935
962.999918	2442.436518
963.299414	2438.663214
963.598873	2441.468616
963.898293	2439.913420
964.197677	2439.149686
964.497022	2441.120777
964.796331	2437.889397
965.095601	2438.093564
965.394835	2432.190373
965.694030	2439.084151
965.993189	2436.664397
966.292309	2437.450817
966.591393	2437.975097
966.890439	2438.887546
967.189447	2436.475353
967.488419	2436.853440
967.787353	2439.898297
968.086249	2436.775302
968.385108	2438.028029
968.683930	2436.082143
968.982714	2436.359407
969.281462	2437.564243
969.580172	2438.012905
969.878844	2436.258584
970.177480	2435.071392
970.476078	2434.899993
970.774639	2439.406784
971.073162	2439.883173
971.371649	2435.701536
971.670098	2436.724891
971.968510	2436.498039
972.266885	2433.092739
972.565223	2437.022319
972.863524	2441.085489
973.161788	2437.775971
973.460014	2437.392843
973.758204	2436.119952
974.056356	2438.171702
974.354471	2440.273863
974.652550	2436.563574
974.950591	2439.731939
975.248595	2440.276383
975.546563	2436.901331
975.844493	2440.654470
976.142386	2438.043152
976.440243	2438.557350
976.738062	2437.844027
977.035845	2439.734459
977.333590	2437.395364
977.631299	2437.380241
977.928971	2436.293872
978.226606	2436.818152
978.524204	2439.099274
978.821765	2435.620878
979.119290	2435.502411
979.416777	2434.907555
979.714228	2434.595003
980.011642	2433.584252
980.309020	2438.552309
980.606360	2437.682710
980.903664	2439.452155
981.200931	2442.832248
981.498162	2442.134049
981.795356	2445.955243
982.092513	2446.164451
982.389633	2452.934721
982.686717	2458.182562
982.983764	2457.882613
983.280775	2463.327059
983.577749	2462.076853
983.874686	2464.904941
984.171587	2459.251287
984.468451	2459.364713
984.765279	2457.307922
985.062070	2453.600153
985.358824	2450.295677
985.655543	2447.041612
985.952224	2448.455656
986.248869	2445.229317
986.545478	2434.113573
986.842050	2435.593152
987.138586	2434.451330
987.435086	2432.502924
987.731549	2430.748603
988.027975	2432.588624
988.324366	2431.177101
988.620719	2431.620722
988.917037	2431.461926
989.213318	2428.689291
989.509563	2427.847419
989.805772	2430.267173
990.101944	2429.672316
990.398080	2430.370516
990.694180	2429.682399
990.990244	2429.750454
991.286271	2430.173911
991.582262	2430.718356
991.878217	2427.774322
992.174136	2428.613674
992.470019	2428.744744
992.765865	2429.382450
993.061676	2428.548139
993.357450	2432.969231
993.653188	2430.199117
993.948890	2431.219951
994.244556	2432.386978
994.540186	2433.422935
994.835780	2431.973603
995.131337	2432.376895
995.426859	2435.968717
995.722345	2439.386620
996.017795	2441.196394
996.313208	2442.595314
996.608586	2446.416509
996.903928	2444.926848
997.199234	2445.912393
997.494504	2444.488267
997.789738	2443.734615
998.084936	2441.261929
998.380099	2437.846547
998.675225	2439.084151
998.970316	2436.608944
999.265371	2435.310847
999.560390	2434.342945
999.855373	2432.991916
1000.150320	2433.516196
1000.445232	2431.197265
1000.740108	2427.010587
1001.034948	2431.038469
1001.329752	2427.050916
1001.624521	2427.860022
1001.919254	2423.741399
1002.213951	2424.096800
1002.508613	2425.372212
1002.803239	2423.638055
1003.097829	2422.050092
1003.392384	2424.946235
1003.686903	2424.381625
1003.981386	2426.879517
1004.275834	2424.328693
1004.570246	2426.435896
1004.864623	2422.271902
1005.158964	2423.809454
1005.453270	2420.726789
1005.747540	2421.669485
1006.041775	2423.668302
1006.335974	2418.531366
1006.630138	2425.132757
1006.924266	2423.010432
1007.218359	2422.251738
1007.512416	2421.082190
1007.806438	2422.513878
1008.100425	2423.093611
1008.394376	2424.021183
1008.688292	2426.100659
1008.982172	2420.835174
1009.276017	2423.950607
1009.569827	2421.195616
1009.863602	2425.538570
1010.157341	2422.024886
1010.451045	2422.148394
1010.744714	2421.213260
1011.038347	2419.428692
1011.331945	2422.450863
1011.625508	2423.186872
1011.919036	2419.847107
1012.212528	2421.545976
1012.505986	2420.736871
1012.799408	2421.843404
1013.092795	2421.220822
1013.386147	2420.275606
1013.679464	2421.422468
1013.972745	2419.136305
1014.265992	2420.835174
1014.559204	2421.356933
1014.852380	2422.279464
1015.145521	2421.727458
1015.438628	2419.889957
1015.731699	2420.812488
1016.024736	2415.851993
1016.317737	2420.711665
1016.610703	2420.404155
1016.903635	2416.875347
1017.196531	2417.651685
1017.489393	2419.486665
1017.782219	2415.378125
1018.075011	2422.473549
1018.367768	2419.718558
1018.660490	2419.700914
1018.953177	2419.700914
1019.245829	2419.700914
