Dividing Wavelength (nm)	Counts (n)	Blue Motor Position (mm): 0.000000	Red Motor Position (mm): 47.000000	
326.493990	1998.641060
326.888308	1998.641060
327.282561	1998.641060
327.676750	1974.294807
328.070874	1975.645836
328.464933	1980.109778
328.858929	1992.667292
329.252859	2004.740856
329.646726	2015.952382
330.040528	2032.724301
330.434265	2052.500747
330.827938	2072.506566
331.221547	2090.284195
331.615091	2112.747577
332.008571	2132.095525
332.401986	2151.975316
332.795338	2174.990703
333.188625	2195.593899
333.581847	2211.647454
333.975006	2232.003633
334.368100	2246.481827
334.761129	2267.364807
335.154095	2278.427619
335.546996	2324.375215
335.939833	2409.033832
336.332606	2424.716862
336.725315	2434.854623
337.117960	2445.922476
337.510540	2453.980760
337.903056	2463.211113
338.295508	2467.826289
338.687896	2474.520942
339.080220	2482.763228
339.472480	2488.497541
339.864676	2493.551297
340.256807	2494.458705
340.648875	2496.568428
341.040879	2496.331494
341.432818	2499.222595
341.824694	2499.882987
342.216506	2501.385250
342.608253	2501.216372
342.999937	2496.759992
343.391557	2497.324601
343.783113	2498.254694
344.174605	2495.555156
344.566033	2494.486431
344.957397	2491.176914
345.348697	2489.616677
345.739934	2488.895792
346.131106	2489.538539
346.522215	2485.167858
346.913260	2485.036788
347.304241	2483.617704
347.695159	2481.626448
348.086012	2481.046715
348.476802	2480.086375
348.867528	2478.533700
349.258191	2475.488843
349.648789	2477.003710
350.039324	2473.427011
350.429796	2478.304327
350.820203	2472.340642
351.210548	2475.556899
351.600828	2471.347535
351.991045	2472.975828
352.381198	2471.801239
352.771288	2470.997175
353.161314	2473.048925
353.551276	2472.983390
353.941175	2471.707978
354.331010	2471.007257
354.720782	2474.188225
355.110490	2477.114615
355.500135	2474.578915
355.889717	2473.782413
356.279235	2475.531693
356.668689	2475.083030
357.058080	2473.530355
357.447408	2475.844244
357.836672	2472.411219
358.225873	2477.719554
358.615010	2471.995323
359.004084	2477.003710
359.393095	2482.203660
359.782043	2481.349184
360.170927	2481.437405
360.559748	2485.263640
360.948505	2483.166520
361.337199	2485.155256
361.725830	2485.331696
362.114398	2487.746409
362.502903	2486.528970
362.891344	2488.066522
363.279722	2487.648106
363.668037	2486.607108
364.056289	2489.767911
364.444478	2489.334372
364.832603	2490.738333
365.220665	2493.092552
365.608665	2491.731441
365.996601	2495.643376
366.384474	2496.354179
366.772284	2499.217554
367.160031	2494.778818
367.547715	2498.476505
367.935336	2499.986330
368.322893	2501.649911
368.710388	2500.319046
369.097820	2503.467247
369.485189	2502.728718
369.872495	2507.124604
370.259738	2508.067300
370.646918	2511.112157
371.034035	2512.710203
371.421090	2515.432426
371.808081	2518.013496
372.195010	2525.222346
372.581875	2529.643438
372.968678	2535.556712
373.355418	2545.518032
373.742096	2554.829043
374.128710	2566.514437
374.515262	2577.683114
374.901751	2594.616350
375.288177	2614.024792
375.674540	2630.012811
376.060841	2652.176244
376.447079	2674.385047
376.833254	2701.680375
377.219367	2729.333624
377.605417	2765.529109
377.991404	2791.624642
378.377329	2834.343380
378.763191	2870.627084
379.148991	2917.119126
379.534727	2965.201651
379.920402	3016.666791
380.306013	3066.060016
380.691563	3133.646766
381.077049	3190.329500
381.462474	3244.859661
381.847835	3321.787668
382.233134	3396.406828
382.618371	3457.460242
383.003545	3544.972152
383.388657	3630.838126
383.773706	3722.309862
384.158693	3798.839619
384.543618	3893.076428
384.928480	3974.478460
385.313280	4082.994338
385.698017	4189.438301
386.082692	4315.343639
386.467305	4376.109707
386.851856	4513.644987
387.236344	4667.846322
387.620770	4729.106423
388.005133	4856.687945
388.389435	5008.721583
388.773674	5094.993369
389.157851	5228.488164
389.541965	5367.644175
389.926018	5392.451693
390.310008	5575.516154
390.693936	5705.537594
391.077802	5822.199976
391.461606	5959.236182
391.845348	6073.262041
392.229027	6197.642429
392.612645	6428.917965
392.996200	6544.967847
393.379694	6727.389561
393.763125	6955.592513
394.146494	7050.429220
394.529801	7197.010850
394.913047	7447.440250
395.296230	7441.000176
395.679351	7501.367993
396.062410	7779.080117
396.445408	7668.963673
396.828343	7830.557860
397.211217	7972.660425
397.594028	7850.069646
397.976778	8062.067809
398.359466	8235.319664
398.742092	8204.876136
399.124656	8356.226698
399.507158	8546.762148
399.889598	8564.418790
400.271977	8781.929455
400.654294	8818.457656
401.036549	9017.946196
401.418742	9047.051297
401.800874	9358.662661
402.182944	9440.205845
402.564952	9821.070059
402.946898	9632.760277
403.328783	9691.540131
403.710606	9895.313652
404.092367	10156.843673
404.474067	10528.906032
404.855705	10313.290841
405.237282	10259.506771
405.618797	10703.932373
406.000250	10960.494336
406.381642	11329.085862
406.762972	11285.474840
407.144240	11081.424055
407.525447	11339.957110
407.906593	11276.315063
408.287677	11538.916329
408.668700	11702.572347
409.049661	11671.392811
409.430560	11842.875220
409.811399	11808.300467
410.192176	11977.756333
410.572891	12051.929350
410.953545	12549.226574
411.334138	12016.300995
411.714669	12643.755770
412.095139	11918.207703
412.475547	12448.937859
412.855894	12278.078032
413.236180	12627.223306
413.616405	12295.182667
413.996568	12576.012745
414.376670	12546.030482
414.756711	12422.655804
415.136691	12721.387019
415.516609	12903.733115
415.896466	12984.835198
416.276262	13265.624947
416.655997	13713.861662
417.035670	13747.271909
417.415283	14408.240275
417.794834	14508.639895
418.174324	14249.184309
418.553753	14148.383918
418.933121	14658.165559
419.312428	14450.187716
419.691674	14370.575294
420.070859	14833.922867
420.449983	14482.622500
420.829045	15053.873451
421.208047	14784.552327
421.586988	15250.536424
421.965867	15514.594583
422.344686	15523.630851
422.723444	16080.716160
423.102141	14745.710237
423.480777	15966.753316
423.859352	15462.027951
424.237866	16607.899865
424.616319	16288.804908
424.994712	16971.311604
425.373044	16764.571364
425.751314	17445.283409
426.129524	16550.128242
426.507673	17681.887445
426.885762	17358.507508
427.263789	17575.675374
427.641756	17746.930932
428.019662	17798.028068
428.397508	17844.023555
428.775292	18168.822577
429.153016	18117.412890
429.530679	18210.757415
429.908282	18239.338237
430.285824	17947.551211
430.663305	18676.940638
431.040726	18253.602182
431.418086	18072.987722
431.795385	18739.929855
432.172624	19159.739503
432.549802	18707.452221
432.926920	18896.278721
433.303977	18781.108520
433.680974	19047.498213
434.057910	19342.688017
434.434786	19368.087871
434.811601	19279.043450
435.188355	20337.917651
435.565050	19972.441559
435.941683	19924.694270
436.318257	20820.270374
436.694770	20630.788525
437.071222	21229.274309
437.447614	20290.732451
437.823946	20323.522636
438.200218	20471.702312
438.576429	20251.111502
438.952580	20526.688698
439.328670	20489.711834
439.704700	20911.706823
440.080670	20468.808690
440.456580	21081.762586
440.832429	21259.377560
441.208218	20216.516584
441.583947	20687.277174
441.959616	20790.378853
442.335224	21038.141482
442.710773	21177.587359
443.086261	21712.501673
443.461689	21071.755896
443.837057	21182.515087
444.212365	21856.880319
444.587612	21858.357377
444.962800	21419.749266
445.337927	21855.675483
445.712995	20560.522402
446.088002	22452.812759
446.462949	22653.082678
446.837837	22836.152180
447.212664	22794.441673
447.587431	25691.607912
447.962139	28687.520273
448.336786	31081.816292
448.711374	29481.144081
449.085901	25737.739511
449.460369	25697.107811
449.834776	25628.611133
450.209124	28156.361618
450.583412	27660.571699
450.957640	28198.598926
451.331808	26824.634965
451.705917	25432.323726
452.079965	25484.119061
452.453954	25840.279101
452.827883	25727.977317
453.201752	25514.013103
453.575562	25696.853233
453.949311	26835.599475
454.323001	26900.050627
454.696632	26656.000807
455.070202	28252.534231
455.443713	28377.295227
455.817164	28989.548402
456.190556	29520.583548
456.563888	28946.244891
456.937160	29389.594207
457.310373	27704.739768
457.683526	28167.956272
458.056619	28157.740374
458.429653	28093.405168
458.802628	28675.701287
459.175542	28798.481110
459.548398	30103.124163
459.921194	31708.295604
460.293930	32383.480023
460.666607	34448.104746
461.039224	36202.723712
461.411782	36609.595239
461.784280	35407.395993
462.156719	34951.620233
462.529099	34392.170623
462.901419	33078.440890
463.273680	32006.399195
463.645882	32093.754830
464.018024	32066.933371
464.390106	32926.646706
464.762130	35648.882386
465.134094	39762.504254
465.505999	45084.833497
465.877845	49679.240289
466.249631	50872.594831
466.621358	49185.658396
466.993026	47098.729088
467.364634	45030.036155
467.736184	43034.351732
468.107674	41769.107816
468.479105	40976.310756
468.850477	40265.954206
469.221790	38805.821803
469.593043	37036.893522
469.964238	36145.783880
470.335373	36064.858237
470.706449	37837.103598
471.077467	40456.764400
471.448425	45039.722732
471.819324	47840.749126
472.190164	45977.909189
472.560945	42389.091601
472.931667	39258.126729
473.302330	38146.655650
473.672934	37312.506005
474.043479	37835.472785
474.413965	37008.136259
474.784393	36630.947046
475.154761	37549.609115
475.525070	37563.505055
475.895321	37096.449713
476.265513	37687.512399
476.635645	38694.387098
477.005719	38518.360087
477.375734	38990.078497
477.745691	39689.611690
478.115588	41039.625128
478.485427	43036.660580
478.855207	46425.122549
479.224928	49045.993228
479.594591	50674.351456
479.964194	49697.338032
480.333739	49867.847499
480.703226	49906.245968
481.072653	50535.220651
481.442022	51014.972139
481.811333	51265.814913
482.180584	49982.601804
482.549777	49476.752263
482.918912	48931.284293
483.287988	48646.943052
483.657005	47819.472936
484.025964	47174.898402
484.394864	47206.511478
484.763706	46782.699153
485.132489	45907.335556
485.501213	45726.000211
485.869879	45886.870992
486.238487	45473.826572
486.607036	45655.928172
486.975527	45126.170958
487.343959	45329.584037
487.712333	45408.838537
488.080648	45311.793805
488.448905	45795.006045
488.817104	45605.161232
489.185244	46565.962306
489.553326	48279.725241
489.921350	50968.500262
490.289315	53804.897912
490.657222	54379.226487
491.025070	54658.012377
491.392861	53777.466473
491.760593	52587.124021
492.128267	50944.794236
492.495883	49417.490979
492.863440	48034.861275
493.230939	46682.375151
493.598380	45574.415235
493.965763	45251.604948
494.333088	44436.944405
494.700354	43931.039410
495.067563	43625.222853
495.434713	43510.113147
495.801805	43559.110641
496.168839	43191.524826
496.535815	42861.339332
496.902733	42881.899678
497.269593	42463.988024
497.636395	42396.703743
498.003139	42796.749548
498.369825	42251.326949
498.736453	42575.274016
499.103023	42091.358534
499.469535	41966.474030
499.835989	42054.245560
500.202385	41725.317833
500.568723	41750.929415
500.935003	41938.049484
501.301226	41714.920453
501.667390	42346.934952
502.033497	42630.396512
502.399546	42054.434603
502.765537	41345.678619
503.131470	41750.629467
503.497345	42103.696758
503.863163	40761.144228
504.228923	41385.844013
504.594625	41814.392501
504.960269	41083.667169
505.325856	41799.037146
505.691385	41130.292801
506.056856	41280.945163
506.422270	41737.159503
506.787625	41301.515591
507.152924	41498.377690
507.518164	41607.301901
507.883347	40793.203446
508.248472	41069.204098
508.613540	41539.299256
508.978550	41854.469674
509.343503	41603.949534
509.708398	41809.394197
510.073236	42336.789630
510.438016	42338.289373
510.802738	41785.204220
511.167403	42424.707353
511.532010	42658.097653
511.896561	42974.074655
512.261053	43826.296836
512.625488	43353.053478
512.989866	43239.236827
513.354186	43080.939555
513.718449	43062.872060
514.082655	43762.380047
514.446803	43430.041979
514.810894	43953.326352
515.174927	43865.411149
515.538904	43762.183442
515.902822	44453.300428
516.266684	43888.870158
516.630488	44332.075802
516.994235	44171.615875
517.357925	44765.536895
517.721558	44932.515033
518.085133	45241.399133
518.448651	45376.181942
518.812112	45148.934289
519.175516	45260.527791
519.538863	45589.949551
519.902152	45551.719960
520.265385	46010.180135
520.628560	46068.723055
520.991678	45848.197780
521.354739	46088.756600
521.717743	46410.215858
522.080690	46307.144426
522.443580	46854.583487
522.806413	46906.131805
523.169189	46851.107611
523.531908	47038.769604
523.894569	46888.066831
524.257174	47046.434679
524.619722	47369.050881
524.982213	47360.112915
525.344647	47264.325951
525.707025	47308.241963
526.069345	47698.510449
526.431608	47627.626785
526.793815	47941.178992
527.155964	47484.415166
527.518057	47640.857293
527.880093	47419.994261
528.242072	47939.192778
528.603995	47640.446439
528.965860	47645.495155
529.327669	47742.368488
529.689421	47640.234711
530.051117	47591.269983
530.412755	47721.765292
530.774337	47791.744069
531.135862	47596.122094
531.497331	47794.839337
531.858743	47692.634984
532.220098	48047.194458
532.581396	47751.412318
532.942638	47414.020494
533.303824	47728.467506
533.664953	47664.238165
534.026025	47372.181437
534.387040	47877.899909
534.747999	47805.866862
535.108902	47967.206470
535.469748	47476.954258
535.830537	47596.175026
536.191270	47791.595355
536.551947	47443.304556
536.912567	47752.632277
537.273131	47878.461998
537.633638	47335.592743
537.994089	47691.107515
538.354483	47286.491904
538.714821	47860.681848
539.075103	48202.663642
539.435328	47964.121284
539.795497	47864.656798
540.155609	47840.237448
540.515665	48294.805853
540.875665	47748.548942
541.235609	48066.802026
541.595496	48044.603305
541.955328	48726.424404
542.315102	48084.700642
542.674821	47868.954381
543.034483	47929.594421
543.394090	47878.265392
543.753640	47857.342083
544.113134	48844.100058
544.472571	47837.681583
544.831953	49110.900605
545.191278	48315.837546
545.550548	48029.701654
545.909761	48501.644395
546.268918	48710.590139
546.628019	49011.920069
546.987064	48571.950847
547.346053	47825.882763
547.704986	48723.873580
548.063863	48262.124052
548.422684	48463.006471
548.781449	48318.128751
549.140158	48707.290704
549.498811	48553.500224
549.857408	47985.919233
550.215949	48841.387917
550.574434	48747.221684
550.932864	48515.943628
551.291237	49238.638402
551.649555	48851.137509
552.007817	49076.298125
552.366022	48732.448583
552.724173	48892.255680
553.082267	49317.073715
553.440305	49612.704620
553.798288	48915.119833
554.156215	49221.851360
554.514086	49450.301328
554.871902	49200.953256
555.229661	49210.831397
555.587365	49036.271363
555.945014	49144.477210
556.302606	49037.035098
556.660143	49282.393097
557.017625	49362.794459
557.375050	49149.052057
557.732421	49514.069404
558.089735	49490.290281
558.446994	49417.619528
558.804197	49892.987733
559.161345	49824.286888
559.518437	49082.304659
559.875474	49385.214991
560.232455	49531.834430
560.589381	49730.995295
560.946251	49415.567778
561.303065	50103.428180
561.659825	49918.647206
562.016528	49574.510318
562.373177	49307.608948
562.729770	49783.214087
563.086307	49292.543460
563.442789	49764.541653
563.799216	49810.668211
564.155587	49592.943297
564.511904	49609.468199
564.868164	49721.076825
565.224370	49966.623867
565.580520	49686.544921
565.936615	49904.257232
566.292654	49618.454056
566.648638	49886.900540
567.004567	49825.509368
567.360441	49888.153266
567.716260	49723.821733
568.072023	50000.921357
568.427732	49996.822899
568.783385	49550.448891
569.138982	49960.105655
569.494525	49910.382234
569.850013	49688.934428
570.205445	49647.760804
570.560823	49621.572010
570.916145	49493.972844
571.271412	49532.656138
571.626625	49291.731834
571.981782	49353.649806
572.336884	49039.515346
572.691931	49361.894613
573.046923	48965.649839
573.401860	48810.001693
573.756743	48803.743101
574.111570	48912.871479
574.466342	48768.878481
574.821059	48871.344974
575.175722	48391.006191
575.530330	48423.355276
575.884882	48121.619533
576.239380	48095.493753
576.593823	48080.345086
576.948211	47990.370572
577.302544	47523.300106
577.656823	47534.778813
578.011047	47773.870658
578.365216	47495.782968
578.719330	47296.150755
579.073389	47136.865417
579.427394	47207.706231
579.781344	47203.285139
580.135239	46853.502159
580.489080	46928.287677
580.842866	46418.800943
581.196597	46863.287039
581.550273	46800.297822
581.903895	46674.674788
582.257463	47100.743029
582.610975	46468.110989
582.964434	46753.687313
583.317837	46381.556898
583.671186	46215.821403
584.024481	46460.992880
584.377721	45992.009296
584.730906	46291.249668
585.084037	46331.296594
585.437113	46036.575617
585.790135	46066.504947
586.143103	45678.593200
586.496016	45795.091745
586.848874	45833.969123
587.201679	45844.142172
587.554428	45314.959649
587.907124	45497.668709
588.259765	45244.101191
588.612352	45511.229413
588.964884	44880.137445
589.317362	45201.747937
589.669786	45128.217667
590.022155	44913.058700
590.374470	45324.227811
590.726731	44854.062077
591.078937	44378.456938
591.431090	44468.476822
591.783188	44118.237617
592.135232	43801.126355
592.487222	44035.585379
592.839157	44129.733969
593.191038	43780.281184
593.542866	43548.950196
593.894639	42930.803911
594.246358	43229.343563
594.598022	43207.061663
594.949633	42803.698779
595.301190	42754.119031
595.652692	42570.739498
596.004141	42910.238524
596.355535	41902.290059
596.706876	41852.516227
597.058162	41724.569222
597.409395	42185.620550
597.760573	42260.700974
598.111698	41832.507887
598.462768	41838.675739
598.813785	41897.828638
599.164748	41319.948570
599.515657	41713.362737
599.866511	41176.681498
600.217312	41800.786427
600.568060	40743.036403
600.918753	41506.153670
601.269392	41474.754843
601.619978	41101.149890
601.970510	41334.789727
602.320988	41523.522965
602.671412	41818.354848
603.021783	41567.015520
603.372100	41221.336039
603.722363	41340.783659
604.072572	41411.238825
604.422728	41417.015987
604.772830	41243.086097
605.122878	41329.882164
605.472872	41268.778338
605.822813	41556.275342
606.172701	41354.246060
606.522534	41620.517286
606.872314	41900.613876
607.222041	41619.735907
607.571714	41998.024092
607.921333	41441.452981
608.270899	41749.817841
608.620411	42097.493619
608.969870	41896.424677
609.319276	41876.668395
609.668627	41932.801643
610.017926	42443.001700
610.367171	42602.604631
610.716362	42679.749408
611.065500	42602.105557
611.414585	42807.953513
611.763616	43103.841517
612.112594	43016.012014
612.461518	43262.249694
612.810389	43528.742731
613.159207	43391.961103
613.507971	43495.607226
613.856682	43962.748268
614.205340	43842.882232
614.553945	44569.438531
614.902496	43998.744627
615.250994	44444.117967
615.599439	44530.949321
615.947830	44741.823307
616.296169	44791.849197
616.644454	44908.592238
616.992686	45081.375265
617.340864	45575.844402
617.688990	45294.288398
618.037063	45906.420586
618.385082	45868.213681
618.733048	46179.792277
619.080961	46189.594801
619.428821	46194.416664
619.776628	46314.121383
620.124382	46136.571944
620.472083	46281.121990
620.819731	46419.710871
621.167326	46078.578511
621.514868	46065.859679
621.862357	45647.799312
622.209793	45665.876889
622.557176	45341.834041
622.904506	45085.682931
623.251783	44746.531745
623.599007	44520.166293
623.946179	44281.301300
624.293297	44241.997944
624.640363	43623.992812
624.987376	43613.653405
625.334336	43358.427348
625.681243	42990.889424
626.028097	42930.821555
626.374899	42802.173830
626.721647	42753.105759
627.068343	42615.550314
627.414987	42389.961200
627.761577	42150.216526
628.108115	42478.962771
628.454600	41918.850250
628.801032	42098.136366
629.147412	42058.003740
629.493739	42056.793863
629.840014	41679.098014
630.186236	42004.592715
630.532405	41625.555919
630.878521	41824.280724
631.224585	41694.899511
631.570597	41399.906311
631.916556	41570.196488
632.262462	41503.116374
632.608316	41507.219874
632.954117	41409.456777
633.299866	41410.200347
633.645562	41326.645743
633.991206	40833.096617
634.336797	40387.347711
634.682336	40401.568806
635.027823	40145.034569
635.373257	39962.015479
635.718639	39721.239889
636.063968	39567.905633
636.409245	38997.892285
636.754470	39029.316318
637.099642	38767.236812
637.444762	38277.947461
637.789829	38425.807023
638.134845	38068.643794
638.479808	38015.792337
638.824719	37912.713344
639.169577	37486.692994
639.514383	37547.713641
639.859137	37240.109995
640.203839	37482.891964
640.548489	37098.635053
640.893086	37178.991046
641.237632	36897.636688
641.582125	37007.669953
641.926566	36955.778836
642.270955	36909.881650
642.615292	36927.555936
642.959576	36899.713643
643.303809	36883.092959
643.647990	37014.644389
643.992118	36983.353947
644.336195	36958.594320
644.680219	37050.497075
645.024192	37355.098714
645.368112	37851.843932
645.711981	37846.427212
646.055797	38734.612985
646.399562	38655.960902
646.743274	39618.982604
647.086935	40079.635681
647.430544	39969.425975
647.774101	40074.118138
648.117606	40330.105409
648.461059	40659.028095
648.804460	40303.271347
649.147810	39658.724540
649.491108	39422.982542
649.834354	39037.243532
650.177548	38181.800054
650.520690	37725.205106
650.863781	37741.107426
651.206820	37584.803930
651.549807	37134.427246
651.892742	36625.989072
652.235626	36434.752900
652.578458	36297.315923
652.921238	35660.827400
653.263967	35986.995095
653.606644	35651.244167
653.949269	35586.525834
654.291843	35178.588103
654.634365	35570.454635
654.976836	35160.951626
655.319255	35151.738917
655.661622	35146.410418
656.003938	34923.392292
656.346203	34782.355931
656.688416	35000.867265
657.030577	34794.754649
657.372687	34632.583250
657.714746	34913.133544
658.056753	35038.093666
658.398708	34463.470183
658.740612	34501.014176
659.082465	34776.939211
659.424266	34576.613840
659.766016	34707.318356
660.107715	34590.817291
660.449362	34727.145214
660.790958	34686.337074
661.132503	34708.891196
661.473996	34744.237246
661.815438	34857.922827
662.156829	35060.131070
662.498168	34820.162064
662.839456	34829.105071
663.180693	34970.401052
663.521879	35128.932737
663.863013	35089.084937
664.204097	35077.810396
664.545129	35549.100307
664.886110	35492.818345
665.227040	35555.789919
665.567918	35667.764028
665.908746	35729.402216
666.249522	35901.605511
666.590248	35890.991361
666.930922	36022.194952
667.271545	35972.070759
667.612118	36051.708387
667.952639	35842.031675
668.293109	35889.804170
668.633528	35798.755890
668.973896	35720.928036
669.314213	35746.625318
669.654480	35479.698742
669.994695	35517.837592
670.334859	35390.419908
670.674973	35277.195593
671.015035	35455.528930
671.355047	35393.096761
671.695008	35313.340666
672.034918	35213.974482
672.374777	35276.590654
672.714585	35104.475579
673.054342	35332.343295
673.394049	35080.666210
673.733705	35384.501593
674.073310	35036.593922
674.412864	35122.482581
674.752368	34696.285791
675.091820	35013.117269
675.431223	34591.064307
675.770574	34316.913758
676.109875	34172.179711
676.449125	33877.294896
676.788324	33795.033347
677.127473	33235.538367
677.466571	33179.289172
677.805619	32806.364776
678.144616	32803.453509
678.483562	32700.830740
678.822458	32367.539895
679.161303	32288.918060
679.500098	32180.142562
679.838842	32057.705538
680.177535	32202.492518
680.516179	32469.222489
680.854771	32695.275389
681.193314	33557.322779
681.531805	34694.067683
681.870247	35417.311943
682.208638	36168.663156
682.546978	36409.169045
682.885268	36514.382967
683.223508	36000.417167
683.561697	35668.419378
683.899836	35475.438967
684.237925	34954.528979
684.575963	34797.996111
684.913951	34293.358967
685.251889	34463.180316
685.589776	34418.515693
685.927614	34408.564456
686.265401	34533.958116
686.603137	34594.111685
686.940824	35087.638126
687.278460	35461.437163
687.616046	35573.945634
687.953582	36183.234612
688.291068	36043.226646
688.628504	36358.369337
688.965889	36305.016286
689.303224	35932.185150
689.640510	35618.476667
689.977745	34888.807456
690.314930	34107.927684
690.652065	33595.098665
690.989150	32854.533001
691.326185	31947.725206
691.663170	31235.468140
692.000105	30473.863220
692.336990	29763.703275
692.673825	29297.746904
693.010610	28760.707744
693.347345	28156.729622
693.684030	27450.776520
694.020665	27150.074214
694.357251	26480.803067
694.693786	26415.320999
695.030272	26147.875185
695.366707	25574.285139
695.703093	25288.469360
696.039429	25269.212152
696.375716	25001.872202
696.711952	24939.636637
697.048139	24772.565237
697.384276	24575.199022
697.720363	24690.996847
698.056400	24479.132274
698.392388	24255.821762
698.728326	24228.387802
699.064214	24032.039901
699.400053	23975.505882
699.735842	23610.639769
700.071581	23318.812414
700.407270	23014.137678
700.742910	22832.908198
701.078501	22554.931413
701.414042	22252.409250
701.749533	21953.231893
702.084974	21589.313517
702.420366	21813.216365
702.755709	21345.306547
703.091002	21036.394722
703.426246	21061.920605
703.761440	20941.966349
704.096584	20658.824902
704.431679	20608.783888
704.766725	20511.174547
705.101721	20424.189437
705.436668	20529.466374
705.771565	20185.006852
706.106413	20531.150119
706.441212	20514.398365
706.775961	20628.046137
707.110661	20693.402176
707.445311	21046.136752
707.779913	20865.713856
708.114465	21088.066549
708.448967	21380.844162
708.783421	22074.174215
709.117825	22337.826561
709.452180	22549.549981
709.786485	22940.423406
710.120742	23734.959664
710.454949	23731.740887
710.789107	24202.476272
711.123216	24911.696042
711.457275	25018.563462
711.791286	25595.997388
712.125247	25673.144686
712.459159	25388.304370
712.793023	26091.953665
713.126837	24965.744773
713.460602	25266.416832
713.794318	24918.640231
714.127985	24537.002200
714.461602	23642.822495
714.795171	23620.868270
715.128691	22576.315988
715.462162	22032.420858
715.795584	21603.285075
716.128957	21342.874191
716.462281	20919.772669
716.795556	20678.888694
717.128782	20161.699077
717.461960	19597.014229
717.795088	19522.579072
718.128167	19103.734805
718.461198	18621.946690
718.794180	18473.366242
719.127113	18100.525025
719.459997	17896.728819
719.792833	17517.578597
720.125619	17484.170870
720.458357	17138.440978
720.791046	16958.696117
721.123686	16796.595294
721.456278	16542.780760
721.788821	16504.682240
722.121315	16223.307717
722.453761	16295.040816
722.786158	16216.338322
723.118506	16223.685804
723.450805	16074.593679
723.783056	16226.713017
724.115259	16118.091275
724.447412	16037.541198
724.779518	16285.346677
725.111574	16300.581044
725.443582	16494.209242
725.775542	16466.911394
726.107453	16942.937470
726.439315	16814.042728
726.771129	17205.848766
727.102895	17580.288030
727.434612	17782.133309
727.766281	17912.547959
728.097901	18184.838323
728.429473	18225.704436
728.760996	18209.759267
729.092471	18308.807858
729.423897	18199.389613
729.755276	18062.345846
730.086606	18177.926901
730.417887	18698.148772
730.749120	19201.641574
731.080305	19368.712974
731.411442	19717.921263
731.742530	19793.485638
732.073570	19910.148021
732.404562	20221.948427
732.735506	20040.930675
733.066401	19763.145454
733.397249	19253.787269
733.728048	18628.220406
734.058798	17766.039426
734.389501	17068.920946
734.720156	16593.368739
735.050762	16053.892180
735.381320	15673.486711
735.711831	15424.327682
736.042293	15050.198450
736.372707	15043.753334
736.703073	14828.105376
737.033391	15001.173228
737.363661	14955.417196
737.693883	15047.554364
738.024056	15199.512385
738.354182	15367.352562
738.684260	15638.599406
739.014290	15853.453383
739.344272	16031.776638
739.674207	16318.247767
740.004093	16432.422340
740.333931	16437.763443
740.663722	16483.411091
740.993464	16489.087430
741.323159	16332.201681
741.652806	16065.819550
741.982405	15846.499111
742.311956	15520.870820
742.641460	15412.029787
742.970915	15105.436893
743.300323	14775.702582
743.629683	14561.627463
743.958996	14276.850162
744.288260	14009.734543
744.617477	13711.570457
744.946647	13628.041059
745.275768	13349.232483
745.604842	13160.252229
745.933869	12976.560144
746.262847	12924.109459
746.591778	12852.204961
746.920662	12737.664905
747.249498	12729.389851
747.578286	12843.284639
747.907027	12976.424033
748.235720	13198.328064
748.564365	13222.341600
748.892963	13114.347482
749.221514	13169.608610
749.550017	13015.056916
749.878473	12974.899084
750.206881	12749.418355
750.535242	12656.870332
750.863555	12568.776168
751.191821	12464.371352
751.520039	12483.086635
751.848210	12378.248279
752.176334	12416.838312
752.504411	12318.009012
752.832440	12151.038434
753.160421	12210.156046
753.488356	12074.594377
753.816243	12000.459169
754.144082	11846.121723
754.471875	11785.078392
754.799620	11726.905997
755.127318	11696.959022
755.454969	11649.037814
755.782572	11605.686411
756.110129	11606.886206
756.437638	11527.787982
756.765100	11515.031342
757.092515	11518.875222
757.419882	11520.901765
757.747203	11513.045127
758.074477	11593.764083
758.401703	11545.709283
758.728882	11697.528673
759.056014	11740.159190
759.383099	11856.874505
759.710138	11949.646859
760.037129	12028.339270
760.364073	12055.107797
760.690970	12031.326154
761.017820	12032.483099
761.344623	12216.376829
761.671379	12553.388046
761.998088	13193.879245
762.324751	14758.925622
762.651366	17604.566227
762.977935	21215.892567
763.304456	23440.163069
763.630931	23946.635193
763.957359	22840.298529
764.283740	20973.087912
764.610074	19114.094376
764.936362	16979.241339
765.262602	15461.544001
765.588796	13964.031442
765.914943	12924.416969
766.241044	12051.931870
766.567097	11412.174159
766.893104	10843.073260
767.219064	10471.366302
767.544978	10078.103370
767.870845	9755.613197
768.196665	9566.421213
768.522438	9368.331594
768.848165	9195.160397
769.173846	9024.834932
769.499479	8897.689471
769.825066	8739.709791
770.150607	8556.582316
770.476101	8492.607553
770.801548	8380.429277
771.126949	8233.101556
771.452303	8144.750294
771.777611	7979.445818
772.102872	7956.175852
772.428087	7835.873757
772.753256	7711.760549
773.078378	7620.261086
773.403453	7472.247768
773.728482	7370.973508
774.053465	7298.121273
774.378401	7213.389559
774.703291	7124.274562
775.028135	7017.399580
775.352932	6977.957592
775.677683	6890.917030
776.002388	6801.905376
776.327046	6798.429501
776.651658	6718.522171
776.976224	6635.955633
777.300743	6616.388394
777.625216	6546.558331
777.949643	6502.551579
778.274024	6508.840418
778.598359	6438.559172
778.922647	6440.875582
779.246889	6389.859105
779.571086	6400.808491
779.895236	6407.417444
780.219339	6396.727677
780.543397	6387.789711
780.867409	6445.473114
781.191374	6437.815602
781.515294	6405.728657
781.839167	6454.269928
782.162995	6430.430311
782.486776	6385.140585
782.810511	6340.912022
783.134201	6267.192708
783.457844	6261.660042
783.781441	6211.641714
784.104993	6168.481875
784.428498	6136.692359
784.751958	6121.780626
785.075372	6091.407674
785.398739	6054.849226
785.722061	6079.709676
786.045337	6071.996711
786.368568	6190.899886
786.691752	6200.047060
787.014891	6448.185255
787.337983	6723.706998
787.661030	7142.440360
787.984031	7553.735499
788.306987	7818.474214
788.629897	7905.050990
788.952760	7833.932912
789.275579	7664.797160
789.598351	7371.109619
789.921078	7106.648167
790.243759	6832.759758
790.566395	6639.494523
790.888984	6442.639986
791.211529	6302.228728
791.534027	6137.012472
791.856480	6000.432491
792.178888	5937.173572
792.501249	5869.249065
792.823566	5764.007417
793.145836	5750.764306
793.468062	5732.230503
793.790241	5690.489750
794.112375	5725.402261
794.434464	5820.060006
794.756507	5850.495973
795.078505	5958.744669
795.400457	6168.985990
795.722364	6403.409727
796.044226	6593.062975
796.366042	6749.794969
796.687812	6703.466765
797.009538	6737.050932
797.331218	6647.739330
797.652852	6587.742038
797.974442	6469.153934
798.295986	6395.026288
798.617484	6271.366784
798.938938	6161.976266
799.260346	6093.262818
799.581709	5954.986489
799.903026	5907.405558
800.224299	5830.722047
800.545526	5712.408687
800.866708	5653.515407
801.187845	5597.848465
801.508936	5521.285941
801.829983	5488.697402
802.150984	5383.284355
802.471940	5357.760993
802.792851	5336.636038
803.113717	5313.870187
803.434538	5288.591321
803.755314	5258.566209
804.076045	5242.706739
804.396731	5202.402714
804.717372	5216.888469
805.037967	5212.709353
805.358518	5239.109875
805.679024	5294.534841
805.999485	5301.519360
806.319901	5313.658458
806.640272	5326.803267
806.960598	5372.314804
807.280879	5366.094020
807.601115	5410.042799
807.921306	5373.872521
808.241453	5364.143094
808.561554	5377.986102
808.881611	5348.898644
809.201623	5343.857491
809.521590	5297.914935
809.841513	5288.452689
810.161390	5304.143281
810.481223	5213.087439
810.801011	5204.151994
811.120755	5181.915464
811.440453	5129.873113
811.760107	5099.507723
812.079716	5078.052572
812.399281	5027.716651
812.718801	5024.878481
813.038276	4984.466071
813.357707	4956.810301
813.677093	4977.751254
813.996434	4910.610647
814.315731	4935.266930
814.634983	4930.571095
814.954191	4940.522333
815.273354	4995.652392
815.592473	5035.608577
815.911547	5109.975678
816.230577	5162.010468
816.549562	5253.237709
816.868502	5306.316018
817.187399	5360.420202
817.506250	5445.353562
817.825058	5472.558148
818.143821	5627.974401
818.462539	5792.981448
818.781213	6022.928640
819.099843	6373.591302
819.418429	6990.883111
819.736970	7596.504648
820.055466	8303.281979
820.373919	9227.582578
820.692327	10695.455673
821.010691	13433.003857
821.329011	19664.681637
821.647286	29190.372848
821.965517	39420.272922
822.283704	44797.636442
822.601847	46273.275434
822.919945	41790.394088
823.237999	36775.655888
823.556010	31677.292507
823.873976	27004.999888
824.191897	22818.999654
824.509775	19730.362831
824.827609	16948.858305
825.145398	15372.670979
825.463144	14609.072282
825.780845	14887.931269
826.098502	16113.256808
826.416116	18474.767683
826.733685	20627.504213
827.051210	21056.357691
827.368692	19619.792683
827.686129	17137.178169
828.003522	14742.466254
828.320872	12572.874627
828.638177	10957.101640
828.955439	9723.049863
829.272656	8678.275770
829.589830	7842.850713
829.906960	7115.339117
830.224046	6590.645742
830.541088	6183.154153
830.858086	5913.407052
831.175041	5708.345517
831.491952	5651.052803
831.808819	5679.285785
832.125642	5920.225213
832.442421	6470.015972
832.759157	7563.598517
833.075849	9279.221638
833.392497	11049.465661
833.709101	12115.140378
834.025662	11874.672298
834.342179	10857.306958
834.658653	9601.505124
834.975083	8530.774129
835.291469	7649.169583
835.607811	6922.240239
835.924110	6404.710344
836.240366	5919.665645
836.556578	5475.865145
836.872746	5123.770796
837.188871	4856.095609
837.504952	4632.374242
837.820990	4470.535560
838.136984	4352.005430
838.452935	4305.500786
838.768842	4331.984488
839.084706	4612.978403
839.400526	5336.421789
839.716303	6212.874276
840.032037	6764.089161
840.347727	6617.013497
840.663373	6040.300456
840.978977	5478.063088
841.294537	5040.669895
841.610054	4718.015885
841.925527	4483.945029
842.240957	4274.023821
842.556344	4090.374587
842.871687	3934.118982
843.186987	3782.559212
843.502244	3661.301818
843.817458	3578.662183
844.132629	3505.167201
844.447756	3457.550983
844.762840	3412.188160
845.077881	3371.417828
845.392879	3338.352900
845.707833	3315.476144
846.022745	3284.233593
846.337613	3274.320164
846.652438	3249.502563
846.967221	3236.763568
847.281960	3219.273284
847.596656	3209.793395
847.911309	3197.193031
848.225919	3186.210877
848.540485	3173.174453
848.855009	3167.525840
849.169490	3156.047133
849.483928	3149.896925
849.798323	3142.889721
850.112675	3132.580562
850.426984	3134.236581
850.741251	3123.962709
851.055474	3119.019858
851.369654	3122.730147
851.683792	3116.315279
851.997887	3120.819550
852.311938	3122.021865
852.625947	3120.386011
852.939914	3112.884774
853.253837	3120.474231
853.567718	3117.252933
853.881555	3108.740945
854.195350	3115.622120
854.509103	3114.500463
854.822812	3109.648353
855.136479	3103.654421
855.450103	3111.692541
855.763685	3104.196345
856.077224	3106.139710
856.390720	3111.720267
856.704173	3122.551186
857.017584	3127.728451
857.330953	3131.229532
857.644278	3138.549288
857.957561	3143.431645
858.270802	3140.671614
858.584000	3140.175060
858.897155	3134.765902
859.210268	3125.099489
859.523339	3110.046604
859.836367	3109.867643
860.149352	3104.614761
860.462295	3101.274996
860.775195	3095.510437
861.088054	3090.008017
861.400869	3087.736978
861.713642	3085.140783
862.026373	3094.512288
862.339062	3097.143771
862.651708	3105.776747
862.964312	3120.096144
863.276873	3127.514202
863.589392	3155.041423
863.901869	3178.681914
864.214303	3201.556149
864.526696	3217.261864
864.839045	3233.315418
865.151353	3246.845875
865.463619	3248.804364
865.775842	3251.750918
866.088023	3256.721496
866.400162	3253.467431
866.712258	3251.519025
867.024313	3251.224117
867.336325	3253.318717
867.648296	3253.444746
867.960224	3252.801999
868.272110	3252.907863
868.583954	3253.369128
868.895755	3260.343565
869.207515	3255.491454
869.519233	3273.989968
869.830909	3282.476751
870.142542	3292.072587
870.454134	3297.920326
870.765684	3310.588745
871.077191	3330.758402
871.388657	3340.850792
871.700081	3355.923842
872.011463	3376.978221
872.322803	3396.865573
872.634101	3413.622368
872.945357	3431.185748
873.256571	3460.948720
873.567744	3475.769713
873.878874	3477.859271
874.189963	3496.829133
874.501010	3499.765605
874.812015	3493.086076
875.122979	3510.394878
875.433900	3508.471678
875.744780	3513.961494
876.055618	3517.205477
876.366415	3519.257226
876.677169	3523.138915
876.987882	3542.985938
877.298554	3564.186510
877.609183	3601.977520
877.919771	3647.284890
878.230317	3714.937175
878.540822	3821.890295
878.851285	3969.160042
879.161707	4185.964946
879.472087	4560.845311
879.782425	5183.258932
880.092722	6361.764755
880.402977	8292.572048
880.713191	10653.079734
881.023363	13014.189837
881.333494	14323.969827
881.643583	14779.763231
881.953631	14377.925296
882.263637	13556.358372
882.573602	12535.650747
882.883526	11594.205183
883.193408	10646.581686
883.503248	9742.239016
883.813048	8908.162468
884.122806	8153.615163
884.432522	7385.875158
884.742197	6731.863585
885.051831	6163.697820
885.361424	5669.616852
885.670975	5269.848311
885.980485	4950.647491
886.289954	4678.006767
886.599382	4461.635403
886.908768	4285.431953
887.218113	4120.777786
887.527417	3988.891119
887.836680	3864.999722
888.145901	3768.353241
888.455082	3693.078732
888.764221	3623.024337
889.073319	3562.386818
889.382376	3532.570914
889.691392	3507.972603
890.000366	3498.664113
890.309300	3493.139008
890.618193	3494.033813
890.927044	3488.039881
891.235855	3497.358454
891.544625	3510.188191
891.853353	3539.179866
892.162041	3596.376798
892.470687	3686.338709
892.779293	3803.235505
893.087858	3978.781085
893.396381	4252.283845
893.704864	4656.135721
894.013306	5209.039393
894.321707	5749.924953
894.630068	6083.659420
894.938387	6112.325942
895.246665	5936.999652
895.554903	5640.269775
895.863100	5321.951157
896.171256	5058.502977
896.479371	4828.097041
896.787446	4611.766006
897.095480	4420.053445
897.403473	4271.339407
897.711425	4129.287253
898.019336	4009.275024
898.327207	3894.576171
898.635038	3795.114206
898.942827	3689.842311
899.250576	3605.944908
899.558284	3526.050181
899.865952	3473.997747
900.173579	3410.748910
900.481165	3367.694936
900.788711	3329.465346
901.096216	3293.748771
901.403681	3268.911006
901.711105	3257.333996
902.018489	3252.192019
902.325832	3283.016154
902.633135	3344.051924
902.940397	3512.464272
903.247619	3907.773912
903.554800	4650.310668
903.861941	5592.860244
904.169041	6276.728051
904.476101	6486.215720
904.783121	6219.009360
905.090100	5832.385628
905.397039	5429.680614
905.703938	5079.718673
906.010796	4764.303759
906.317614	4511.487373
906.624391	4275.173204
906.931129	4081.320674
907.237826	3904.804672
907.544483	3737.030031
907.851099	3565.719021
908.157675	3405.533837
908.464211	3267.315481
908.770707	3168.403001
909.077163	3092.299222
909.383578	3031.316384
909.689954	2986.734940
909.996289	2957.345013
910.302584	2938.584359
910.608839	2923.201278
910.915054	2912.672828
911.221229	2909.433887
911.527363	2912.135945
911.833458	2917.088879
912.139513	2932.262752
912.445527	2943.726336
912.751502	2977.383599
913.057436	3019.567975
913.363331	3078.347829
913.669186	3162.787156
913.975000	3281.140845
914.280775	3468.752427
914.586510	3735.573138
914.892205	4104.381433
915.197859	4589.930248
915.503475	5150.635105
915.809050	5621.216734
916.114585	5887.203134
916.420081	5949.892403
916.725536	5882.035952
917.030952	5655.670500
917.336328	5462.327127
917.641665	5254.835755
917.946961	5043.480339
918.252218	4845.526830
918.557435	4628.147235
918.862612	4434.997946
919.167750	4268.372688
919.472848	4078.951332
919.777906	3916.585849
920.082925	3763.531377
920.387904	3612.601752
920.692843	3508.882532
920.997743	3407.162129
921.302603	3316.151658
921.607423	3252.633120
921.912204	3187.698017
922.216946	3141.163126
922.521647	3089.085486
922.826310	3054.493089
923.130932	3015.313241
923.435516	2976.261943
923.740059	2948.785134
924.044564	2920.980650
924.349028	2893.400497
924.653454	2864.955786
924.957840	2841.053155
925.262186	2818.814105
925.566493	2800.723925
925.870761	2773.378186
926.174989	2764.278903
926.479178	2749.636872
926.783328	2734.347052
927.087438	2724.030331
927.391509	2709.947867
927.695541	2696.377081
927.999533	2688.386852
928.303486	2679.491736
928.607400	2673.492763
928.911275	2667.143430
929.215110	2663.939777
929.518906	2656.725886
929.822663	2656.609939
930.126381	2656.912408
930.430060	2661.572955
930.733699	2665.068995
931.037299	2664.088491
931.340861	2665.459685
931.644383	2666.427586
931.947866	2664.993378
932.251309	2659.871566
932.554714	2663.294509
932.858080	2662.636638
933.161407	2656.461225
933.464694	2653.842346
933.767943	2651.178096
934.071153	2648.148362
934.374323	2643.127373
934.677455	2638.895324
934.980548	2637.811476
935.283602	2638.124028
935.586617	2632.041876
935.889593	2634.774181
936.192530	2636.614202
936.495428	2642.368679
936.798287	2651.460400
937.101108	2663.365085
937.403890	2680.951150
937.706632	2708.024667
938.009336	2736.287896
938.312002	2764.888882
938.614628	2786.303704
938.917216	2803.186528
939.219765	2816.429639
939.522275	2824.717296
939.824747	2822.801658
940.127179	2821.155721
940.429573	2814.854279
940.731929	2814.521563
941.034246	2805.354224
941.336524	2804.542599
941.638763	2799.778708
941.940964	2793.063891
942.243126	2779.367076
942.545250	2767.666558
942.847335	2755.209867
943.149381	2743.887436
943.451389	2728.282544
943.753359	2718.863148
944.055290	2709.688248
944.357182	2703.285982
944.659036	2698.461598
944.960851	2694.695856
945.262628	2690.166380
945.564367	2688.505319
945.866067	2687.524815
946.167729	2687.807120
946.469352	2686.284691
946.770937	2683.655729
947.072484	2676.577949
947.373992	2675.100891
947.675462	2673.311282
947.976893	2665.870539
948.278286	2665.709222
948.579641	2663.352482
948.880958	2659.526247
949.182236	2659.501041
949.483476	2657.408962
949.784678	2656.950217
950.085841	2653.751605
950.386967	2657.887872
950.688054	2662.228305
950.989103	2667.357679
951.290114	2677.664318
951.591087	2689.611853
951.892021	2700.044521
952.192917	2712.992724
952.493776	2720.118395
952.794596	2723.165773
953.095378	2726.540825
953.396122	2726.742471
953.696828	2722.422202
953.997496	2717.466748
954.298126	2708.369986
954.598718	2702.159285
954.899272	2692.021524
955.199788	2680.636078
955.500266	2671.173832
955.800706	2657.527429
956.101108	2639.331384
956.401472	2629.062554
956.701798	2617.218363
957.002087	2603.917278
957.302337	2596.476535
957.602550	2585.839701
957.902724	2571.174984
958.202861	2564.182904
958.502960	2556.616132
958.803022	2549.271171
959.103045	2542.805891
959.403031	2537.719367
959.702979	2531.236443
960.002889	2528.426000
960.302762	2520.614732
960.602596	2517.930317
960.902393	2512.957219
961.202153	2508.223576
961.501875	2506.418843
961.801559	2507.860613
962.101205	2503.651249
962.400814	2500.631598
962.700385	2499.325939
962.999918	2498.877276
963.299414	2493.218581
963.598873	2497.271669
963.898293	2492.336379
964.197677	2492.565752
964.497022	2491.116420
964.796331	2490.077942
965.095601	2489.175576
965.394835	2487.391007
965.694030	2485.936634
965.993189	2486.551655
966.292309	2486.707931
966.591393	2487.302787
966.890439	2486.493682
967.189447	2486.622231
967.488419	2486.944865
967.787353	2486.443270
968.086249	2486.728096
968.385108	2487.461583
968.683930	2486.468476
968.982714	2486.468476
969.281462	2490.521564
969.580172	2491.620535
969.878844	2492.016266
970.177480	2494.441061
970.476078	2496.386946
970.774639	2502.461537
971.073162	2502.252329
971.371649	2503.437000
971.670098	2505.521517
971.968510	2505.564367
972.266885	2502.179232
972.565223	2509.398164
972.863524	2510.955881
973.161788	2511.502846
973.460014	2511.384379
973.758204	2514.149452
974.056356	2516.468383
974.354471	2518.883095
974.652550	2515.964267
974.950591	2515.054339
975.248595	2514.467045
975.546563	2515.119874
975.844493	2512.057373
976.142386	2511.321365
976.440243	2508.430263
976.738062	2507.951353
977.035845	2502.945487
977.333590	2500.256032
977.631299	2498.176556
977.928971	2498.484066
978.226606	2496.722183
978.524204	2494.791421
978.821765	2494.516678
979.119290	2494.912409
979.416777	2493.851246
979.714228	2496.306288
980.011642	2495.446771
980.309020	2499.441886
980.606360	2503.215189
980.903664	2510.794564
981.200931	2522.185051
981.498162	2546.062476
981.795356	2574.174471
982.092513	2609.999431
982.389633	2651.714979
982.686717	2691.466997
982.983764	2725.681308
983.280775	2743.877353
983.577749	2741.714698
983.874686	2735.579614
984.171587	2719.470607
984.468451	2702.446630
984.765279	2688.401976
985.062070	2669.399346
985.358824	2649.776655
985.655543	2626.909981
985.952224	2605.442227
986.248869	2580.012127
986.545478	2554.645041
986.842050	2534.732483
987.138586	2515.538290
987.435086	2502.456496
987.731549	2491.829743
988.027975	2487.428816
988.324366	2479.857003
988.620719	2474.881384
988.917037	2470.029273
989.213318	2469.212607
989.509563	2468.579942
989.805772	2463.516103
990.101944	2463.987451
990.398080	2461.905454
990.694180	2464.572224
990.990244	2465.494756
991.286271	2463.901751
991.582262	2463.634570
991.878217	2462.850670
992.174136	2465.063737
992.470019	2466.540795
992.765865	2467.619602
993.061676	2468.113635
993.357450	2472.254943
993.653188	2474.291569
993.948890	2478.551344
994.244556	2488.608446
994.540186	2496.223109
994.835780	2508.775582
995.131337	2522.608508
995.426859	2537.789943
995.722345	2554.763508
996.017795	2572.999882
996.313208	2589.333220
996.608586	2596.539550
996.903928	2600.252360
997.199234	2597.472163
997.494504	2595.357399
997.789738	2591.269023
998.084936	2581.796695
998.380099	2566.277503
998.675225	2557.087480
998.970316	2544.187167
999.265371	2529.368695
999.560390	2515.182888
999.855373	2506.837258
1000.150320	2497.833758
1000.445232	2488.396718
1000.740108	2479.854482
1001.034948	2475.849286
1001.329752	2470.036835
1001.624521	2467.667493
1001.919254	2461.028293
1002.213951	2458.290947
1002.508613	2454.184927
1002.803239	2456.728189
1003.097829	2450.595625
1003.392384	2456.685339
1003.686903	2447.149997
1003.981386	2451.203084
1004.275834	2449.184102
1004.570246	2449.579833
1004.864623	2444.629420
1005.158964	2449.554627
1005.453270	2446.182095
1005.747540	2448.632096
1006.041775	2447.326437
1006.335974	2444.984821
1006.630138	2447.603701
1006.924266	2443.207814
1007.218359	2442.552464
1007.512416	2443.114553
1007.806438	2443.220417
1008.100425	2444.211004
1008.394376	2443.749738
1008.688292	2441.108174
1008.982172	2442.668411
1009.276017	2445.635130
1009.569827	2441.695468
1009.863602	2440.664552
1010.157341	2440.266301
1010.451045	2440.213369
1010.744714	2440.523400
1011.038347	2440.987186
1011.331945	2441.476178
1011.625508	2439.835283
1011.919036	2441.350149
1012.212528	2438.612803
1012.505986	2437.629778
1012.799408	2438.171702
1013.092795	2437.952412
1013.386147	2438.133893
1013.679464	2440.384768
1013.972745	2437.813780
1014.265992	2435.303285
1014.559204	2436.440065
1014.852380	2435.991403
1015.145521	2438.174222
1015.438628	2436.924016
1015.731699	2437.639860
1016.024736	2438.443924
1016.317737	2435.852771
1016.610703	2439.439552
1016.903635	2437.009716
1017.196531	2434.645415
1017.489393	2436.934098
1017.782219	2434.920157
1018.075011	2441.821497
1018.367768	2438.915272
1018.660490	2442.192022
1018.953177	2442.192022
1019.245829	2442.192022
