Dividing Wavelength (nm)	Counts (n)	Blue Motor Position (mm): 0.000000	Red Motor Position (mm): 43.800000	
326.493990	1995.339104
326.888308	1995.339104
327.282561	1995.339104
327.676750	1975.207256
328.070874	1976.202884
328.464933	1980.424850
328.858929	1988.888947
329.252859	2000.405463
329.646726	2016.027999
330.040528	2033.125072
330.434265	2050.133926
330.827938	2070.356514
331.221547	2090.795873
331.615091	2112.064501
332.008571	2131.140227
332.401986	2150.924235
332.795338	2170.773778
333.188625	2191.550894
333.581847	2213.265664
333.975006	2228.663868
334.368100	2246.451580
334.761129	2262.628643
335.154095	2280.111364
335.546996	2314.776858
335.939833	2384.052395
336.332606	2393.552449
336.725315	2407.922258
337.117960	2417.263516
337.510540	2424.537901
337.903056	2434.635332
338.295508	2439.497525
338.687896	2448.548917
339.080220	2455.901440
339.472480	2461.303036
339.864676	2462.810341
340.256807	2465.638428
340.648875	2468.716053
341.040879	2471.145889
341.432818	2473.220324
341.824694	2472.824593
342.216506	2472.869964
342.608253	2471.912144
342.999937	2469.512555
343.391557	2470.145220
343.783113	2470.505662
344.174605	2466.437451
344.566033	2467.430559
344.957397	2466.369396
345.348697	2460.929991
345.739934	2459.452933
346.131106	2460.625001
346.522215	2456.387911
346.913260	2457.146605
347.304241	2455.102417
347.695159	2455.190637
348.086012	2452.816254
348.476802	2449.879782
348.867528	2450.290636
349.258191	2449.731068
349.648789	2448.536314
350.039324	2444.274018
350.429796	2449.199226
350.820203	2445.181426
351.210548	2444.841148
351.600828	2444.763010
351.991045	2446.711416
352.381198	2444.248813
352.771288	2443.215376
353.161314	2443.863164
353.551276	2443.681683
353.941175	2442.194543
354.331010	2444.977259
354.720782	2444.846189
355.110490	2446.582867
355.500135	2445.073041
355.889717	2443.565736
356.279235	2446.343412
356.668689	2447.702003
357.058080	2447.581015
357.447408	2447.318875
357.836672	2446.950871
358.225873	2448.586726
358.615010	2445.945161
359.004084	2451.228290
359.393095	2451.263578
359.782043	2452.513784
360.170927	2451.750050
360.559748	2454.545369
360.948505	2456.904629
361.337199	2457.658282
361.725830	2458.525360
362.114398	2459.999898
362.502903	2458.921091
362.891344	2463.259004
363.279722	2461.378653
363.668037	2462.147429
364.056289	2459.906637
364.444478	2463.823613
364.832603	2464.698253
365.220665	2464.909982
365.608665	2467.072637
365.996601	2467.743110
366.384474	2468.027935
366.772284	2468.559777
367.160031	2468.605148
367.547715	2473.031281
367.935336	2471.960035
368.322893	2474.873822
368.710388	2474.226034
369.097820	2477.661580
369.485189	2475.771148
369.872495	2480.751808
370.259738	2480.482106
370.646918	2483.650471
371.034035	2483.295070
371.421090	2485.858497
371.808081	2494.264621
372.195010	2495.340907
372.581875	2500.160250
372.968678	2508.180726
373.355418	2512.889163
373.742096	2526.094466
374.128710	2540.683565
374.515262	2548.641027
374.901751	2564.926474
375.288177	2586.036306
375.674540	2604.310488
376.060841	2625.838736
376.447079	2651.447797
376.833254	2675.277332
377.219367	2697.153419
377.605417	2734.589027
377.991404	2762.693460
378.377329	2808.429328
378.763191	2837.632732
379.148991	2887.527553
379.534727	2940.431942
379.920402	2988.433809
380.306013	3038.023639
380.691563	3104.178701
381.077049	3164.584327
381.462474	3219.641289
381.847835	3298.774801
382.233134	3370.482694
382.618371	3433.245059
383.003545	3519.935262
383.388657	3604.425000
383.773706	3697.754402
384.158693	3776.454375
384.543618	3871.404508
384.928480	3955.256540
385.313280	4061.710586
385.698017	4171.557328
386.082692	4296.154487
386.467305	4357.399465
386.851856	4488.882839
387.236344	4646.313033
387.620770	4715.535637
388.005133	4838.882589
388.389435	4991.075024
388.773674	5079.383436
389.157851	5212.769847
389.541965	5351.716649
389.926018	5374.792531
390.310008	5560.793464
390.693936	5685.683009
391.077802	5809.692873
391.461606	5947.911230
391.845348	6064.233334
392.229027	6184.018711
392.612645	6412.549338
392.996200	6538.003493
393.379694	6714.786676
393.763125	6950.216123
394.146494	7042.045781
394.529801	7187.026845
394.913047	7438.015813
395.296230	7435.752335
395.679351	7497.798856
396.062410	7768.314733
396.445408	7658.805748
396.828343	7826.308167
397.211217	7962.247922
397.594028	7840.436001
397.976778	8049.636324
398.359466	8225.930515
398.742092	8193.561266
399.124656	8343.649019
399.507158	8537.839306
399.889598	8556.438643
400.271977	8771.839585
400.654294	8813.696286
401.036549	9011.531327
401.418742	9043.313282
401.800874	9354.133184
402.182944	9430.620091
402.564952	9815.330705
402.946898	9621.732753
403.328783	9690.310090
403.710606	9888.860975
404.092367	10160.329630
404.474067	10528.356546
404.855705	10310.795470
405.237282	10262.899467
405.618797	10710.828672
406.000250	10953.764396
406.381642	11334.424443
406.762972	11286.876280
407.144240	11080.846843
407.525447	11334.719351
407.906593	11278.167687
408.287677	11534.371728
408.668700	11709.637524
409.049661	11669.872903
409.430560	11837.735764
409.811399	11805.331227
410.192176	11971.525467
410.572891	12050.653938
410.953545	12565.025550
411.334138	12014.768484
411.714669	12646.208292
412.095139	11920.892117
412.475547	12448.615225
412.855894	12278.592230
413.236180	12624.364972
413.616405	12289.922223
413.996568	12584.426431
414.376670	12560.387688
414.756711	12422.444075
415.136691	12723.136299
415.516609	12913.888520
415.896466	12977.964106
416.276262	13278.159776
416.655997	13719.124626
417.035670	13757.306326
417.415283	14421.947172
417.794834	14520.340413
418.174324	14254.575823
418.553753	14161.352286
418.933121	14665.276107
419.312428	14468.391322
419.691674	14369.627557
420.070859	14840.413353
420.449983	14493.891999
420.829045	15058.108020
421.208047	14793.301250
421.586988	15260.283495
421.965867	15534.333221
422.344686	15531.792479
422.723444	16102.231805
423.102141	14762.030972
423.480777	15974.536857
423.859352	15471.139837
424.237866	16620.548120
424.616319	16305.574307
424.994712	16985.237792
425.373044	16767.407013
425.751314	17463.141697
426.129524	16570.121458
426.507673	17698.624075
426.885762	17377.172380
427.263789	17589.702385
427.641756	17766.568747
428.019662	17815.725038
428.397508	17867.822842
428.775292	18182.854629
429.153016	18136.866703
429.530679	18227.821721
429.908282	18247.661182
430.285824	17959.178632
430.663305	18692.948822
431.040726	18277.030944
431.418086	18093.908510
431.795385	18755.844778
432.172624	19177.970836
432.549802	18738.664525
432.926920	18908.329599
433.303977	18812.141863
433.680974	19063.471109
434.057910	19358.023207
434.434786	19379.604387
434.811601	19294.602972
435.188355	20367.962928
435.565050	19994.473922
435.941683	19955.720052
436.318257	20847.951350
436.694770	20656.349695
437.071222	21262.379567
437.447614	20320.623973
437.823946	20345.411326
438.200218	20504.437045
438.576429	20268.667321
438.952580	20542.717047
439.328670	20516.533293
439.704700	20942.001637
440.080670	20491.854325
440.456580	21095.928228
440.832429	21287.111467
441.208218	20252.558313
441.583947	20718.318079
441.959616	20815.982873
442.335224	21060.289791
442.710773	21194.477745
443.086261	21747.835120
443.461689	21097.329669
443.837057	21211.703368
444.212365	21879.908310
444.587612	21881.884442
444.962800	21442.101743
445.337927	21887.018858
445.712995	20590.131619
446.088002	22476.811172
446.462949	22681.734076
446.837837	22862.154452
447.212664	22817.376403
447.587431	25733.383954
447.962139	28728.882940
448.336786	31146.131332
448.711374	29546.132116
449.085901	25777.554544
449.460369	25730.631484
449.834776	25660.267059
450.209124	28190.301186
450.583412	27711.406694
450.957640	28234.411283
451.331808	26872.682203
451.705917	25470.679345
452.079965	25519.298753
452.453954	25888.608643
452.827883	25773.851817
453.201752	25561.863736
453.575562	25732.758851
453.949311	26883.613945
454.323001	26948.856558
454.696632	26693.547321
455.070202	28288.092009
455.443713	28420.462627
455.817164	29034.981801
456.190556	29566.417719
456.563888	29002.995680
456.937160	29437.543142
457.310373	27743.808711
457.683526	28224.608759
458.056619	28193.900570
458.429653	28121.270146
458.802628	28714.377020
459.175542	28836.806482
459.548398	30161.624233
459.921194	31759.944745
460.293930	32433.304267
460.666607	34498.682642
461.039224	36282.376464
461.411782	36677.290374
461.784280	35471.753884
462.156719	34999.911966
462.529099	34449.193635
462.901419	33136.078922
463.273680	32058.812072
463.645882	32133.607671
464.018024	32120.765332
464.390106	32967.548108
464.762130	35716.401080
465.134094	39833.781128
465.505999	45167.331980
465.877845	49789.397062
466.249631	50975.250367
466.621358	49286.408376
466.993026	47191.390537
467.364634	45117.361542
467.736184	43125.092501
468.107674	41855.001516
468.479105	41037.056660
468.850477	40338.433396
469.221790	38881.524811
469.593043	37110.413709
469.964238	36206.945679
470.335373	36125.468030
470.706449	37913.114116
471.077467	40534.332634
471.448425	45124.693900
471.819324	47941.118499
472.190164	46066.215081
472.560945	42493.012467
472.931667	39352.295483
473.302330	38216.836073
473.672934	37394.099601
474.043479	37909.320647
474.413965	37084.335820
474.784393	36708.366567
475.154761	37626.474108
475.525070	37641.174113
475.895321	37169.065014
476.265513	37789.492420
476.635645	38774.291907
477.005719	38579.637833
477.375734	39072.579500
477.745691	39766.010376
478.115588	41140.871662
478.485427	43127.643325
478.855207	46523.868671
479.224928	49132.023039
479.594591	50796.183541
479.964194	49796.321087
480.333739	49971.392799
480.703226	50013.153717
481.072653	50638.972638
481.442022	51109.587035
481.811333	51368.578834
482.180584	50091.410069
482.549777	49574.817828
482.918912	49042.976098
483.287988	48747.143546
483.657005	47912.514992
484.025964	47256.187008
484.394864	47299.540931
484.763706	46853.363528
485.132489	45979.731566
485.501213	45807.939125
485.869879	45972.769733
486.238487	45547.712243
486.607036	45744.166008
486.975527	45201.566455
487.343959	45406.343166
487.712333	45480.173384
488.080648	45397.644655
488.448905	45850.950250
488.817104	45659.789696
489.185244	46628.507901
489.553326	48323.152261
489.921350	51049.914897
490.289315	53865.568198
490.657222	54450.737775
491.025070	54719.942952
491.392861	53835.774979
491.760593	52648.815141
492.128267	50987.044146
492.495883	49476.777468
492.863440	48077.978264
493.230939	46720.849237
493.598380	45616.765968
493.965763	45284.604342
494.333088	44456.078104
494.700354	43962.382784
495.067563	43666.119214
495.434713	43531.003688
495.801805	43601.063124
496.168839	43196.883573
496.535815	42865.266391
496.902733	42898.031370
497.269593	42475.078562
497.636395	42408.177410
498.003139	42830.381606
498.369825	42264.378496
498.736453	42581.167124
499.103023	42104.470576
499.469535	41953.808131
499.835989	42072.544948
500.202385	41722.822462
500.568723	41740.010276
500.935003	41942.684825
501.301226	41729.207083
501.667390	42366.139228
502.033497	42630.467088
502.399546	42044.314487
502.765537	41345.101407
503.131470	41747.577048
503.497345	42105.514094
503.863163	40734.756308
504.228923	41359.067924
504.594625	41783.520475
504.960269	41065.463562
505.325856	41775.086624
505.691385	41104.729109
506.056856	41256.286359
506.422270	41700.379245
506.787625	41275.024328
507.152924	41467.528349
507.518164	41574.915008
507.883347	40747.722156
508.248472	41040.167052
508.613540	41508.409586
508.978550	41831.020747
509.343503	41559.804149
509.708398	41771.870368
510.073236	42310.376504
510.438016	42315.384891
510.802738	41756.711619
511.167403	42380.458625
511.532010	42621.488793
511.896561	42914.599122
512.261053	43776.459989
512.625488	43308.088906
512.989866	43198.587483
513.354186	43027.858726
513.718449	43025.486863
514.082655	43709.606728
514.446803	43385.584044
514.810894	43895.126230
515.174927	43819.203933
515.538904	43716.235845
515.902822	44419.166776
516.266684	43841.838714
516.630488	44289.301611
516.994235	44127.795645
517.357925	44720.005193
517.721558	44884.089710
518.085133	45184.539958
518.448651	45331.575293
518.812112	45100.178769
519.175516	45196.101845
519.538863	45542.681172
519.902152	45493.827350
520.265385	45966.284288
520.628560	45994.015675
520.991678	45786.839376
521.354739	46040.837912
521.717743	46367.005607
522.080690	46247.033707
522.443580	46794.878581
522.806413	46829.329827
523.169189	46758.519259
523.531908	46956.520659
523.894569	46822.859506
524.257174	47009.157867
524.619722	47299.480437
524.982213	47280.878579
525.344647	47211.628249
525.707025	47229.020230
526.069345	47615.732183
526.431608	47558.494922
526.793815	47885.562463
527.155964	47410.642921
527.518057	47574.319104
527.880093	47350.968262
528.242072	47867.817601
528.603995	47564.819049
528.965860	47582.437882
529.327669	47670.370728
529.689421	47569.971108
530.051117	47520.182152
530.412755	47647.115886
530.774337	47738.764063
531.135862	47530.665232
531.497331	47733.120491
531.858743	47632.584760
532.220098	47972.807192
532.581396	47682.192234
532.942638	47342.383177
533.303824	47657.604006
533.664953	47612.805793
534.026025	47322.001792
534.387040	47803.910894
534.747999	47747.336545
535.108902	47908.892923
535.469748	47414.809434
535.830537	47552.190959
536.191270	47732.238289
536.551947	47374.996922
536.912567	47696.599852
537.273131	47813.252152
537.633638	47286.002912
537.994089	47632.988052
538.354483	47235.823267
538.714821	47800.956778
539.075103	48153.870314
539.435328	47897.905728
539.795497	47794.536868
540.155609	47783.380795
540.515665	48231.907376
540.875665	47688.395374
541.235609	48025.751910
541.595496	47975.335330
541.955328	48668.539355
542.315102	48033.048980
542.674821	47806.791913
543.034483	47856.974079
543.394090	47819.987133
543.753640	47778.697563
544.113134	48804.627823
544.472571	47780.335938
544.831953	49043.873423
545.191278	48262.587838
545.550548	47970.634454
545.909761	48432.046225
546.268918	48641.085231
546.628019	48947.657961
546.987064	48511.421713
547.346053	47768.453938
547.704986	48650.302981
548.063863	48195.860605
548.422684	48387.873114
548.781449	48251.691384
549.140158	48658.953601
549.498811	48499.385958
549.857408	47915.448943
550.215949	48755.955483
550.574434	48695.940546
550.932864	48456.876428
551.291237	49182.134629
551.649555	48770.410992
552.007817	49003.118215
552.366022	48642.252258
552.724173	48840.067135
553.082267	49236.203525
553.440305	49538.234175
553.798288	48848.798413
554.156215	49152.396862
554.514086	49365.688082
554.871902	49124.262183
555.229661	49130.205703
555.587365	48938.142783
555.945014	49029.803563
556.302606	48952.893199
556.660143	49196.940498
557.017625	49276.076531
557.375050	49074.818546
557.732421	49407.796840
558.089735	49396.275283
558.446994	49304.324637
558.804197	49796.389143
559.161345	49736.714484
559.518437	48977.604935
559.875474	49277.210791
560.232455	49423.366443
560.589381	49619.122009
560.946251	49316.022634
561.303065	50011.389313
561.659825	49818.930662
562.016528	49475.277725
562.373177	49204.119101
562.729770	49688.047185
563.086307	49177.927786
563.442789	49653.817750
563.799216	49706.696934
564.155587	49487.126957
564.511904	49503.581283
564.868164	49596.714080
565.224370	49845.119457
565.580520	49563.167722
565.936615	49805.075051
566.292654	49516.801709
566.648638	49772.037849
567.004567	49724.504810
567.360441	49753.957751
567.716260	49619.679057
568.072023	49896.468650
568.427732	49878.466689
568.783385	49426.612947
569.138982	49827.039358
569.494525	49787.965375
569.850013	49562.315767
570.205445	49524.108862
570.560823	49488.629221
570.916145	49379.768024
571.271412	49389.467204
571.626625	49149.740174
571.981782	49206.238906
572.336884	48908.730171
572.691931	49221.564014
573.046923	48813.901026
573.401860	48661.456533
573.756743	48667.727729
574.111570	48777.466086
574.466342	48606.356722
574.821059	48741.633565
575.175722	48228.144155
575.530330	48258.486860
575.884882	47988.104573
576.239380	47946.502451
576.593823	47918.183769
576.948211	47837.658898
577.302544	47353.158643
577.656823	47384.154178
578.011047	47597.684852
578.365216	47326.485898
578.719330	47135.199316
579.073389	46973.418606
579.427394	47045.764205
579.781344	47016.767488
580.135239	46675.657813
580.489080	46773.617515
580.842866	46234.947541
581.196597	46683.852209
581.550273	46616.961138
581.903895	46486.785943
582.257463	46908.864111
582.610975	46266.724454
582.964434	46550.491004
583.317837	46192.390120
583.671186	46024.093720
584.024481	46242.022801
584.377721	45798.161807
584.730906	46072.559373
585.084037	46114.010260
585.437113	45823.276836
585.790135	45848.462440
586.143103	45453.921576
586.496016	45566.946766
586.848874	45602.998577
587.201679	45615.248581
587.554428	45086.335761
587.907124	45269.223781
588.259765	45019.520308
588.612352	45257.631648
588.964884	44644.057690
589.317362	44937.225992
589.669786	44875.981014
590.022155	44635.525537
590.374470	45090.840032
590.726731	44582.084265
591.078937	44084.814767
591.431090	44182.098954
591.783188	43841.937016
592.135232	43495.387936
592.487222	43755.072894
592.839157	43841.450545
593.191038	43503.242054
593.542866	43267.308492
593.894639	42640.257009
594.246358	42916.580296
594.598022	42898.767378
594.949633	42502.411698
595.301190	42437.781586
595.652692	42264.232303
596.004141	42590.924278
596.355535	41610.956737
596.706876	41545.572972
597.058162	41376.265820
597.409395	41852.410363
597.760573	41933.827518
598.111698	41483.206337
598.462768	41481.721718
598.813785	41542.344113
599.164748	40965.749539
599.515657	41339.649399
599.866511	40802.514457
600.217312	41421.467326
600.568060	40367.909022
600.918753	41112.817641
601.269392	41072.354819
601.619978	40712.981044
601.970510	40943.018976
602.320988	41086.656573
602.671412	41388.694785
603.021783	41141.809317
603.372100	40773.653851
603.722363	40892.050390
604.072572	40956.950205
604.422728	40977.077012
604.772830	40782.291868
605.122878	40853.362055
605.472872	40783.620212
605.822813	41054.645246
606.172701	40869.831505
606.522534	41108.696497
606.872314	41365.190405
607.222041	41096.784251
607.571714	41474.061684
607.921333	40898.797975
608.270899	41191.164733
608.620411	41524.301823
608.969870	41331.424757
609.319276	41302.475931
609.668627	41344.375481
610.017926	41826.095540
610.367171	41971.127015
610.716362	42042.323231
611.065500	41976.057264
611.414585	42139.050370
611.763616	42422.832044
612.112594	42326.281345
612.461518	42550.592526
612.810389	42815.056498
613.159207	42663.494208
613.507971	42716.070922
613.856682	43197.647308
614.205340	43058.640011
614.553945	43741.426491
614.902496	43164.597503
615.250994	43614.956544
615.599439	43671.435111
615.947830	43858.230025
616.296169	43885.144746
616.644454	43992.082742
616.992686	44134.220596
617.340864	44629.675278
617.688990	44327.014483
618.037063	44904.549233
618.385082	44836.087843
618.733048	45107.737979
619.080961	45108.151354
619.428821	45102.031393
619.776628	45177.071489
620.124382	44994.538870
620.472083	45122.538807
620.819731	45236.678092
621.167326	44885.458383
621.514868	44858.825967
621.862357	44421.336992
622.209793	44426.332776
622.557176	44096.878248
622.904506	43850.779200
623.251783	43485.759332
623.599007	43256.845577
623.946179	43016.012014
624.293297	42952.082622
624.640363	42338.138139
624.987376	42299.366624
625.334336	42040.594115
625.681243	41668.549400
626.028097	41581.844074
626.374899	41419.707963
626.721647	41355.292100
627.068343	41224.164126
627.414987	40969.560651
627.761577	40728.228014
628.108115	41015.004133
628.454600	40439.939549
628.801032	40602.385690
629.147412	40525.528259
629.493739	40485.637608
629.840014	40111.132810
630.186236	40396.825081
630.532405	39983.826031
630.878521	40150.214355
631.224585	39994.765335
631.570597	39693.004386
631.916556	39836.372281
632.262462	39723.941947
632.608316	39728.486548
632.954117	39583.772665
633.299866	39564.081918
633.645562	39451.046646
633.991206	38962.994898
634.336797	38518.539048
634.682336	38495.284206
635.027823	38237.502283
635.373257	38042.160092
635.718639	37775.903990
636.063968	37622.693242
636.409245	37049.778711
636.754470	37074.646723
637.099642	36813.429254
637.444762	36313.636659
637.789829	36444.550383
638.134845	36073.120688
638.479808	35996.739646
638.824719	35890.013377
639.169577	35459.559333
639.514383	35490.005382
639.859137	35176.211199
640.203839	35380.604781
640.548489	34987.606510
640.893086	35031.719127
641.237632	34741.726752
641.582125	34826.307231
641.926566	34730.537911
642.270955	34675.596895
642.615292	34661.728681
642.959576	34600.014876
643.303809	34567.063374
643.647990	34679.907082
643.992118	34604.869507
644.336195	34567.562448
644.680219	34609.918223
645.024192	34850.179615
645.368112	35310.941076
645.711981	35250.898413
646.055797	36028.889604
646.399562	35898.006127
646.743274	36751.768381
647.086935	37116.798331
647.430544	36967.360887
647.774101	37040.366877
648.117606	37249.985615
648.461059	37496.619026
648.804460	37156.769639
649.147810	36538.920783
649.491108	36302.939330
649.834354	35921.266011
650.177548	35122.011233
650.520690	34665.496944
650.863781	34663.616593
651.206820	34495.894884
651.549807	34043.582397
651.892742	33563.533480
652.235626	33341.347145
652.578458	33178.028884
652.921238	32579.066710
653.263967	32832.871162
653.606644	32505.337315
653.949269	32414.107554
654.291843	31995.409480
654.634365	32350.084900
654.976836	31923.963727
655.319255	31882.986708
655.661622	31855.852697
656.003938	31612.478392
656.346203	31440.252413
656.688416	31616.654988
657.030577	31419.026634
657.372687	31237.013254
657.714746	31445.727106
658.056753	31526.453623
658.398708	30980.700828
658.740612	30990.382364
659.082465	31200.747193
659.424266	31002.629847
659.766016	31066.612172
660.107715	30927.683013
660.449362	31008.454900
660.790958	30952.664451
661.132503	30930.009505
661.473996	30924.406263
661.815438	30990.710039
662.156829	31130.798663
662.498168	30892.263866
662.839456	30870.665042
663.180693	30953.755861
663.521879	31070.962688
663.863013	30976.665384
664.204097	30946.206733
664.545129	31302.810394
664.886110	31227.009084
665.227040	31237.618193
665.567918	31289.297581
665.908746	31307.934727
666.249522	31415.575964
666.590248	31378.805788
666.930922	31435.854006
667.271545	31372.685827
667.612118	31401.957287
667.952639	31166.956339
668.293109	31173.928255
668.633528	31038.880784
668.973896	30962.784567
669.314213	30954.257455
669.654480	30673.409733
669.994695	30669.281028
670.334859	30522.361641
670.674973	30406.841080
671.015035	30507.263385
671.355047	30412.857697
671.695008	30314.603088
672.034918	30183.349086
672.374777	30197.907938
672.714585	30016.333138
673.054342	30155.272379
673.394049	29900.096733
673.733705	30098.188874
674.073310	29785.034918
674.412864	29809.098865
674.752368	29417.118907
675.091820	29640.167279
675.431223	29247.305119
675.770574	28983.488935
676.109875	28825.834411
676.449125	28545.493325
676.788324	28441.380895
677.127473	27940.476725
677.466571	27851.076903
677.805619	27504.807607
678.144616	27464.707749
678.483562	27343.727618
678.822458	27032.103652
679.161303	26929.102797
679.500098	26811.820352
679.838842	26678.194487
680.177535	26751.276095
680.516179	26926.635152
680.854771	27068.490700
681.193314	27723.530669
681.531805	28588.151568
681.870247	29147.069337
682.208638	29700.371259
682.546978	29857.498983
682.885268	29898.284439
683.223508	29446.957497
683.561697	29122.977662
683.899836	28926.612117
684.237925	28456.358163
684.575963	28290.310117
684.913951	27841.292023
685.251889	27909.856757
685.589776	27828.479931
685.927614	27765.236135
686.265401	27816.829824
686.603137	27809.401684
686.940824	28159.356063
687.278460	28382.401915
687.616046	28426.280118
687.953582	28857.628968
688.291068	28707.405104
688.628504	28894.721778
688.965889	28818.681013
689.303224	28472.210071
689.640510	28173.796449
689.977745	27568.245487
690.314930	26923.418896
690.652065	26489.105848
690.989150	25889.818520
691.326185	25153.593288
691.663170	24567.712909
692.000105	23935.040540
692.336990	23367.381411
692.673825	22972.124702
693.010610	22524.984438
693.347345	22036.748688
693.684030	21480.701857
694.020665	21221.127805
694.357251	20659.129892
694.693786	20582.804302
695.030272	20367.468895
695.366707	19897.250229
695.703093	19635.999992
696.039429	19594.544064
696.375716	19342.619962
696.711952	19278.345250
697.048139	19112.299725
697.384276	18942.939641
697.720363	19000.549947
698.056400	18804.786820
698.392388	18621.921485
698.728326	18554.170898
699.064214	18372.013844
699.400053	18300.517680
699.735842	17993.839086
700.071581	17755.460564
700.407270	17497.028333
700.742910	17326.526428
701.078501	17111.871576
701.414042	16852.191659
701.749533	16601.389214
702.084974	16317.592417
702.420366	16436.540963
702.755709	16082.168012
703.091002	15840.853019
703.426246	15829.495299
703.761440	15720.981942
704.096584	15491.294370
704.431679	15440.078767
704.766725	15332.041799
705.101721	15250.188584
705.436668	15286.474810
705.771565	15023.256003
706.106413	15242.795732
706.441212	15200.823085
706.775961	15258.478762
707.110661	15278.035918
707.445311	15483.067207
707.779913	15331.736810
708.114465	15465.776049
708.448967	15622.429905
708.783421	16097.253665
709.117825	16244.465440
709.452180	16360.701845
709.786485	16592.884788
710.120742	17119.634953
710.454949	17102.963857
710.789107	17384.802166
711.123216	17862.978294
711.457275	17916.255728
711.791286	18292.217420
712.125247	18329.428697
712.459159	18086.392150
712.793023	18548.910453
713.126837	17743.883555
713.460602	17900.081186
713.794318	17626.033981
714.127985	17330.214032
714.461602	16696.510746
714.795171	16631.205119
715.128691	15913.571663
715.462162	15519.018196
715.795584	15208.036977
716.128957	15002.768754
716.462281	14697.637794
716.795556	14511.873795
717.128782	14145.507939
717.461960	13753.270882
717.795088	13674.354139
718.128167	13385.788411
718.461198	13044.555227
718.794180	12921.689705
719.127113	12646.150318
719.459997	12487.132161
719.792833	12232.004406
720.125619	12184.582272
720.458357	11952.651387
720.791046	11824.535503
721.123686	11699.149404
721.456278	11515.873214
721.788821	11466.704320
722.121315	11273.116451
722.453761	11294.289297
722.786158	11233.122457
723.118506	11211.319467
723.450805	11103.355595
723.783056	11184.419870
724.115259	11094.243710
724.447412	11029.795078
724.779518	11157.860551
725.111574	11148.100877
725.443582	11256.611713
725.775542	11220.227185
726.107453	11493.382107
726.439315	11395.971891
726.771129	11628.880760
727.102895	11833.418016
727.434612	11943.098400
727.766281	12003.267092
728.097901	12142.634831
728.429473	12152.543219
728.760996	12122.419804
729.092471	12146.327476
729.423897	12062.321688
729.755276	11961.856533
730.086606	12005.321362
730.417887	12286.504321
730.749120	12563.629150
731.080305	12650.871359
731.411442	12841.386645
731.742530	12859.640663
732.073570	12904.020461
732.404562	13066.769072
732.735506	12948.254065
733.066401	12747.593457
733.397249	12395.121021
733.728048	12000.650733
734.058798	11485.046559
734.389501	11057.871785
734.720156	10749.050700
735.050762	10420.009547
735.381320	10184.267549
735.711831	10014.524338
736.042293	9788.746180
736.372707	9764.541080
736.703073	9616.520200
737.033391	9707.949087
737.363661	9664.950565
737.693883	9701.309888
738.024056	9790.061922
738.354182	9875.726249
738.684260	10023.253096
739.014290	10142.650304
739.344272	10235.354603
739.674207	10391.393437
740.004093	10447.947622
740.333931	10426.850393
740.663722	10443.334966
740.993464	10422.512480
741.323159	10304.466301
741.652806	10141.387495
741.982405	9999.428603
742.311956	9787.962281
742.641460	9705.015136
742.970915	9507.031380
743.300323	9295.186972
743.629683	9166.309874
743.958996	8980.558478
744.288260	8806.222775
744.617477	8627.831464
744.946647	8556.660454
745.275768	8392.192810
745.604842	8280.523690
745.933869	8169.814911
746.262847	8121.727344
746.591778	8070.042914
746.920662	7996.883169
747.249498	7978.961867
747.578286	8034.089405
747.907027	8093.993436
748.235720	8197.644601
748.564365	8204.372020
748.892963	8134.065568
749.221514	8148.037126
749.550017	8057.419865
749.878473	8025.748816
750.206881	7894.005822
750.535242	7829.383271
750.863555	7768.687779
751.191821	7699.616409
751.520039	7701.605144
751.848210	7635.893704
752.176334	7642.442163
752.504411	7580.579643
752.832440	7488.409707
753.160421	7507.661874
753.488356	7431.479957
753.816243	7374.898046
754.144082	7292.472660
754.471875	7249.113696
754.799620	7211.899898
755.127318	7184.745723
755.454969	7154.070302
755.782572	7118.066381
756.110129	7113.370546
756.437638	7057.209572
756.765100	7042.383538
757.092515	7034.988166
757.419882	7033.354832
757.747203	7033.886673
758.074477	7057.663276
758.401703	7032.139914
758.728882	7105.082889
759.056014	7117.826926
759.383099	7163.139337
759.710138	7211.257151
760.037129	7241.194043
760.364073	7246.976247
760.690970	7225.261476
761.017820	7215.060702
761.344623	7289.742875
761.671379	7425.975017
761.998088	7717.852783
762.324751	8472.362279
762.651366	9854.021561
762.977935	11593.950605
763.304456	12657.008964
763.630931	12877.783776
763.957359	12278.168773
764.283740	11353.159892
764.610074	10438.964286
764.936362	9420.386548
765.262602	8678.915997
765.588796	7955.429761
765.914943	7446.752132
766.241044	7026.035076
766.567097	6708.092024
766.893104	6432.993738
767.219064	6243.539615
767.544978	6047.148864
767.870845	5884.891765
768.196665	5789.311488
768.522438	5684.669737
768.848165	5598.503815
769.173846	5509.222460
769.499479	5440.337613
769.825066	5359.815263
770.150607	5261.845479
770.476101	5226.935489
770.801548	5168.319473
771.126949	5093.251651
771.452303	5045.453950
771.777611	4957.924396
772.102872	4944.159526
772.428087	4883.217017
772.753256	4821.006658
773.078378	4776.546201
773.403453	4704.377043
773.728482	4648.422756
774.053465	4617.003764
774.378401	4572.218154
774.703291	4523.530690
775.028135	4477.000840
775.352932	4454.247592
775.677683	4411.261673
776.002388	4365.780383
776.327046	4360.353581
776.651658	4317.856654
776.976224	4279.687558
777.300743	4265.690794
777.625216	4235.506885
777.949643	4212.330181
778.274024	4207.576373
778.598359	4169.901309
778.922647	4169.883665
779.246889	4152.317765
779.571086	4146.447341
779.895236	4154.656860
780.219339	4146.243174
780.543397	4141.801918
780.867409	4160.136594
781.191374	4155.816325
781.515294	4138.459633
781.839167	4153.908249
782.162995	4137.108603
782.486776	4118.292497
782.810511	4093.797530
783.134201	4051.986200
783.457844	4045.029408
783.781441	4020.993186
784.104993	3997.791276
784.428498	3981.881394
784.751958	3976.888131
785.075372	3956.990697
785.398739	3936.576545
785.722061	3942.782205
786.045337	3937.730969
786.368568	3980.588338
786.691752	3984.752331
787.014891	4091.619752
787.337983	4212.640212
787.661030	4398.898243
787.984031	4574.968103
788.306987	4671.838915
788.629897	4697.231207
788.952760	4648.959639
789.275579	4563.696083
789.598351	4435.295374
789.921078	4318.358249
790.243759	4201.153943
790.566395	4114.030201
790.888984	4030.528529
791.211529	3971.640290
791.534027	3898.901481
791.856480	3845.064479
792.178888	3812.677586
792.501249	3782.297072
792.823566	3742.161926
793.145836	3738.194538
793.468062	3724.674163
793.790241	3707.413253
794.112375	3722.324986
794.434464	3751.291456
794.756507	3766.331738
795.078505	3813.620282
795.400457	3901.666554
795.722364	3998.252541
796.044226	4075.392277
796.366042	4135.414776
796.687812	4109.646918
797.009538	4116.412146
797.331218	4073.154005
797.652852	4042.680230
797.974442	3993.501254
798.295986	3957.930872
798.617484	3903.912388
798.938938	3861.760780
799.260346	3831.443281
799.581709	3775.826751
799.903026	3751.402361
800.224299	3724.711972
800.545526	3676.586597
800.866708	3649.427380
801.187845	3630.996922
801.508936	3599.595575
801.829983	3586.178544
802.150984	3542.479302
802.471940	3536.593754
802.792851	3524.822660
803.113717	3516.638347
803.434538	3506.974455
803.755314	3495.329390
804.076045	3485.332782
804.396731	3469.753096
804.717372	3478.416318
805.037967	3476.367089
805.358518	3486.177175
805.679024	3505.396574
805.999485	3512.479395
806.319901	3516.522400
806.640272	3524.069008
806.960598	3539.744476
807.280879	3536.530740
807.601115	3545.967780
807.921306	3529.526057
808.241453	3526.317362
808.561554	3528.195192
808.881611	3513.727081
809.201623	3506.258611
809.521590	3489.438801
809.841513	3482.802122
810.161390	3482.383707
810.481223	3448.444138
810.801011	3439.047427
811.120755	3432.935028
811.440453	3410.645567
811.760107	3396.931108
812.079716	3382.904097
812.399281	3363.488093
812.718801	3358.719162
813.038276	3340.069413
813.357707	3330.178669
813.677093	3334.748475
813.996434	3316.013027
814.315731	3320.335816
814.634983	3313.464723
814.954191	3315.834066
815.273354	3335.323167
815.592473	3344.813139
815.911547	3372.350442
816.230577	3389.238307
816.549562	3417.962802
816.868502	3433.844957
817.187399	3450.427832
817.506250	3476.596462
817.825058	3484.019561
818.143821	3527.794420
818.462539	3582.218717
818.781213	3656.699245
819.099843	3782.773461
819.418429	3994.224659
819.736970	4205.532185
820.055466	4440.843164
820.373919	4740.713680
820.692327	5233.942693
821.010691	6217.068516
821.329011	8696.996095
821.647286	12806.895070
821.965517	17443.619829
822.283704	19901.194932
822.601847	20183.290339
822.919945	17754.732118
823.237999	15348.004613
823.556010	13167.173733
823.873976	11285.905858
824.191897	9699.099342
824.509775	8536.392495
824.827609	7495.595872
825.145398	6883.267079
825.463144	6585.309681
825.780845	6675.667322
826.098502	7122.961341
826.416116	7980.275088
826.733685	8737.360614
827.051210	8872.619813
827.368692	8323.348292
827.686129	7436.100174
828.003522	6593.294868
828.320872	5850.894224
828.638177	5299.351664
828.955439	4874.652096
829.272656	4514.648177
829.589830	4224.544896
829.906960	3979.706136
830.224046	3801.282058
830.541088	3663.356088
830.858086	3569.204979
831.175041	3497.139164
831.491952	3475.187459
831.808819	3482.265239
832.125642	3552.929613
832.442421	3725.624421
832.759157	4090.341819
833.075849	4680.139175
833.392497	5286.998316
833.709101	5651.942567
834.025662	5548.500610
834.342179	5190.868554
834.658653	4760.500209
834.975083	4397.950506
835.291469	4112.164974
835.607811	3876.879201
835.924110	3707.614899
836.240366	3551.056825
836.556578	3404.747417
836.872746	3293.375725
837.188871	3205.510934
837.504952	3133.810603
837.820990	3081.501070
838.136984	3046.792726
838.452935	3029.932587
838.768842	3038.666386
839.084706	3134.856643
839.400526	3379.279508
839.716303	3669.307171
840.032037	3839.511648
840.347727	3784.058956
840.663373	3586.702824
840.978977	3402.438568
841.294537	3263.622835
841.610054	3162.346055
841.925527	3085.375197
842.240957	3024.573841
842.556344	2962.754171
842.871687	2912.410688
843.186987	2863.307329
843.502244	2826.360712
843.817458	2798.997329
844.132629	2776.970008
844.447756	2760.435023
844.762840	2744.878022
845.077881	2734.667165
845.392879	2723.508571
845.707833	2716.062787
846.022745	2702.139120
846.337613	2701.080478
846.652438	2695.154601
846.967221	2693.390197
847.281960	2686.632531
847.596656	2687.630679
847.911309	2682.413085
848.225919	2674.551406
848.540485	2676.517456
848.855009	2669.638801
849.169490	2665.527740
849.483928	2664.045641
849.798323	2663.370126
850.112675	2659.894251
850.426984	2660.221926
850.741251	2656.095741
851.055474	2655.541214
851.369654	2656.095741
851.683792	2655.818478
851.997887	2654.033909
852.311938	2655.579023
852.625947	2653.406286
852.939914	2651.876296
853.253837	2656.420896
853.567718	2651.064670
853.881555	2651.750267
854.195350	2652.095586
854.509103	2650.812612
854.822812	2649.511994
855.136479	2647.913949
855.450103	2648.413023
855.763685	2647.891263
856.077224	2646.565440
856.390720	2650.366470
856.704173	2653.625576
857.017584	2657.366112
857.330953	2656.856956
857.644278	2660.494148
857.957561	2659.130516
858.270802	2657.774446
858.584000	2659.506082
858.897155	2655.337048
859.210268	2652.244300
859.523339	2646.683907
859.836367	2645.360604
860.149352	2646.479740
860.462295	2642.409009
860.775195	2639.800212
861.088054	2634.834675
861.400869	2637.597227
861.713642	2635.363996
862.026373	2641.310037
862.339062	2643.964205
862.651708	2644.561581
862.964312	2647.082158
863.276873	2651.084834
863.589392	2658.162614
863.901869	2669.752227
864.214303	2674.652229
864.526696	2679.229596
864.839045	2685.215967
865.151353	2688.664116
865.463619	2687.423992
865.775842	2689.417768
866.088023	2690.247038
866.400162	2688.303673
866.712258	2685.357119
867.024313	2688.495237
867.336325	2683.940555
867.648296	2686.718230
867.960224	2681.616583
868.272110	2686.352747
868.583954	2680.260512
868.895755	2684.371573
869.207515	2685.720082
869.519233	2691.756864
869.830909	2690.967923
870.142542	2695.739375
870.454134	2696.049406
870.765684	2698.000333
871.077191	2703.651466
871.388657	2709.216900
871.700081	2710.399051
872.011463	2717.885164
872.322803	2724.988150
872.634101	2730.382184
872.945357	2737.522979
873.256571	2744.643609
873.567744	2751.605442
873.878874	2753.954620
874.189963	2757.110382
874.501010	2754.688108
874.812015	2756.107192
875.122979	2758.970568
875.433900	2755.454363
875.744780	2755.345978
876.055618	2758.426123
876.366415	2754.090731
876.677169	2757.301946
876.987882	2761.536515
877.298554	2761.788573
877.609183	2774.404060
877.919771	2786.802778
878.230317	2802.211065
878.540822	2833.201558
878.851285	2874.448279
879.161707	2932.643359
879.472087	3037.179246
879.782425	3212.024105
880.092722	3575.922316
880.402977	4256.175616
880.713191	5207.534608
881.023363	6178.841446
881.333494	6712.873558
881.643583	6786.189579
881.953631	6505.235993
882.263637	6112.267968
882.573602	5717.989244
882.883526	5368.445718
883.193408	5043.243404
883.503248	4734.308894
883.813048	4464.980208
884.122806	4215.332188
884.432522	3968.923108
884.742197	3750.275663
885.051831	3561.648289
885.361424	3401.843712
885.670975	3276.543313
885.980485	3175.924402
886.289954	3093.798965
886.599382	3030.671116
886.908768	2975.841006
887.218113	2926.823347
887.527417	2886.655433
887.836680	2851.841225
888.145901	2823.159580
888.455082	2799.632515
888.764221	2780.266922
889.073319	2763.593306
889.382376	2753.972264
889.691392	2746.899525
890.000366	2746.423136
890.309300	2744.757035
890.618193	2744.147055
890.927044	2742.758217
891.235855	2744.688979
891.544625	2746.551685
891.853353	2758.214395
892.162041	2772.695109
892.470687	2801.026394
892.779293	2832.705005
893.087858	2883.197202
893.396381	2956.682101
893.704864	3080.583580
894.013306	3241.872777
894.321707	3401.412693
894.630068	3490.295797
894.938387	3495.140346
895.246665	3439.818724
895.554903	3351.716999
895.863100	3260.129316
896.171256	3183.622244
896.479371	3120.610342
896.787446	3059.929973
897.095480	3005.127590
897.403473	2964.742906
897.711425	2923.229004
898.019336	2889.208778
898.327207	2856.252234
898.635038	2828.379695
898.942827	2799.698050
899.250576	2775.462703
899.558284	2751.615524
899.865952	2737.119687
900.173579	2721.809702
900.481165	2709.746221
900.788711	2698.471681
901.096216	2690.070598
901.403681	2680.484844
901.711105	2676.464523
902.018489	2676.961077
902.325832	2686.166224
902.633135	2700.856146
902.940397	2744.948598
903.247619	2864.292875
903.554800	3092.021958
903.861941	3374.369424
904.169041	3574.984662
904.476101	3630.442395
904.783121	3540.127603
905.090100	3425.514450
905.397039	3307.012047
905.703938	3207.519834
906.010796	3113.966101
906.317614	3045.464382
906.624391	2977.060966
906.931129	2921.827563
907.237826	2866.977289
907.544483	2820.633962
907.851099	2772.513628
908.157675	2725.532594
908.464211	2683.323013
908.770707	2654.275885
909.077163	2634.733852
909.383578	2615.196860
909.689954	2602.452823
909.996289	2592.688108
910.302584	2592.002511
910.608839	2582.968764
910.915054	2581.312745
911.221229	2579.689493
911.527363	2582.542786
911.833458	2583.591346
912.139513	2585.486820
912.445527	2591.135433
912.751502	2601.361413
913.057436	2611.421036
913.363331	2631.298306
913.669186	2650.391676
913.975000	2685.221008
914.280775	2738.979872
914.586510	2812.893270
914.892205	2918.248344
915.197859	3060.363512
915.503475	3220.241186
915.809050	3353.015096
916.114585	3428.045109
916.420081	3440.869805
916.725536	3419.089499
917.030952	3352.246320
917.336328	3294.590643
917.641665	3238.288517
917.946961	3178.707119
918.252218	3124.151752
918.557435	3064.184707
918.862612	3007.194463
919.167750	2957.244190
919.472848	2912.299783
919.777906	2861.915971
920.082925	2822.168993
920.387904	2774.227620
920.692843	2747.809453
920.997743	2718.348950
921.302603	2696.301464
921.607423	2676.318330
921.912204	2659.501041
922.216946	2641.758700
922.521647	2630.310239
922.826310	2617.629217
923.130932	2608.603031
923.435516	2596.945363
923.740059	2588.309866
924.044564	2582.210070
924.349028	2573.105746
924.653454	2565.642318
924.957840	2557.153015
925.262186	2547.877292
925.566493	2546.702703
925.870761	2535.448327
926.174989	2538.059645
926.479178	2532.859694
926.783328	2530.223171
927.087438	2521.328055
927.391509	2521.333096
927.695541	2519.934176
927.999533	2514.638444
928.303486	2511.853206
928.607400	2511.197856
928.911275	2513.451252
929.215110	2508.495798
929.518906	2506.582680
929.822663	2505.947495
930.126381	2503.711743
930.430060	2509.193998
930.733699	2504.306599
931.037299	2506.864985
931.340861	2506.847341
931.644383	2507.895901
931.947866	2503.681496
932.251309	2507.061590
932.554714	2507.422032
932.858080	2505.748369
933.161407	2504.127638
933.464694	2504.467916
933.767943	2505.725684
934.071153	2501.947339
934.374323	2502.156547
934.677455	2498.748727
934.980548	2497.022132
935.283602	2499.025990
935.586617	2497.556494
935.889593	2501.546567
936.192530	2498.968017
936.495428	2501.196207
936.798287	2502.151506
937.101108	2506.804491
937.403890	2512.906807
937.706632	2521.028106
938.009336	2527.904240
938.312002	2535.619726
938.614628	2538.833462
938.917216	2544.262784
939.219765	2547.451314
939.522275	2549.664381
939.824747	2551.761501
940.127179	2545.601211
940.429573	2541.994265
940.731929	2549.314021
941.034246	2544.671118
941.336524	2545.974256
941.638763	2542.435366
941.940964	2541.628782
942.243126	2536.272556
942.545250	2534.593851
942.847335	2531.594365
943.149381	2529.025897
943.451389	2522.406862
943.753359	2521.738909
944.055290	2519.997190
944.357182	2513.950326
944.659036	2515.029133
944.960851	2512.059894
945.262628	2512.934534
945.564367	2512.788340
945.866067	2510.418998
946.167729	2509.534276
946.469352	2510.996210
946.770937	2513.665501
947.072484	2507.578308
947.373992	2506.605365
947.675462	2506.741476
947.976893	2505.203924
948.278286	2504.755262
948.579641	2502.693430
948.880958	2505.314830
949.182236	2502.829541
949.483476	2499.376351
949.784678	2501.251660
950.085841	2499.416680
950.386967	2502.111177
950.688054	2505.251815
950.989103	2504.901455
951.290114	2505.271980
951.591087	2511.979235
951.892021	2512.170799
952.192917	2517.222035
952.493776	2519.278826
952.794596	2518.416789
953.095378	2522.671522
953.396122	2521.207067
953.696828	2518.923425
953.997496	2520.037520
954.298126	2515.603825
954.598718	2515.530728
954.899272	2510.837414
955.199788	2508.780623
955.500266	2504.167967
955.800706	2501.990189
956.101108	2490.924856
956.401472	2493.818478
956.701798	2487.209526
957.002087	2485.064515
957.302337	2482.881695
957.602550	2482.269195
957.902724	2475.947588
958.202861	2474.155458
958.502960	2470.220837
958.803022	2472.169243
959.103045	2469.212607
959.403031	2466.540795
959.702979	2466.203038
960.002889	2465.590537
960.302762	2460.972841
960.602596	2460.826647
960.902393	2456.687860
961.202153	2461.897892
961.501875	2459.508385
961.801559	2458.139712
962.101205	2457.421348
962.400814	2457.819599
962.700385	2456.942438
962.999918	2457.154167
963.299414	2453.741305
963.598873	2453.128805
963.898293	2454.948662
964.197677	2455.661985
964.497022	2455.175514
964.796331	2454.931018
965.095601	2453.035544
965.394835	2452.019751
965.694030	2450.648557
965.993189	2453.610235
966.292309	2452.513784
966.591393	2451.767694
966.890439	2451.248455
967.189447	2452.317179
967.488419	2450.676284
967.787353	2450.840121
968.086249	2449.675615
968.385108	2454.744495
968.683930	2452.223918
968.982714	2454.129474
969.281462	2452.433126
969.580172	2451.760132
969.878844	2453.902622
970.177480	2453.179217
970.476078	2456.944959
970.774639	2454.684001
971.073162	2459.952007
971.371649	2454.963785
971.670098	2452.047478
971.968510	2455.460339
972.266885	2453.874896
972.565223	2456.035030
972.863524	2454.931018
973.161788	2455.591409
973.460014	2457.983436
973.758204	2458.817747
974.056356	2457.484362
974.354471	2458.384208
974.652550	2457.638117
974.950591	2459.820937
975.248595	2458.381688
975.546563	2458.573251
975.844493	2456.657613
976.142386	2457.275154
976.440243	2452.733075
976.738062	2456.045113
977.035845	2454.207612
977.333590	2453.670729
977.631299	2454.857921
977.928971	2452.526387
978.226606	2451.921449
978.524204	2451.397169
978.821765	2453.035544
979.119290	2452.042437
979.416777	2449.910028
979.714228	2451.868517
980.011642	2452.770883
980.309020	2454.830195
980.606360	2452.770883
980.903664	2455.125102
981.200931	2459.342027
981.498162	2463.775722
981.795356	2475.219141
982.092513	2484.020996
982.389633	2498.025321
982.686717	2506.660818
982.983764	2519.354443
983.280775	2523.674712
983.577749	2522.106913
983.874686	2521.625483
984.171587	2516.062570
984.468451	2511.752383
984.765279	2503.678975
985.062070	2499.109169
985.358824	2497.261587
985.655543	2488.802530
985.952224	2480.882878
986.248869	2473.994141
986.545478	2462.959055
986.842050	2460.753550
987.138586	2453.579988
987.435086	2450.444391
987.731549	2445.080603
988.027975	2450.353650
988.324366	2444.904163
988.620719	2443.974070
988.917037	2442.983483
989.213318	2443.371652
989.509563	2440.639347
989.805772	2443.900973
990.101944	2440.714964
990.398080	2438.786722
990.694180	2440.775458
990.990244	2440.548606
991.286271	2439.343770
991.582262	2438.335539
991.878217	2440.021805
992.174136	2438.496856
992.470019	2442.088678
992.765865	2439.321085
993.061676	2443.298555
993.357450	2439.852927
993.653188	2441.544234
993.948890	2446.761828
994.244556	2446.754266
994.540186	2447.006324
994.835780	2451.084617
995.131337	2454.333641
995.426859	2461.066102
995.722345	2464.957873
996.017795	2467.889304
996.313208	2474.586477
996.608586	2475.529172
996.903928	2476.343319
997.199234	2479.007568
997.494504	2474.062197
997.789738	2469.441979
998.084936	2472.353245
998.380099	2466.558439
998.675225	2464.226905
998.970316	2459.465536
999.265371	2457.335648
999.560390	2452.700307
999.855373	2454.368929
1000.150320	2447.661674
1000.445232	2448.604370
1000.740108	2443.684203
1001.034948	2440.969542
1001.329752	2442.270160
1001.624521	2440.556167
1001.919254	2432.714653
1002.213951	2436.051897
1002.508613	2430.264652
1002.803239	2433.112904
1003.097829	2431.908068
1003.392384	2436.949222
1003.686903	2430.809097
1003.981386	2432.714653
1004.275834	2435.401588
1004.570246	2433.259097
1004.864623	2433.801021
1005.158964	2430.841864
1005.453270	2433.155754
1005.747540	2430.897317
1006.041775	2432.409663
1006.335974	2431.338418
1006.630138	2431.086360
1006.924266	2432.611309
1007.218359	2431.950918
1007.512416	2429.919333
1007.806438	2431.300609
1008.100425	2432.581062
1008.394376	2429.208530
1008.688292	2431.996288
1008.982172	2432.278593
1009.276017	2429.473191
1009.569827	2428.964034
1009.863602	2431.257759
1010.157341	2430.970413
1010.451045	2429.180804
1010.744714	2430.330187
1011.038347	2429.952100
1011.331945	2428.134764
1011.625508	2430.725918
1011.919036	2427.207192
1012.212528	2427.618046
1012.505986	2430.113417
1012.799408	2428.759868
1013.092795	2429.047213
1013.386147	2425.909095
1013.679464	2428.119641
1013.972745	2427.746596
1014.265992	2428.974117
1014.559204	2430.819179
1014.852380	2426.398087
1015.145521	2426.771132
1015.438628	2424.749630
1015.731699	2427.434044
1016.024736	2427.610484
1016.317737	2429.576534
1016.610703	2429.095104
1016.903635	2423.696028
1017.196531	2423.736358
1017.489393	2426.221647
1017.782219	2421.838363
1018.075011	2428.830444
1018.367768	2426.919846
1018.660490	2428.895979
1018.953177	2428.895979
1019.245829	2428.895979
