Dividing Wavelength (nm)	Counts (n)	Blue Motor Position (mm): 18.200000	Red Motor Position (mm): 0.000000	
326.493990	1971.600310
326.888308	1971.600310
327.282561	1971.600310
327.676750	1947.753132
328.070874	1949.255396
328.464933	1956.781839
328.858929	1963.345421
329.252859	1977.977370
329.646726	1992.195944
330.040528	2006.462410
330.434265	2027.005112
330.827938	2045.148224
331.221547	2064.367623
331.615091	2086.808320
332.008571	2106.277256
332.401986	2129.648045
332.795338	2147.052629
333.188625	2169.238747
333.581847	2189.070646
333.975006	2203.039683
334.368100	2221.999463
334.761129	2240.934037
335.154095	2255.046747
335.546996	2289.434978
335.939833	2349.177692
336.332606	2362.463653
336.725315	2374.743904
337.117960	2386.300749
337.510540	2390.081615
337.903056	2398.558315
338.295508	2405.835220
338.687896	2413.654050
339.080220	2420.134453
339.472480	2427.839857
339.864676	2430.957811
340.256807	2433.440579
340.648875	2435.668769
341.040879	2437.818821
341.432818	2439.149686
341.824694	2440.455344
342.216506	2438.448965
342.608253	2440.795622
342.999937	2436.677000
343.391557	2435.255394
343.783113	2438.302772
344.174605	2429.357244
344.566033	2432.976793
344.957397	2431.141813
345.348697	2427.000505
345.739934	2426.720721
346.131106	2423.330545
346.522215	2422.062695
346.913260	2419.879875
347.304241	2420.434402
347.695159	2419.980698
348.086012	2416.335944
348.476802	2413.117167
348.867528	2412.885274
349.258191	2409.424522
349.648789	2409.490057
350.039324	2406.765313
350.429796	2413.031468
350.820203	2409.606003
351.210548	2411.231776
351.600828	2407.460992
351.991045	2406.810684
352.381198	2405.172309
352.771288	2406.178019
353.161314	2405.855385
353.551276	2403.473440
353.941175	2406.462844
354.331010	2405.764644
354.720782	2403.770868
355.110490	2407.995355
355.500135	2405.895714
355.889717	2404.930333
356.279235	2404.736249
356.668689	2406.586352
357.058080	2405.258008
357.447408	2404.622823
357.836672	2404.524520
358.225873	2403.912020
358.615010	2402.225754
359.004084	2408.484347
359.393095	2408.567526
359.782043	2411.289749
360.170927	2411.047773
360.559748	2413.097003
360.948505	2410.962074
361.337199	2411.302352
361.725830	2415.310069
362.114398	2414.435429
362.502903	2411.856879
362.891344	2413.638927
363.279722	2414.475758
363.668037	2415.978022
364.056289	2415.610018
364.444478	2412.665984
364.832603	2417.134967
365.220665	2413.517939
365.608665	2418.226377
365.996601	2416.565316
366.384474	2415.146232
366.772284	2421.488003
367.160031	2416.262847
367.547715	2419.050605
367.935336	2415.723444
368.322893	2418.236459
368.710388	2420.179824
369.097820	2418.667478
369.485189	2420.409196
369.872495	2423.380956
370.259738	2422.188723
370.646918	2420.878023
371.034035	2420.842735
371.421090	2421.177972
371.808081	2422.077818
372.195010	2423.088569
372.581875	2421.064546
372.968678	2423.212078
373.355418	2421.263672
373.742096	2424.366502
374.128710	2423.958168
374.515262	2422.657551
374.901751	2422.980185
375.288177	2425.430185
375.674540	2421.059505
376.060841	2425.064702
376.447079	2424.147212
376.833254	2425.150401
377.219367	2420.338620
377.605417	2424.941193
377.991404	2419.723599
378.377329	2423.353230
378.763191	2421.051943
379.148991	2428.273396
379.534727	2425.483117
379.920402	2428.119641
380.306013	2425.621749
380.691563	2429.566452
381.077049	2429.052254
381.462474	2426.539239
381.847835	2430.441092
382.233134	2426.796338
382.618371	2427.527305
383.003545	2430.216761
383.388657	2430.027718
383.773706	2428.888417
384.158693	2431.434200
384.543618	2432.097111
384.928480	2433.312029
385.313280	2430.463778
385.698017	2430.967893
386.082692	2433.554005
386.467305	2433.120466
386.851856	2431.313212
387.236344	2434.476536
387.620770	2432.054262
388.005133	2433.831268
388.389435	2435.668769
388.773674	2432.926381
389.157851	2435.260435
389.541965	2432.684406
389.926018	2431.766916
390.310008	2437.970056
390.693936	2435.928388
391.077802	2433.929571
391.461606	2438.212031
391.845348	2436.964345
392.229027	2435.663728
392.612645	2434.214396
392.996200	2436.966866
393.379694	2435.540219
393.763125	2439.245468
394.146494	2436.863522
394.529801	2441.708071
394.913047	2440.422577
395.296230	2436.336722
395.679351	2441.123297
396.062410	2438.252360
396.445408	2436.256063
396.828343	2436.961825
397.211217	2433.304468
397.594028	2438.459048
397.976778	2438.653132
398.359466	2439.540375
398.742092	2435.111721
399.124656	2439.774789
399.507158	2440.583894
399.889598	2440.639347
400.271977	2439.709254
400.654294	2439.318564
401.036549	2442.146652
401.418742	2442.406271
401.800874	2443.767383
402.182944	2443.588422
402.564952	2443.142279
402.946898	2441.604727
403.328783	2444.518514
403.710606	2442.169337
404.092367	2444.894080
404.474067	2440.979624
404.855705	2444.576488
405.237282	2445.945161
405.618797	2445.068000
406.000250	2446.204780
406.381642	2443.444749
406.762972	2443.638833
407.144240	2447.298711
407.525447	2445.894749
407.906593	2442.917948
408.287677	2445.677980
408.668700	2444.137907
409.049661	2446.819801
409.430560	2445.171344
409.811399	2447.596139
410.192176	2448.359874
410.572891	2447.157558
410.953545	2449.103444
411.334138	2447.132353
411.714669	2448.470779
412.095139	2448.236365
412.475547	2447.351643
412.855894	2450.767025
413.236180	2448.647219
413.616405	2448.874071
413.996568	2449.189143
414.376670	2449.889864
414.756711	2448.715275
415.136691	2451.404731
415.516609	2449.955399
415.896466	2448.669905
416.276262	2453.247272
416.655997	2450.245265
417.035670	2445.128494
417.415283	2452.047478
417.794834	2445.022630
418.174324	2452.148301
418.553753	2449.902467
418.933121	2453.040585
419.312428	2447.540686
419.691674	2451.248455
420.070859	2454.873044
420.449983	2457.607870
420.829045	2453.184258
421.208047	2452.261727
421.586988	2452.211315
421.965867	2453.090997
422.344686	2454.195009
422.723444	2451.621500
423.102141	2453.325410
423.480777	2451.651747
423.859352	2455.263734
424.237866	2455.052005
424.616319	2456.440843
424.994712	2454.242900
425.373044	2457.171811
425.751314	2455.974537
426.129524	2456.357664
426.507673	2455.200719
426.885762	2456.405555
427.263789	2455.034361
427.641756	2457.547377
428.019662	2456.196347
428.397508	2458.391770
428.775292	2458.555607
429.153016	2460.274641
429.530679	2458.560648
429.908282	2459.692387
430.285824	2460.251956
430.663305	2458.109465
431.040726	2458.757253
431.418086	2459.576441
431.795385	2461.663479
432.172624	2459.783128
432.549802	2460.458643
432.926920	2458.792542
433.303977	2463.589199
433.680974	2462.762450
434.057910	2462.132306
434.434786	2460.670371
434.811601	2463.072481
435.188355	2463.473253
435.565050	2462.475104
435.941683	2463.211113
436.318257	2462.797738
436.694770	2461.726493
437.071222	2462.538119
437.447614	2461.484518
437.823946	2462.742286
438.200218	2462.545681
438.576429	2463.639611
438.952580	2463.916874
439.328670	2463.044755
439.704700	2466.339149
440.080670	2464.630198
440.456580	2464.108438
440.832429	2466.702112
441.208218	2468.206896
441.583947	2467.634725
441.959616	2466.515589
442.335224	2470.072123
442.710773	2468.239664
443.086261	2468.796711
443.461689	2469.056331
443.837057	2469.852833
444.212365	2470.273769
444.587612	2470.256125
444.962800	2467.682616
445.337927	2469.018522
445.712995	2469.149592
446.088002	2471.065231
446.462949	2470.339304
446.837837	2470.757720
447.212664	2471.753348
447.587431	2477.414564
447.962139	2476.968422
448.336786	2478.475727
448.711374	2481.039153
449.085901	2475.871971
449.460369	2475.239306
449.834776	2475.743421
450.209124	2477.838021
450.583412	2480.998824
450.957640	2478.684935
451.331808	2481.485296
451.705917	2474.548668
452.079965	2481.099647
452.453954	2480.625779
452.827883	2480.020840
453.201752	2478.112764
453.575562	2480.872795
453.949311	2481.157621
454.323001	2481.119812
454.696632	2485.863538
455.070202	2485.258599
455.443713	2485.256079
455.817164	2483.032930
456.190556	2483.811788
456.563888	2483.405975
456.937160	2481.855820
457.310373	2485.417396
457.683526	2486.891933
458.056619	2488.099289
458.429653	2488.878148
458.802628	2491.108858
459.175542	2489.974599
459.548398	2490.735813
459.921194	2495.983654
460.293930	2497.609426
460.666607	2499.981289
461.039224	2501.367606
461.411782	2501.856598
461.784280	2503.164778
462.156719	2504.190652
462.529099	2501.831393
462.901419	2500.760147
463.273680	2501.483553
463.645882	2504.150323
464.018024	2503.721825
464.390106	2504.016733
464.762130	2510.933196
465.134094	2517.796727
465.505999	2528.312574
465.877845	2537.311033
466.249631	2542.165664
466.621358	2541.303627
466.993026	2538.520910
467.364634	2539.753472
467.736184	2534.704757
468.107674	2533.028573
468.479105	2529.456916
468.850477	2530.538243
469.221790	2528.748633
469.593043	2524.708149
469.964238	2526.729651
470.335373	2524.710669
470.706449	2533.981351
471.077467	2537.434542
471.448425	2552.542880
471.819324	2562.105948
472.190164	2560.954045
472.560945	2548.996428
472.931667	2546.102806
473.302330	2542.329502
473.672934	2544.968546
474.043479	2549.172868
474.413965	2542.994934
474.784393	2542.697506
475.154761	2547.345450
475.525070	2547.922662
475.895321	2549.745039
476.265513	2549.253527
476.635645	2557.843653
477.005719	2557.576472
477.375734	2561.934549
477.745691	2568.286403
478.115588	2573.435942
478.485427	2580.773341
478.855207	2594.185331
479.224928	2605.260746
479.594591	2609.402054
479.964194	2612.063783
480.333739	2613.538321
480.703226	2620.500154
481.072653	2623.277830
481.442022	2625.511061
481.811333	2630.474077
482.180584	2628.916360
482.549777	2629.148253
482.918912	2627.461987
483.287988	2632.679582
483.657005	2631.999026
484.025964	2634.723770
484.394864	2635.487504
484.763706	2639.800212
485.132489	2635.734521
485.501213	2640.185860
485.869879	2644.874133
486.238487	2648.082827
486.607036	2651.566265
486.975527	2650.938641
487.343959	2656.007521
487.712333	2660.166473
488.080648	2664.998419
488.448905	2669.391785
488.817104	2674.077537
489.185244	2683.670853
489.553326	2698.892617
489.921350	2716.619834
490.289315	2736.416446
490.657222	2752.623755
491.025070	2760.130033
491.392861	2761.148346
491.760593	2758.703387
492.128267	2756.545773
492.495883	2753.165679
492.863440	2747.265009
493.230939	2751.237438
493.598380	2750.246851
493.965763	2751.686101
494.333088	2756.863366
494.700354	2761.365116
495.067563	2770.043462
495.434713	2774.474637
495.801805	2787.153138
496.168839	2795.904582
496.535815	2801.258287
496.902733	2814.110709
497.269593	2822.844508
497.636395	2831.757268
498.003139	2848.650174
498.369825	2857.704087
498.736453	2877.886346
499.103023	2885.158210
499.469535	2895.437123
499.835989	2912.093095
500.202385	2923.975095
500.568723	2942.367745
500.935003	2963.729634
501.301226	2979.649598
501.667390	3008.802591
502.033497	3033.100952
502.399546	3043.813404
502.765537	3054.568706
503.131470	3085.425609
503.497345	3113.585494
503.863163	3119.791154
504.228923	3150.403561
504.594625	3187.753470
504.960269	3203.867518
505.325856	3246.311513
505.691385	3263.698453
506.056856	3295.601395
506.422270	3343.822552
506.787625	3368.405739
507.152924	3404.134917
507.518164	3445.805094
507.883347	3467.509782
508.248472	3508.683406
508.613540	3568.337900
508.978550	3619.059470
509.343503	3657.694873
509.708398	3709.253274
510.073236	3771.095628
510.438016	3826.220646
510.802738	3857.750543
511.167403	3932.657048
511.532010	4003.334024
511.896561	4068.382553
512.261053	4166.702697
512.625488	4207.893965
512.989866	4263.802882
513.354186	4323.908559
513.718449	4392.503540
514.082655	4494.385259
514.446803	4551.622520
514.810894	4652.372500
515.174927	4728.796392
515.538904	4803.216426
515.902822	4917.963170
516.266684	4970.683557
516.630488	5079.136420
516.994235	5153.770703
517.357925	5284.288696
517.721558	5392.981014
518.085133	5508.851935
518.448651	5608.016473
518.812112	5693.947981
519.175516	5801.765659
519.538863	5932.981853
519.902152	6029.923241
520.265385	6180.489903
520.628560	6291.294465
520.991678	6383.300564
521.354739	6518.461460
521.717743	6667.982083
522.080690	6778.108610
522.443580	6951.957841
522.806413	7075.110709
523.169189	7197.792229
523.531908	7342.001997
523.894569	7452.743544
524.257174	7608.595856
524.619722	7775.619365
524.982213	7907.354798
525.344647	8034.732152
525.707025	8180.030809
526.069345	8367.344963
526.431608	8504.809666
526.793815	8687.470835
527.155964	8773.233464
527.518057	8932.065099
527.880093	9045.012151
528.242072	9277.434549
528.603995	9379.432214
528.965860	9532.784114
529.327669	9703.865752
529.689421	9840.128141
530.051117	9984.121139
530.412755	10172.561990
530.774337	10337.561476
531.135862	10465.170724
531.497331	10658.955198
531.858743	10805.128495
532.220098	11042.808817
532.581396	11141.204578
532.942638	11250.035528
533.303824	11473.028448
533.664953	11640.074642
534.026025	11751.171591
534.387040	12017.611695
534.747999	12186.548322
535.108902	12408.951427
535.469748	12470.052732
535.830537	12689.680682
536.191270	12924.419490
536.551947	13022.157381
536.912567	13282.033903
537.273131	13510.428419
537.633638	13554.735120
537.994089	13829.954394
538.354483	13912.042022
538.714821	14259.485907
539.075103	14549.765628
539.435328	14692.405076
539.795497	14846.460217
540.155609	15038.223189
540.515665	15375.783891
540.875665	15404.460495
541.235609	15707.678337
541.595496	15899.121196
541.955328	16327.994838
542.315102	16319.523179
542.674821	16455.226000
543.034483	16667.622414
543.394090	16860.020571
543.753640	17057.873257
544.113134	17629.091440
544.472571	17478.726424
544.831953	18177.833639
545.191278	18099.103419
545.550548	18207.382363
545.909761	18590.149613
546.268918	18893.387619
546.628019	19239.798068
546.987064	19273.283932
547.346053	19190.661941
547.704986	19765.262739
548.063863	19810.328133
548.422684	20104.061045
548.781449	20262.373440
549.140158	20645.430556
549.498811	20806.883590
549.857408	20770.108373
550.215949	21354.756190
550.574434	21541.546064
550.932864	21660.426554
551.291237	22200.687012
551.649555	22241.608578
552.007817	22566.079925
552.366022	22622.818111
552.724173	22926.524945
553.082267	23345.517927
553.440305	23720.698240
553.798288	23588.148661
554.156215	23967.757628
554.514086	24291.311485
554.871902	24373.880544
555.229661	24605.395534
555.587365	24733.009823
555.945014	25002.958570
556.302606	25181.221332
556.660143	25510.953123
557.017625	25764.969303
557.375050	25881.309052
557.732421	26297.899923
558.089735	26480.782903
558.446994	26649.585939
558.804197	27137.095763
559.161345	27314.433473
559.518437	27079.800529
559.875474	27473.436507
560.232455	27788.281770
560.589381	28099.734337
560.946251	28116.934754
561.303065	28755.752290
561.659825	28832.110647
562.016528	28850.422638
562.373177	28881.506393
562.729770	29384.686644
563.086307	29287.962025
563.442789	29770.748287
563.799216	30014.009166
564.155587	30067.296683
564.511904	30303.981377
564.868164	30553.536136
565.224370	30902.194939
565.580520	30926.079926
565.936615	31263.930495
566.292654	31269.445517
566.648638	31628.975568
567.004567	31782.841666
567.360441	31996.402587
567.716260	32087.831474
568.072023	32493.039420
568.427732	32665.192303
568.783385	32524.738195
569.138982	32986.792713
569.494525	33145.478154
569.850013	33157.609690
570.205445	33314.432425
570.560823	33441.613175
570.916145	33537.135478
571.271412	33735.756940
571.626625	33714.747931
571.981782	33948.952377
572.336884	33872.757857
572.691931	34282.500321
573.046923	34139.941532
573.401860	34200.291705
573.756743	34347.589179
574.111570	34584.601548
574.466342	34635.829753
574.821059	34891.761572
575.175722	34679.707956
575.530330	34843.764747
575.884882	34795.268847
576.239380	34905.765898
576.593823	35025.921800
576.948211	35118.913444
577.302544	34899.409003
577.656823	35060.060493
578.011047	35376.574379
578.365216	35296.775434
578.719330	35263.095485
579.073389	35285.894103
579.427394	35492.591493
579.781344	35600.416733
580.135239	35459.070341
580.489080	35655.503942
580.842866	35373.292588
581.196597	35861.649325
581.550273	35929.853616
581.903895	35935.224966
582.257463	36420.075581
582.610975	36041.472324
582.964434	36373.896091
583.317837	36211.139919
583.671186	36181.525660
584.024481	36500.199680
584.377721	36212.927008
584.730906	36571.496719
585.084037	36711.108954
585.437113	36578.284633
585.790135	36709.463018
586.143103	36482.207802
586.496016	36705.127625
586.848874	36826.531213
587.201679	36938.951464
587.554428	36607.974508
587.907124	36863.157716
588.259765	36745.845025
588.612352	37074.142607
588.964884	36642.435836
589.317362	36996.322315
589.669786	37037.498460
590.022155	36931.682120
590.374470	37374.139152
590.726731	37063.682213
591.078937	36736.264312
591.431090	36904.079282
591.783188	36688.819493
592.135232	36504.030957
592.487222	36786.940511
592.839157	36967.126473
593.191038	36748.337875
593.542866	36619.541436
593.894639	36163.627044
594.246358	36485.202248
594.598022	36545.307925
594.949633	36262.552126
595.301190	36303.829094
595.652692	36241.023879
596.004141	36609.408717
596.355535	35803.991128
596.706876	35830.580694
597.058162	35738.234317
597.409395	36218.976392
597.760573	36358.500407
598.111698	36039.312190
598.462768	36109.376667
598.813785	36222.739614
599.164748	35789.190301
599.515657	36192.911106
599.866511	35802.236807
600.217312	36402.955823
600.568060	35512.922467
600.918753	36256.137258
601.269392	36274.018231
601.619978	36023.661928
601.970510	36252.704232
602.320988	36473.627758
602.671412	36802.084137
603.021783	36620.970603
603.372100	36352.330035
603.722363	36512.245517
604.072572	36619.564121
604.422728	36681.656013
604.772830	36545.202061
605.122878	36672.400454
605.472872	36675.604108
605.822813	36981.466035
606.172701	36868.710547
606.522534	37116.919318
606.872314	37417.041892
607.222041	37231.787050
607.571714	37641.826942
607.921333	37157.745103
608.270899	37474.553896
608.620411	37831.470108
608.969870	37683.038375
609.319276	37722.772749
609.668627	37807.348187
610.017926	38309.366452
610.367171	38496.204216
610.716362	38614.028585
611.065500	38612.332236
611.414585	38814.185077
611.763616	39152.786778
612.112594	39082.500491
612.461518	39329.128861
612.810389	39642.897838
613.159207	39547.436028
613.507971	39663.241414
613.856682	40146.773767
614.205340	40042.028673
614.553945	40755.873702
614.902496	40239.737686
615.250994	40719.660573
615.599439	40816.140696
615.947830	41060.949209
616.296169	41132.936886
616.644454	41276.972733
616.992686	41467.384676
617.340864	41994.061745
617.688990	41743.491193
618.037063	42353.725386
618.385082	42337.082017
618.733048	42646.006445
619.080961	42691.273486
619.428821	42712.678225
619.776628	42836.856968
620.124382	42677.858976
620.472083	42829.345649
620.819731	42977.459790
621.167326	42683.288298
621.514868	42684.803165
621.862357	42279.784262
622.209793	42332.189577
622.557176	42015.844570
622.904506	41799.064873
623.251783	41473.416417
623.599007	41280.554473
623.946179	41078.515109
624.293297	41043.925232
624.640363	40483.336322
624.987376	40496.113126
625.334336	40262.601839
625.681243	39942.740627
626.028097	39919.193398
626.374899	39790.691866
626.721647	39779.450093
627.068343	39691.146721
627.414987	39472.655552
627.761577	39256.448025
628.108115	39603.274368
628.454600	39075.228627
628.801032	39262.522615
629.147412	39237.722659
629.493739	39275.433010
629.840014	38917.785830
630.186236	39287.262078
630.532405	38911.224768
630.878521	39126.837439
631.224585	39012.569605
631.570597	38729.559228
631.916556	38896.877645
632.262462	38865.577120
632.608316	38889.121829
632.954117	38779.776682
633.299866	38787.149369
633.645562	38703.423366
633.991206	38236.201666
634.336797	37822.509458
634.682336	37828.364758
635.027823	37588.118489
635.373257	37426.491535
635.718639	37189.922788
636.063968	37057.801707
636.409245	36500.665987
636.754470	36567.403302
637.099642	36329.735583
637.444762	35868.170058
637.789829	36005.508733
638.134845	35679.088980
638.479808	35631.818080
638.824719	35529.603645
639.169577	35171.568296
639.514383	35244.181076
639.859137	34949.076971
640.203839	35189.144279
640.548489	34824.109288
640.893086	34900.429836
641.237632	34678.099828
641.582125	34781.030107
641.926566	34725.045573
642.270955	34682.226013
642.615292	34708.931525
642.959576	34692.701530
643.303809	34704.351637
643.647990	34849.287331
643.992118	34821.465203
644.336195	34815.521682
644.680219	34905.178603
645.024192	35223.466975
645.368112	35710.397066
645.711981	35732.000931
646.055797	36610.424509
646.399562	36534.366100
646.743274	37468.958215
647.086935	37905.028105
647.430544	37808.429515
647.774101	37927.622556
648.117606	38154.570261
648.461059	38479.722164
648.804460	38082.834642
649.147810	37477.573547
649.491108	37237.891887
649.834354	36883.312249
650.177548	36057.619140
650.520690	35615.827540
650.863781	35636.934852
651.206820	35486.128734
651.549807	35060.778858
651.892742	34596.992704
652.235626	34401.131274
652.578458	34254.605097
652.921238	33676.833413
653.263967	33988.651464
653.606644	33689.723643
653.949269	33657.654343
654.291843	33257.880761
654.634365	33668.752443
654.976836	33267.000208
655.319255	33262.732872
655.661622	33253.189967
656.003938	33032.405073
656.346203	32897.138312
656.688416	33126.999804
657.030577	32939.173974
657.372687	32779.306382
657.714746	33035.949004
658.056753	33160.480628
658.398708	32616.535086
658.740612	32682.112936
659.082465	32947.149079
659.424266	32767.699126
659.766016	32897.294588
660.107715	32789.663433
660.449362	32909.143820
660.790958	32897.997829
661.132503	32913.365787
661.473996	32940.429221
661.815438	33057.915832
662.156829	33246.288628
662.498168	33026.701007
662.839456	33052.715882
663.180693	33209.820921
663.521879	33354.234855
663.863013	33322.939372
664.204097	33317.328568
664.545129	33769.494862
664.886110	33737.397835
665.227040	33820.322296
665.567918	33924.328861
665.908746	33996.576157
666.249522	34159.783513
666.590248	34155.546423
666.930922	34282.845640
667.271545	34236.043568
667.612118	34315.794622
667.952639	34093.560396
668.293109	34158.503060
668.633528	34052.265784
668.973896	33975.622602
669.314213	34012.652397
669.654480	33755.188067
669.994695	33769.164666
670.334859	33675.011036
670.674973	33578.359514
671.015035	33731.625714
671.355047	33683.893549
671.695008	33631.316835
672.034918	33539.663617
672.374777	33632.118378
672.714585	33467.159222
673.054342	33698.943914
673.394049	33462.914570
673.733705	33728.132195
674.073310	33409.939605
674.412864	33461.780311
674.752368	33085.513629
675.091820	33373.214799
675.431223	32951.789461
675.770574	32668.993333
676.109875	32553.455128
676.449125	32272.100770
676.788324	32197.068237
677.127473	31669.221620
677.466571	31589.974682
677.805619	31255.925143
678.144616	31249.114544
678.483562	31167.168067
678.822458	30842.308552
679.161303	30783.659768
679.500098	30683.955827
679.838842	30568.944423
680.177535	30743.670815
680.516179	31011.746774
680.854771	31242.961816
681.193314	32110.272170
681.531805	33221.586974
681.870247	34006.766850
682.208638	34736.995629
682.546978	34964.903673
682.885268	35047.107249
683.223508	34521.544275
683.561697	34180.976524
683.899836	34009.645349
684.237925	33492.012110
684.575963	33332.436906
684.913951	32886.796385
685.251889	33038.462019
685.589776	33016.248175
685.927614	33012.273225
686.265401	33168.110414
686.603137	33255.937396
686.940824	33770.581231
687.278460	34143.445134
687.616046	34301.964216
687.953582	34895.557561
688.291068	34755.529431
688.628504	35034.597625
688.965889	34969.657482
689.303224	34578.521916
689.640510	34248.651494
689.977745	33506.704553
690.314930	32699.976265
690.652065	32181.302028
690.989150	31437.036156
691.326185	30541.762521
691.663170	29834.534007
692.000105	29095.450442
692.336990	28424.886239
692.673825	27981.743611
693.010610	27453.360111
693.347345	26870.864867
693.684030	26231.835602
694.020665	25967.258204
694.357251	25300.157275
694.693786	25249.382773
695.030272	25017.953482
695.366707	24465.856396
695.703093	24187.640156
696.039429	24185.169991
696.375716	23915.223764
696.711952	23889.899528
697.048139	23739.141301
697.384276	23563.053797
697.720363	23674.367515
698.056400	23473.782524
698.392388	23261.867540
698.728326	23211.428275
699.064214	23019.617413
699.400053	22950.397329
699.735842	22606.812448
700.071581	22333.350016
700.407270	22048.691182
700.742910	21860.832584
701.078501	21585.033577
701.414042	21312.944860
701.749533	21021.863596
702.084974	20669.086171
702.420366	20868.592355
702.755709	20433.560942
703.091002	20144.249123
703.426246	20166.072278
703.761440	20058.279806
704.096584	19788.308373
704.431679	19755.946686
704.766725	19653.351644
705.101721	19608.104767
705.436668	19697.091215
705.771565	19378.525580
706.106413	19715.302383
706.441212	19691.127530
706.775961	19824.163580
707.110661	19890.936183
707.445311	20258.713562
707.779913	20096.907647
708.114465	20345.708754
708.448967	20619.854262
708.783421	21316.755973
709.117825	21588.862334
709.452180	21817.226603
709.786485	22205.859235
710.120742	22998.661336
710.454949	23024.938351
710.789107	23495.371266
711.123216	24194.213821
711.457275	24309.215143
711.791286	24855.582958
712.125247	24914.579582
712.459159	24603.051397
712.793023	25249.939821
713.126837	24156.395084
713.460602	24407.988991
713.794318	24023.759806
714.127985	23641.907526
714.461602	22748.962904
714.795171	22701.553372
715.128691	21697.259744
715.462162	21166.675782
715.795584	20741.880432
716.128957	20487.234107
716.462281	20081.466593
716.795556	19841.631178
717.128782	19346.098358
717.461960	18807.662798
717.795088	18728.307475
718.128167	18335.468000
718.461198	17870.272843
718.794180	17727.532572
719.127113	17369.086369
719.459997	17180.731217
719.792833	16833.942683
720.125619	16807.431254
720.458357	16483.005278
720.791046	16313.980431
721.123686	16164.152297
721.456278	15923.046512
721.788821	15883.750718
722.121315	15619.730367
722.453761	15701.538212
722.786158	15629.008611
723.118506	15628.635565
723.450805	15496.287633
723.783056	15661.720658
724.115259	15553.592949
724.447412	15494.384597
724.779518	15737.332925
725.111574	15764.908036
725.443582	15955.680421
725.775542	15933.930363
726.107453	16397.870272
726.439315	16278.619257
726.771129	16680.167326
727.102895	17054.213379
727.434612	17258.309534
727.766281	17372.088376
728.097901	17627.566491
728.429473	17672.160538
728.760996	17648.068864
729.092471	17736.127739
729.423897	17619.344369
729.755276	17478.149212
730.086606	17589.122652
730.417887	18113.508516
730.749120	18637.821284
731.080305	18805.041398
731.411442	19130.715060
731.742530	19213.886537
732.073570	19295.747313
732.404562	19580.990922
732.735506	19400.099198
733.066401	19115.977247
733.397249	18591.251105
733.728048	17973.737485
734.058798	17136.001059
734.389501	16450.913293
734.720156	15999.535939
735.050762	15475.417256
735.381320	15128.691736
735.711831	14890.880344
736.042293	14540.978897
736.372707	14551.940886
736.703073	14342.097816
737.033391	14524.388459
737.363661	14497.491383
737.693883	14602.291930
738.024056	14766.961221
738.354182	14958.295694
738.684260	15250.591877
739.014290	15456.976715
739.344272	15653.705223
739.674207	15934.825168
740.004093	16034.445929
740.333931	16026.385124
740.663722	16066.752164
740.993464	16059.757563
741.323159	15885.298352
741.652806	15605.184118
741.982405	15389.856272
742.311956	15057.646754
742.641460	14942.365648
742.970915	14627.563235
743.300323	14298.920333
743.629683	14085.974433
743.958996	13818.304287
744.288260	13544.657853
744.617477	13243.514446
744.946647	13167.428311
745.275768	12897.507290
745.604842	12721.071947
745.933869	12548.362016
746.262847	12503.026919
746.591778	12429.073193
746.920662	12331.148779
747.249498	12329.023933
747.578286	12443.284205
747.907027	12592.036052
748.235720	12807.721820
748.564365	12840.469155
748.892963	12735.466962
749.221514	12790.982668
749.550017	12650.407573
749.878473	12617.813993
750.206881	12395.148748
750.535242	12301.718523
750.863555	12218.647869
751.191821	12119.662293
751.520039	12147.315542
751.848210	12050.175028
752.176334	12078.481107
752.504411	11985.431489
752.832440	11830.204280
753.160421	11899.484857
753.488356	11775.480035
753.816243	11677.147288
754.144082	11538.087059
754.471875	11482.389871
754.799620	11430.952457
755.127318	11402.769887
755.454969	11362.957374
755.782572	11307.492079
756.110129	11325.985552
756.437638	11244.598644
756.765100	11233.692107
757.092515	11237.495658
757.419882	11258.310582
757.747203	11260.442990
758.074477	11334.694145
758.401703	11288.965839
758.728882	11451.321239
759.056014	11493.490491
759.383099	11607.276895
759.710138	11707.124509
760.037129	11792.317488
760.364073	11808.444140
760.690970	11798.329064
761.017820	11797.779579
761.344623	11977.163997
761.671379	12295.996813
761.998088	12931.527517
762.324751	14465.936281
762.651366	17325.314030
762.977935	20968.480298
763.304456	23177.060209
763.630931	23643.150170
763.957359	22470.860090
764.283740	20568.384081
764.610074	18695.456796
764.936362	16580.095381
765.262602	15062.241766
765.588796	13610.666722
765.914943	12581.268148
766.241044	11736.426216
766.567097	11106.097983
766.893104	10563.289222
767.219064	10195.842039
767.544978	9819.028392
767.870845	9503.910906
768.196665	9324.544131
768.522438	9130.585737
768.848165	8965.929050
769.173846	8804.039956
769.499479	8675.699740
769.825066	8525.276751
770.150607	8341.534255
770.476101	8278.744163
770.801548	8165.156885
771.126949	8028.103035
771.452303	7935.270187
771.777611	7774.475023
772.102872	7752.518278
772.428087	7633.917572
772.753256	7511.697317
773.078378	7422.748678
773.403453	7286.574510
773.728482	7187.004160
774.053465	7119.268696
774.378401	7035.028495
774.703291	6939.503671
775.028135	6841.052457
775.352932	6808.738660
775.677683	6729.383337
776.002388	6640.701879
776.327046	6644.654144
776.651658	6551.319701
776.976224	6479.168187
777.300743	6460.389888
777.625216	6396.639457
777.949643	6354.908785
778.274024	6359.483632
778.598359	6289.908148
778.922647	6292.864784
779.246889	6256.414722
779.571086	6259.285659
779.895236	6269.403254
780.219339	6269.262102
780.543397	6261.907059
780.867409	6315.081149
781.191374	6312.641231
781.515294	6275.876096
781.839167	6333.927503
782.162995	6301.704448
782.486776	6253.674854
782.810511	6216.413166
783.134201	6137.393079
783.457844	6128.369414
783.781441	6076.546352
784.104993	6032.279980
784.428498	6003.237893
784.751958	5986.211396
785.075372	5958.144772
785.398739	5925.163023
785.722061	5945.365447
786.045337	5947.081960
786.368568	6059.061110
786.691752	6082.063895
787.014891	6325.634805
787.337983	6601.564881
787.661030	7033.589245
787.984031	7460.494318
788.306987	7723.355203
788.629897	7812.926424
788.952760	7730.546409
789.275579	7547.013121
789.598351	7251.417503
789.921078	6987.684498
790.243759	6709.639658
790.566395	6507.133987
790.888984	6312.603422
791.211529	6174.163255
791.534027	6008.026989
791.856480	5875.013624
792.178888	5815.142361
792.501249	5753.899903
792.823566	5646.790508
793.145836	5642.329086
793.468062	5626.487260
793.790241	5586.604172
794.112375	5627.533300
794.434464	5722.249019
794.756507	5754.782105
795.078505	5874.769128
795.400457	6088.884576
795.722364	6327.555485
796.044226	6515.653537
796.366042	6677.373753
796.687812	6622.800742
797.009538	6650.075905
797.331218	6556.789353
797.652852	6489.600854
797.974442	6368.832452
798.295986	6297.550537
798.617484	6172.189644
798.938938	6063.431791
799.260346	5995.414022
799.581709	5858.685327
799.903026	5805.785979
800.224299	5732.555658
800.545526	5618.590293
800.866708	5553.496394
801.187845	5506.502758
801.508936	5427.346560
801.829983	5400.381428
802.150984	5293.950067
802.471940	5268.245224
802.792851	5255.526393
803.113717	5230.239965
803.434538	5203.932704
803.755314	5175.001522
804.076045	5157.574253
804.396731	5124.126197
804.717372	5141.767715
805.037967	5142.750740
805.358518	5172.186037
805.679024	5230.817177
805.999485	5234.000666
806.319901	5255.816259
806.640272	5277.674702
806.960598	5322.341846
807.280879	5313.923119
807.601115	5354.310323
807.921306	5314.288603
808.241453	5313.928160
808.561554	5321.873019
808.881611	5288.402278
809.201623	5279.411380
809.521590	5227.608483
809.841513	5214.395619
810.161390	5228.397423
810.481223	5143.970699
810.801011	5131.841683
811.120755	5107.573569
811.440453	5052.012492
811.760107	5028.775293
812.079716	4996.390921
812.399281	4950.324857
812.718801	4940.015697
813.038276	4904.639400
813.357707	4872.791911
813.677093	4893.170775
813.996434	4836.089790
814.315731	4849.239640
814.634983	4849.862222
814.954191	4858.298593
815.273354	4915.498045
815.592473	4957.301814
815.911547	5032.054563
816.230577	5084.003654
816.549562	5172.117982
816.868502	5221.211259
817.187399	5275.988436
817.506250	5357.340057
817.825058	5381.547677
818.143821	5532.447056
818.462539	5707.486000
818.781213	5931.850113
819.099843	6291.249095
819.418429	6915.331338
819.736970	7527.541664
820.055466	8232.821772
820.373919	9145.373962
820.692327	10591.476834
821.010691	13253.621960
821.329011	19439.621844
821.647286	28952.243864
821.965517	39269.628122
822.283704	44712.748452
822.601847	46183.958791
822.919945	41618.276493
823.237999	36522.726076
823.556010	31327.708653
823.873976	26635.896686
824.191897	22455.953398
824.509775	19400.018540
824.827609	16651.069786
825.145398	15110.394868
825.463144	14366.252504
825.780845	14655.289581
826.098502	15900.749488
826.416116	18344.229525
826.733685	20618.712441
827.051210	21142.984879
827.368692	19727.035669
827.686129	17168.811409
828.003522	14702.431931
828.320872	12500.750838
828.638177	10860.936589
828.955439	9621.997414
829.272656	8569.031446
829.589830	7738.445897
829.906960	7006.296438
830.224046	6473.751467
830.541088	6069.488737
830.858086	5808.603984
831.175041	5610.277430
831.491952	5554.769285
831.808819	5583.672741
832.125642	5824.339946
832.442421	6373.639192
832.759157	7474.546534
833.075849	9229.987209
833.392497	11069.141284
833.709101	12179.115141
834.025662	11937.588419
834.342179	10887.311906
834.658653	9592.098331
834.975083	8489.474476
835.291469	7583.077535
835.607811	6858.177256
835.924110	6342.139543
836.240366	5853.785326
836.556578	5405.014248
836.872746	5057.429211
837.188871	4784.186070
837.504952	4563.174324
837.820990	4397.101072
838.136984	4284.516983
838.452935	4237.697267
838.768842	4265.330352
839.084706	4542.896282
839.400526	5277.573879
839.716303	6178.843967
840.032037	6741.474545
840.347727	6600.528924
840.663373	6004.203274
840.978977	5426.648360
841.294537	4991.281711
841.610054	4657.005320
841.925527	4420.214762
842.240957	4219.425605
842.556344	4036.610681
842.871687	3876.753172
843.186987	3727.650965
843.502244	3612.299282
843.817458	3520.260416
844.132629	3453.752473
844.447756	3407.852768
844.762840	3364.377857
845.077881	3326.975016
845.392879	3289.453708
845.707833	3264.560490
846.022745	3238.180132
846.337613	3228.115468
846.652438	3202.808876
846.967221	3191.851928
847.281960	3172.423321
847.596656	3164.392763
847.911309	3156.384890
848.225919	3143.285452
848.540485	3130.914460
848.855009	3124.212246
849.169490	3111.712705
849.483928	3105.658280
849.798323	3101.121241
850.112675	3088.104982
850.426984	3089.614807
850.741251	3083.394024
851.055474	3077.934454
851.369654	3079.204825
851.683792	3077.160637
851.997887	3080.843200
852.311938	3081.075093
852.625947	3079.920669
852.939914	3071.564956
853.253837	3078.836821
853.567718	3078.040318
853.881555	3070.718042
854.195350	3076.800194
854.509103	3072.056469
854.822812	3070.408011
855.136479	3066.125551
855.450103	3071.791808
855.763685	3068.227712
856.077224	3067.607650
856.390720	3070.808783
856.704173	3087.482399
857.017584	3091.124633
857.330953	3096.279213
857.644278	3105.615430
857.957561	3110.747324
858.270802	3102.406735
858.584000	3104.607199
858.897155	3097.874738
859.210268	3089.103130
859.523339	3077.984866
859.836367	3074.647622
860.149352	3066.559090
860.462295	3060.615570
860.775195	3056.940569
861.088054	3053.936041
861.400869	3051.783468
861.713642	3047.546379
862.026373	3055.773542
862.339062	3062.241342
862.651708	3069.893814
862.964312	3087.328644
863.276873	3095.313832
863.589392	3126.339613
863.901869	3149.511277
864.214303	3172.309895
864.526696	3189.664067
864.839045	3208.979248
865.151353	3220.815877
865.463619	3219.558110
865.775842	3220.528532
866.088023	3226.550190
866.400162	3222.048440
866.712258	3221.032647
867.024313	3221.438460
867.336325	3220.614231
867.648296	3219.827811
867.960224	3213.811194
868.272110	3220.092472
868.583954	3221.798902
868.895755	3229.385839
869.207515	3226.910632
869.519233	3242.318919
869.830909	3250.573809
870.142542	3262.581837
870.454134	3269.077364
870.765684	3280.974487
871.077191	3298.086684
871.388657	3307.528765
871.700081	3329.225891
872.011463	3348.999817
872.322803	3367.636963
872.634101	3382.896535
872.945357	3404.737334
873.256571	3430.222888
873.567744	3447.614868
873.878874	3455.433698
874.189963	3469.833754
874.501010	3469.997592
874.812015	3469.770740
875.122979	3486.106599
875.433900	3481.637616
875.744780	3483.676763
876.055618	3492.539111
876.366415	3488.420488
876.677169	3493.509533
876.987882	3513.941330
877.298554	3531.474463
877.609183	3570.142633
877.919771	3617.118625
878.230317	3682.454500
878.540822	3782.405457
878.851285	3936.352213
879.161707	4154.649298
879.472087	4528.279457
879.782425	5145.901461
880.092722	6322.141285
880.402977	8244.131601
880.713191	10600.429923
881.023363	12986.589520
881.333494	14320.173838
881.643583	14781.474703
881.953631	14375.127456
882.263637	13526.741593
882.573602	12489.899755
882.883526	11544.212061
883.193408	10598.166445
883.503248	9678.750724
883.813048	8858.393676
884.122806	8101.802184
884.432522	7330.576221
884.742197	6677.250245
885.051831	6122.035204
885.361424	5628.609586
885.670975	5230.925562
885.980485	4910.618208
886.289954	4644.737672
886.599382	4430.826391
886.908768	4252.190584
887.218113	4088.554730
887.527417	3959.034885
887.836680	3835.231708
888.145901	3735.328642
888.455082	3658.771159
888.764221	3590.947475
889.073319	3532.281047
889.382376	3500.867097
889.691392	3474.917758
890.000366	3471.094042
890.309300	3464.139771
890.618193	3464.333855
890.927044	3461.725058
891.235855	3466.004998
891.544625	3484.064931
891.853353	3509.353880
892.162041	3568.897468
892.470687	3659.577744
892.779293	3778.790950
893.087858	3954.452476
893.396381	4229.767532
893.704864	4633.206033
894.013306	5200.456828
894.321707	5770.296256
894.630068	6130.068283
894.938387	6169.754766
895.246665	5989.997302
895.554903	5673.536349
895.863100	5336.590667
896.171256	5067.534204
896.479371	4830.047967
896.787446	4603.800982
897.095480	4409.499790
897.403473	4262.101493
897.711425	4119.956078
898.019336	3999.101976
898.327207	3878.714181
898.635038	3774.387502
898.942827	3668.601409
899.250576	3582.067483
899.558284	3499.319463
899.865952	3445.505146
900.173579	3382.014333
900.481165	3337.909278
900.788711	3293.166517
901.096216	3261.785335
901.403681	3236.060327
901.711105	3223.298646
902.018489	3222.237483
902.325832	3253.530445
902.633135	3312.948005
902.940397	3482.542503
903.247619	3880.113101
903.554800	4628.522801
903.861941	5590.964770
904.169041	6287.569052
904.476101	6501.288770
904.783121	6232.517132
905.090100	5826.870605
905.397039	5415.305764
905.703938	5053.512235
906.010796	4737.580603
906.317614	4485.752283
906.624391	4248.830655
906.931129	4055.537693
907.237826	3873.509189
907.544483	3705.827810
907.851099	3534.612581
908.157675	3377.091647
908.464211	3237.885224
908.770707	3134.488638
909.077163	3061.268399
909.383578	2995.758605
909.689954	2953.511215
909.996289	2925.051381
910.302584	2900.967269
910.608839	2889.448232
910.915054	2879.045811
911.221229	2871.620192
911.527363	2880.848024
911.833458	2884.268447
912.139513	2898.580283
912.445527	2912.924886
912.751502	2945.190791
913.057436	2988.774087
913.363331	3041.824669
913.669186	3128.948410
913.975000	3246.165320
914.280775	3429.587702
914.586510	3696.247097
914.892205	4074.941094
915.197859	4565.054674
915.503475	5145.977079
915.809050	5640.380680
916.114585	5924.111942
916.420081	5990.846737
916.725536	5926.249392
917.030952	5686.600499
917.336328	5486.141537
917.641665	5277.755361
917.946961	5045.527047
918.252218	4849.665617
918.557435	4621.644147
918.862612	4427.237090
919.167750	4255.646295
919.472848	4068.175866
919.777906	3900.867531
920.082925	3739.308633
920.387904	3589.566199
920.692843	3480.382368
920.997743	3380.146586
921.302603	3288.321969
921.607423	3224.503482
921.912204	3160.080056
922.216946	3111.627006
922.521647	3061.699418
922.826310	3020.994621
923.130932	2983.523725
923.435516	2945.883950
923.740059	2920.247162
924.044564	2887.557800
924.349028	2862.301619
924.653454	2835.139882
924.957840	2808.310861
925.262186	2788.378139
925.566493	2767.822834
925.870761	2741.994482
926.174989	2731.352607
926.479178	2717.123950
926.783328	2701.612319
927.087438	2689.574044
927.391509	2678.937209
927.695541	2666.180570
927.999533	2654.187665
928.303486	2647.296407
928.607400	2641.514204
928.911275	2636.248719
929.215110	2628.155146
929.518906	2626.284878
929.822663	2627.552728
930.126381	2623.683643
930.430060	2630.095990
930.733699	2629.740589
931.037299	2636.634367
931.340861	2634.691002
931.644383	2637.153606
931.947866	2635.500107
932.251309	2631.646145
932.554714	2633.034983
932.858080	2630.942904
933.161407	2625.458129
933.464694	2622.410751
933.767943	2623.242542
934.071153	2616.525204
934.374323	2613.679473
934.677455	2610.422887
934.980548	2606.410129
935.283602	2604.265118
935.586617	2603.440889
935.889593	2605.439707
936.192530	2605.409460
936.495428	2611.337857
936.798287	2620.870679
937.101108	2634.723770
937.403890	2655.941986
937.706632	2685.009279
938.009336	2715.465410
938.312002	2743.665625
938.614628	2766.640683
938.917216	2786.709517
939.219765	2797.653862
939.522275	2803.703247
939.824747	2805.092084
940.127179	2798.775519
940.429573	2794.520785
940.731929	2790.369395
941.034246	2784.980401
941.336524	2782.651388
941.638763	2778.076541
941.940964	2767.096908
942.243126	2753.180803
942.545250	2744.688979
942.847335	2729.547873
943.149381	2715.082282
943.451389	2702.749100
943.753359	2690.226873
944.055290	2682.584484
944.357182	2675.879750
944.659036	2669.152330
944.960851	2665.431958
945.262628	2658.265958
945.564367	2659.191010
945.866067	2660.567245
946.167729	2655.750422
946.469352	2655.400062
946.770937	2653.867551
947.072484	2649.174237
947.373992	2646.341109
947.675462	2646.013434
947.976893	2639.394399
948.278286	2634.131434
948.579641	2629.715383
948.880958	2627.444343
949.182236	2627.600619
949.483476	2624.790176
949.784678	2624.507871
950.085841	2625.798407
950.386967	2630.222019
950.688054	2635.240488
950.989103	2642.114101
951.290114	2652.899650
951.591087	2663.228974
951.892021	2674.004440
952.192917	2688.321317
952.493776	2698.191897
952.794596	2701.317412
953.095378	2704.074923
953.396122	2701.327494
953.696828	2697.302133
953.997496	2693.579241
954.298126	2682.660102
954.598718	2675.753721
954.899272	2662.021618
955.199788	2652.468631
955.500266	2643.916314
955.800706	2626.967954
956.101108	2608.449276
956.401472	2599.150867
956.701798	2585.660740
957.002087	2568.903944
957.302337	2561.788356
957.602550	2550.286963
957.902724	2539.670293
958.202861	2533.033614
958.502960	2521.111285
958.803022	2516.163393
959.103045	2508.803308
959.403031	2501.566732
959.702979	2497.281751
960.002889	2494.972903
960.302762	2489.838487
960.602596	2483.761377
960.902393	2483.176603
961.202153	2479.070583
961.501875	2475.468678
961.801559	2473.139665
962.101205	2469.063893
962.400814	2465.182204
962.700385	2466.782770
962.999918	2464.236988
963.299414	2463.737913
963.598873	2461.608026
963.898293	2458.230453
964.197677	2461.529888
964.497022	2459.578962
964.796331	2458.303550
965.095601	2454.530246
965.394835	2453.131326
965.694030	2452.241562
965.993189	2456.811368
966.292309	2454.449587
966.591393	2453.194340
966.890439	2451.994546
967.189447	2451.256017
967.488419	2453.559824
967.787353	2452.581840
968.086249	2452.561675
968.385108	2453.544700
968.683930	2456.645010
968.982714	2456.264403
969.281462	2460.088118
969.580172	2459.899075
969.878844	2461.265228
970.177480	2467.027266
970.476078	2466.739921
970.774639	2472.801908
971.073162	2473.268215
971.371649	2473.001034
971.670098	2473.016157
971.968510	2479.103350
972.266885	2476.565129
972.565223	2480.174596
972.863524	2480.880357
973.161788	2482.314565
973.460014	2482.523773
973.758204	2483.960502
974.056356	2484.101654
974.354471	2484.817498
974.652550	2485.964361
974.950591	2488.283292
975.248595	2485.314052
975.546563	2484.908239
975.844493	2480.020840
976.142386	2479.373052
976.440243	2476.492033
976.738062	2475.325006
977.035845	2473.583287
977.333590	2472.310396
977.631299	2467.659931
977.928971	2467.720425
978.226606	2464.279837
978.524204	2466.452575
978.821765	2459.256328
979.119290	2463.163222
979.416777	2462.086936
979.714228	2463.367389
980.011642	2464.191617
980.309020	2467.659931
980.606360	2470.697226
980.903664	2480.323310
981.200931	2490.125833
981.498162	2514.141890
981.795356	2541.722043
982.092513	2580.135635
982.389633	2624.651544
982.686717	2663.254180
982.983764	2697.241639
983.280775	2716.110678
983.577749	2714.447097
983.874686	2703.669110
984.171587	2688.585978
984.468451	2672.986127
984.765279	2654.444763
985.062070	2636.510859
985.358824	2617.356995
985.655543	2595.702718
985.952224	2575.389389
986.248869	2546.990049
986.545478	2517.854700
986.842050	2501.453306
987.138586	2485.021665
987.435086	2471.768472
987.731549	2457.484362
988.027975	2452.531428
988.324366	2448.611931
988.620719	2447.364246
988.917037	2440.893925
989.213318	2438.441403
989.509563	2434.660538
989.805772	2435.363779
990.101944	2432.951587
990.398080	2433.768254
990.694180	2431.408994
990.990244	2432.308840
991.286271	2431.340938
991.582262	2430.602409
991.878217	2433.490990
992.174136	2436.482915
992.470019	2432.767585
992.765865	2435.807401
993.061676	2435.812442
993.357450	2441.589604
993.653188	2442.058431
993.948890	2447.530604
994.244556	2452.929680
994.540186	2463.334621
994.835780	2473.434573
995.131337	2489.868734
995.426859	2504.906496
995.722345	2526.492717
996.017795	2544.245140
996.313208	2555.078580
996.608586	2567.928481
996.903928	2573.090623
997.199234	2568.425035
997.494504	2566.106104
997.789738	2556.366595
998.084936	2547.894936
998.380099	2535.642411
998.675225	2526.132275
998.970316	2513.330264
999.265371	2501.367606
999.560390	2485.263640
999.855373	2476.406333
1000.150320	2464.826803
1000.445232	2458.739609
1000.740108	2451.329113
1001.034948	2443.142279
1001.329752	2440.062134
1001.624521	2436.956784
1001.919254	2427.413879
1002.213951	2428.273396
1002.508613	2424.999167
1002.803239	2423.552356
1003.097829	2419.080852
1003.392384	2424.527819
1003.686903	2420.532704
1003.981386	2421.787952
1004.275834	2416.807292
1004.570246	2419.030441
1004.864623	2415.685635
1005.158964	2417.099679
1005.453270	2413.797723
1005.747540	2415.035326
1006.041775	2414.843762
1006.335974	2414.498443
1006.630138	2418.032292
1006.924266	2414.861406
1007.218359	2414.226221
1007.512416	2412.436611
1007.806438	2412.308062
1008.100425	2414.314441
1008.394376	2411.788823
1008.688292	2409.608524
1008.982172	2412.746642
1009.276017	2412.988618
1009.569827	2410.883936
1009.863602	2412.189595
1010.157341	2413.301169
1010.451045	2410.155489
1010.744714	2410.278997
1011.038347	2408.476785
1011.331945	2409.255643
1011.625508	2406.530900
1011.919036	2410.221024
1012.212528	2408.562485
1012.505986	2409.059038
1012.799408	2412.393762
1013.092795	2406.992165
1013.386147	2410.329409
1013.679464	2407.065262
1013.972745	2408.527197
1014.265992	2410.581467
1014.559204	2406.120046
1014.852380	2408.000396
1015.145521	2410.284039
1015.438628	2409.621127
1015.731699	2408.723802
1016.024736	2408.895201
1016.317737	2408.186919
1016.610703	2412.081210
1016.903635	2407.874367
1017.196531	2405.396640
1017.489393	2408.996024
1017.782219	2404.486712
1018.075011	2411.146076
1018.367768	2409.288411
1018.660490	2410.037022
1018.953177	2410.037022
1019.245829	2410.037022
