Dividing Wavelength (nm)	Counts (n)	Blue Motor Position (mm): 20.600000	Red Motor Position (mm): 0.000000	
326.493990	1975.426546
326.888308	1975.426546
327.282561	1975.426546
327.676750	1949.754470
328.070874	1948.201795
328.464933	1956.973402
328.858929	1966.780967
329.252859	1980.218163
329.646726	1993.725935
330.040528	2008.365445
330.434265	2028.063754
330.827938	2047.136960
331.221547	2065.509445
331.615091	2087.531725
332.008571	2105.410178
332.401986	2129.960597
332.795338	2147.891981
333.188625	2169.374858
333.581847	2185.806499
333.975006	2203.677389
334.368100	2223.962993
334.761129	2238.405898
335.154095	2255.288723
335.546996	2287.985646
335.939833	2352.368743
336.332606	2367.187214
336.725315	2380.992414
337.117960	2386.381408
337.510540	2395.427758
337.903056	2409.026271
338.295508	2408.938051
338.687896	2418.750657
339.080220	2426.695515
339.472480	2431.721545
339.864676	2436.089705
340.256807	2437.899479
340.648875	2439.482402
341.040879	2441.440890
341.432818	2440.425098
341.824694	2442.305448
342.216506	2441.889553
342.608253	2443.124635
342.999937	2443.515325
343.391557	2441.622372
343.783113	2441.566919
344.174605	2437.503749
344.566033	2435.318409
344.957397	2431.565270
345.348697	2434.269849
345.739934	2430.783891
346.131106	2431.333377
346.522215	2430.380598
346.913260	2424.711821
347.304241	2424.399269
347.695159	2420.772159
348.086012	2423.945566
348.476802	2419.831984
348.867528	2421.702252
349.258191	2418.052457
349.648789	2416.872827
350.039324	2414.506005
350.429796	2413.074317
350.820203	2414.274112
351.210548	2413.545665
351.600828	2409.152300
351.991045	2411.435942
352.381198	2408.915365
352.771288	2413.273443
353.161314	2408.393606
353.551276	2411.188926
353.941175	2408.907804
354.331010	2409.038874
354.720782	2413.064235
355.110490	2413.283525
355.500135	2409.487536
355.889717	2411.902249
356.279235	2410.674728
356.668689	2411.430901
357.058080	2411.839235
357.447408	2410.299162
357.836672	2408.925448
358.225873	2409.192629
358.615010	2410.410068
359.004084	2413.006262
359.393095	2412.497105
359.782043	2416.041036
360.170927	2413.084400
360.559748	2413.371745
360.948505	2415.123546
361.337199	2416.560275
361.725830	2417.543300
362.114398	2419.174113
362.502903	2419.083373
362.891344	2419.673188
363.279722	2419.763928
363.668037	2423.317942
364.056289	2421.750143
364.444478	2421.344330
364.832603	2421.263672
365.220665	2423.164187
365.608665	2420.447005
365.996601	2424.721903
366.384474	2422.556728
366.772284	2423.882551
367.160031	2423.277613
367.547715	2424.192582
367.935336	2421.485483
368.322893	2422.914650
368.710388	2423.159146
369.097820	2425.422624
369.485189	2425.233580
369.872495	2427.877666
370.259738	2426.506472
370.646918	2429.405135
371.034035	2424.893302
371.421090	2428.240629
371.808081	2426.151070
372.195010	2426.493869
372.581875	2427.774322
372.968678	2431.083839
373.355418	2428.583427
373.742096	2430.413366
374.128710	2429.901689
374.515262	2430.415887
374.901751	2429.263983
375.288177	2430.241967
375.674540	2429.395053
376.060841	2429.127872
376.447079	2432.631474
376.833254	2431.086360
377.219367	2428.298602
377.605417	2430.441092
377.991404	2428.359096
378.377329	2430.471339
378.763191	2428.858170
379.148991	2434.400919
379.534727	2431.388829
379.920402	2433.490990
380.306013	2433.614499
380.691563	2436.009047
381.077049	2432.444951
381.462474	2434.421083
381.847835	2437.919644
382.233134	2437.274376
382.618371	2434.224478
383.003545	2435.157092
383.388657	2437.967535
383.773706	2433.836309
384.158693	2438.494336
384.543618	2437.211362
384.928480	2438.617844
385.313280	2437.808739
385.698017	2437.289500
386.082692	2437.874274
386.467305	2439.489963
386.851856	2439.348811
387.236344	2440.604058
387.620770	2440.777978
388.005133	2436.641712
388.389435	2442.277722
388.773674	2442.852413
389.157851	2440.788061
389.541965	2443.812753
389.926018	2440.210848
390.310008	2443.840479
390.693936	2441.279573
391.077802	2440.432659
391.461606	2444.319389
391.845348	2442.653287
392.229027	2445.166303
392.612645	2444.364759
392.996200	2442.086158
393.379694	2446.348453
393.763125	2444.994903
394.146494	2446.474482
394.529801	2444.659667
394.913047	2446.590429
395.296230	2450.154524
395.679351	2447.044133
396.062410	2445.335181
396.445408	2447.454987
396.828343	2447.258382
397.211217	2443.222938
397.594028	2446.444235
397.976778	2440.727567
398.359466	2445.236879
398.742092	2440.258739
399.124656	2443.626230
399.507158	2446.658484
399.889598	2449.496654
400.271977	2448.254009
400.654294	2450.126798
401.036549	2450.429267
401.418742	2449.862138
401.800874	2449.272323
402.182944	2451.704679
402.564952	2449.252158
402.946898	2448.427929
403.328783	2449.726026
403.710606	2451.739967
404.092367	2452.475976
404.474067	2451.225770
404.855705	2451.999587
405.237282	2450.976233
405.618797	2451.064453
406.000250	2450.325924
406.381642	2454.868003
406.762972	2451.792899
407.144240	2454.971347
407.525447	2453.186778
407.906593	2453.534618
408.287677	2452.483538
408.668700	2453.796758
409.049661	2455.969495
409.430560	2454.124433
409.811399	2455.873713
410.192176	2454.469752
410.572891	2458.187603
410.953545	2452.692745
411.334138	2456.637448
411.714669	2455.351954
412.095139	2458.048971
412.475547	2453.610235
412.855894	2457.307922
413.236180	2455.830864
413.616405	2457.791873
413.996568	2456.458487
414.376670	2458.359002
414.756711	2456.518981
415.136691	2459.173149
415.516609	2456.995370
415.896466	2459.788169
416.276262	2462.631380
416.655997	2458.331276
417.035670	2455.107458
417.415283	2462.739765
417.794834	2455.598971
418.174324	2461.217337
418.553753	2460.100721
418.933121	2459.684826
419.312428	2459.296657
419.691674	2461.328242
420.070859	2462.122224
420.449983	2464.753706
420.829045	2465.192286
421.208047	2465.341000
421.586988	2463.616926
421.965867	2462.737244
422.344686	2462.616257
422.723444	2463.765640
423.102141	2465.298151
423.480777	2465.751854
423.859352	2466.276134
424.237866	2465.893007
424.616319	2466.238326
424.994712	2468.063223
425.373044	2467.909468
425.751314	2466.402163
426.129524	2464.831844
426.507673	2465.109107
426.885762	2468.519448
427.263789	2466.765126
427.641756	2468.148923
428.019662	2466.084571
428.397508	2469.144551
428.775292	2471.402988
429.153016	2470.404839
429.530679	2471.791157
429.908282	2470.465333
430.285824	2472.075982
430.663305	2470.692185
431.040726	2467.798563
431.418086	2471.158492
431.795385	2474.324337
432.172624	2471.839048
432.549802	2474.178143
432.926920	2472.179326
433.303977	2471.866774
433.680974	2472.065900
434.057910	2476.645788
434.434786	2473.452217
434.811601	2475.072948
435.188355	2474.737711
435.565050	2476.852475
435.941683	2477.762403
436.318257	2474.183184
436.694770	2472.101188
437.071222	2475.148565
437.447614	2471.249233
437.823946	2477.359111
438.200218	2476.537403
438.576429	2476.665952
438.952580	2476.628144
439.328670	2479.632672
439.704700	2478.745428
440.080670	2477.966570
440.456580	2477.598566
440.832429	2480.207363
441.208218	2479.549492
441.583947	2476.570171
441.959616	2479.244503
442.335224	2481.266005
442.710773	2479.720892
443.086261	2480.981180
443.461689	2483.234576
443.837057	2481.187867
444.212365	2483.637868
444.587612	2484.971253
444.962800	2483.431181
445.337927	2485.931593
445.712995	2479.960347
446.088002	2486.876810
446.462949	2484.474700
446.837837	2485.533342
447.212664	2485.031747
447.587431	2491.665906
447.962139	2495.474498
448.336786	2498.050527
448.711374	2495.676144
449.085901	2493.384939
449.460369	2493.223622
449.834776	2489.634321
450.209124	2494.947697
450.583412	2497.616988
450.957640	2499.091525
451.331808	2498.206803
451.705917	2493.609271
452.079965	2496.828047
452.453954	2499.025990
452.827883	2496.891062
453.201752	2497.695126
453.575562	2498.380723
453.949311	2499.525065
454.323001	2497.773264
454.696632	2502.101094
455.070202	2508.662156
455.443713	2506.411281
455.817164	2506.902793
456.190556	2505.206445
456.563888	2510.703823
456.937160	2505.148472
457.310373	2512.690038
457.683526	2509.841786
458.056619	2513.365553
458.429653	2513.544513
458.802628	2514.943434
459.175542	2516.826305
459.548398	2522.716893
459.921194	2522.512726
460.293930	2527.442975
460.666607	2534.482946
461.039224	2536.874973
461.411782	2542.677342
461.784280	2540.691127
462.156719	2542.856302
462.529099	2540.219779
462.901419	2541.840510
463.273680	2537.845396
463.645882	2538.450334
464.018024	2541.021323
464.390106	2547.181613
464.762130	2554.672767
465.134094	2564.505538
465.505999	2583.230904
465.877845	2596.809252
466.249631	2602.949377
466.621358	2599.750765
466.993026	2597.641042
467.364634	2597.850250
467.736184	2590.157449
468.107674	2588.947572
468.479105	2588.622418
468.850477	2589.897830
469.221790	2584.821388
469.593043	2580.123032
469.964238	2582.252920
470.335373	2583.513208
470.706449	2592.753643
471.077467	2603.917278
471.448425	2620.532922
471.819324	2634.290230
472.190164	2632.447689
472.560945	2619.902777
472.931667	2611.166458
473.302330	2609.777620
473.672934	2611.085799
474.043479	2609.666714
474.413965	2613.424895
474.784393	2610.501025
475.154761	2621.445370
475.525070	2621.246245
475.895321	2624.822943
476.265513	2629.967441
476.635645	2644.067548
477.005719	2646.179792
477.375734	2654.361584
477.745691	2662.177893
478.115588	2674.516117
478.485427	2688.696883
478.855207	2714.815101
479.224928	2736.643297
479.594591	2756.056781
479.964194	2757.367481
480.333739	2767.757299
480.703226	2779.001593
481.072653	2798.399953
481.442022	2810.357570
481.811333	2824.366936
482.180584	2827.424396
482.549777	2839.331601
482.918912	2848.977849
483.287988	2863.090559
483.657005	2871.710932
484.025964	2884.326420
484.394864	2900.475756
484.763706	2915.379928
485.132489	2922.964344
485.501213	2944.089299
485.869879	2967.452526
486.238487	2985.094044
486.607036	3013.914321
486.975527	3030.073739
487.343959	3060.660940
487.712333	3092.294181
488.080648	3120.509519
488.448905	3156.296670
488.817104	3190.276567
489.185244	3244.226996
489.553326	3323.852021
489.921350	3426.663833
490.289315	3548.833676
490.657222	3618.194912
491.025070	3677.390661
491.392861	3705.726987
491.760593	3721.384810
492.128267	3727.051067
492.495883	3740.344590
492.863440	3760.804113
493.230939	3778.639715
493.598380	3811.926454
493.965763	3860.785317
494.333088	3903.998088
494.700354	3956.983135
495.067563	4017.371117
495.434713	4081.756734
495.801805	4161.255730
496.168839	4226.939444
496.535815	4296.565341
496.902733	4377.957290
497.269593	4448.170481
497.636395	4533.446639
498.003139	4644.180625
498.369825	4713.367941
498.736453	4825.452955
499.103023	4897.163369
499.469535	4982.890711
499.835989	5090.262246
500.202385	5178.928581
500.568723	5288.866064
500.935003	5418.179222
501.301226	5522.258884
501.667390	5685.309964
502.033497	5835.327141
502.399546	5905.298356
502.765537	5962.603673
503.131470	6121.349607
503.497345	6283.397497
503.863163	6292.111132
504.228923	6484.847046
504.594625	6666.431928
504.960269	6725.078192
505.325856	6943.972653
505.691385	7011.768611
506.056856	7180.312028
506.422270	7383.800724
506.787625	7486.589851
507.152924	7668.298241
507.518164	7843.443049
507.883347	7888.032055
508.248472	8087.442457
508.613540	8317.392169
508.978550	8533.287144
509.343503	8664.601640
509.708398	8871.263742
510.073236	9137.693764
510.438016	9314.618099
510.802738	9397.416531
511.167403	9694.373260
511.532010	9933.863356
511.896561	10176.932671
512.261053	10537.549090
512.625488	10644.827365
512.989866	10811.311471
513.354186	10979.575104
513.718449	11171.824547
514.082655	11543.841536
514.446803	11669.522543
514.810894	11996.005310
515.174927	12199.408306
515.538904	12387.874363
515.902822	12784.114096
516.266684	12866.746169
516.630488	13203.613713
516.994235	13380.696845
517.357925	13763.416204
517.721558	14039.235375
518.085133	14362.532133
518.448651	14638.356345
518.812112	14798.395336
519.175516	15069.329628
519.538863	15405.635084
519.902152	15633.638911
520.265385	16031.406114
520.628560	16297.813450
520.991678	16459.992411
521.354739	16781.106349
521.717743	17151.240467
522.080690	17370.868417
522.443580	17827.889342
522.806413	18110.438454
523.169189	18352.905351
523.531908	18688.366413
523.894569	18885.740189
524.257174	19212.759839
524.619722	19599.214693
524.982213	19847.922538
525.344647	20071.611137
525.707025	20357.721824
526.069345	20790.721651
526.431608	21013.941423
526.793815	21408.986403
527.155964	21471.330353
527.518057	21805.737813
527.880093	21962.784879
528.242072	22464.896405
528.603995	22586.138676
528.965860	22840.275844
529.327669	23162.755935
529.689421	23373.224108
530.051117	23595.896915
530.412755	23935.451394
530.774337	24221.425969
531.135862	24378.515885
531.497331	24744.969961
531.858743	24952.110972
532.220098	25384.271447
532.581396	25478.558668
532.942638	25541.673914
533.303824	25957.390146
533.664953	26191.486207
534.026025	26274.400585
534.387040	26797.571531
534.747999	27016.055139
535.108902	27350.747425
535.469748	27296.912943
535.830537	27619.582077
536.191270	27988.642430
536.551947	27995.130395
536.912567	28435.139946
537.273131	28754.970911
537.633638	28666.118054
537.994089	29111.229253
538.354483	29086.073896
538.714821	29679.553814
539.075103	30154.347328
539.435328	30223.577493
539.795497	30371.610976
540.155609	30574.885423
540.515665	31121.628804
540.875665	30975.752935
541.235609	31409.700500
541.595496	31609.615017
541.955328	32300.840388
542.315102	32080.524321
542.674821	32135.820738
543.034483	32375.716647
543.394090	32556.794893
543.753640	32737.222830
544.113134	33674.239739
544.472571	33162.497089
544.831953	34284.705826
545.191278	33885.600197
545.550548	33881.731111
545.909761	34421.845375
546.268918	34780.412566
546.628019	35206.735385
546.987064	35057.406326
547.346053	34682.606620
547.704986	35543.928084
548.063863	35392.590125
548.422684	35735.191981
548.781449	35789.661648
549.140158	36278.719107
549.498811	36326.436148
549.857408	36061.556281
550.215949	36893.737355
550.574434	37009.948554
550.932864	37000.093098
551.291237	37749.422809
551.649555	37572.619461
552.007817	37939.842313
552.366022	37814.055442
552.724173	38121.028944
553.082267	38596.198023
553.440305	39015.372486
553.798288	38576.361083
554.156215	39001.332873
554.514086	39320.684928
554.871902	39238.030169
555.229661	39398.172504
555.587365	39393.012883
555.945014	39630.670519
556.302606	39701.488648
556.660143	40036.458198
557.017625	40228.876520
557.375050	40192.139111
557.732421	40635.153190
558.089735	40746.711404
558.446994	40799.779631
558.804197	41330.328306
559.161345	41382.327808
559.518437	40859.512263
559.875474	41253.428024
560.232455	41519.910978
560.589381	41777.400514
560.946251	41633.954481
561.303065	42355.114224
561.659825	42294.645584
562.016528	42093.712753
562.373177	41938.649382
562.729770	42502.963705
563.086307	42168.525997
563.442789	42688.089997
563.799216	42833.489477
564.155587	42741.095210
564.511904	42862.100546
564.868164	43028.267059
565.224370	43350.837891
565.580520	43201.198801
565.936615	43502.095191
566.292654	43325.692615
566.648638	43624.491886
567.004567	43670.333619
567.360441	43775.928148
567.716260	43732.062547
568.072023	44096.530409
568.427732	44152.945962
568.783385	43808.640195
569.138982	44240.914096
569.494525	44288.792455
569.850013	44125.743895
570.205445	44183.520560
570.560823	44185.211867
570.916145	44138.863498
571.271412	44244.354684
571.626625	44081.762349
571.981782	44178.015620
572.336884	43967.466788
572.691931	44320.607177
573.046923	43986.114016
573.401860	43907.522428
573.756743	43932.350110
574.111570	44093.823309
574.466342	44007.783416
574.821059	44180.314386
575.175722	43775.267757
575.530330	43842.720916
575.884882	43619.589364
576.239380	43627.405673
576.593823	43671.689689
576.948211	43615.911842
577.302544	43220.612284
577.656823	43286.240545
578.011047	43535.858319
578.365216	43313.079648
578.719330	43150.056295
579.073389	43052.232704
579.427394	43174.710058
579.781344	43184.447046
580.135239	42895.624219
580.489080	42999.862678
580.842866	42538.576936
581.196597	43008.659491
581.550273	42992.091739
581.903895	42871.429201
582.257463	43321.924353
582.610975	42759.258487
582.964434	43055.406111
583.317837	42743.308276
583.671186	42615.436888
584.024481	42862.571894
584.377721	42435.192953
584.730906	42730.743200
585.084037	42782.097434
585.437113	42543.353429
585.790135	42598.017181
586.143103	42236.886564
586.496016	42372.347409
586.848874	42424.604009
587.201679	42464.764362
587.554428	41958.526651
587.907124	42167.996676
588.259765	41974.043323
588.612352	42219.630694
588.964884	41653.473829
589.317362	41946.581637
589.669786	41903.981367
590.022155	41714.073539
590.374470	42138.568940
590.726731	41684.983561
591.078937	41240.774728
591.431090	41346.185255
591.783188	41024.421008
592.135232	40722.753321
592.487222	40965.318520
592.839157	41066.204612
593.191038	40775.813986
593.542866	40544.031814
593.894639	39959.467176
594.246358	40259.536817
594.598022	40229.892312
594.949633	39855.470692
595.301190	39838.925626
595.652692	39689.299138
596.004141	40027.235407
596.355535	39064.206144
596.706876	39018.079586
597.058162	38857.206284
597.409395	39333.257566
597.760573	39418.919372
598.111698	39006.164819
598.462768	39023.526553
598.813785	39078.994368
599.164748	38556.942558
599.515657	38935.628994
599.866511	38449.719737
600.217312	39040.028770
600.568060	38043.831235
600.918753	38767.851833
601.269392	38737.191535
601.619978	38413.393182
601.970510	38624.768763
602.320988	38812.337495
602.671412	39082.455121
603.021783	38838.599386
603.372100	38524.270840
603.722363	38636.307964
604.072572	38701.951349
604.422728	38728.356913
604.772830	38541.483860
605.122878	38628.748754
605.472872	38586.329965
605.822813	38856.530770
606.172701	38707.080723
606.522534	38927.643807
606.872314	39209.459430
607.222041	38967.574786
607.571714	39339.448102
607.921333	38805.847009
608.270899	39109.158112
608.620411	39451.258374
608.969870	39255.273436
609.319276	39255.969115
609.668627	39311.719236
610.017926	39781.879929
610.367171	39948.038880
610.716362	40033.995594
611.065500	40002.019555
611.414585	40186.828255
611.763616	40469.261420
612.112594	40404.117110
612.461518	40624.697837
612.810389	40916.378999
613.159207	40801.765846
613.507971	40873.871990
613.856682	41340.372805
614.205340	41229.805178
614.553945	41914.600557
614.902496	41384.356872
615.250994	41846.020700
615.599439	41911.298601
615.947830	42138.357212
616.296169	42189.504759
616.644454	42314.767349
616.992686	42488.082219
617.340864	43009.329965
617.688990	42732.951226
618.037063	43333.597145
618.385082	43311.340450
618.733048	43591.505096
619.080961	43612.967808
619.428821	43639.668280
619.776628	43729.731014
620.124382	43555.070157
620.472083	43695.786404
620.819731	43812.186647
621.167326	43511.287735
621.514868	43482.616173
621.862357	43048.308166
622.209793	43083.956686
622.557176	42743.368770
622.904506	42494.844927
623.251783	42151.965807
623.599007	41943.509054
623.946179	41725.111146
624.293297	41673.232632
624.640363	41084.798908
624.987376	41096.748963
625.334336	40839.985353
625.681243	40492.148259
626.028097	40466.945010
626.374899	40331.600112
626.721647	40310.296195
627.068343	40202.418024
627.414987	39964.329369
627.761577	39743.947767
628.108115	40076.714332
628.454600	39537.111745
628.801032	39736.123896
629.147412	39689.362153
629.493739	39696.986898
629.840014	39363.811999
630.186236	39694.622597
630.532405	39320.536214
630.878521	39541.553001
631.224585	39418.742932
631.570597	39131.145105
631.916556	39292.860279
632.262462	39249.405533
632.608316	39268.599726
632.954117	39153.517746
633.299866	39140.443513
633.645562	39067.200589
633.991206	38585.954399
634.336797	38167.732714
634.682336	38148.283943
635.027823	37912.620082
635.373257	37715.543735
635.718639	37506.842486
636.063968	37356.512758
636.409245	36783.459594
636.754470	36834.365166
637.099642	36610.598429
637.444762	36136.213249
637.789829	36274.759280
638.134845	35936.492816
638.479808	35879.363940
638.824719	35793.535775
639.169577	35415.048465
639.514383	35471.607691
639.859137	35181.204462
640.203839	35420.313950
640.548489	35039.578285
640.893086	35123.697499
641.237632	34874.682143
641.582125	34993.935678
641.926566	34925.784320
642.270955	34890.909617
642.615292	34904.987039
642.959576	34889.722426
643.303809	34896.102006
643.647990	35039.777411
643.992118	34990.815204
644.336195	34996.554558
644.680219	35094.698262
645.024192	35391.786061
645.368112	35893.668214
645.711981	35912.638076
646.055797	36784.026724
646.399562	36713.422844
646.743274	37646.910946
647.086935	38074.355421
647.430544	37968.869277
647.774101	38088.228677
648.117606	38339.439455
648.461059	38623.473186
648.804460	38242.039322
649.147810	37643.223342
649.491108	37392.640187
649.834354	37029.684672
650.177548	36215.082101
650.520690	35766.036281
650.863781	35783.531605
651.206820	35623.913551
651.549807	35206.009459
651.892742	34728.975153
652.235626	34534.467273
652.578458	34399.056839
652.921238	33813.700740
653.263967	34124.515601
653.606644	33825.290353
653.949269	33775.662714
654.291843	33385.031264
654.634365	33786.291987
654.976836	33381.303331
655.319255	33378.260994
655.661622	33376.400808
656.003938	33158.572551
656.346203	33021.110368
656.688416	33241.628081
657.030577	33050.323854
657.372687	32881.089799
657.714746	33146.859430
658.056753	33261.044085
658.398708	32727.553897
658.740612	32782.318472
659.082465	33053.514905
659.424266	32884.164903
659.766016	32988.723475
660.107715	32884.101888
660.449362	33007.113604
660.790958	32985.338340
661.132503	33015.224821
661.473996	33049.555078
661.815438	33147.701303
662.156829	33342.080633
662.498168	33124.721203
662.839456	33148.797753
663.180693	33290.938127
663.521879	33449.898311
663.863013	33421.241872
664.204097	33412.230809
664.545129	33878.499732
664.886110	33849.344218
665.227040	33906.074843
665.567918	34017.156668
665.908746	34081.696040
666.249522	34243.101183
666.590248	34240.232767
666.930922	34367.978126
667.271545	34324.863658
667.612118	34394.597939
667.952639	34195.971436
668.293109	34244.666462
668.633528	34137.778877
668.973896	34060.157710
669.314213	34099.088021
669.654480	33843.955225
669.994695	33859.860065
670.334859	33759.697379
670.674973	33664.477545
671.015035	33825.605425
671.355047	33782.546409
671.695008	33728.427102
672.034918	33615.827890
672.374777	33698.563307
672.714585	33535.154305
673.054342	33770.931591
673.394049	33539.346024
673.733705	33805.619770
674.073310	33480.092302
674.412864	33547.129566
674.752368	33143.807011
675.091820	33443.448155
675.431223	33021.732950
675.770574	32753.185644
676.109875	32616.671197
676.449125	32344.572398
676.788324	32277.625875
677.127473	31740.223752
677.466571	31662.370692
677.805619	31316.509730
678.144616	31310.477989
678.483562	31233.003016
678.822458	30909.121484
679.161303	30839.578767
679.500098	30756.306467
679.838842	30642.575516
680.177535	30805.714816
680.516179	31069.722564
680.854771	31320.146922
681.193314	32176.069310
681.531805	33295.354178
681.870247	34073.325204
682.208638	34812.484387
682.546978	35035.610897
682.885268	35115.213237
683.223508	34590.988690
683.561697	34249.092595
683.899836	34062.736261
684.237925	33561.857297
684.575963	33403.307967
684.913951	32969.002481
685.251889	33110.227885
685.589776	33088.311469
685.927614	33091.411779
686.265401	33232.901844
686.603137	33325.903570
686.940824	33834.863504
687.278460	34229.767332
687.616046	34374.904671
687.953582	34976.687371
688.291068	34838.658058
688.628504	35121.192046
688.965889	35053.418773
689.303224	34657.168957
689.640510	34322.789223
689.977745	33585.054166
690.314930	32788.766108
690.652065	32261.819337
690.989150	31515.693280
691.326185	30615.139036
691.663170	29905.082435
692.000105	29162.974177
692.336990	28496.785696
692.673825	28049.400936
693.010610	27522.134053
693.347345	26936.417511
693.684030	26293.506558
694.020665	26027.701639
694.357251	25362.823858
694.693786	25315.159749
695.030272	25076.294756
695.366707	24536.815677
695.703093	24256.610702
696.039429	24234.253185
696.375716	23973.852383
696.711952	23944.071767
697.048139	23785.126707
697.384276	23612.641107
697.720363	23737.497885
698.056400	23532.978273
698.392388	23320.400377
698.728326	23273.189972
699.064214	23075.375095
699.400053	23017.593389
699.735842	22658.605262
700.071581	22389.021999
700.407270	22097.842432
700.742910	21913.043814
701.078501	21631.686936
701.414042	21351.920541
701.749533	21062.165101
702.084974	20720.866382
702.420366	20922.578071
702.755709	20487.198819
703.091002	20193.992709
703.426246	20211.228414
703.761440	20104.376117
704.096584	19838.384675
704.431679	19798.410846
704.766725	19699.052224
705.101721	19644.103647
705.436668	19732.462471
705.771565	19417.909595
706.106413	19746.489482
706.441212	19739.240302
706.775961	19868.684530
707.110661	19941.254461
707.445311	20296.723862
707.779913	20146.651233
708.114465	20387.968747
708.448967	20666.318577
708.783421	21365.637521
709.117825	21640.713122
709.452180	21859.431143
709.786485	22258.980394
710.120742	23051.898441
710.454949	23073.908119
710.789107	23553.160533
711.123216	24243.213836
711.457275	24371.150759
711.791286	24914.861886
712.125247	24977.278933
712.459159	24675.157542
712.793023	25339.783265
713.126837	24221.047882
713.460602	24467.789678
713.794318	24083.802469
714.127985	23701.821639
714.461602	22809.214775
714.795171	22764.351026
715.128691	21750.837127
715.462162	21213.465251
715.795584	20795.125099
716.128957	20541.517252
716.462281	20123.325814
716.795556	19891.442819
717.128782	19406.325023
717.461960	18857.434110
717.795088	18777.488972
718.128167	18371.754225
718.461198	17922.037932
718.794180	17775.715921
719.127113	17413.909788
719.459997	17225.000110
719.792833	16870.801079
720.125619	16844.438365
720.458357	16524.456166
720.791046	16356.663880
721.123686	16207.372630
721.456278	15971.033255
721.788821	15919.812612
722.121315	15662.638148
722.453761	15740.511372
722.786158	15661.697973
723.118506	15679.001733
723.450805	15541.935281
723.783056	15703.295054
724.115259	15598.958293
724.447412	15532.248704
724.779518	15772.840292
725.111574	15798.572862
725.443582	16002.855539
725.775542	15970.370343
726.107453	16441.980368
726.439315	16324.380331
726.771129	16725.764562
727.102895	17099.233404
727.434612	17293.050646
727.766281	17426.684072
728.097901	17684.755861
728.429473	17718.118217
728.760996	17692.065534
729.092471	17785.049617
729.423897	17667.401689
729.755276	17535.799847
730.086606	17648.855284
730.417887	18166.231424
730.749120	18692.840437
731.080305	18855.727679
731.411442	19190.523309
731.742530	19258.389843
732.073570	19351.091621
732.404562	19653.770060
732.735506	19452.113823
733.066401	19174.454631
733.397249	18661.837341
733.728048	18012.400614
734.058798	17186.727670
734.389501	16509.050399
734.720156	16042.597475
735.050762	15520.172620
735.381320	15171.037428
735.711831	14930.564307
736.042293	14587.566720
736.372707	14596.862608
736.703073	14386.371749
737.033391	14570.366303
737.363661	14537.571077
737.693883	14638.802487
738.024056	14815.668849
738.354182	15001.188352
738.684260	15287.909018
739.014290	15511.038049
739.344272	15694.377253
739.674207	15968.842874
740.004093	16082.654484
740.333931	16082.536017
740.663722	16112.546005
740.993464	16097.432626
741.323159	15928.080104
741.652806	15650.622558
741.982405	15439.635146
742.311956	15100.302478
742.641460	14975.261698
742.970915	14674.466130
743.300323	14343.799205
743.629683	14138.619202
743.958996	13852.289226
744.288260	13586.842229
744.617477	13280.186320
744.946647	13213.393552
745.275768	12936.946757
745.604842	12761.300354
745.933869	12587.380547
746.262847	12535.103781
746.591778	12462.785909
746.920662	12366.010878
747.249498	12367.427443
747.578286	12485.965134
747.907027	12629.098615
748.235720	12841.363960
748.564365	12877.309907
748.892963	12780.940690
749.221514	12836.267353
749.550017	12687.293695
749.878473	12652.562666
750.206881	12422.560022
750.535242	12343.983557
750.863555	12257.048859
751.191821	12161.955053
751.520039	12182.616222
751.848210	12090.607603
752.176334	12110.736930
752.504411	12023.066223
752.832440	11863.700227
753.160421	11928.925196
753.488356	11801.752008
753.816243	11715.805376
754.144082	11569.990001
754.471875	11519.054182
754.799620	11459.908845
755.127318	11432.111923
755.454969	11395.107333
755.782572	11348.695950
756.110129	11354.793226
756.437638	11279.359920
756.765100	11272.524115
757.092515	11281.225147
757.419882	11286.019284
757.747203	11289.419542
758.074477	11368.941224
758.401703	11326.482106
758.728882	11481.641259
759.056014	11532.423323
759.383099	11635.199847
759.710138	11744.121537
760.037129	11830.569764
760.364073	11847.082063
760.690970	11825.737818
761.017820	11824.931233
761.344623	12017.692353
761.671379	12331.151300
761.998088	12969.505049
762.324751	14520.910063
762.651366	17382.059778
762.977935	21038.217099
763.304456	23271.314662
763.630931	23721.645977
763.957359	22534.098845
764.283740	20631.403546
764.610074	18760.593545
764.936362	16632.014224
765.262602	15111.146000
765.588796	13649.561744
765.914943	12613.448353
766.241044	11774.902822
766.567097	11139.540998
766.893104	10595.630744
767.219064	10228.675074
767.544978	9847.740283
767.870845	9539.572028
768.196665	9355.234676
768.522438	9157.742433
768.848165	8998.457095
769.173846	8831.330242
769.499479	8701.346611
769.825066	8550.653919
770.150607	8367.062658
770.476101	8302.729973
770.801548	8190.007253
771.126949	8052.900471
771.452303	7960.400339
771.777611	7802.670197
772.102872	7783.317207
772.428087	7663.751120
772.753256	7537.979373
773.078378	7447.614170
773.403453	7309.181564
773.728482	7209.853190
774.053465	7143.506564
774.378401	7057.297792
774.703291	6958.728111
775.028135	6866.815273
775.352932	6832.270767
775.677683	6743.748105
776.002388	6666.273132
776.327046	6662.250291
776.651658	6571.864923
776.976224	6496.209807
777.300743	6479.437888
777.625216	6412.914822
777.949643	6370.664912
778.274024	6375.388473
778.598359	6312.225336
778.922647	6312.008566
779.246889	6270.900477
779.571086	6281.839781
779.895236	6291.233971
780.219339	6288.564680
780.543397	6285.114010
780.867409	6336.284242
781.191374	6330.781823
781.515294	6298.228572
781.839167	6352.781418
782.162995	6319.648435
782.486776	6278.177383
782.810511	6229.646195
783.134201	6156.993085
783.457844	6144.765767
783.781441	6092.945226
784.104993	6049.540891
784.428498	6023.815883
784.751958	6004.742677
785.075372	5983.148895
785.398739	5942.431495
785.722061	5970.397296
786.045337	5962.386903
786.368568	6073.894705
786.691752	6091.430359
787.014891	6345.577610
787.337983	6624.590352
787.661030	7059.941877
787.984031	7487.129254
788.306987	7748.603822
788.629897	7837.529776
788.952760	7755.137157
789.275579	7573.847183
789.598351	7272.451717
789.921078	7009.048908
790.243759	6729.731177
790.566395	6526.245002
790.888984	6328.357028
791.211529	6191.222520
791.534027	6034.445156
791.856480	5889.522065
792.178888	5835.886709
792.501249	5766.938848
792.823566	5661.009082
793.145836	5663.461603
793.468062	5634.598477
793.790241	5597.445173
794.112375	5639.067460
794.434464	5737.322069
794.756507	5774.072080
795.078505	5890.797477
795.400457	6107.511640
795.722364	6350.941397
796.044226	6543.589092
796.366042	6695.433687
796.687812	6644.835625
797.009538	6671.747825
797.331218	6581.352375
797.652852	6509.142887
797.974442	6391.905813
798.295986	6317.778167
798.617484	6188.545667
798.938938	6077.849491
799.260346	6014.782135
799.581709	5877.050251
799.903026	5824.113094
800.224299	5747.356486
800.545526	5631.528414
800.866708	5570.122119
801.187845	5517.870560
801.508936	5444.481442
801.829983	5415.696453
802.150984	5311.183252
802.471940	5284.407163
802.792851	5269.508033
803.113717	5245.156739
803.434538	5222.209407
803.755314	5183.546278
804.076045	5176.097973
804.396731	5139.279906
804.717372	5158.179192
805.037967	5161.110623
805.358518	5189.462072
805.679024	5245.134054
805.999485	5256.635447
806.319901	5274.536584
806.640272	5293.672804
806.960598	5342.811451
807.280879	5330.876519
807.601115	5367.445049
807.921306	5330.553886
808.241453	5328.043391
808.561554	5335.375749
808.881611	5302.860307
809.201623	5297.899812
809.521590	5248.554477
809.841513	5230.338268
810.161390	5252.148820
810.481223	5158.264891
810.801011	5149.135362
811.120755	5126.102330
811.440453	5067.667795
811.760107	5038.905492
812.079716	5012.751985
812.399281	4964.671981
812.718801	4958.584787
813.038276	4920.065331
813.357707	4890.015013
813.677093	4912.753137
813.996434	4849.375751
814.315731	4870.183113
814.634983	4867.223956
814.954191	4872.454153
815.273354	4933.590747
815.592473	4972.793279
815.911547	5049.020567
816.230577	5096.402372
816.549562	5191.297052
816.868502	5239.407303
817.187399	5294.983504
817.506250	5370.252972
817.825058	5396.802209
818.143821	5553.287186
818.462539	5726.264298
818.781213	5952.574297
819.099843	6313.737682
819.418429	6940.353105
819.736970	7561.145995
820.055466	8265.919468
820.373919	9173.485956
820.692327	10631.841353
821.010691	13308.870485
821.329011	19513.540283
821.647286	29074.690970
821.965517	39386.650947
822.283704	44825.360267
822.601847	46313.390416
822.919945	41731.105078
823.237999	36633.865874
823.556010	31450.261623
823.873976	26758.573165
824.191897	22549.902862
824.509775	19482.506940
824.827609	16716.476236
825.145398	15169.048693
825.463144	14423.648562
825.780845	14713.938365
826.098502	15972.560725
826.416116	18428.399150
826.733685	20700.202693
827.051210	21224.507898
827.368692	19802.390837
827.686129	17249.116990
828.003522	14765.703453
828.320872	12550.010473
828.638177	10907.736141
828.955439	9663.380246
829.272656	8604.896735
829.589830	7766.099146
829.906960	7036.553444
830.224046	6503.060735
830.541088	6093.225010
830.858086	5837.688921
831.175041	5631.898939
831.491952	5575.143108
831.808819	5607.207367
832.125642	5850.717783
832.442421	6399.008799
832.759157	7508.218921
833.075849	9268.622612
833.392497	11112.681730
833.709101	12234.981208
834.025662	11981.040644
834.342179	10929.110633
834.658653	9622.990521
834.975083	8514.758383
835.291469	7615.479552
835.607811	6880.900257
835.924110	6356.774012
836.240366	5876.152925
836.556578	5425.204070
836.872746	5070.258948
837.188871	4798.344151
837.504952	4583.590997
837.820990	4411.894338
838.136984	4297.931493
838.452935	4248.802929
838.768842	4280.105973
839.084706	4563.774221
839.400526	5300.395183
839.716303	6201.050249
840.032037	6770.539317
840.347727	6620.771677
840.663373	6021.088619
840.978977	5445.328356
841.294537	5003.458618
841.610054	4675.133309
841.925527	4438.383081
842.240957	4230.904312
842.556344	4046.050242
842.871687	3887.528638
843.186987	3740.694950
843.502244	3619.470324
843.817458	3529.944473
844.132629	3464.003660
844.447756	3414.744025
844.762840	3371.397663
845.077881	3328.373936
845.392879	3295.301446
845.707833	3273.632046
846.022745	3246.863519
846.337613	3235.863722
846.652438	3208.465051
846.967221	3201.888865
847.281960	3181.111750
847.596656	3171.503311
847.911309	3162.953514
848.225919	3147.101605
848.540485	3138.660193
848.855009	3129.341620
849.169490	3119.397944
849.483928	3110.162551
849.798323	3107.263887
850.112675	3093.612442
850.426984	3098.991354
850.741251	3088.573809
851.055474	3082.844538
851.369654	3087.348809
851.683792	3083.147007
851.997887	3088.384766
852.311938	3089.660178
852.625947	3088.636824
852.939914	3081.979980
853.253837	3088.036926
853.567718	3083.164651
853.881555	3077.505956
854.195350	3083.351174
854.509103	3080.568457
854.822812	3075.222313
855.136479	3076.764906
855.450103	3078.335226
855.763685	3072.968918
856.077224	3072.812642
856.390720	3080.578539
856.704173	3091.570775
857.017584	3098.842640
857.330953	3103.137703
857.644278	3109.960904
857.957561	3113.986266
858.270802	3112.184053
858.584000	3111.846296
858.897155	3105.668362
859.210268	3094.277875
859.523339	3082.186667
859.836367	3077.727767
860.149352	3073.672158
860.462295	3070.675193
860.775195	3061.631363
861.088054	3056.474262
861.400869	3059.501475
861.713642	3053.694066
862.026373	3064.343503
862.339062	3067.214440
862.651708	3076.641398
862.964312	3090.887699
863.276873	3102.315995
863.589392	3132.406642
863.901869	3155.961433
864.214303	3179.354908
864.526696	3200.265614
864.839045	3216.362018
865.151353	3229.274934
865.463619	3227.760067
865.775842	3229.146384
866.088023	3236.743403
866.400162	3228.080180
866.712258	3229.537074
867.024313	3227.671847
867.336325	3228.191086
867.648296	3227.810478
867.960224	3226.940879
868.272110	3230.096642
868.583954	3227.565982
868.895755	3236.047724
869.207515	3235.830954
869.519233	3252.628079
869.830909	3257.621342
870.142542	3270.993002
870.454134	3275.802263
870.765684	3289.496557
871.077191	3311.377686
871.388657	3319.957730
871.700081	3336.369206
872.011463	3358.661188
872.322803	3378.309085
872.634101	3393.220818
872.945357	3415.308634
873.256571	3440.942901
873.567744	3455.829429
873.878874	3463.471818
874.189963	3477.115701
874.501010	3484.387565
874.812015	3475.820124
875.122979	3491.160355
875.433900	3490.184892
875.744780	3490.704131
876.055618	3499.112776
876.366415	3499.390039
876.677169	3503.922036
876.987882	3522.370139
877.298554	3544.273952
877.609183	3578.513469
877.919771	3626.510295
878.230317	3693.235007
878.540822	3796.528250
878.851285	3950.079275
879.161707	4175.068492
879.472087	4545.837796
879.782425	5167.238145
880.092722	6352.128589
880.402977	8273.498842
880.713191	10644.829885
881.023363	13013.166483
881.333494	14355.134240
881.643583	14806.758610
881.953631	14406.090223
882.263637	13570.035022
882.573602	12539.822301
882.883526	11582.673544
883.193408	10636.839657
883.503248	9712.720539
883.813048	8886.906443
884.122806	8123.090976
884.432522	7362.874894
884.742197	6701.104985
885.051831	6143.069418
885.361424	5643.415455
885.670975	5252.627729
885.980485	4926.215538
886.289954	4661.411289
886.599382	4446.002785
886.908768	4266.230198
887.218113	4101.487810
887.527417	3969.762460
887.836680	3848.497505
888.145901	3747.621496
888.455082	3666.388343
888.764221	3603.268055
889.073319	3546.048438
889.382376	3509.933612
889.691392	3486.570385
890.000366	3479.706854
890.309300	3472.198055
890.618193	3474.832058
890.927044	3473.281903
891.235855	3475.903303
891.544625	3489.584995
891.853353	3518.954757
892.162041	3579.352821
892.470687	3669.397911
892.779293	3792.530615
893.087858	3964.592757
893.396381	4240.537957
893.704864	4656.586904
894.013306	5219.401484
894.321707	5790.528927
894.630068	6153.532333
894.938387	6193.095309
895.246665	6011.371795
895.554903	5696.309762
895.863100	5352.992061
896.171256	5085.342080
896.479371	4846.172098
896.787446	4619.960401
897.095480	4427.773972
897.403473	4276.720839
897.711425	4134.141884
898.019336	4009.169160
898.327207	3888.703227
898.635038	3785.135242
898.942827	3679.548275
899.250576	3594.816561
899.558284	3508.363293
899.865952	3455.227011
900.173579	3392.714183
900.481165	3346.769106
900.788711	3307.521203
901.096216	3274.025256
901.403681	3244.642891
901.711105	3236.864391
902.018489	3228.460787
902.325832	3263.884975
902.633135	3321.747339
902.940397	3491.145232
903.247619	3894.147673
903.554800	4642.617867
903.861941	5604.588488
904.169041	6310.745757
904.476101	6521.450864
904.783121	6250.947590
905.090100	5848.282906
905.397039	5432.798568
905.703938	5069.076797
906.010796	4752.661214
906.317614	4500.492617
906.624391	4258.146707
906.931129	4067.029003
907.237826	3883.956981
907.544483	3715.743759
907.851099	3543.608520
908.157675	3385.051629
908.464211	3242.616347
908.770707	3143.035915
909.077163	3062.556414
909.383578	3003.156498
909.689954	2958.517081
909.996289	2931.100766
910.302584	2908.007240
910.608839	2898.774367
910.915054	2884.301214
911.221229	2877.934237
911.527363	2886.718448
911.833458	2892.924108
912.139513	2905.630336
912.445527	2918.281112
912.751502	2952.601287
913.057436	2993.573265
913.363331	3051.506205
913.669186	3138.738331
913.975000	3255.413316
914.280775	3445.018674
914.586510	3709.565825
914.892205	4081.875201
915.197859	4580.790636
915.503475	5162.824615
915.809050	5657.054297
916.114585	5948.783349
916.420081	6010.928173
916.725536	5949.370644
917.030952	5708.852152
917.336328	5503.992263
917.641665	5291.868071
917.946961	5065.111930
918.252218	4864.080797
918.557435	4638.116117
918.862612	4440.928863
919.167750	4267.946710
919.472848	4076.120724
919.777906	3913.961928
920.082925	3755.747836
920.387904	3597.712704
920.692843	3489.887464
920.997743	3391.285015
921.302603	3297.632980
921.607423	3234.242991
921.912204	3166.883093
922.216946	3118.256123
922.521647	3068.242836
922.826310	3030.514840
923.130932	2991.450939
923.435516	2951.509877
923.740059	2923.806216
924.044564	2891.951165
924.349028	2869.601210
924.653454	2838.663648
924.957840	2815.108857
925.262186	2795.718059
925.566493	2771.800304
925.870761	2749.442787
926.174989	2736.860067
926.479178	2722.011348
926.783328	2706.582897
927.087438	2696.324149
927.391509	2683.680935
927.695541	2672.252639
927.999533	2659.546411
928.303486	2650.958806
928.607400	2643.576036
928.911275	2639.722074
929.215110	2635.106897
929.518906	2631.134468
929.822663	2629.254118
930.126381	2631.517596
930.430060	2634.469191
930.733699	2633.839047
931.037299	2640.884060
931.340861	2640.286683
931.644383	2643.641571
931.947866	2641.191570
932.251309	2638.018164
932.554714	2636.846095
932.858080	2633.471043
933.161407	2630.380816
933.464694	2628.971813
933.767943	2621.541152
934.071153	2619.668364
934.374323	2616.293311
934.677455	2616.668877
934.980548	2607.909872
935.283602	2605.033894
935.586617	2604.353338
935.889593	2608.749224
936.192530	2607.970366
936.495428	2619.996039
936.798287	2625.130454
937.101108	2638.280304
937.403890	2659.574137
937.706632	2688.855680
938.009336	2720.625031
938.312002	2749.427664
938.614628	2771.263422
938.917216	2792.143881
939.219765	2800.401291
939.522275	2810.531489
939.824747	2810.912097
940.127179	2804.474543
940.429573	2797.999181
940.731929	2796.378450
941.034246	2789.371246
941.336524	2786.575926
941.638763	2777.824483
941.940964	2775.208124
942.243126	2756.190372
942.545250	2749.372211
942.847335	2732.403687
943.149381	2724.083263
943.451389	2705.166333
943.753359	2694.141329
944.055290	2686.335103
944.357182	2676.409071
944.659036	2672.600479
944.960851	2665.494973
945.262628	2663.448264
945.564367	2665.152174
945.866067	2662.250990
946.167729	2661.933397
946.469352	2660.615136
946.770937	2658.785197
947.072484	2649.272540
947.373992	2651.591470
947.675462	2649.126346
947.976893	2643.863382
948.278286	2639.091929
948.579641	2635.119500
948.880958	2634.242339
949.182236	2632.641773
949.483476	2629.692698
949.784678	2627.277985
950.085841	2628.634056
950.386967	2633.372740
950.688054	2641.499080
950.989103	2646.991417
951.290114	2654.031389
951.591087	2667.062772
951.892021	2676.887980
952.192917	2691.434230
952.493776	2700.614171
952.794596	2707.429811
953.095378	2708.697661
953.396122	2706.129193
953.696828	2702.066023
953.997496	2696.588810
954.298126	2686.299815
954.598718	2680.084072
954.899272	2667.463543
955.199788	2658.581030
955.500266	2646.895636
955.800706	2628.727317
956.101108	2614.662498
956.401472	2604.439038
956.701798	2590.870772
957.002087	2574.723957
957.302337	2568.180539
957.602550	2555.030689
957.902724	2544.098947
958.202861	2532.947915
958.502960	2525.998684
958.803022	2521.365864
959.103045	2512.059894
959.403031	2505.965139
959.702979	2500.016577
960.002889	2495.487100
960.302762	2491.469301
960.602596	2486.922180
960.902393	2480.915645
961.202153	2481.046715
961.501875	2475.924903
961.801559	2476.494553
962.101205	2472.209572
962.400814	2470.835858
962.700385	2470.543471
962.999918	2467.947277
963.299414	2467.274283
963.598873	2464.733541
963.898293	2462.591051
964.197677	2464.103397
964.497022	2460.879579
964.796331	2460.405711
965.095601	2458.086780
965.394835	2456.612242
965.694030	2456.284568
965.993189	2458.520319
966.292309	2455.117540
966.591393	2456.445884
966.890439	2455.422530
967.189447	2455.982098
967.488419	2457.953189
967.787353	2455.639300
968.086249	2455.412448
968.385108	2456.166100
968.683930	2457.859928
968.982714	2457.927984
969.281462	2457.968313
969.580172	2462.762450
969.878844	2466.109776
970.177480	2465.691361
970.476078	2469.401650
970.774639	2474.561271
971.073162	2475.062866
971.371649	2475.264512
971.670098	2475.345170
971.968510	2479.680563
972.266885	2476.812146
972.565223	2484.431850
972.863524	2484.525111
973.161788	2486.992756
973.460014	2486.294556
973.758204	2487.610297
974.056356	2488.590802
974.354471	2489.775473
974.652550	2488.989053
974.950591	2489.823364
975.248595	2485.523260
975.546563	2486.891933
975.844493	2482.856489
976.142386	2481.127374
976.440243	2482.017137
976.738062	2477.918679
977.035845	2478.296766
977.333590	2471.624799
977.631299	2473.467340
977.928971	2471.869295
978.226606	2468.075826
978.524204	2467.745631
978.821765	2465.346042
979.119290	2466.800414
979.416777	2463.813531
979.714228	2464.284879
980.011642	2465.449385
980.309020	2468.663121
980.606360	2471.642443
980.903664	2482.347333
981.200931	2496.825527
981.498162	2515.830677
981.795356	2543.516694
982.092513	2581.206880
982.389633	2622.594753
982.686717	2667.208965
982.983764	2699.144675
983.280775	2717.073538
983.577749	2715.924155
983.874686	2711.266129
984.171587	2692.243335
984.468451	2675.078206
984.765279	2658.457522
985.062070	2641.680562
985.358824	2622.866976
985.655543	2600.645570
985.952224	2577.683114
986.248869	2551.895091
986.545478	2523.752850
986.842050	2506.370952
987.138586	2488.124495
987.435086	2471.909624
987.731549	2461.471915
988.027975	2460.498972
988.324366	2452.360029
988.620719	2449.660491
988.917037	2443.953905
989.213318	2440.893925
989.509563	2435.063830
989.805772	2438.448965
990.101944	2434.688264
990.398080	2434.199272
990.694180	2435.797318
990.990244	2432.752461
991.286271	2433.846392
991.582262	2434.579880
991.878217	2434.645415
992.174136	2438.421239
992.470019	2436.712288
992.765865	2437.158430
993.061676	2440.891404
993.357450	2443.351487
993.653188	2446.965995
993.948890	2455.258693
994.244556	2458.074177
994.540186	2466.838223
994.835780	2476.970942
995.131337	2492.764877
995.426859	2509.839265
995.722345	2529.603109
996.017795	2544.963505
996.313208	2562.499158
996.608586	2573.267063
996.903928	2573.572053
997.199234	2571.331260
997.494504	2570.257494
997.789738	2562.317677
998.084936	2549.258568
998.380099	2538.299099
998.675225	2530.313912
998.970316	2517.093486
999.265371	2502.829541
999.560390	2491.696153
999.855373	2477.530510
1000.150320	2469.573049
1000.445232	2458.832871
1000.740108	2454.368929
1001.034948	2445.927517
1001.329752	2442.151693
1001.624521	2439.699171
1001.919254	2431.484611
1002.213951	2430.715835
1002.508613	2427.328180
1002.803239	2427.073602
1003.097829	2420.694021
1003.392384	2423.958168
1003.686903	2419.698393
1003.981386	2421.871131
1004.275834	2419.564803
1004.570246	2418.692683
1004.864623	2420.452046
1005.158964	2419.131264
1005.453270	2418.309556
1005.747540	2418.589340
1006.041775	2418.188568
1006.335974	2415.710841
1006.630138	2415.398289
1006.924266	2415.685635
1007.218359	2415.612538
1007.512416	2413.858217
1007.806438	2415.978022
1008.100425	2415.539442
1008.394376	2419.158990
1008.688292	2413.691859
1008.982172	2414.848803
1009.276017	2415.257137
1009.569827	2411.551889
1009.863602	2414.538773
1010.157341	2414.450552
1010.451045	2411.740932
1010.744714	2411.388051
1011.038347	2412.154307
1011.331945	2413.777558
1011.625508	2411.723288
1011.919036	2410.084913
1012.212528	2413.036509
1012.505986	2411.567012
1012.799408	2409.916034
1013.092795	2409.716909
1013.386147	2408.262536
1013.679464	2412.401323
1013.972745	2411.267064
1014.265992	2412.040881
1014.559204	2410.011816
1014.852380	2410.581467
1015.145521	2410.636919
1015.438628	2410.720098
1015.731699	2409.293452
1016.024736	2409.275808
1016.317737	2409.679100
1016.610703	2410.841086
1016.903635	2406.442679
1017.196531	2405.628533
1017.489393	2408.101219
1017.782219	2406.787998
1018.075011	2412.552558
1018.367768	2410.959553
1018.660490	2408.597773
1018.953177	2408.597773
1019.245829	2408.597773
