Dividing Wavelength (nm)	Counts (n)	Blue Motor Position (mm): 22.800000	Red Motor Position (mm): 0.000000	
326.493990	1974.352780
326.888308	1974.352780
327.282561	1974.352780
327.676750	1948.347988
328.070874	1949.068873
328.464933	1958.498352
328.858929	1966.191152
329.252859	1977.120374
329.646726	1993.385657
330.040528	2007.984838
330.434265	2029.490401
330.827938	2044.513039
331.221547	2067.790567
331.615091	2087.219174
332.008571	2106.761207
332.401986	2128.047479
332.795338	2146.891312
333.188625	2166.539209
333.581847	2187.732220
333.975006	2204.937678
334.368100	2223.191696
334.761129	2240.223234
335.154095	2256.329721
335.546996	2290.904474
335.939833	2356.419310
336.332606	2369.738038
336.725315	2385.403424
337.117960	2390.880638
337.510540	2399.314488
337.903056	2409.583318
338.295508	2414.745460
338.687896	2424.595874
339.080220	2430.070568
339.472480	2437.115580
339.864676	2439.457196
340.256807	2443.706889
340.648875	2446.638320
341.040879	2447.213011
341.432818	2447.349122
341.824694	2448.261571
342.216506	2448.773248
342.608253	2445.486416
342.999937	2447.868361
343.391557	2446.998762
343.783113	2445.183947
344.174605	2440.835952
344.566033	2444.442897
344.957397	2437.975097
345.348697	2437.314706
345.739934	2436.429983
346.131106	2434.025353
346.522215	2431.789601
346.913260	2429.200968
347.304241	2432.754982
347.695159	2427.945721
348.086012	2426.012439
348.476802	2422.954979
348.867528	2422.914650
349.258191	2422.788621
349.648789	2420.245359
350.039324	2420.391552
350.429796	2420.953641
350.820203	2416.832498
351.210548	2415.763773
351.600828	2417.273598
351.991045	2414.541293
352.381198	2417.878537
352.771288	2417.001376
353.161314	2414.884092
353.551276	2415.569688
353.941175	2410.334450
354.331010	2412.542476
354.720782	2417.855852
355.110490	2418.816192
355.500135	2414.294277
355.889717	2414.919380
356.279235	2414.039698
356.668689	2417.457601
357.058080	2417.545821
357.447408	2413.633885
357.836672	2416.015831
358.225873	2416.393917
358.615010	2413.117167
359.004084	2417.883578
359.393095	2418.422982
359.782043	2418.317117
360.170927	2420.751995
360.559748	2421.697211
360.948505	2423.915319
361.337199	2423.534712
361.725830	2423.650658
362.114398	2423.514547
362.502903	2425.583941
362.891344	2422.186203
363.279722	2424.333734
363.668037	2427.499579
364.056289	2423.280133
364.444478	2426.844229
364.832603	2427.136616
365.220665	2428.306164
365.608665	2427.426482
365.996601	2428.769950
366.384474	2430.526792
366.772284	2428.291040
367.160031	2430.100814
367.547715	2429.364806
367.935336	2426.798859
368.322893	2431.003181
368.710388	2428.858170
369.097820	2431.845054
369.485189	2430.196596
369.872495	2430.733479
370.259738	2432.409663
370.646918	2430.635177
371.034035	2431.487132
371.421090	2432.157605
371.808081	2432.419745
372.195010	2433.692637
372.581875	2433.727925
372.968678	2432.402101
373.355418	2433.853953
373.742096	2436.288831
374.128710	2435.676331
374.515262	2437.942329
374.901751	2435.454520
375.288177	2433.518717
375.674540	2437.972576
376.060841	2436.689603
376.447079	2437.841506
376.833254	2438.184305
377.219367	2431.366144
377.605417	2435.280600
377.991404	2431.449323
378.377329	2436.152720
378.763191	2434.448810
379.148991	2439.656322
379.534727	2437.133224
379.920402	2437.720518
380.306013	2439.999120
380.691563	2437.576846
381.077049	2439.316044
381.462474	2439.356373
381.847835	2438.864860
382.233134	2440.926692
382.618371	2439.845365
383.003545	2444.203442
383.388657	2442.486929
383.773706	2443.396858
384.158693	2440.311672
384.543618	2444.384924
384.928480	2444.024481
385.313280	2444.077413
385.698017	2445.514142
386.082692	2444.773093
386.467305	2442.499532
386.851856	2441.897114
387.236344	2442.030705
387.620770	2445.070521
388.005133	2446.540017
388.389435	2444.757969
388.773674	2446.638320
389.157851	2447.283587
389.541965	2448.763166
389.926018	2447.734771
390.310008	2447.628906
390.693936	2450.255348
391.077802	2448.070007
391.461606	2450.459514
391.845348	2446.071190
392.229027	2447.739812
392.612645	2448.730398
392.996200	2449.907508
393.379694	2450.804833
393.763125	2451.931531
394.146494	2450.323403
394.529801	2451.122426
394.913047	2452.223918
395.296230	2451.929011
395.679351	2452.637293
396.062410	2453.010338
396.445408	2452.506223
396.828343	2452.228959
397.211217	2448.039760
397.594028	2451.031685
397.976778	2450.593105
398.359466	2453.643003
398.742092	2450.300718
399.124656	2458.348920
399.507158	2453.511933
399.889598	2456.380349
400.271977	2455.929166
400.654294	2455.452777
401.036549	2455.228446
401.418742	2455.455298
401.800874	2457.481842
402.182944	2454.341203
402.564952	2454.137036
402.946898	2458.555607
403.328783	2461.242542
403.710606	2458.381688
404.092367	2456.829012
404.474067	2457.401183
404.855705	2460.897223
405.237282	2459.321863
405.618797	2459.770525
406.000250	2458.467387
406.381642	2457.600309
406.762972	2461.250104
407.144240	2459.740278
407.525447	2463.004426
407.906593	2458.989147
408.287677	2460.708180
408.668700	2463.299333
409.049661	2462.220526
409.430560	2463.251442
409.811399	2460.214147
410.192176	2462.853191
410.572891	2462.795218
410.953545	2465.998871
411.334138	2462.654065
411.714669	2467.740590
412.095139	2465.386371
412.475547	2466.472739
412.855894	2464.438634
413.236180	2465.083902
413.616405	2465.459467
413.996568	2463.516103
414.376670	2465.996350
414.756711	2467.627164
415.136691	2467.067596
415.516609	2466.523151
415.896466	2468.985755
416.276262	2470.359469
416.655997	2463.919395
417.035670	2466.462657
417.415283	2471.526496
417.794834	2466.447534
418.174324	2471.728142
418.553753	2471.665128
418.933121	2471.786116
419.312428	2470.747638
419.691674	2471.730663
420.070859	2473.583287
420.449983	2472.890128
420.829045	2471.650004
421.208047	2471.425673
421.586988	2474.525983
421.965867	2473.331229
422.344686	2474.944398
422.723444	2473.986579
423.102141	2472.408698
423.480777	2474.205869
423.859352	2473.374079
424.237866	2477.679224
424.616319	2473.850468
424.994712	2477.114615
425.373044	2476.615541
425.751314	2475.597228
426.129524	2478.450521
426.507673	2477.699389
426.885762	2479.509163
427.263789	2479.466313
427.641756	2478.526138
428.019662	2483.468990
428.397508	2478.102681
428.775292	2481.800368
429.153016	2481.694503
429.530679	2481.170223
429.908282	2482.312045
430.285824	2482.407827
430.663305	2479.814153
431.040726	2482.354895
431.418086	2482.254072
431.795385	2486.027375
432.172624	2484.015955
432.549802	2484.983856
432.926920	2485.014103
433.303977	2483.564772
433.680974	2484.507467
434.057910	2489.888899
434.434786	2485.283805
434.811601	2489.281440
435.188355	2487.663230
435.565050	2487.151553
435.941683	2489.357057
436.318257	2487.237252
436.694770	2486.319762
437.071222	2489.813282
437.447614	2483.907570
437.823946	2487.065853
438.200218	2489.500730
438.576429	2489.430154
438.952580	2490.919815
439.328670	2489.667088
439.704700	2494.804024
440.080670	2491.244969
440.456580	2493.452995
440.832429	2494.713283
441.208218	2494.801503
441.583947	2495.908037
441.959616	2496.437358
442.335224	2498.980620
442.710773	2496.006339
443.086261	2495.456853
443.461689	2497.576659
443.837057	2497.601864
444.212365	2498.587410
444.587612	2498.776453
444.962800	2501.793584
445.337927	2500.278717
445.712995	2499.451968
446.088002	2503.835251
446.462949	2504.309120
446.837837	2504.780467
447.212664	2506.045797
447.587431	2510.066117
447.962139	2516.680111
448.336786	2523.236132
448.711374	2518.636079
449.085901	2517.073321
449.460369	2518.527694
449.834776	2518.545338
450.209124	2523.183200
450.583412	2523.213447
450.957640	2522.716893
451.331808	2524.894671
451.705917	2520.771008
452.079965	2524.708149
452.453954	2523.662109
452.827883	2525.441637
453.201752	2526.447347
453.575562	2528.267203
453.949311	2534.510672
454.323001	2534.883718
454.696632	2533.394057
455.070202	2541.220448
455.443713	2542.558874
455.817164	2544.149358
456.190556	2544.081303
456.563888	2547.723537
456.937160	2546.130532
457.310373	2547.557178
457.683526	2550.228990
458.056619	2551.695966
458.429653	2556.021276
458.802628	2557.732748
459.175542	2559.305587
459.548398	2567.562997
459.921194	2571.782443
460.293930	2577.945254
460.666607	2588.030082
461.039224	2596.030393
461.411782	2600.086002
461.784280	2595.793459
462.156719	2601.734459
462.529099	2602.941815
462.901419	2601.542895
463.273680	2602.606578
463.645882	2605.033894
464.018024	2612.575460
464.390106	2618.473610
464.762130	2634.096146
465.134094	2663.851557
465.505999	2698.365816
465.877845	2729.326063
466.249631	2742.463310
466.621358	2740.673700
466.993026	2740.414081
467.364634	2737.495252
467.736184	2735.766137
468.107674	2737.815366
468.479105	2744.043711
468.850477	2749.808271
469.221790	2753.800865
469.593043	2750.241810
469.964238	2761.004673
470.335373	2772.470778
470.706449	2805.167702
471.077467	2848.708147
471.448425	2917.814805
471.819324	2970.530151
472.190164	2975.972076
472.560945	2953.952316
472.931667	2942.960080
473.302330	2952.288736
473.672934	2969.622743
474.043479	3003.038031
474.413965	3018.158972
474.784393	3041.033208
475.154761	3090.507092
475.525070	3123.425826
475.895321	3155.094355
476.265513	3199.501879
476.635645	3262.276847
477.005719	3302.527940
477.375734	3365.171838
477.745691	3433.950821
478.115588	3516.224972
478.485427	3642.982265
478.855207	3826.510512
479.224928	3993.261799
479.594591	4129.130977
479.964194	4155.269360
480.333739	4232.376329
480.703226	4325.136080
481.072653	4462.197492
481.442022	4596.075414
481.811333	4714.585379
482.180584	4748.613168
482.549777	4831.484696
482.918912	4919.725053
483.287988	5012.610833
483.657005	5080.976441
484.025964	5157.947298
484.394864	5273.944248
484.763706	5365.141242
485.132489	5430.295635
485.501213	5546.637904
485.869879	5689.821797
486.238487	5797.899094
486.607036	5955.742662
486.975527	6056.900976
487.343959	6223.327108
487.712333	6382.428444
488.080648	6533.849582
488.448905	6738.709472
488.817104	6889.538274
489.185244	7169.430698
489.553326	7580.599808
489.921350	8148.410172
490.289315	8778.940051
490.657222	9101.825954
491.025070	9369.906954
491.392861	9452.196229
491.760593	9459.705028
492.128267	9410.803315
492.495883	9384.002020
492.863440	9381.032781
493.230939	9389.264985
493.598380	9427.812168
493.965763	9596.204350
494.333088	9687.613073
494.700354	9818.680552
495.067563	10002.735599
495.434713	10203.335714
495.801805	10460.321134
496.168839	10616.695206
496.535815	10790.811618
496.902733	11035.383197
497.269593	11187.860457
497.636395	11419.314954
498.003139	11756.389185
498.369825	11888.759803
498.736453	12209.233514
499.103023	12352.389681
499.469535	12588.315681
499.835989	12885.978171
500.202385	13055.779356
500.568723	13340.861648
500.935003	13666.159743
501.301226	13886.117889
501.667390	14335.748482
502.033497	14704.939905
502.399546	14806.995544
502.765537	14856.600498
503.131470	15264.933959
503.497345	15671.553429
503.863163	15497.769732
504.228923	15999.107441
504.594625	16446.477077
504.960269	16470.662013
505.325856	17016.129982
505.691385	17061.283597
506.056856	17422.096622
506.422270	17910.370181
506.787625	18031.350312
507.152924	18419.660310
507.518164	18779.286143
507.883347	18726.026353
508.248472	19132.033322
508.613540	19654.851387
508.978550	20105.979204
509.343503	20294.591454
509.708398	20679.609579
510.073236	21264.549783
510.438016	21562.194630
510.802738	21592.330648
511.167403	22220.471020
511.532010	22646.733345
511.896561	23115.232978
512.261053	23890.451534
512.625488	23939.343164
512.989866	24179.228991
513.354186	24389.671958
513.718449	24667.159751
514.082655	25382.489399
514.446803	25475.435673
514.810894	26089.365033
515.174927	26335.844688
515.538904	26557.602526
515.902822	27282.517928
516.266684	27202.285444
516.630488	27768.412062
516.994235	27966.136198
517.357925	28620.170457
517.721558	28998.695576
518.085133	29501.989253
518.448651	29864.324706
518.812112	29980.997170
519.175516	30314.754323
519.538863	30815.913070
519.902152	31040.793902
520.265385	31631.725518
520.628560	31929.940015
520.991678	32019.881761
521.354739	32453.536938
521.717743	32918.583381
522.080690	33093.771039
522.443580	33749.506687
522.806413	34030.596384
523.169189	34222.460179
523.531908	34588.095067
523.894569	34716.568873
524.257174	35059.155606
524.619722	35521.305906
524.982213	35725.273511
525.344647	35881.718159
525.707025	36111.287264
526.069345	36640.830228
526.431608	36788.185676
526.793815	37244.662157
527.155964	37040.472741
527.518057	37382.363795
527.880093	37394.170177
528.242072	38011.731688
528.603995	37936.847868
528.965860	38125.878534
529.327669	38385.903770
529.689421	38460.522929
530.051117	38592.238197
530.412755	38878.623627
530.774337	39083.027292
531.135862	39074.245602
531.497331	39413.603476
531.858743	39470.598761
532.220098	39917.161813
532.581396	39801.817692
532.942638	39646.955967
533.303824	40042.280731
533.664953	40152.992031
534.026025	40032.364781
534.387040	40584.577814
534.747999	40646.377319
535.108902	40928.714702
535.469748	40607.661258
535.830537	40810.658441
536.191270	41115.998609
536.551947	40897.336040
536.912567	41279.841150
537.273131	41490.014416
537.633638	41129.433284
537.994089	41546.913919
538.354483	41272.629779
538.714821	41879.685526
539.075103	42308.803664
539.435328	42185.129037
539.795497	42166.653208
540.155609	42237.211718
540.515665	42735.106319
540.875665	42319.213647
541.235609	42705.048439
541.595496	42747.590736
541.955328	43458.615239
542.315102	42944.737660
542.674821	42812.172958
543.034483	42925.573714
543.394090	42960.455978
543.753640	42996.953932
544.113134	44010.921534
544.472571	43144.231242
544.831953	44382.250406
545.191278	43716.339189
545.550548	43492.264941
545.909761	43974.481554
546.268918	44240.389816
546.628019	44587.591726
546.987064	44206.457810
547.346053	43570.183536
547.704986	44459.226305
548.063863	44092.394142
548.422684	44333.063868
548.781449	44256.375315
549.140158	44659.443291
549.498811	44576.788533
549.857408	44064.418259
550.215949	44910.457465
550.574434	44878.504111
550.932864	44708.380292
551.291237	45438.480522
551.649555	45084.659577
552.007817	45359.246186
552.366022	45057.994394
552.724173	45253.119815
553.082267	45672.231264
553.440305	45993.720768
553.798288	45368.917640
554.156215	45715.857409
554.514086	45929.700635
554.871902	45706.556480
555.229661	45752.020126
555.587365	45600.183093
555.945014	45716.971504
556.302606	45668.384863
556.660143	45917.637153
557.017625	46027.932558
557.375050	45841.621595
557.732421	46208.839405
558.089735	46203.939404
558.446994	46142.863304
558.804197	46616.890562
559.161345	46578.025787
559.518437	45869.360544
559.875474	46180.752617
560.232455	46369.168262
560.589381	46534.876030
560.946251	46250.191990
561.303065	46938.054912
561.659825	46764.034281
562.016528	46454.530120
562.373177	46206.845629
562.729770	46692.530555
563.086307	46214.256125
563.442789	46686.254319
563.799216	46735.040085
564.155587	46553.137610
564.511904	46587.785461
564.868164	46686.813887
565.224370	46941.079604
565.580520	46680.348607
565.936615	46911.722445
566.292654	46646.071281
566.648638	46876.509985
567.004567	46865.578243
567.360441	46894.597645
567.716260	46757.107736
568.072023	47065.631393
568.427732	47064.451763
568.783385	46640.677247
569.138982	47018.531892
569.494525	46998.780651
569.850013	46762.186698
570.205445	46742.001918
570.560823	46691.035853
570.916145	46588.556757
571.271412	46638.713717
571.626625	46397.315545
571.981782	46470.354302
572.336884	46159.138670
572.691931	46489.200656
573.046923	46086.334326
573.401860	45957.530324
573.756743	45934.900585
574.111570	46051.550364
574.466342	45905.009063
574.821059	46036.948662
575.175722	45563.201188
575.530330	45600.263751
575.884882	45329.793245
576.239380	45295.611701
576.593823	45279.704340
576.948211	45208.225820
577.302544	44738.909520
577.656823	44783.843845
578.011047	45004.142268
578.365216	44732.908026
578.719330	44530.777922
579.073389	44400.335545
579.427394	44498.937994
579.781344	44462.278723
580.135239	44135.927026
580.489080	44210.984766
580.842866	43709.722674
581.196597	44166.559598
581.550273	44125.688443
581.903895	43958.826250
582.257463	44402.919137
582.610975	43800.534020
582.964434	44077.522738
583.317837	43739.362138
583.671186	43585.707769
584.024481	43809.305627
584.377721	43363.917164
584.730906	43650.882327
585.084037	43672.662632
585.437113	43379.665729
585.790135	43421.275413
586.143103	43039.297104
586.496016	43165.630940
586.848874	43177.424719
587.201679	43216.965009
587.554428	42694.686347
587.907124	42890.787232
588.259765	42668.006041
588.612352	42919.302519
588.964884	42314.757267
589.317362	42582.566045
589.669786	42556.528485
590.022155	42316.136023
590.374470	42736.386772
590.726731	42281.510858
591.078937	41798.122177
591.431090	41907.079156
591.783188	41559.869684
592.135232	41246.700605
592.487222	41492.640857
592.839157	41584.833478
593.191038	41267.913780
593.542866	41033.023737
593.894639	40439.979878
594.246358	40722.831459
594.598022	40687.359380
594.949633	40305.696142
595.301190	40270.501327
595.652692	40118.593717
596.004141	40449.389192
596.355535	39477.369031
596.706876	39424.013458
597.058162	39266.553018
597.409395	39726.326413
597.760573	39798.853494
598.111698	39370.378102
598.462768	39374.675686
598.813785	39437.768247
599.164748	38892.549814
599.515657	39294.992687
599.866511	38770.319477
600.217312	39379.714319
600.568060	38359.808237
600.918753	39082.906304
601.269392	39060.599198
601.619978	38706.087616
601.970510	38934.557749
602.320988	39088.449053
602.671412	39393.580013
603.021783	39144.909976
603.372100	38810.258019
603.722363	38924.815719
604.072572	38985.135646
604.422728	39000.866566
604.772830	38813.179367
605.122878	38904.767050
605.472872	38863.167449
605.822813	39131.702152
606.172701	38965.381884
606.522534	39187.447232
606.872314	39445.640008
607.222041	39202.928615
607.571714	39591.649468
607.921333	39061.065505
608.270899	39345.837765
608.620411	39658.777472
608.969870	39469.421652
609.319276	39475.397939
609.668627	39527.599088
610.017926	39993.739460
610.367171	40161.743474
610.716362	40245.885373
611.065500	40198.322086
611.414585	40390.140511
611.763616	40680.377382
612.112594	40608.205702
612.461518	40806.703656
612.810389	41109.477876
613.159207	40970.813378
613.507971	41047.522096
613.856682	41510.761284
614.205340	41390.839796
614.553945	42075.204157
614.902496	41552.207131
615.250994	42005.658919
615.599439	42056.153637
615.947830	42290.468988
616.296169	42345.304139
616.644454	42466.737973
616.992686	42621.990388
617.340864	43149.103517
617.688990	42858.662479
618.037063	43456.356802
618.385082	43425.288171
618.733048	43720.220877
619.080961	43723.674067
619.428821	43733.612702
619.776628	43838.884598
620.124382	43657.221577
620.472083	43796.806086
620.819731	43925.370633
621.167326	43595.699336
621.514868	43576.724433
621.862357	43131.293120
622.209793	43152.733148
622.557176	42811.240345
622.904506	42569.721185
623.251783	42234.802047
623.599007	42000.186747
623.946179	41802.455049
624.293297	41737.197312
624.640363	41144.652527
624.987376	41147.785604
625.334336	40909.270972
625.681243	40558.683928
626.028097	40510.324139
626.374899	40369.953210
626.721647	40344.082008
627.068343	40245.106514
627.414987	39987.541362
627.761577	39780.279362
628.108115	40121.184871
628.454600	39561.533615
628.801032	39745.888611
629.147412	39724.267102
629.493739	39717.370803
629.840014	39366.899706
630.186236	39712.874094
630.532405	39315.094288
630.878521	39548.000637
631.224585	39427.254920
631.570597	39123.903488
631.916556	39289.086976
632.262462	39245.901931
632.608316	39247.852858
632.954117	39151.110595
633.299866	39129.713417
633.645562	39044.681755
633.991206	38566.112417
634.336797	38146.879981
634.682336	38125.437433
635.027823	37881.977429
635.373257	37703.344142
635.718639	37468.345715
636.063968	37329.366144
636.409245	36757.250635
636.754470	36801.816956
637.099642	36576.167348
637.444762	36102.470286
637.789829	36248.174755
638.134845	35906.366881
638.479808	35853.984251
638.824719	35749.218992
639.169577	35360.724991
639.514383	35427.691679
639.859137	35139.294829
640.203839	35365.567019
640.548489	35011.307495
640.893086	35073.595992
641.237632	34829.767983
641.582125	34938.999704
641.926566	34858.832755
642.270955	34838.753840
642.615292	34846.003019
642.959576	34826.045091
643.303809	34833.795865
643.647990	34971.346268
643.992118	34932.060556
644.336195	34945.371723
644.680219	35021.621695
645.024192	35339.627762
645.368112	35826.343604
645.711981	35843.397828
646.055797	36703.287604
646.399562	36638.024826
646.743274	37559.981289
647.086935	38001.036880
647.430544	37887.376505
647.774101	38019.789972
648.117606	38253.187833
648.461059	38558.124709
648.804460	38156.785848
649.147810	37547.564927
649.491108	37303.615930
649.834354	36947.844059
650.177548	36128.908617
650.520690	35678.947828
650.863781	35682.015370
651.206820	35541.677208
651.549807	35117.443948
651.892742	34633.422602
652.235626	34439.267603
652.578458	34301.618897
652.921238	33707.055130
653.263967	34054.564550
653.606644	33737.153339
653.949269	33683.291131
654.291843	33291.482572
654.634365	33690.988973
654.976836	33291.933755
655.319255	33265.263531
655.661622	33276.558236
656.003938	33036.185938
656.346203	32925.789710
656.688416	33143.315499
657.030577	32935.640125
657.372687	32781.174130
657.714746	33040.503687
658.056753	33154.343023
658.398708	32624.618577
658.740612	32670.233457
659.082465	32950.478761
659.424266	32767.149640
659.766016	32877.613923
660.107715	32766.058230
660.449362	32887.161869
660.790958	32864.327962
661.132503	32906.376227
661.473996	32926.760132
661.815438	33051.450552
662.156829	33230.209868
662.498168	33011.902700
662.839456	33035.054199
663.180693	33178.386806
663.521879	33332.356247
663.863013	33293.713283
664.204097	33285.750780
664.545129	33748.528703
664.886110	33716.260277
665.227040	33778.011891
665.567918	33901.570572
665.908746	33963.637258
666.249522	34119.973521
666.590248	34105.497848
666.930922	34222.389603
667.271545	34178.017367
667.612118	34282.996875
667.952639	34072.269082
668.293109	34114.680310
668.633528	34012.879249
668.973896	33928.346661
669.314213	33959.818584
669.654480	33715.211717
669.994695	33728.371649
670.334859	33625.920280
670.674973	33520.436656
671.015035	33696.899726
671.355047	33629.600322
671.695008	33600.028914
672.034918	33489.509177
672.374777	33563.757812
672.714585	33406.665376
673.054342	33645.454751
673.394049	33392.061153
673.733705	33673.526416
674.073310	33332.177286
674.412864	33419.200205
674.752368	33009.757689
675.091820	33304.549243
675.431223	32893.140677
675.770574	32613.870837
676.109875	32476.436380
676.449125	32192.155632
676.788324	32136.284524
677.127473	31590.977871
677.466571	31526.602337
677.805619	31178.218277
678.144616	31172.872133
678.483562	31110.881064
678.822458	30775.876227
679.161303	30711.770394
679.500098	30628.334256
679.838842	30503.109474
680.177535	30660.433803
680.516179	30932.915731
680.854771	31179.541580
681.193314	32034.019677
681.531805	33145.500839
681.870247	33933.314718
682.208638	34660.186088
682.546978	34876.675919
682.885268	34956.041325
683.223508	34426.931900
683.561697	34098.634317
683.899836	33913.573559
684.237925	33408.132351
684.575963	33269.951804
684.913951	32799.405463
685.251889	32956.336582
685.589776	32952.069245
685.927614	32952.139821
686.265401	33087.207456
686.603137	33176.239274
686.940824	33696.430899
687.278460	34071.354113
687.616046	34220.726022
687.953582	34832.381821
688.291068	34688.008216
688.628504	34959.728929
688.965889	34902.829426
689.303224	34517.387844
689.640510	34174.927139
689.977745	33449.711788
690.314930	32656.556807
690.652065	32115.336009
690.989150	31376.998535
691.326185	30489.944501
691.663170	29790.539858
692.000105	29042.074705
692.336990	28369.983033
692.673825	27931.644624
693.010610	27401.290033
693.347345	26834.185431
693.684030	26181.663519
694.020665	25907.638998
694.357251	25259.654124
694.693786	25202.439549
695.030272	24973.281298
695.366707	24427.392392
695.703093	24147.061388
696.039429	24127.405929
696.375716	23874.902095
696.711952	23837.789120
697.048139	23689.460730
697.384276	23509.763760
697.720363	23638.792093
698.056400	23436.367081
698.392388	23222.753227
698.728326	23175.520137
699.064214	22979.058809
699.400053	22924.019492
699.735842	22563.675294
700.071581	22284.904528
700.407270	21998.309890
700.742910	21826.159528
701.078501	21551.073845
701.414042	21267.103128
701.749533	20977.564457
702.084974	20623.224273
702.420366	20833.238743
702.755709	20402.434338
703.091002	20111.519432
703.426246	20130.925353
703.761440	20017.121305
704.096584	19756.541542
704.431679	19711.440860
704.766725	19619.306211
705.101721	19568.541792
705.436668	19662.690381
705.771565	19328.809721
706.106413	19672.427370
706.441212	19659.421193
706.775961	19794.367840
707.110661	19859.423931
707.445311	20208.344874
707.779913	20050.718075
708.114465	20301.906168
708.448967	20595.109758
708.783421	21269.628746
709.117825	21551.081406
709.452180	21773.116507
709.786485	22161.030775
710.120742	22976.994457
710.454949	22981.322288
710.789107	23449.728659
711.123216	24153.602285
711.457275	24269.934472
711.791286	24816.758512
712.125247	24867.822880
712.459159	24568.043105
712.793023	25231.436266
713.126837	24134.675273
713.460602	24374.823239
713.794318	23991.604806
714.127985	23607.675571
714.461602	22722.980797
714.795171	22677.139064
715.128691	21670.183707
715.462162	21137.149743
715.795584	20709.838858
716.128957	20458.827205
716.462281	20050.944927
716.795556	19825.764147
717.128782	19322.379729
717.461960	18782.630949
717.795088	18709.196461
718.128167	18315.074012
718.461198	17860.770268
718.794180	17715.242239
719.127113	17357.050614
719.459997	17162.754463
719.792833	16814.824107
720.125619	16787.044828
720.458357	16472.658310
720.791046	16305.589430
721.123686	16148.534803
721.456278	15910.751137
721.788821	15870.134561
722.121315	15618.775068
722.453761	15692.824577
722.786158	15617.358504
723.118506	15625.893178
723.450805	15483.891436
723.783056	15651.308155
724.115259	15548.231682
724.447412	15480.939840
724.779518	15731.107100
725.111574	15746.197794
725.443582	15948.685820
725.775542	15924.304280
726.107453	16393.565127
726.439315	16272.272444
726.771129	16671.083166
727.102895	17040.821554
727.434612	17248.295282
727.766281	17370.165176
728.097901	17622.192621
728.429473	17665.773396
728.760996	17651.640522
729.092471	17736.473058
729.423897	17609.093183
729.755276	17479.240622
730.086606	17582.120489
730.417887	18105.414944
730.749120	18621.762688
731.080305	18792.446075
731.411442	19130.546181
731.742530	19205.457727
732.073570	19290.814544
732.404562	19585.986705
732.735506	19393.775071
733.066401	19128.401170
733.397249	18597.923072
733.728048	17959.896997
734.058798	17135.353271
734.389501	16463.493492
734.720156	15990.973539
735.050762	15484.146014
735.381320	15136.336645
735.711831	14893.363112
736.042293	14544.759762
736.372707	14550.068097
736.703073	14349.934289
737.033391	14533.311302
737.363661	14497.423327
737.693883	14601.525675
738.024056	14775.193425
738.354182	14962.870542
738.684260	15249.266053
739.014290	15467.515247
739.344272	15651.592980
739.674207	15934.288285
740.004093	16047.424380
740.333931	16033.427616
740.663722	16070.601085
740.993464	16064.289560
741.323159	15885.893208
741.652806	15614.359018
741.982405	15412.233954
742.311956	15063.953238
742.641460	14955.472648
742.970915	14640.130831
743.300323	14312.337364
743.629683	14102.464047
743.958996	13819.231859
744.288260	13553.368967
744.617477	13260.835851
744.946647	13180.366433
745.275768	12906.036923
745.604842	12716.489538
745.933869	12552.818396
746.262847	12517.003518
746.591778	12438.059049
746.920662	12339.070952
747.249498	12342.488855
747.578286	12459.763737
747.907027	12604.376797
748.235720	12821.098521
748.564365	12850.405269
748.892963	12750.350968
749.221514	12808.465390
749.550017	12669.942044
749.878473	12636.612455
750.206881	12414.108527
750.535242	12317.429279
750.863555	12236.241496
751.191821	12137.618883
751.520039	12154.834423
751.848210	12068.585322
752.176334	12090.244640
752.504411	12011.867300
752.832440	11850.666324
753.160421	11908.374932
753.488356	11792.108281
753.816243	11694.728312
754.144082	11559.877446
754.471875	11497.904022
754.799620	11445.221443
755.127318	11414.241032
755.454969	11375.779549
755.782572	11334.941162
756.110129	11342.407111
756.437638	11264.327199
756.765100	11250.947977
757.092515	11254.471743
757.419882	11273.837336
757.747203	11272.907243
758.074477	11359.249606
758.401703	11312.432410
758.728882	11473.023407
759.056014	11510.448933
759.383099	11624.772220
759.710138	11727.740308
760.037129	11804.018007
760.364073	11825.614310
760.690970	11810.863893
761.017820	11809.291053
761.344623	11988.309988
761.671379	12318.278713
761.998088	12951.399745
762.324751	14494.161701
762.651366	17334.357860
762.977935	20994.767394
763.304456	23224.981418
763.630931	23696.682183
763.957359	22516.104446
764.283740	20607.710123
764.610074	18727.173215
764.936362	16606.110255
765.262602	15102.810452
765.588796	13637.500784
765.914943	12608.094648
766.241044	11760.976635
766.567097	11126.678493
766.893104	10580.461912
767.219064	10223.845648
767.544978	9844.004788
767.870845	9525.925625
768.196665	9349.192853
768.522438	9150.483171
768.848165	8983.026123
769.173846	8818.515629
769.499479	8697.966517
769.825066	8542.683855
770.150607	8363.531330
770.476101	8304.116290
770.801548	8188.870472
771.126949	8049.157414
771.452303	7960.027293
771.777611	7794.440513
772.102872	7770.517717
772.428087	7657.179976
772.753256	7532.696244
773.078378	7449.542411
773.403453	7305.743498
773.728482	7202.871192
774.053465	7142.216028
774.378401	7060.269552
774.703291	6963.827238
775.028135	6867.873916
775.352932	6829.369583
775.677683	6745.346151
776.002388	6659.976731
776.327046	6659.031515
776.651658	6579.035965
776.976224	6490.856102
777.300743	6479.611808
777.625216	6415.659730
777.949643	6372.608277
778.274024	6377.188165
778.598359	6310.813813
778.922647	6311.822043
779.246889	6273.080776
779.571086	6279.059585
779.895236	6291.594414
780.219339	6289.141892
780.543397	6280.786180
780.867409	6332.689900
781.191374	6334.040929
781.515294	6298.236134
781.839167	6350.868301
782.162995	6322.678168
782.486776	6270.958450
782.810511	6230.460341
783.134201	6155.979813
783.457844	6143.762577
783.781441	6100.257419
784.104993	6055.882663
784.428498	6022.122055
784.751958	6005.690414
785.075372	5979.879707
785.398739	5944.601712
785.722061	5971.725640
786.045337	5968.025433
786.368568	6076.503503
786.691752	6097.073931
787.014891	6351.271593
787.337983	6624.474405
787.661030	7061.570170
787.984031	7485.690005
788.306987	7749.228925
788.629897	7838.880805
788.952760	7750.794203
789.275579	7575.609066
789.598351	7274.228724
789.921078	7011.907243
790.243759	6735.291569
790.566395	6532.007041
790.888984	6341.852197
791.211529	6198.461617
791.534027	6034.898860
791.856480	5897.671090
792.178888	5840.829560
792.501249	5768.685608
792.823566	5667.741543
793.145836	5664.121994
793.468062	5643.854035
793.790241	5606.947748
794.112375	5642.747502
794.434464	5747.714408
794.756507	5775.924704
795.078505	5895.329474
795.400457	6108.711434
795.722364	6351.778229
796.044226	6540.534152
796.366042	6701.853596
796.687812	6647.560369
797.009538	6679.231418
797.331218	6579.756850
797.652852	6509.785634
797.974442	6393.024950
798.295986	6321.473332
798.617484	6198.179312
798.938938	6086.744607
799.260346	6017.627867
799.581709	5882.507300
799.903026	5828.135935
800.224299	5757.693372
800.545526	5641.083921
800.866708	5579.672585
801.187845	5528.527559
801.508936	5448.965548
801.829983	5420.412453
802.150984	5317.928316
802.471940	5293.700530
802.792851	5276.633704
803.113717	5248.499024
803.434538	5223.220158
803.755314	5197.144790
804.076045	5181.555022
804.396731	5147.885155
804.717372	5160.493081
805.037967	5161.884440
805.358518	5188.627761
805.679024	5247.450464
805.999485	5260.126446
806.319901	5278.693015
806.640272	5295.984173
806.960598	5345.586606
807.280879	5335.640410
807.601115	5370.948651
807.921306	5334.120502
808.241453	5330.924410
808.561554	5343.693653
808.881611	5311.203417
809.201623	5301.605060
809.521590	5256.579994
809.841513	5239.180452
810.161390	5258.092340
810.481223	5170.701418
810.801011	5154.050487
811.120755	5127.259274
811.440453	5075.559721
811.760107	5048.672727
812.079716	5019.577708
812.399281	4968.420078
812.718801	4962.650478
813.038276	4928.433646
813.357707	4894.985590
813.677093	4917.965690
813.996434	4852.839024
814.315731	4874.959607
814.634983	4873.724524
814.954191	4880.429259
815.273354	4937.611067
815.592473	4977.607581
815.911547	5055.117842
816.230577	5107.813023
816.549562	5195.808884
816.868502	5246.928705
817.187399	5306.063960
817.506250	5383.435589
817.825058	5407.973406
818.143821	5564.551644
818.462539	5735.330813
818.781213	5963.319516
819.099843	6325.531461
819.418429	6949.528005
819.736970	7571.666883
820.055466	8286.210112
820.373919	9196.939925
820.692327	10653.112501
821.010691	13352.728524
821.329011	19586.609287
821.647286	29212.649707
821.965517	39600.663051
822.283704	45117.222910
822.601847	46618.750748
822.919945	42010.125381
823.237999	36870.573253
823.556010	31620.632459
823.873976	26895.735399
824.191897	22666.310666
824.509775	19586.228680
824.827609	16796.756611
825.145398	15233.220061
825.463144	14473.709740
825.780845	14769.741417
826.098502	16010.439955
826.416116	18480.194485
826.733685	20781.317379
827.051210	21311.263636
827.368692	19883.460152
827.686129	17320.083833
828.003522	14826.933308
828.320872	12598.481167
828.638177	10943.412387
828.955439	9694.786634
829.272656	8624.857183
829.589830	7790.367261
829.906960	7058.676547
830.224046	6522.287696
830.541088	6108.910560
830.858086	5850.695098
831.175041	5642.114837
831.491952	5590.231282
831.808819	5623.749914
832.125642	5869.203695
832.442421	6415.475728
832.759157	7528.678444
833.075849	9297.833578
833.392497	11154.684624
833.709101	12276.444698
834.025662	12021.316943
834.342179	10965.457352
834.658653	9659.085183
834.975083	8555.468221
835.291469	7638.999055
835.607811	6905.760707
835.924110	6385.448095
836.240366	5893.345780
836.556578	5441.139157
836.872746	5083.328139
837.188871	4814.906862
837.504952	4588.614507
837.820990	4421.590997
838.136984	4310.093277
838.452935	4257.632510
838.768842	4289.409423
839.084706	4572.951642
839.400526	5315.052337
839.716303	6217.499534
840.032037	6785.130937
840.347727	6642.667929
840.663373	6042.793307
840.978977	5462.221262
841.294537	5022.831773
841.610054	4684.267880
841.925527	4445.274338
842.240957	4239.330601
842.556344	4056.921490
842.871687	3896.716141
843.186987	3748.291969
843.502244	3626.253196
843.817458	3537.523847
844.132629	3467.749237
844.447756	3419.646547
844.762840	3378.364538
845.077881	3336.868280
845.392879	3305.298054
845.707833	3278.647994
846.022745	3250.815784
846.337613	3237.229874
846.652438	3214.854713
846.967221	3206.803990
847.281960	3187.997966
847.596656	3177.923220
847.911309	3167.402332
848.225919	3151.263078
848.540485	3143.245123
848.855009	3135.048207
849.169490	3125.480097
849.483928	3114.097171
849.798323	3109.923096
850.112675	3099.830706
850.426984	3102.646190
850.741251	3095.797783
851.055474	3089.861824
851.369654	3092.586568
851.683792	3089.854262
851.997887	3091.238059
852.311938	3094.189655
852.625947	3095.286106
852.939914	3085.327306
853.253837	3093.546907
853.567718	3085.365115
853.881555	3083.867892
854.195350	3085.896957
854.509103	3083.320927
854.822812	3083.426791
855.136479	3078.834300
855.450103	3087.006010
855.763685	3075.340780
856.077224	3078.347829
856.390720	3086.315372
856.704173	3098.666199
857.017584	3105.466716
857.330953	3106.931171
857.644278	3115.785958
857.957561	3117.290742
858.270802	3116.297635
858.584000	3119.234107
858.897155	3111.526183
859.210268	3098.343565
859.523339	3088.904005
859.836367	3085.597008
860.149352	3079.159454
860.462295	3075.305492
860.775195	3066.324677
861.088054	3061.197823
861.400869	3061.238152
861.713642	3058.324366
862.026373	3070.823907
862.339062	3074.393043
862.651708	3085.009713
862.964312	3098.643514
863.276873	3106.066613
863.589392	3139.141623
863.901869	3165.716066
864.214303	3184.696010
864.526696	3202.216540
864.839045	3221.062894
865.151353	3236.950090
865.463619	3235.205851
865.775842	3238.192735
866.088023	3240.511666
866.400162	3235.294071
866.712258	3236.730800
867.024313	3232.970099
867.336325	3233.837178
867.648296	3232.624780
867.960224	3234.283320
868.272110	3237.355903
868.583954	3233.496900
868.895755	3242.150041
869.207515	3239.503435
869.519233	3259.073194
869.830909	3264.386570
870.142542	3277.617078
870.454134	3279.981380
870.765684	3295.165335
871.077191	3314.803150
871.388657	3325.840756
871.700081	3343.126873
872.011463	3364.876931
872.322803	3384.343347
872.634101	3401.019483
872.945357	3420.924479
873.256571	3449.885908
873.567744	3464.759833
873.878874	3468.969196
874.189963	3486.124243
874.501010	3487.064418
874.812015	3486.772031
875.122979	3500.299967
875.433900	3500.294926
875.744780	3503.019670
876.055618	3510.110053
876.366415	3511.690454
876.677169	3513.074251
876.987882	3532.097045
877.298554	3553.955488
877.609183	3590.584512
877.919771	3639.624857
878.230317	3704.355793
878.540822	3806.943273
878.851285	3964.726348
879.161707	4188.336809
879.472087	4562.965116
879.782425	5194.389800
880.092722	6387.583024
880.402977	8341.163730
880.713191	10740.150543
881.023363	13164.638033
881.333494	14526.591444
881.643583	14998.251880
881.953631	14588.277523
882.263637	13727.482859
882.573602	12676.787931
882.883526	11702.237110
883.193408	10744.425441
883.503248	9809.845930
883.813048	8973.805853
884.122806	8197.001853
884.432522	7421.826147
884.742197	6751.163642
885.051831	6186.536767
885.361424	5681.035066
885.670975	5282.042862
885.980485	4956.064210
886.289954	4684.779557
886.599382	4464.183706
886.908768	4285.900780
887.218113	4120.946664
887.527417	3983.824759
887.836680	3865.047613
888.145901	3759.624483
888.455082	3684.574305
888.764221	3616.818677
889.073319	3552.662432
889.382376	3523.269985
889.691392	3490.993997
890.000366	3488.523832
890.309300	3483.354129
890.618193	3488.375118
890.927044	3482.159375
891.235855	3491.372084
891.544625	3505.570494
891.853353	3532.782642
892.162041	3592.588371
892.470687	3687.077238
892.779293	3803.245587
893.087858	3978.516424
893.396381	4260.619393
893.704864	4678.752858
894.013306	5248.239405
894.321707	5826.174926
894.630068	6192.324012
894.938387	6234.866309
895.246665	6049.538371
895.554903	5731.648250
895.863100	5393.890943
896.171256	5118.527996
896.479371	4875.115883
896.787446	4647.001150
897.095480	4445.491108
897.403473	4299.516936
897.711425	4152.093433
898.019336	4032.537429
898.327207	3903.315012
898.635038	3803.202737
898.942827	3693.013197
899.250576	3608.205865
899.558284	3526.216539
899.865952	3469.344762
900.173579	3405.672468
900.481165	3358.134388
900.788711	3317.258192
901.096216	3283.434570
901.403681	3255.294849
901.711105	3243.506111
902.018489	3239.606778
902.325832	3272.767488
902.633135	3332.842919
902.940397	3504.232067
903.247619	3910.841454
903.554800	4670.414789
903.861941	5649.008615
904.169041	6367.234407
904.476101	6583.361275
904.783121	6307.025386
905.090100	5893.786881
905.397039	5475.789528
905.703938	5111.979537
906.010796	4784.952325
906.317614	4529.950599
906.624391	4285.043784
906.931129	4087.624637
907.237826	3908.295672
907.544483	3732.268662
907.851099	3558.026220
908.157675	3397.964544
908.464211	3254.009355
908.770707	3152.036895
909.077163	3076.303641
909.383578	3013.231244
909.689954	2967.545788
909.996289	2938.619647
910.302584	2917.408992
910.608839	2901.549522
910.915054	2891.116854
911.221229	2885.233828
911.527363	2890.627862
911.833458	2897.224212
912.139513	2910.616037
912.445527	2921.998963
912.751502	2955.731844
913.057436	3001.848319
913.363331	3058.856207
913.669186	3147.020947
913.975000	3265.513268
914.280775	3455.905046
914.586510	3726.063001
914.892205	4106.100466
915.197859	4609.081591
915.503475	5203.015214
915.809050	5704.388211
916.114585	6007.727041
916.420081	6068.082255
916.725536	6001.765876
917.030952	5757.763948
917.336328	5554.854985
917.641665	5336.772149
917.946961	5101.120892
918.252218	4899.464656
918.557435	4670.908822
918.862612	4466.830312
919.167750	4300.658758
919.472848	4108.106845
919.777906	3934.053447
920.082925	3774.337090
920.387904	3617.090899
920.692843	3505.958663
920.997743	3404.525606
921.302603	3312.537151
921.607423	3244.839496
921.912204	3177.940864
922.216946	3130.138123
922.521647	3079.817325
922.826310	3038.588248
923.130932	2999.153822
923.435516	2958.935497
923.740059	2931.912392
924.044564	2901.801580
924.349028	2873.220758
924.653454	2847.936851
924.957840	2816.477530
925.262186	2799.894655
925.566493	2776.745676
925.870761	2751.786924
926.174989	2743.927765
926.479178	2728.295147
926.783328	2711.974411
927.087438	2698.759026
927.391509	2685.180678
927.695541	2672.081240
927.999533	2664.116217
928.303486	2653.998621
928.607400	2649.539721
928.911275	2645.647950
929.215110	2637.360293
929.518906	2633.821403
929.822663	2633.670168
930.126381	2634.683440
930.430060	2636.916672
930.733699	2637.100674
931.037299	2643.505460
931.340861	2638.514717
931.644383	2643.820532
931.947866	2642.948412
932.251309	2640.334574
932.554714	2641.002527
932.858080	2638.832310
933.161407	2634.693523
933.464694	2632.125055
933.767943	2628.679426
934.071153	2624.669188
934.374323	2618.065277
934.677455	2618.229114
934.980548	2612.888012
935.283602	2611.738629
935.586617	2609.349122
935.889593	2613.971860
936.192530	2614.801130
936.495428	2619.998559
936.798287	2628.926443
937.101108	2642.708957
937.403890	2664.892555
937.706632	2691.497244
938.009336	2725.585527
938.312002	2754.068046
938.614628	2781.176851
938.917216	2799.680406
939.219765	2807.312713
939.522275	2820.195381
939.824747	2819.194712
940.127179	2813.961995
940.429573	2805.825572
940.731929	2804.335911
941.034246	2794.805610
941.336524	2794.926598
941.638763	2785.792027
941.940964	2781.280194
942.243126	2764.858636
942.545250	2753.150556
942.847335	2737.863257
943.149381	2727.246587
943.451389	2713.600183
943.753359	2698.701053
944.055290	2689.740402
944.357182	2680.744463
944.659036	2676.459482
944.960851	2672.787002
945.262628	2667.428255
945.564367	2668.499500
945.866067	2669.139727
946.167729	2666.825837
946.469352	2667.183759
946.770937	2662.621515
947.072484	2657.386277
947.373992	2658.263437
947.675462	2653.184475
947.976893	2649.322951
948.278286	2645.408495
948.579641	2637.909779
948.880958	2635.316105
949.182236	2639.059162
949.483476	2635.164871
949.784678	2634.451547
950.085841	2633.859212
950.386967	2637.766106
950.688054	2643.288690
950.989103	2649.365801
951.290114	2659.233860
951.591087	2672.870181
951.892021	2685.662109
952.192917	2695.338603
952.493776	2706.870243
952.794596	2709.930223
953.095378	2714.812581
953.396122	2709.499205
953.696828	2704.173226
953.997496	2702.842361
954.298126	2693.281813
954.598718	2685.626821
954.899272	2672.860098
955.199788	2664.335507
955.500266	2651.916625
955.800706	2633.380302
956.101108	2618.196347
956.401472	2608.744183
956.701798	2590.953951
957.002087	2580.511201
957.302337	2569.546692
957.602550	2554.629917
957.902724	2547.811757
958.202861	2537.610982
958.502960	2529.771988
958.803022	2519.780421
959.103045	2514.111643
959.403031	2506.663338
959.702979	2499.484735
960.002889	2498.161433
960.302762	2494.151195
960.602596	2490.145998
960.902393	2485.263640
961.202153	2483.993270
961.501875	2479.821715
961.801559	2478.241313
962.101205	2473.845427
962.400814	2471.897021
962.700385	2473.878194
962.999918	2468.763944
963.299414	2468.461475
963.598873	2463.720269
963.898293	2463.034673
964.197677	2462.933849
964.497022	2463.856381
964.796331	2463.178345
965.095601	2459.614250
965.394835	2462.611216
965.694030	2457.413786
965.993189	2459.906637
966.292309	2456.609722
966.591393	2461.645835
966.890439	2456.655092
967.189447	2455.946810
967.488419	2458.553087
967.787353	2461.474435
968.086249	2454.013528
968.385108	2458.238015
968.683930	2456.650051
968.982714	2464.136165
969.281462	2462.671709
969.580172	2464.736062
969.878844	2465.983747
970.177480	2469.872998
970.476078	2472.895169
970.774639	2472.683441
971.073162	2473.774851
971.371649	2475.693010
971.670098	2476.373566
971.968510	2479.511684
972.266885	2476.464306
972.565223	2482.087713
972.863524	2484.494864
973.161788	2488.759681
973.460014	2486.100472
973.758204	2488.739516
974.056356	2489.893940
974.354471	2492.568272
974.652550	2491.582727
974.950591	2489.319249
975.248595	2490.980309
975.546563	2489.437716
975.844493	2484.121819
976.142386	2485.011583
976.440243	2480.396406
976.738062	2480.729123
977.035845	2477.669142
977.333590	2475.075468
977.631299	2473.129583
977.928971	2471.652525
978.226606	2470.977010
978.524204	2469.116825
978.821765	2467.659931
979.119290	2463.664817
979.416777	2466.795373
979.714228	2466.742441
980.011642	2465.769498
980.309020	2471.758389
980.606360	2476.829790
980.903664	2485.727427
981.200931	2497.629591
981.498162	2518.464680
981.795356	2544.850079
982.092513	2584.057653
982.389633	2629.465846
982.686717	2672.426559
982.983764	2707.570963
983.280775	2726.054354
983.577749	2722.099569
983.874686	2718.323744
984.171587	2698.300281
984.468451	2683.812005
984.765279	2664.683347
985.062070	2644.619555
985.358824	2628.134982
985.655543	2603.879470
985.952224	2581.340471
986.248869	2553.722510
986.545478	2528.408356
986.842050	2506.197032
987.138586	2486.105513
987.435086	2475.191415
987.731549	2462.371761
988.027975	2458.777418
988.324366	2453.166614
988.620719	2445.945161
988.917037	2446.713937
989.213318	2438.955601
989.509563	2437.478543
989.805772	2437.594490
990.101944	2433.488470
990.398080	2434.806732
990.694180	2432.686926
990.990244	2435.361258
991.286271	2433.977462
991.582262	2432.752461
991.878217	2435.585590
992.174136	2435.772113
992.470019	2436.074582
992.765865	2440.619182
993.061676	2439.505087
993.357450	2445.004986
993.653188	2447.485233
993.948890	2452.927159
994.244556	2460.009980
994.540186	2467.120528
994.835780	2480.177116
995.131337	2496.603716
995.426859	2510.681138
995.722345	2533.467153
996.017795	2548.799823
996.313208	2565.160888
996.608586	2574.413926
996.903928	2578.393917
997.199234	2577.020202
997.494504	2571.338822
997.789738	2564.941597
998.084936	2553.636810
998.380099	2542.745397
998.675225	2531.738038
998.970316	2518.545338
999.265371	2506.640653
999.560390	2493.805876
999.855373	2481.656695
1000.150320	2470.659418
1000.445232	2461.219857
1000.740108	2455.891358
1001.034948	2448.574123
1001.329752	2444.654626
1001.624521	2438.290169
1001.919254	2430.698191
1002.213951	2430.466298
1002.508613	2426.035124
1002.803239	2430.224323
1003.097829	2419.665626
1003.392384	2423.028076
1003.686903	2421.389701
1003.981386	2424.568148
1004.275834	2422.811306
1004.570246	2421.339289
1004.864623	2419.395924
1005.158964	2420.482293
1005.453270	2419.824422
1005.747540	2418.039854
1006.041775	2418.843918
1006.335974	2416.560275
1006.630138	2414.780748
1006.924266	2416.088927
1007.218359	2415.468865
1007.512416	2413.497774
1007.806438	2415.196643
1008.100425	2414.054822
1008.394376	2414.163207
1008.688292	2416.242682
1008.982172	2413.598597
1009.276017	2414.601787
1009.569827	2415.688156
1009.863602	2415.229411
1010.157341	2413.263361
1010.451045	2412.497105
1010.744714	2409.364028
1011.038347	2411.622465
1011.331945	2410.594070
1011.625508	2412.005593
1011.919036	2410.773031
1012.212528	2410.815880
1012.505986	2409.918555
1012.799408	2412.517270
1013.092795	2410.233627
1013.386147	2411.055335
1013.679464	2409.149779
1013.972745	2408.343194
1014.265992	2409.237999
1014.559204	2412.381159
1014.852380	2409.873185
1015.145521	2411.141035
1015.438628	2407.687844
1015.731699	2409.606003
1016.024736	2409.273287
1016.317737	2409.885787
1016.610703	2412.174471
1016.903635	2407.765982
1017.196531	2405.908317
1017.489393	2410.894018
1017.782219	2405.580642
1018.075011	2414.011972
1018.367768	2411.524162
1018.660490	2411.027609
1018.953177	2411.027609
1019.245829	2411.027609
