Dividing Wavelength (nm)	Counts (n)	Blue Motor Position (mm): 19.000000	Red Motor Position (mm): 0.000000	
326.493990	1975.018213
326.888308	1975.018213
327.282561	1975.018213
327.676750	1949.527618
328.070874	1949.998966
328.464933	1957.631273
328.858929	1966.700309
329.252859	1978.680611
329.646726	1992.445482
330.040528	2008.806546
330.434265	2025.099556
330.827938	2047.174768
331.221547	2063.102294
331.615091	2084.217167
332.008571	2106.365476
332.401986	2129.408590
332.795338	2147.256796
333.188625	2168.633808
333.581847	2186.640810
333.975006	2205.356094
334.368100	2223.511809
334.761129	2243.111815
335.154095	2255.787797
335.546996	2289.916408
335.939833	2349.628876
336.332606	2364.298633
336.725315	2375.636188
337.117960	2386.446943
337.510540	2392.710576
337.903056	2403.604510
338.295508	2409.908473
338.687896	2414.574061
339.080220	2423.146543
339.472480	2429.556370
339.864676	2431.552667
340.256807	2436.419901
340.648875	2433.891762
341.040879	2438.602720
341.432818	2436.424942
341.824694	2442.005499
342.216506	2438.995930
342.608253	2441.133380
342.999937	2439.061465
343.391557	2438.335539
343.783113	2436.868563
344.174605	2431.910589
344.566033	2431.532502
344.957397	2431.620722
345.348697	2429.442944
345.739934	2425.362130
346.131106	2427.345824
346.522215	2422.828950
346.913260	2422.597057
347.304241	2422.017324
347.695159	2418.667477
348.086012	2418.254103
348.476802	2417.515574
348.867528	2415.221849
349.258191	2413.901067
349.648789	2412.113978
350.039324	2408.693555
350.429796	2410.737743
350.820203	2408.063410
351.210548	2412.015675
351.600828	2405.331105
351.991045	2404.579973
352.381198	2407.302196
352.771288	2408.197001
353.161314	2408.081054
353.551276	2404.645508
353.941175	2403.372617
354.331010	2404.690878
354.720782	2408.002917
355.110490	2412.166910
355.500135	2405.883111
355.889717	2407.765982
356.279235	2404.990827
356.668689	2408.368400
357.058080	2408.567526
357.447408	2410.510891
357.836672	2404.708523
358.225873	2406.447721
358.615010	2407.372772
359.004084	2413.727147
359.393095	2407.365211
359.782043	2411.693041
360.170927	2411.574574
360.559748	2410.079872
360.948505	2414.667322
361.337199	2415.718402
361.725830	2413.878381
362.114398	2413.986766
362.502903	2416.280491
362.891344	2417.291242
363.279722	2415.297466
363.668037	2416.368711
364.056289	2416.923238
364.444478	2417.082035
364.832603	2415.839390
365.220665	2417.349216
365.608665	2419.073290
365.996601	2421.735020
366.384474	2420.646130
366.772284	2420.290729
367.160031	2421.238466
367.547715	2417.621438
367.935336	2418.790986
368.322893	2419.370718
368.710388	2421.856007
369.097820	2421.636717
369.485189	2422.592016
369.872495	2423.348189
370.259738	2421.641758
370.646918	2424.900864
371.034035	2424.984043
371.421090	2422.728127
371.808081	2425.294074
372.195010	2423.280133
372.581875	2422.561769
372.968678	2423.151584
373.355418	2421.261151
373.742096	2423.648137
374.128710	2426.715680
374.515262	2422.765936
374.901751	2425.979671
375.288177	2426.587130
375.674540	2425.034455
376.060841	2427.865063
376.447079	2425.553694
376.833254	2425.684764
377.219367	2423.544794
377.605417	2426.249373
377.991404	2423.963210
378.377329	2428.399425
378.763191	2425.011770
379.148991	2428.964034
379.534727	2428.230546
379.920402	2430.347831
380.306013	2431.167018
380.691563	2432.644077
381.077049	2430.506627
381.462474	2426.161153
381.847835	2430.635177
382.233134	2430.352872
382.618371	2429.982347
383.003545	2432.197934
383.388657	2432.817996
383.773706	2433.322112
384.158693	2433.748089
384.543618	2431.837492
384.928480	2433.732966
385.313280	2434.574838
385.698017	2432.855805
386.082692	2431.983685
386.467305	2433.639704
386.851856	2436.258584
387.236344	2438.953081
387.620770	2436.233378
388.005133	2434.910075
388.389435	2435.963676
388.773674	2435.482246
389.157851	2436.210693
389.541965	2438.080961
389.926018	2436.072061
390.310008	2437.269335
390.693936	2436.276228
391.077802	2438.053235
391.461606	2435.467123
391.845348	2437.231527
392.229027	2436.351845
392.612645	2436.966866
392.996200	2441.574481
393.379694	2440.546085
393.763125	2438.753955
394.146494	2437.539037
394.529801	2438.365786
394.913047	2438.317895
395.296230	2441.405602
395.679351	2443.626230
396.062410	2440.949378
396.445408	2438.877463
396.828343	2441.395520
397.211217	2438.879984
397.594028	2441.234203
397.976778	2438.189346
398.359466	2438.355704
398.742092	2438.254881
399.124656	2442.681014
399.507158	2438.895107
399.889598	2446.121601
400.271977	2444.513473
400.654294	2443.711930
401.036549	2442.436518
401.418742	2443.268308
401.800874	2444.616817
402.182944	2443.379214
402.564952	2443.041456
402.946898	2446.731581
403.328783	2447.674277
403.710606	2447.228135
404.092367	2445.597321
404.474067	2444.430294
404.855705	2444.493309
405.237282	2447.674277
405.618797	2447.870882
406.000250	2445.294852
406.381642	2448.720316
406.762972	2448.604370
407.144240	2449.839452
407.525447	2449.985646
407.906593	2448.115378
408.287677	2449.836932
408.668700	2452.090328
409.049661	2449.292487
409.430560	2451.145111
409.811399	2448.468258
410.192176	2449.378187
410.572891	2450.782148
410.953545	2451.472786
411.334138	2450.028496
411.714669	2450.383897
412.095139	2451.354319
412.475547	2452.430605
412.855894	2449.484051
413.236180	2451.777776
413.616405	2452.138218
413.996568	2452.649896
414.376670	2452.576799
414.756711	2449.731067
415.136691	2453.330451
415.516609	2452.125616
415.896466	2452.511264
416.276262	2454.336162
416.655997	2451.671912
417.035670	2449.216870
417.415283	2453.713579
417.794834	2450.149483
418.174324	2454.358847
418.553753	2455.898919
418.933121	2455.969495
419.312428	2455.944290
419.691674	2455.546038
420.070859	2455.334310
420.449983	2457.413786
420.829045	2456.244238
421.208047	2455.483024
421.586988	2454.810030
421.965867	2457.622994
422.344686	2454.754577
422.723444	2460.745989
423.102141	2457.181893
423.480777	2459.175669
423.859352	2456.914712
424.237866	2457.302881
424.616319	2458.401852
424.994712	2459.997377
425.373044	2460.015021
425.751314	2460.251956
426.129524	2461.696246
426.507673	2458.989147
426.885762	2460.443519
427.263789	2459.208437
427.641756	2459.470577
428.019662	2458.928653
428.397508	2461.378653
428.775292	2461.396298
429.153016	2462.838068
429.530679	2463.216154
429.908282	2461.078705
430.285824	2461.976030
430.663305	2462.429734
431.040726	2461.295474
431.418086	2462.137347
431.795385	2464.978037
432.172624	2465.814869
432.549802	2462.013839
432.926920	2465.827472
433.303977	2466.351752
433.680974	2465.376288
434.057910	2466.369396
434.434786	2469.827627
434.811601	2467.405353
435.188355	2467.654890
435.565050	2470.077164
435.941683	2466.916361
436.318257	2467.037349
436.694770	2465.207410
437.071222	2466.455095
437.447614	2464.854529
437.823946	2468.408542
438.200218	2467.407873
438.576429	2465.214972
438.952580	2469.575570
439.328670	2467.478450
439.704700	2472.272587
440.080670	2467.395271
440.456580	2471.176136
440.832429	2473.565643
441.208218	2471.347535
441.583947	2472.622947
441.959616	2467.090281
442.335224	2470.440127
442.710773	2475.037660
443.086261	2472.915334
443.461689	2472.247381
443.837057	2471.070272
444.212365	2472.736373
444.587612	2475.345170
444.962800	2473.825262
445.337927	2473.500108
445.712995	2471.924747
446.088002	2477.994297
446.462949	2472.811990
446.837837	2476.328195
447.212664	2476.630664
447.587431	2480.076293
447.962139	2485.238435
448.336786	2486.743219
448.711374	2485.654330
449.085901	2482.065028
449.460369	2480.963536
449.834776	2482.566623
450.209124	2488.492499
450.583412	2484.865389
450.957640	2485.939155
451.331808	2485.407313
451.705917	2484.348671
452.079965	2484.653661
452.453954	2486.138281
452.827883	2487.852273
453.201752	2486.768425
453.575562	2485.987046
453.949311	2489.233549
454.323001	2488.258086
454.696632	2487.156594
455.070202	2492.328818
455.443713	2491.466780
455.817164	2489.407469
456.190556	2489.924187
456.563888	2494.186483
456.937160	2489.500730
457.310373	2493.231184
457.683526	2493.251349
458.056619	2497.238901
458.429653	2495.618170
458.802628	2499.888028
459.175542	2499.111690
459.548398	2503.326095
459.921194	2503.368944
460.293930	2507.248112
460.666607	2512.818587
461.039224	2516.554082
461.411782	2514.756911
461.784280	2516.654905
462.156719	2513.357991
462.529099	2518.134484
462.901419	2512.979904
463.273680	2517.355626
463.645882	2513.496623
464.018024	2516.576767
464.390106	2520.697911
464.762130	2526.845598
465.134094	2532.592513
465.505999	2548.998948
465.877845	2555.827191
466.249631	2562.368088
466.621358	2562.058057
466.993026	2561.800959
467.364634	2558.771225
467.736184	2552.008517
468.107674	2553.150339
468.479105	2553.046995
468.850477	2552.608415
469.221790	2550.644885
469.593043	2543.940151
469.964238	2545.545758
470.335373	2546.488454
470.706449	2554.191337
471.077467	2561.269117
471.448425	2576.347208
471.819324	2584.226532
472.190164	2580.211252
472.560945	2575.212948
472.931667	2569.581980
473.302330	2563.784653
473.672934	2564.752554
474.043479	2568.135168
474.413965	2566.983265
474.784393	2565.092832
475.154761	2574.023236
475.525070	2570.733883
475.895321	2574.429049
476.265513	2575.706982
476.635645	2586.341296
477.005719	2585.491861
477.375734	2590.280957
477.745691	2592.960331
478.115588	2601.356372
478.485427	2609.661673
478.855207	2624.144908
479.224928	2633.518934
479.594591	2643.848258
479.964194	2642.648463
480.333739	2645.156437
480.703226	2649.045688
481.072653	2657.338386
481.442022	2660.542039
481.811333	2664.955569
482.180584	2662.273675
482.549777	2666.384736
482.918912	2667.014881
483.287988	2668.635612
483.657005	2667.582010
484.025964	2666.185611
484.394864	2671.856909
484.763706	2674.387568
485.132489	2676.593073
485.501213	2679.030471
485.869879	2682.226562
486.238487	2688.008766
486.607036	2691.681246
486.975527	2695.086546
487.343959	2697.954962
487.712333	2705.993082
488.080648	2711.251006
488.448905	2722.548231
488.817104	2725.832543
489.185244	2740.814852
489.553326	2759.099117
489.921350	2784.138528
490.289315	2815.761687
490.657222	2834.509738
491.025070	2847.473065
491.392861	2847.858713
491.760593	2849.968436
492.128267	2851.173272
492.495883	2846.633713
492.863440	2848.846779
493.230939	2850.875844
493.598380	2854.840711
493.965763	2859.836495
494.333088	2871.388299
494.700354	2881.369783
495.067563	2895.643810
495.434713	2907.540933
495.801805	2933.512958
496.168839	2945.321861
496.535815	2962.078656
496.902733	2982.631441
497.269593	2999.292454
497.636395	3019.023530
498.003139	3051.037378
498.369825	3068.293247
498.736453	3098.817434
499.103023	3119.176134
499.469535	3146.587408
499.835989	3174.588497
500.202385	3200.941128
500.568723	3237.353383
500.935003	3276.369393
501.301226	3306.336532
501.667390	3358.189840
502.033497	3403.580390
502.399546	3431.493258
502.765537	3457.745067
503.131470	3506.919002
503.497345	3563.059812
503.863163	3578.642019
504.228923	3640.950680
504.594625	3705.260680
504.960269	3738.038262
505.325856	3814.091630
505.691385	3851.139069
506.056856	3913.843461
506.422270	3992.036799
506.787625	4042.745765
507.152924	4114.834265
507.518164	4188.629196
507.883347	4222.604052
508.248472	4310.088236
508.613540	4409.275458
508.978550	4498.685363
509.343503	4572.054316
509.708398	4661.988501
510.073236	4778.048465
510.438016	4869.638669
510.802738	4928.168986
511.167403	5059.458276
511.532010	5170.693856
511.896561	5292.354542
512.261053	5452.010405
512.625488	5521.434655
512.989866	5619.631291
513.354186	5716.605447
513.718449	5822.797353
514.082655	5997.490978
514.446803	6088.572025
514.810894	6249.389874
515.174927	6370.793461
515.538904	6487.463405
515.902822	6674.659092
516.266684	6753.306133
516.630488	6925.073368
516.994235	7040.190636
517.357925	7244.458190
517.721558	7409.543376
518.085133	7583.949655
518.448651	7754.368381
518.812112	7870.660239
519.175516	8033.161833
519.538863	8225.975885
519.902152	8382.367601
520.265385	8603.366744
520.628560	8770.087784
520.991678	8900.036128
521.354739	9097.200696
521.717743	9315.056680
522.080690	9466.566038
522.443580	9731.382891
522.806413	9915.702599
523.169189	10080.013967
523.531908	10290.764445
523.894569	10444.527199
524.257174	10659.459314
524.619722	10901.603577
524.982213	11084.526886
525.344647	11257.201528
525.707025	11456.183432
526.069345	11735.160886
526.431608	11902.680949
526.793815	12179.954493
527.155964	12267.456321
527.518057	12513.709124
527.880093	12664.916013
528.242072	13005.788754
528.603995	13135.674083
528.965860	13347.793234
529.327669	13572.527873
529.689421	13765.142799
530.051117	13960.553046
530.412755	14206.415160
530.774337	14437.736066
531.135862	14610.478764
531.497331	14877.251585
531.858743	15065.097580
532.220098	15387.184461
532.581396	15522.093299
532.942638	15639.897503
533.303824	15952.612879
533.664953	16174.796694
534.026025	16305.871735
534.387040	16687.403902
534.747999	16886.123666
535.108902	17194.296962
535.469748	17246.488028
535.830537	17523.194442
536.191270	17842.543977
536.551947	17944.982743
536.912567	18310.174010
537.273131	18582.169466
537.633638	18625.162947
537.994089	18992.705912
538.354483	19070.349763
538.714821	19543.981291
539.075103	19927.862635
539.435328	20074.676159
539.795497	20265.060375
540.155609	20499.257259
540.515665	20951.042946
540.875665	20939.922161
541.235609	21321.280408
541.595496	21563.938869
541.955328	22124.396710
542.315102	22062.224159
542.674821	22208.828475
543.034483	22462.073359
543.394090	22692.572557
543.753640	22913.551536
544.113134	23658.492922
544.472571	23414.765736
544.831953	24289.040445
545.191278	24130.226455
545.550548	24221.390681
545.909761	24701.452200
546.268918	25045.500868
546.628019	25455.318949
546.987064	25458.308353
547.346053	25300.762213
547.704986	26030.171804
548.063863	26017.284095
548.422684	26363.472732
548.781449	26515.725661
549.140158	26970.281462
549.498811	27128.795503
549.857408	27007.401998
550.215949	27743.773423
550.574434	27941.311036
550.932864	28038.771663
551.291237	28698.711634
551.649555	28683.348718
552.007817	29059.315451
552.366022	29066.347861
552.724173	29408.095242
553.082267	29876.476407
553.440305	30302.179164
553.798288	30074.505533
554.156215	30507.850679
554.514086	30853.157115
554.871902	30907.387328
555.229661	31116.968258
555.587365	31226.585627
555.945014	31507.929903
556.302606	31641.165078
556.660143	32010.238034
557.017625	32280.527059
557.375050	32346.301514
557.732421	32798.742551
558.089735	32992.953003
558.446994	33132.814775
558.804197	33665.173224
559.161345	33819.908921
559.518437	33479.951150
559.875474	33898.203081
560.232455	34213.716298
560.589381	34538.946338
560.946251	34501.798075
561.303065	35196.804312
561.659825	35229.740691
562.016528	35162.169065
562.373177	35141.606198
562.729770	35690.035846
563.086307	35498.519890
563.442789	36026.837855
563.799216	36234.729998
564.155587	36242.359784
564.511904	36435.509073
564.868164	36672.120670
565.224370	37037.992493
565.580520	36991.697057
565.936615	37322.631163
566.292654	37251.250945
566.648638	37604.358566
567.004567	37723.281906
567.360441	37907.599093
567.716260	37941.858775
568.072023	38345.014971
568.427732	38499.034824
568.783385	38251.804037
569.138982	38720.580933
569.494525	38838.168367
569.850013	38778.687793
570.205445	38901.452492
570.560823	38975.002926
570.916145	39015.828711
571.271412	39165.636680
571.626625	39086.160369
571.981782	39264.551680
572.336884	39124.561358
572.691931	39512.750369
573.046923	39288.224938
573.401860	39280.653125
573.756743	39384.770596
574.111570	39596.930076
574.466342	39581.920041
574.821059	39808.464453
575.175722	39499.920632
575.530330	39618.760793
575.884882	39486.664918
576.239380	39552.930886
576.593823	39631.146908
576.948211	39664.151342
577.302544	39359.438798
577.656823	39469.061209
578.011047	39755.446638
578.365216	39608.686047
578.719330	39512.962097
579.073389	39473.457095
579.427394	39657.411320
579.781344	39716.254188
580.135239	39476.791818
580.489080	39639.109411
580.842866	39269.565107
581.196597	39763.600705
581.550273	39778.585535
581.903895	39724.695600
582.257463	40194.745388
582.610975	39726.656609
582.964434	40053.275487
583.317837	39813.495525
583.671186	39733.384029
584.024481	40009.200679
584.377721	39657.865023
584.730906	39990.866003
585.084037	40079.691133
585.437113	39891.328420
585.790135	39992.416157
586.143103	39704.931756
586.496016	39880.268128
586.848874	39971.326490
587.201679	40051.642153
587.554428	39624.903439
587.907124	39857.729129
588.259765	39692.646464
588.612352	39997.202733
588.964884	39486.987552
589.317362	39801.994133
589.669786	39820.457358
590.022155	39655.425105
590.374470	40093.057753
590.726731	39717.801822
591.078937	39341.242753
591.431090	39458.252975
591.783188	39200.229077
592.135232	38944.652660
592.487222	39226.856452
592.839157	39369.803410
593.191038	39088.469217
593.542866	38910.093029
593.894639	38395.272755
594.246358	38692.514309
594.598022	38711.416115
594.949633	38387.186744
595.301190	38398.660410
595.652692	38279.790002
596.004141	38620.511508
596.355535	37731.594768
596.706876	37738.244050
597.058162	37614.977757
597.409395	38087.296063
597.760573	38198.145995
598.111698	37813.717685
598.462768	37870.314719
598.813785	37943.300545
599.164748	37473.026426
599.515657	37881.687562
599.866511	37413.989473
600.217312	38028.309522
600.568060	37071.092709
600.918753	37810.027561
601.269392	37797.258318
601.619978	37483.166707
601.970510	37713.166831
602.320988	37926.263965
602.671412	38242.929085
603.021783	38011.998869
603.372100	37707.324133
603.722363	37847.495937
604.072572	37925.467463
604.422728	37972.718198
604.772830	37806.592014
605.122878	37918.286339
605.472872	37898.106601
605.822813	38193.004018
606.172701	38042.709578
606.522534	38289.882392
606.872314	38558.268382
607.222041	38345.148562
607.571714	38730.544773
607.921333	38210.443890
608.270899	38525.216057
608.620411	38876.692865
608.969870	38692.448774
609.319276	38694.772746
609.668627	38783.431518
610.017926	39253.481306
610.367171	39437.803535
610.716362	39530.790138
611.065500	39501.117906
611.414585	39699.696518
611.763616	40018.065548
612.112594	39933.280902
612.461518	40167.142550
612.810389	40459.794133
613.159207	40353.637516
613.507971	40436.004928
613.856682	40917.233474
614.205340	40799.633437
614.553945	41496.336023
614.902496	40970.173152
615.250994	41431.534510
615.599439	41526.797195
615.947830	41761.077258
616.296169	41803.233907
616.644454	41951.549694
616.992686	42122.588482
617.340864	42659.670493
617.688990	42389.018504
618.037063	42980.277795
618.385082	42957.811893
618.733048	43259.688788
619.080961	43280.100420
619.428821	43297.464674
619.776628	43408.231427
620.124382	43237.860592
620.472083	43374.377559
620.819731	43507.133825
621.167326	43208.160634
621.514868	43205.733318
621.862357	42750.144081
622.209793	42807.794716
622.557176	42473.180568
622.904506	42241.136256
623.251783	41909.710638
623.599007	41675.075173
623.946179	41480.181645
624.293297	41419.581935
624.640363	40854.539165
624.987376	40845.999450
625.334336	40620.178443
625.681243	40276.477615
626.028097	40236.541594
626.374899	40104.498651
626.721647	40086.448800
627.068343	39997.341365
627.414987	39769.965162
627.761577	39544.060975
628.108115	39886.834231
628.454600	39336.118420
628.801032	39524.650012
629.147412	39493.984674
629.493739	39516.017037
629.840014	39173.180766
630.186236	39530.321311
630.532405	39134.752051
630.878521	39357.883602
631.224585	39240.684337
631.570597	38962.092531
631.916556	39119.684042
632.262462	39092.734033
632.608316	39088.643137
632.954117	38994.774332
633.299866	38981.516097
633.645562	38905.898789
633.991206	38422.051364
634.336797	38006.234309
634.682336	38005.805811
635.027823	37755.764581
635.373257	37598.674665
635.718639	37350.191151
636.063968	37227.086174
636.409245	36643.872565
636.754470	36708.575774
637.099642	36477.189333
637.444762	36013.302357
637.789829	36156.728225
638.134845	35820.062327
638.479808	35767.152897
638.824719	35665.303945
639.169577	35287.633302
639.514383	35358.769023
639.859137	35058.011264
640.203839	35307.639121
640.548489	34940.635559
640.893086	35014.065006
641.237632	34782.905417
641.582125	34892.842900
641.926566	34827.446532
642.270955	34799.684897
642.615292	34809.835261
642.959576	34800.947706
643.303809	34799.107685
643.647990	34935.682625
643.992118	34909.458543
644.336195	34913.168832
644.680219	35002.399776
645.024192	35304.130478
645.368112	35812.803065
645.711981	35839.233835
646.055797	36697.956584
646.399562	36634.506101
646.743274	37560.314005
647.086935	38004.442179
647.430544	37895.749861
647.774101	38028.390181
648.117606	38254.816126
648.461059	38562.691994
648.804460	38173.925772
649.147810	37562.940446
649.491108	37324.798859
649.834354	36963.758982
650.177548	36145.783880
650.520690	35709.353547
650.863781	35717.404270
651.206820	35558.257563
651.549807	35148.875542
651.892742	34666.537942
652.235626	34494.344729
652.578458	34343.944425
652.921238	33745.665328
653.263967	34077.471553
653.606644	33780.406439
653.949269	33717.661718
654.291843	33329.583613
654.634365	33728.716968
654.976836	33331.900023
655.319255	33331.005218
655.661622	33321.406861
656.003938	33105.269911
656.346203	32980.728205
656.688416	33195.093190
657.030577	32983.218535
657.372687	32831.081553
657.714746	33097.617439
658.056753	33232.216247
658.398708	32677.520445
658.740612	32742.379930
659.082465	33019.822353
659.424266	32835.522809
659.766016	32974.729232
660.107715	32847.603935
660.449362	32974.625888
660.790958	32953.125367
661.132503	32972.682523
661.473996	33002.528675
661.815438	33112.967752
662.156829	33296.107831
662.498168	33076.555498
662.839456	33107.858543
663.180693	33265.813017
663.521879	33421.362860
663.863013	33387.362798
664.204097	33368.861763
664.545129	33842.541181
664.886110	33808.044565
665.227040	33876.689957
665.567918	33983.456555
665.908746	34039.672982
666.249522	34222.833224
666.590248	34212.713108
666.930922	34323.631096
667.271545	34288.050632
667.612118	34376.134713
667.952639	34163.740819
668.293109	34211.283941
668.633528	34109.508086
668.973896	34031.644944
669.314213	34076.312088
669.654480	33809.365348
669.994695	33838.097404
670.334859	33732.490272
670.674973	33639.370078
671.015035	33785.709733
671.355047	33760.801392
671.695008	33705.852815
672.034918	33585.175154
672.374777	33676.341901
672.714585	33511.349976
673.054342	33753.630351
673.394049	33518.800802
673.733705	33791.925476
674.073310	33459.055567
674.412864	33533.881413
674.752368	33128.431492
675.091820	33427.228242
675.431223	33007.710981
675.770574	32728.330235
676.109875	32591.961982
676.449125	32312.765238
676.788324	32245.685124
677.127473	31719.824722
677.466571	31640.618113
677.805619	31297.484415
678.144616	31301.731587
678.483562	31207.741794
678.822458	30898.638405
679.161303	30829.514103
679.500098	30724.247249
679.838842	30631.205193
680.177535	30785.237649
680.516179	31058.417776
680.854771	31311.786168
681.193314	32162.410304
681.531805	33287.318579
681.870247	34074.184721
682.208638	34794.737005
682.546978	35023.156727
682.885268	35098.791678
683.223508	34580.228347
683.561697	34223.846496
683.899836	34050.355187
684.237925	33535.126578
684.575963	33407.552619
684.913951	32940.078861
685.251889	33112.445993
685.589776	33085.168310
685.927614	33068.560228
686.265401	33228.463108
686.603137	33323.723271
686.940824	33841.227961
687.278460	34218.772575
687.616046	34360.156776
687.953582	34965.047346
688.291068	34827.809495
688.628504	35106.444150
688.965889	35033.397831
689.303224	34652.389944
689.640510	34311.965866
689.977745	33568.723348
690.314930	32764.593775
690.652065	32248.233427
690.989150	31499.014622
691.326185	30590.964183
691.663170	29896.845189
692.000105	29142.980961
692.336990	28471.799217
692.673825	28019.862295
693.010610	27507.799532
693.347345	26933.511286
693.684030	26287.918439
694.020665	26004.114080
694.357251	25339.455590
694.693786	25296.893128
695.030272	25058.902775
695.366707	24533.037332
695.703093	24236.809050
696.039429	24223.873449
696.375716	23973.658299
696.711952	23929.281021
697.048139	23773.005252
697.384276	23599.009827
697.720363	23723.957346
698.056400	23526.752448
698.392388	23313.776301
698.728326	23264.541872
699.064214	23056.188463
699.400053	23002.664012
699.735842	22646.365341
700.071581	22369.979040
700.407270	22082.595462
700.742910	21892.601935
701.078501	21630.562758
701.414042	21340.227585
701.749533	21046.865199
702.084974	20695.161539
702.420366	20911.805125
702.755709	20475.084927
703.091002	20175.237096
703.426246	20197.365241
703.761440	20100.696074
704.096584	19830.752368
704.431679	19780.512229
704.766725	19695.813283
705.101721	19634.394385
705.436668	19722.987622
705.771565	19398.380165
706.106413	19748.337065
706.441212	19737.586804
706.775961	19862.441061
707.110661	19928.936401
707.445311	20284.879671
707.779913	20137.879625
708.114465	20379.025740
708.448967	20660.871610
708.783421	21354.108402
709.117825	21623.653857
709.452180	21843.370027
709.786485	22251.264908
710.120742	23042.879817
710.454949	23065.370925
710.789107	23533.822667
711.123216	24240.809206
711.457275	24368.088258
711.791286	24904.666153
712.125247	24964.965914
712.459159	24653.954448
712.793023	25314.259903
713.126837	24213.408014
713.460602	24456.807524
713.794318	24074.125974
714.127985	23688.470143
714.461602	22797.736067
714.795171	22742.651379
715.128691	21737.641907
715.462162	21204.277748
715.795584	20780.344436
716.128957	20519.013541
716.462281	20113.787951
716.795556	19871.205107
717.128782	19381.620849
717.461960	18841.892233
717.795088	18763.366179
718.128167	18360.131845
718.461198	17907.403462
718.794180	17760.582377
719.127113	17404.838232
719.459997	17211.583079
719.792833	16861.361518
720.125619	16818.806618
720.458357	16512.720359
720.791046	16349.220617
721.123686	16192.266812
721.456278	15954.094978
721.788821	15911.769451
722.121315	15640.537730
722.453761	15723.900770
722.786158	15646.052752
723.118506	15659.313507
723.450805	15512.931002
723.783056	15687.271746
724.115259	15583.797022
724.447412	15519.290418
724.779518	15763.463746
725.111574	15783.575429
725.443582	15983.084133
725.775542	15961.694518
726.107453	16425.155517
726.439315	16319.928992
726.771129	16717.096298
727.102895	17081.733038
727.434612	17276.238397
727.766281	17406.925270
728.097901	17656.364083
728.429473	17703.791258
728.760996	17684.448351
729.092471	17772.839942
729.423897	17649.452661
729.755276	17503.496133
730.086606	17628.015154
730.417887	18151.241553
730.749120	18674.447787
731.080305	18834.151541
731.411442	19172.198715
731.742530	19245.726464
732.073570	19333.369445
732.404562	19629.222161
732.735506	19443.430436
733.066401	19147.267689
733.397249	18628.764851
733.728048	17999.923758
734.058798	17156.518555
734.389501	16487.126421
734.720156	16024.207346
735.050762	15507.383212
735.381320	15154.711651
735.711831	14917.537966
736.042293	14564.778184
736.372707	14569.524430
736.703073	14363.210168
737.033391	14546.677921
737.363661	14521.721689
737.693883	14632.571621
738.024056	14803.774247
738.354182	14987.582278
738.684260	15274.305464
739.014290	15486.727085
739.344272	15682.961560
739.674207	15954.014320
740.004093	16075.720377
740.333931	16063.861062
740.663722	16088.166985
740.993464	16085.124649
741.323159	15908.694347
741.652806	15636.237625
741.982405	15423.115285
742.311956	15080.417646
742.641460	14963.936746
742.970915	14654.336803
743.300323	14327.181042
743.629683	14109.483854
743.958996	13828.053879
744.288260	13563.574783
744.617477	13259.699071
744.946647	13186.773739
745.275768	12920.812544
745.604842	12734.057959
745.933869	12571.579050
746.262847	12518.614167
746.591778	12439.372270
746.920662	12344.520440
747.249498	12343.295439
747.578286	12465.296403
747.907027	12605.735388
748.235720	12827.732680
748.564365	12860.890869
748.892963	12755.550918
749.221514	12816.871514
749.550017	12669.816015
749.878473	12625.925209
750.206881	12405.677197
750.535242	12314.971716
750.863555	12237.247206
751.191821	12136.262813
751.520039	12164.720126
751.848210	12069.538100
752.176334	12101.335178
752.504411	12004.096362
752.832440	11843.182731
753.160421	11915.183011
753.488356	11790.522838
753.816243	11696.379290
754.144082	11550.689943
754.471875	11502.473827
754.799620	11440.538211
755.127318	11413.583162
755.454969	11383.532844
755.782572	11330.905718
756.110129	11342.981802
756.437638	11254.358317
756.765100	11245.337173
757.092515	11259.217990
757.419882	11272.234249
757.747203	11280.370671
758.074477	11350.218378
758.401703	11303.804475
758.728882	11467.425205
759.056014	11508.127482
759.383099	11627.812036
759.710138	11728.796429
760.037129	11800.799230
760.364073	11823.630616
760.690970	11812.265334
761.017820	11810.576548
761.344623	11993.290648
761.671379	12312.057929
761.998088	12944.329527
762.324751	14493.405528
762.651366	17346.267586
762.977935	21007.226606
763.304456	23215.965314
763.630931	23681.556201
763.957359	22497.469821
764.283740	20591.081877
764.610074	18709.592191
764.936362	16589.552585
765.262602	15080.009313
765.588796	13620.222229
765.914943	12594.896907
766.241044	11746.417783
766.567097	11114.758685
766.893104	10570.631662
767.219064	10208.999450
767.544978	9826.907715
767.870845	9516.707875
768.196665	9333.043517
768.522438	9134.046489
768.848165	8970.317374
769.173846	8809.595307
769.499479	8683.231224
769.825066	8535.734624
770.150607	8347.974329
770.476101	8286.459649
770.801548	8176.418822
771.126949	8034.003706
771.452303	7944.903832
771.777611	7784.655633
772.102872	7755.434585
772.428087	7642.285887
772.753256	7521.494800
773.078378	7434.678569
773.403453	7294.189173
773.728482	7191.881476
774.053465	7123.473018
774.378401	7044.218518
774.703291	6947.241842
775.028135	6850.474373
775.352932	6813.885678
775.677683	6733.131435
776.002388	6645.087683
776.327046	6645.304453
776.651658	6558.591565
776.976224	6484.027859
777.300743	6467.661753
777.625216	6397.090640
777.949643	6355.596903
778.274024	6361.011102
778.598359	6296.247399
778.922647	6296.804446
779.246889	6259.494867
779.571086	6263.056442
779.895236	6278.578154
780.219339	6266.509632
780.543397	6267.303614
780.867409	6319.310677
781.191374	6315.688608
781.515294	6285.976048
781.839167	6334.040929
782.162995	6303.594880
782.486776	6257.526296
782.810511	6213.758998
783.134201	6138.018182
783.457844	6130.416122
783.781441	6081.027938
784.104993	6040.436567
784.428498	6007.353995
784.751958	5990.894628
785.075372	5971.289581
785.398739	5927.222334
785.722061	5952.402898
786.045337	5951.825686
786.368568	6058.511624
786.691752	6077.549542
787.014891	6328.798129
787.337983	6609.050995
787.661030	7042.000411
787.984031	7465.308620
788.306987	7729.391984
788.629897	7818.764080
788.952760	7736.623520
789.275579	7551.159470
789.598351	7253.502020
789.921078	6989.222050
790.243759	6710.194185
790.566395	6508.883268
790.888984	6314.113248
791.211529	6176.698956
791.534027	6016.412949
791.856480	5875.573193
792.178888	5818.396426
792.501249	5755.870994
792.823566	5650.450385
793.145836	5645.205065
793.468062	5628.460872
793.790241	5586.974697
794.112375	5626.215038
794.434464	5727.385955
794.756507	5756.793526
795.078505	5870.143870
795.400457	6092.320123
795.722364	6329.110681
796.044226	6522.214599
796.366042	6677.721592
796.687812	6623.438448
797.009538	6655.356513
797.331218	6560.754220
797.652852	6490.102449
797.974442	6369.651640
798.295986	6301.114633
798.617484	6170.624365
798.938938	6060.197890
799.260346	5997.145659
799.581709	5861.329412
799.903026	5808.472914
800.224299	5735.827367
800.545526	5612.432523
800.866708	5555.389347
801.187845	5504.884547
801.508936	5430.383855
801.829983	5401.437550
802.150984	5297.902332
802.471940	5268.666160
802.792851	5252.297534
803.113717	5230.799533
803.434538	5204.822468
803.755314	5171.467673
804.076045	5165.589688
804.396731	5124.027895
804.717372	5143.648066
805.037967	5145.926667
805.358518	5177.083518
805.679024	5228.528493
805.999485	5239.455194
806.319901	5255.591928
806.640272	5279.197131
806.960598	5326.543648
807.280879	5314.550743
807.601115	5354.683368
807.921306	5316.685671
808.241453	5315.818593
808.561554	5325.421991
808.881611	5287.827586
809.201623	5281.619405
809.521590	5233.194081
809.841513	5219.925764
810.161390	5233.231890
810.481223	5148.366586
810.801011	5134.435357
811.120755	5106.686326
811.440453	5052.556936
811.760107	5024.409654
812.079716	4996.300180
812.399281	4950.062717
812.718801	4946.085246
813.038276	4907.870780
813.357707	4873.033886
813.677093	4897.082710
813.996434	4832.926466
814.315731	4854.547975
814.634983	4850.961194
814.954191	4863.102813
815.273354	4917.421246
815.592473	4960.331547
815.911547	5031.159759
816.230577	5085.768058
816.549562	5170.121685
816.868502	5225.037494
817.187399	5274.798724
817.506250	5357.672773
817.825058	5379.558942
818.143821	5539.040885
818.462539	5704.078180
818.781213	5930.965391
819.099843	6288.819258
819.418429	6915.502737
819.736970	7528.534771
820.055466	8236.950477
820.373919	9147.133325
820.692327	10586.944836
821.010691	13258.499276
821.329011	19433.416184
821.647286	28939.378839
821.965517	39209.560253
822.283704	44622.111027
822.601847	46104.333766
822.919945	41526.383820
823.237999	36444.227749
823.556010	31273.697731
823.873976	26605.238909
824.191897	22428.610180
824.509775	19382.692094
824.827609	16631.300901
825.145398	15094.842908
825.463144	14341.772661
825.780845	14641.053362
826.098502	15887.208949
826.416116	18325.552050
826.733685	20590.297977
827.051210	21118.862958
827.368692	19697.807059
827.686129	17144.180331
828.003522	14694.459346
828.320872	12484.392294
828.638177	10849.846051
828.955439	9614.022309
829.272656	8565.404335
829.589830	7728.716470
829.906960	7002.858372
830.224046	6470.479758
830.541088	6064.109826
830.858086	5813.796373
831.175041	5611.923367
831.491952	5556.836158
831.808819	5584.812042
832.125642	5823.906407
832.442421	6376.810078
832.759157	7472.330947
833.075849	9233.178259
833.392497	11066.086345
833.709101	12172.372598
834.025662	11922.101994
834.342179	10869.914884
834.658653	9572.737779
834.975083	8480.034916
835.291469	7577.935558
835.607811	6849.093097
835.924110	6332.180743
836.240366	5847.214182
836.556578	5398.536366
836.872746	5053.602976
837.188871	4786.568015
837.504952	4560.870516
837.820990	4394.121750
838.136984	4284.332981
838.452935	4238.836568
838.768842	4265.587450
839.084706	4545.973907
839.400526	5280.633860
839.716303	6178.705335
840.032037	6742.482775
840.347727	6590.325629
840.663373	5999.525083
840.978977	5420.548564
841.294537	4986.653932
841.610054	4658.174868
841.925527	4420.101336
842.240957	4215.599369
842.556344	4034.294271
842.871687	3873.567163
843.186987	3731.792272
843.502244	3607.873149
843.817458	3523.640510
844.132629	3454.695169
844.447756	3405.720359
844.762840	3362.951210
845.077881	3322.614418
845.392879	3288.697535
845.707833	3261.883637
846.022745	3235.321798
846.337613	3224.712689
846.652438	3203.693598
846.967221	3194.743030
847.281960	3175.664783
847.596656	3162.121723
847.911309	3152.699807
848.225919	3140.840492
848.540485	3129.664254
848.855009	3124.350878
849.169490	3114.818056
849.483928	3104.642487
849.798323	3099.969338
850.112675	3089.468614
850.426984	3090.096238
850.741251	3080.654157
851.055474	3078.723395
851.369654	3080.182809
851.683792	3077.294227
851.997887	3080.606266
852.311938	3081.024681
852.625947	3081.367480
852.939914	3073.813311
853.253837	3080.828076
853.567718	3074.756007
853.881555	3071.083526
854.195350	3078.025195
854.509103	3073.709967
854.822812	3071.111252
855.136479	3067.673185
855.450103	3069.934143
855.763685	3061.737227
856.077224	3067.451375
856.390720	3074.929926
856.704173	3085.536514
857.017584	3091.444746
857.330953	3096.324583
857.644278	3104.592076
857.957561	3106.477467
858.270802	3101.093515
858.584000	3103.563680
858.897155	3098.719131
859.210268	3088.508274
859.523339	3074.710636
859.836367	3070.115624
860.149352	3066.594378
860.462295	3063.380643
860.775195	3053.641134
861.088054	3050.104764
861.400869	3050.329096
861.713642	3049.114178
862.026373	3059.055333
862.339062	3063.453740
862.651708	3068.860377
862.964312	3088.659509
863.276873	3095.520519
863.589392	3123.892133
863.901869	3149.634785
864.214303	3171.858712
864.526696	3191.478883
864.839045	3205.352138
865.151353	3220.208418
865.463619	3219.492575
865.775842	3221.483830
866.088023	3230.041189
866.400162	3219.999211
866.712258	3219.230435
867.024313	3220.359653
867.336325	3213.657439
867.648296	3218.580126
867.960224	3216.215825
868.272110	3221.312431
868.583954	3221.846793
868.895755	3229.113617
869.207515	3224.395097
869.519233	3242.167685
869.830909	3248.597676
870.142542	3261.434975
870.454134	3268.041407
870.765684	3280.377110
871.077191	3297.842188
871.388657	3307.727890
871.700081	3327.562310
872.011463	3349.075434
872.322803	3366.427086
872.634101	3385.386865
872.945357	3405.579207
873.256571	3433.829833
873.567744	3446.420115
873.878874	3449.391875
874.189963	3467.300574
874.501010	3469.755616
874.812015	3467.058599
875.122979	3480.016885
875.433900	3480.926813
875.744780	3485.274808
876.055618	3490.714213
876.366415	3488.347392
876.677169	3495.515912
876.987882	3509.648787
877.298554	3529.500851
877.609183	3565.900502
877.919771	3615.001341
878.230317	3682.106660
878.540822	3781.838327
878.851285	3933.022531
879.161707	4151.193587
879.472087	4518.847458
879.782425	5142.145802
880.092722	6311.411189
880.402977	8226.250628
880.713191	10565.613194
881.023363	12933.435594
881.333494	14263.390281
881.643583	14713.461976
881.953631	14307.739832
882.263637	13475.210918
882.573602	12437.970829
882.883526	11500.701862
883.193408	10555.359487
883.503248	9652.083020
883.813048	8827.488883
884.122806	8067.199704
884.432522	7314.421844
884.742197	6654.713766
885.051831	6100.577533
885.361424	5608.868428
885.670975	5223.804932
885.980485	4900.311569
886.289954	4635.666116
886.599382	4422.672325
886.908768	4247.451899
887.218113	4085.444338
887.527417	3954.374338
887.836680	3830.767767
888.145901	3730.015266
888.455082	3654.713030
888.764221	3586.685180
889.073319	3528.096890
889.382376	3494.265706
889.691392	3472.117397
890.000366	3467.224957
890.309300	3456.769604
890.618193	3464.366623
890.927044	3458.082824
891.235855	3466.103300
891.544625	3476.568736
891.853353	3505.232736
892.162041	3567.972417
892.470687	3656.477434
892.779293	3777.742390
893.087858	3945.360755
893.396381	4220.401068
893.704864	4630.682935
894.013306	5193.452145
894.321707	5759.513228
894.630068	6110.067505
894.938387	6148.314739
895.246665	5970.929138
895.554903	5657.787785
895.863100	5325.051466
896.171256	5060.489192
896.479371	4817.066996
896.787446	4595.420064
897.095480	4401.829674
897.403473	4255.079165
897.711425	4111.648256
898.019336	3989.899349
898.327207	3871.769991
898.635038	3772.618057
898.942827	3665.632169
899.250576	3578.720157
899.558284	3499.962210
899.865952	3446.387348
900.173579	3380.965773
900.481165	3332.875686
900.788711	3294.799851
901.096216	3263.625356
901.403681	3235.505800
901.711105	3223.003738
902.018489	3221.751012
902.325832	3252.282760
902.633135	3311.052531
902.940397	3479.820280
903.247619	3879.220817
903.554800	4621.744970
903.861941	5572.131019
904.169041	6268.800837
904.476101	6479.619370
904.783121	6203.510332
905.090100	5808.664478
905.397039	5396.250202
905.703938	5042.005801
906.010796	4724.939909
906.317614	4472.970437
906.624391	4237.417483
906.931129	4044.260632
907.237826	3866.975854
907.544483	3697.182231
907.851099	3530.781304
908.157675	3372.184083
908.464211	3232.160994
908.770707	3136.129534
909.077163	3056.633058
909.383578	2995.912360
909.689954	2951.346040
909.996289	2923.022317
910.302584	2902.719070
910.608839	2887.199878
910.915054	2878.667725
911.221229	2874.498691
911.527363	2880.691748
911.833458	2886.337840
912.139513	2897.640107
912.445527	2907.795512
912.751502	2944.202725
913.057436	2984.955413
913.363331	3044.640153
913.669186	3132.162146
913.975000	3243.606934
914.280775	3432.536777
914.586510	3694.129812
914.892205	4063.510278
915.197859	4554.702665
915.503475	5132.459225
915.809050	5620.261435
916.114585	5903.604528
916.420081	5967.964940
916.725536	5906.407410
917.030952	5670.746071
917.336328	5469.533456
917.641665	5256.322895
917.946961	5035.427095
918.252218	4835.484852
918.557435	4610.001602
918.862612	4413.199997
919.167750	4244.200355
919.472848	4057.173547
919.777906	3894.702200
920.082925	3738.078591
920.387904	3584.346084
920.692843	3473.909527
920.997743	3378.293962
921.302603	3284.397430
921.607423	3224.241342
921.912204	3157.269613
922.216946	3106.956377
922.521647	3057.618604
922.826310	3017.145700
923.130932	2980.355360
923.435516	2942.536623
923.740059	2914.974115
924.044564	2885.921945
924.349028	2860.459077
924.653454	2832.238698
924.957840	2804.552681
925.262186	2787.314455
925.566493	2767.101949
925.870761	2742.208731
926.174989	2729.250445
926.479178	2716.975236
926.783328	2701.287165
927.087438	2690.269723
927.391509	2678.423012
927.695541	2664.121258
927.999533	2655.563900
928.303486	2648.602066
928.607400	2641.907414
928.911275	2634.852319
929.215110	2629.428037
929.518906	2625.957203
929.822663	2627.189765
930.126381	2625.531226
930.430060	2629.972482
930.733699	2629.564149
931.037299	2635.094294
931.340861	2635.162350
931.644383	2637.229223
931.947866	2636.596558
932.251309	2633.282000
932.554714	2631.825106
932.858080	2632.873666
933.161407	2625.546349
933.464694	2623.590381
933.767943	2620.742129
934.071153	2618.695421
934.374323	2611.688217
934.677455	2605.618668
934.980548	2607.428442
935.283602	2601.474839
935.586617	2600.007864
935.889593	2605.447269
936.192530	2604.043307
936.495428	2611.201746
936.798287	2620.195164
937.101108	2637.579583
937.403890	2657.247645
937.706632	2682.408044
938.009336	2712.934751
938.312002	2742.047414
938.614628	2769.645211
938.917216	2785.474434
939.219765	2796.272586
939.522275	2804.562763
939.824747	2802.712660
940.127179	2796.537246
940.429573	2790.976854
940.731929	2792.562297
941.034246	2782.626182
941.336524	2778.810029
941.638763	2773.007661
941.940964	2768.309305
942.243126	2750.932448
942.545250	2739.383165
942.847335	2726.182903
943.149381	2715.762838
943.451389	2700.286496
943.753359	2686.604804
944.055290	2680.779751
944.357182	2671.292300
944.659036	2667.274500
944.960851	2662.326607
945.262628	2655.382418
945.564367	2659.478356
945.866067	2657.492141
946.167729	2657.290495
946.469352	2653.902839
946.770937	2653.751605
947.072484	2648.329844
947.373992	2646.794812
947.675462	2643.941519
947.976893	2638.648308
948.278286	2635.762247
948.579641	2632.591362
948.880958	2628.750002
949.182236	2628.820578
949.483476	2624.144908
949.784678	2623.807151
950.085841	2622.592233
950.386967	2630.085908
950.688054	2634.166722
950.989103	2641.935140
951.290114	2651.921666
951.591087	2663.924653
951.892021	2675.032836
952.192917	2686.579599
952.493776	2696.331711
952.794596	2703.225489
953.095378	2703.101980
953.396122	2702.174408
953.696828	2698.577545
953.997496	2692.399611
954.298126	2683.935513
954.598718	2674.758093
954.899272	2665.018584
955.199788	2655.405103
955.500266	2640.195942
955.800706	2623.577778
956.101108	2607.493977
956.401472	2601.883173
956.701798	2586.623600
957.002087	2568.228430
957.302337	2558.294836
957.602550	2548.903167
957.902724	2542.291693
958.202861	2532.932791
958.502960	2523.967099
958.803022	2513.378155
959.103045	2508.354646
959.403031	2500.601351
959.702979	2497.763181
960.002889	2494.867038
960.302762	2487.587612
960.602596	2482.299442
960.902393	2482.289360
961.202153	2477.943885
961.501875	2475.753504
961.801559	2475.052783
962.101205	2469.419294
962.400814	2468.070785
962.700385	2468.204376
962.999918	2467.508697
963.299414	2463.125413
963.598873	2462.891000
963.898293	2458.648869
964.197677	2458.739609
964.497022	2458.595937
964.796331	2459.231122
965.095601	2454.494958
965.394835	2457.292798
965.694030	2455.624176
965.993189	2458.782459
966.292309	2455.382201
966.591393	2452.191151
966.890439	2455.901440
967.189447	2452.044957
967.488419	2452.985132
967.787353	2454.925977
968.086249	2454.610904
968.385108	2455.311625
968.683930	2453.998404
968.982714	2458.933694
969.281462	2460.312449
969.580172	2460.002418
969.878844	2460.783797
970.177480	2463.914354
970.476078	2466.230764
970.774639	2469.999027
971.073162	2473.931127
971.371649	2472.794346
971.670098	2470.452730
971.968510	2476.161837
972.266885	2476.605459
972.565223	2481.218114
972.863524	2480.580408
973.161788	2483.005203
973.460014	2483.174082
973.758204	2482.364977
974.056356	2485.024186
974.354471	2485.054432
974.652550	2484.013434
974.950591	2484.389000
975.248595	2483.660553
975.546563	2482.080152
975.844493	2481.402117
976.142386	2477.969091
976.440243	2479.688124
976.738062	2475.753504
977.035845	2474.089923
977.333590	2471.773513
977.631299	2468.542133
977.928971	2466.535754
978.226606	2463.692543
978.524204	2461.557614
978.821765	2460.965279
979.119290	2463.684981
979.416777	2460.519137
979.714228	2463.755557
980.011642	2462.891000
980.309020	2466.969293
980.606360	2470.132617
980.903664	2479.652836
981.200931	2493.858808
981.498162	2511.709533
981.795356	2542.256405
982.092513	2578.381314
982.389633	2620.847994
982.686717	2662.324087
982.983764	2693.087728
983.280775	2711.003989
983.577749	2710.489791
983.874686	2701.665252
984.171587	2687.285360
984.468451	2672.539985
984.765279	2656.703200
985.062070	2635.795015
985.358824	2616.288270
985.655543	2593.066195
985.952224	2573.030129
986.248869	2545.497867
986.545478	2520.987777
986.842050	2501.796104
987.138586	2480.766931
987.435086	2471.808801
987.731549	2457.335648
988.027975	2456.849177
988.324366	2447.250820
988.620719	2443.802671
988.917037	2441.755962
989.213318	2440.082299
989.509563	2437.816300
989.805772	2434.993254
990.101944	2435.772113
990.398080	2431.482091
990.694180	2431.071237
990.990244	2432.225661
991.286271	2431.217430
991.582262	2434.050558
991.878217	2436.669438
992.174136	2432.828079
992.470019	2435.116763
992.765865	2436.477874
993.061676	2438.859819
993.357450	2444.624379
993.653188	2442.179419
993.948890	2449.393310
994.244556	2454.288271
994.540186	2463.891669
994.835780	2476.696199
995.131337	2488.432006
995.426859	2504.409943
995.722345	2522.346368
996.017795	2541.172557
996.313208	2557.117727
996.608586	2566.572411
996.903928	2570.123904
997.199234	2566.521999
997.494504	2565.133161
997.789738	2558.050340
998.084936	2546.639688
998.380099	2534.321629
998.675225	2525.408869
998.970316	2513.148783
999.265371	2497.947183
999.560390	2485.704741
999.855373	2476.280304
1000.150320	2462.402008
1000.445232	2460.004939
1000.740108	2453.242231
1001.034948	2443.361570
1001.329752	2439.479881
1001.624521	2437.246650
1001.919254	2429.127872
1002.213951	2429.803386
1002.508613	2423.176790
1002.803239	2425.236101
1003.097829	2419.647982
1003.392384	2421.598908
1003.686903	2421.051943
1003.981386	2423.396080
1004.275834	2417.742426
1004.570246	2418.498599
1004.864623	2417.187899
1005.158964	2416.981212
1005.453270	2416.706469
1005.747540	2415.491551
1006.041775	2412.998700
1006.335974	2415.058011
1006.630138	2414.359812
1006.924266	2415.191602
1007.218359	2414.153124
1007.512416	2412.116498
1007.806438	2414.871489
1008.100425	2415.388207
1008.394376	2410.294121
1008.688292	2413.187743
1008.982172	2411.420819
1009.276017	2415.423495
1009.569827	2412.270253
1009.863602	2412.459297
1010.157341	2412.676066
1010.451045	2412.350912
1010.744714	2408.542320
1011.038347	2412.406364
1011.331945	2412.597928
1011.625508	2410.286559
1011.919036	2410.102557
1012.212528	2410.072310
1012.505986	2408.360838
1012.799408	2410.347053
1013.092795	2406.861095
1013.386147	2409.479975
1013.679464	2407.783626
1013.972745	2408.169275
1014.265992	2407.244223
1014.559204	2406.430077
1014.852380	2407.617268
1015.145521	2408.960736
1015.438628	2407.886970
1015.731699	2407.642474
1016.024736	2408.990983
1016.317737	2411.234296
1016.610703	2409.147258
1016.903635	2410.397465
1017.196531	2406.389747
1017.489393	2408.675911
1017.782219	2409.202711
1018.075011	2413.296128
1018.367768	2411.894687
1018.660490	2407.765982
1018.953177	2407.765982
1019.245829	2407.765982
