Dividing Wavelength (nm)	Counts (n)	Blue Motor Position (mm): 45.400000	Red Motor Position (mm): 0.000000	
326.493990	1975.855044
326.888308	1975.855044
327.282561	1975.855044
327.676750	1952.292691
328.070874	1951.849070
328.464933	1958.838629
328.858929	1967.484208
329.252859	1980.447535
329.646726	1994.782056
330.040528	2010.069355
330.434265	2028.391429
330.827938	2047.515046
331.221547	2068.201421
331.615091	2089.659092
332.008571	2109.135590
332.401986	2128.251646
332.795338	2148.512043
333.188625	2168.401915
333.581847	2187.664164
333.975006	2209.386496
334.368100	2223.927704
334.761129	2242.660632
335.154095	2258.620925
335.546996	2300.366720
335.939833	2382.827394
336.332606	2399.690054
336.725315	2409.424522
337.117960	2419.237128
337.510540	2430.050403
337.903056	2438.632967
338.295508	2442.136569
338.687896	2452.564196
339.080220	2458.028807
339.472480	2463.705146
339.864676	2466.513069
340.256807	2469.658749
340.648875	2472.078503
341.040879	2477.021354
341.432818	2474.720067
341.824694	2477.119656
342.216506	2476.272743
342.608253	2474.215952
342.999937	2474.538586
343.391557	2473.086733
343.783113	2469.694037
344.174605	2470.578759
344.566033	2468.368213
344.957397	2465.212451
345.348697	2464.229426
345.739934	2461.129116
346.131106	2464.063068
346.522215	2458.928653
346.913260	2456.652572
347.304241	2459.427727
347.695159	2457.217181
348.086012	2454.847839
348.476802	2451.760132
348.867528	2451.613938
349.258191	2448.619493
349.648789	2451.757611
350.039324	2448.100254
350.429796	2450.761983
350.820203	2445.239399
351.210548	2445.191508
351.600828	2445.408278
351.991045	2445.030192
352.381198	2448.049843
352.771288	2443.595983
353.161314	2442.791919
353.551276	2443.593463
353.941175	2445.945161
354.331010	2442.887701
354.720782	2446.391303
355.110490	2448.551438
355.500135	2445.786365
355.889717	2446.015737
356.279235	2446.469441
356.668689	2447.727209
357.058080	2446.895418
357.447408	2443.974070
357.836672	2443.767382
358.225873	2442.522218
358.615010	2446.658484
359.004084	2451.472786
359.393095	2452.692745
359.782043	2450.111675
360.170927	2453.156532
360.559748	2453.345575
360.948505	2453.166614
361.337199	2457.030658
361.725830	2457.754064
362.114398	2458.948817
362.502903	2457.693570
362.891344	2461.665999
363.279722	2457.134002
363.668037	2461.045937
364.056289	2460.400670
364.444478	2461.492079
364.832603	2462.195320
365.220665	2462.210444
365.608665	2461.618108
365.996601	2464.736062
366.384474	2461.678602
366.772284	2468.257308
367.160031	2467.269242
367.547715	2470.177988
367.935336	2464.143726
368.322893	2470.861064
368.710388	2470.407360
369.097820	2472.602783
369.485189	2470.538430
369.872495	2474.372228
370.259738	2474.115129
370.646918	2475.297279
371.034035	2476.282825
371.421090	2479.310038
371.808081	2475.433390
372.195010	2479.078145
372.581875	2478.498412
372.968678	2481.439925
373.355418	2480.540079
373.742096	2482.838845
374.128710	2484.457056
374.515262	2485.182982
374.901751	2486.289515
375.288177	2486.922180
375.674540	2487.857314
376.060841	2489.367140
376.447079	2489.241111
376.833254	2489.289002
377.219367	2488.739516
377.605417	2496.349138
377.991404	2493.495845
378.377329	2498.922647
378.763191	2497.886690
379.148991	2509.531755
379.534727	2514.517456
379.920402	2517.065759
380.306013	2530.437420
380.691563	2537.794984
381.077049	2548.116747
381.462474	2559.613098
381.847835	2574.759245
382.233134	2591.984867
382.618371	2608.663525
383.003545	2631.845271
383.388657	2660.158911
383.773706	2683.325534
384.158693	2715.903991
384.543618	2749.674680
384.928480	2785.847480
385.313280	2828.233501
385.698017	2883.456821
386.082692	2931.420879
386.467305	2976.728249
386.851856	3041.504556
387.236344	3117.328551
387.620770	3170.719411
388.005133	3244.383272
388.389435	3330.440809
388.773674	3392.489851
389.157851	3486.842607
389.541965	3580.718974
389.926018	3634.195534
390.310008	3753.267588
390.693936	3850.377855
391.077802	3952.264615
391.461606	4065.554466
391.845348	4171.975744
392.229027	4282.563536
392.612645	4452.561326
392.996200	4572.195468
393.379694	4725.859920
393.763125	4908.906737
394.146494	5026.373183
394.529801	5178.515206
394.913047	5384.559767
395.296230	5452.418739
395.679351	5555.336415
396.062410	5791.476664
396.445408	5796.664011
396.828343	5966.510567
397.211217	6135.381659
397.594028	6126.423528
397.976778	6336.937072
398.359466	6527.782554
398.742092	6577.621921
399.124656	6763.128821
399.507158	6968.505429
399.889598	7056.307205
400.271977	7290.438554
400.654294	7386.679222
401.036549	7616.293698
401.418742	7702.532717
401.800874	8025.973147
402.182944	8160.251842
402.564952	8537.602372
402.946898	8454.473745
403.328783	8560.010301
403.710606	8787.414230
404.092367	9076.007685
404.474067	9452.889388
404.855705	9323.256117
405.237282	9330.911109
405.618797	9778.565570
406.000250	10049.870388
406.381642	10434.404562
406.762972	10435.654768
407.144240	10290.577922
407.525447	10567.037320
407.906593	10554.915865
408.287677	10823.037194
408.668700	11007.072077
409.049661	11017.925682
409.430560	11198.504853
409.811399	11192.147958
410.192176	11373.155628
410.572891	11469.469393
410.953545	11968.251237
411.334138	11473.618263
411.714669	12071.002555
412.095139	11416.330591
412.475547	11913.617732
412.855894	11781.201744
413.236180	12111.949327
413.616405	11814.874131
413.996568	12095.908376
414.376670	12074.750653
414.756711	11958.025257
415.136691	12243.011766
415.516609	12417.695308
415.896466	12490.290444
416.276262	12774.856017
416.655997	13218.391856
417.035670	13267.593517
417.415283	13902.554571
417.794834	13996.443541
418.174324	13750.347013
418.553753	13656.848732
418.933121	14141.800171
419.312428	13965.536226
419.691674	13864.375392
420.070859	14325.272965
420.449983	13980.944513
420.829045	14532.812228
421.208047	14278.664977
421.586988	14723.133429
421.965867	14973.882942
422.344686	14962.893227
422.723444	15532.329362
423.102141	14242.799688
423.480777	15409.811680
423.859352	14922.435447
424.237866	16023.302459
424.616319	15718.975563
424.994712	16370.285078
425.373044	16167.935683
425.751314	16834.522415
426.129524	15972.568287
426.507673	17039.198303
426.885762	16757.717916
427.263789	16937.722396
427.641756	17105.343282
428.019662	17168.856779
428.397508	17202.206533
428.775292	17495.483219
429.153016	17458.594576
429.530679	17537.803706
429.908282	17562.069300
430.285824	17292.458310
430.663305	17995.984097
431.040726	17587.496880
431.418086	17422.686437
431.795385	18064.153100
432.172624	18476.237180
432.549802	18031.957771
432.926920	18227.869612
433.303977	18109.200850
433.680974	18360.625878
434.057910	18652.390218
434.434786	18676.618004
434.811601	18593.650694
435.188355	19614.471745
435.565050	19268.686400
435.941683	19209.352019
436.318257	20084.181254
436.694770	19895.160670
437.071222	20497.946559
437.447614	19566.626154
437.823946	19595.844681
438.200218	19749.236911
438.576429	19534.970228
438.952580	19799.963521
439.328670	19760.728221
439.704700	20175.383289
440.080670	19740.999665
440.456580	20333.756178
440.832429	20501.427476
441.208218	19515.854173
441.583947	19954.056471
441.959616	20048.119360
442.335224	20287.957296
442.710773	20417.681308
443.086261	20956.124429
443.461689	20312.232972
443.837057	20440.079154
444.212365	21072.612892
444.587612	21081.218142
444.962800	20658.028400
445.337927	21080.018347
445.712995	19818.414144
446.088002	21651.733084
446.462949	21842.616374
446.837837	22003.328359
447.212664	21964.183799
447.587431	24727.356169
447.962139	27621.979146
448.336786	30008.947848
448.711374	28515.488377
449.085901	24868.367324
449.460369	24794.625326
449.834776	24691.284193
450.209124	27132.788097
450.583412	26697.043362
450.957640	27221.635913
451.331808	25910.096561
451.705917	24545.799013
452.079965	24568.930348
452.453954	24925.211375
452.827883	24806.804754
453.201752	24622.543019
453.575562	24774.100268
453.949311	25884.762242
454.323001	25940.192249
454.696632	25689.490628
455.070202	27233.495227
455.443713	27375.814562
455.817164	27955.033057
456.190556	28489.478544
456.563888	27941.653835
456.937160	28383.931906
457.310373	26726.909677
457.683526	27160.910174
458.056619	27131.641235
458.429653	27066.721255
458.802628	27635.431465
459.175542	27746.873732
459.548398	29037.545228
459.921194	30601.515318
460.293930	31251.655285
460.666607	33262.364867
461.039224	35010.768091
461.411782	35417.937046
461.784280	34232.960902
462.156719	33741.967641
462.529099	33202.846484
462.901419	31898.654614
463.273680	30861.240605
463.645882	30945.296804
464.018024	30901.761400
464.390106	31717.271378
464.762130	34361.931262
465.134094	38383.368070
465.505999	43635.068227
465.877845	48220.335407
466.249631	49398.339635
466.621358	47709.437150
466.993026	45587.600373
467.364634	43512.966440
467.736184	41562.070148
468.107674	40329.487868
468.479105	39542.336901
468.850477	38854.315183
469.221790	37443.787734
469.593043	35723.083130
469.964238	34850.275397
470.335373	34747.466105
470.706449	36407.734836
471.077467	38909.838451
471.448425	43448.303559
471.819324	46319.996848
472.190164	44533.341348
472.560945	41006.179593
472.931667	37908.617406
473.302330	36811.564027
473.672934	35985.323953
474.043479	36497.106932
474.413965	35709.386315
474.784393	35329.724416
475.154761	36205.201439
475.525070	36250.551659
475.895321	35795.995858
476.265513	36377.256020
476.635645	37341.469955
477.005719	37171.890580
477.375734	37620.752398
477.745691	38310.173037
478.115588	39620.058890
478.485427	41555.168808
478.855207	44864.714035
479.224928	47484.949528
479.594591	49145.989556
479.964194	48145.229777
480.333739	48282.472670
480.703226	48295.325091
481.072653	48942.079924
481.442022	49430.323236
481.811333	49710.054342
482.180584	48414.719779
482.549777	47897.338598
482.918912	47381.429434
483.287988	47093.156093
483.657005	46251.676610
484.025964	45637.278423
484.394864	45633.613505
484.763706	45205.682557
485.132489	44340.398747
485.501213	44176.669632
485.869879	44332.078322
486.238487	43922.799644
486.607036	44122.399090
486.975527	43574.682766
487.343959	43787.860559
487.712333	43862.154564
488.080648	43777.833704
488.448905	44226.050254
488.817104	44025.389646
489.185244	44987.937479
489.553326	46628.480175
489.921350	49338.483495
490.289315	52242.702308
490.657222	52882.071850
491.025070	53170.007435
491.392861	52285.673103
491.760593	51039.441899
492.128267	49367.588597
492.495883	47819.863625
492.863440	46441.806248
493.230939	45107.178411
493.598380	44025.888720
493.965763	43692.323132
494.333088	42892.168508
494.700354	42403.325299
495.067563	42124.887249
495.434713	41995.017043
495.801805	42052.166084
496.168839	41692.840199
496.535815	41369.117464
496.902733	41388.606565
497.269593	40996.311534
497.636395	40930.113622
498.003139	41317.191059
498.369825	40791.282766
498.736453	41087.823600
499.103023	40621.688268
499.469535	40496.108085
499.835989	40595.501995
500.202385	40254.493143
500.568723	40284.311568
500.935003	40470.718314
501.301226	40281.879211
501.667390	40889.345811
502.033497	41148.637559
502.399546	40582.379871
502.765537	39919.165671
503.131470	40279.116659
503.497345	40623.152724
503.863163	39300.444695
504.228923	39918.185167
504.594625	40310.850722
504.960269	39609.346438
505.325856	40292.321961
505.691385	39661.842494
506.056856	39796.499275
506.422270	40236.917160
506.787625	39818.660187
507.152924	40006.838898
507.518164	40099.172672
507.883347	39316.904063
508.248472	39566.834388
508.613540	40053.073841
508.978550	40346.037976
509.343503	40100.944638
509.708398	40289.173761
510.073236	40818.242857
510.438016	40806.761629
510.802738	40270.239187
511.167403	40879.500438
511.532010	41122.763837
511.896561	41429.835642
512.261053	42250.177566
512.625488	41806.382107
512.989866	41674.770183
513.354186	41535.783051
513.718449	41509.843794
514.082655	42196.549771
514.446803	41865.545089
514.810894	42373.975701
515.174927	42300.818477
515.538904	42222.017680
515.902822	42879.096796
516.266684	42316.899757
516.630488	42750.590223
516.994235	42613.622073
517.357925	43171.085468
517.721558	43335.701826
518.085133	43655.409283
518.448651	43789.151094
518.812112	43572.870471
519.175516	43677.003065
519.538863	43998.542981
519.902152	43979.111853
520.265385	44433.957521
520.628560	44478.929654
520.991678	44272.396102
521.354739	44527.546542
521.717743	44824.394886
522.080690	44723.050050
522.443580	45272.898782
522.806413	45320.162120
523.169189	45262.894613
523.531908	45441.391788
523.894569	45305.991437
524.257174	45474.217261
524.619722	45766.440347
524.982213	45771.279854
525.344647	45668.773032
525.707025	45723.028450
526.069345	46120.001672
526.431608	46050.204376
526.793815	46365.505864
527.155964	45903.136274
527.518057	46071.803200
527.880093	45859.679008
528.242072	46376.503141
528.603995	46071.916626
528.965860	46060.634523
529.327669	46176.641556
529.689421	46074.391832
530.051117	46020.481733
530.412755	46169.283992
530.774337	46234.171203
531.135862	46048.583645
531.497331	46238.463746
531.858743	46143.763150
532.220098	46476.915364
532.581396	46200.269444
532.942638	45854.380755
533.303824	46151.332443
533.664953	46127.089534
534.026025	45837.840729
534.387040	46302.274671
534.747999	46254.232475
535.108902	46413.721980
535.469748	45930.797086
535.830537	46057.163689
536.191270	46252.210973
536.551947	45901.875986
536.912567	46202.215329
537.273131	46315.681620
537.633638	45800.768084
537.994089	46144.307595
538.354483	45738.582931
538.714821	46309.637277
539.075103	46664.330341
539.435328	46421.626509
539.795497	46313.307237
540.155609	46291.559699
540.515665	46753.205883
540.875665	46208.355455
541.235609	46523.276335
541.595496	46495.728950
541.955328	47168.347423
542.315102	46531.755556
542.674821	46339.112903
543.034483	46357.432456
543.394090	46337.051071
543.753640	46287.723381
544.113134	47301.179306
544.472571	46321.710840
544.831953	47561.499449
545.191278	46773.622556
545.550548	46493.611666
545.909761	46946.082950
546.268918	47140.598391
546.628019	47454.896690
546.987064	47018.915020
547.346053	46309.150805
547.704986	47188.567491
548.063863	46739.267092
548.422684	46925.381451
548.781449	46771.583409
549.140158	47190.251236
549.498811	47022.128755
549.857408	46476.796897
550.215949	47301.489337
550.574434	47230.920745
550.932864	47007.695932
551.291237	47726.882063
551.649555	47333.636775
552.007817	47575.256758
552.366022	47213.022128
552.724173	47408.167714
553.082267	47784.865415
553.440305	48088.395808
553.798288	47407.008249
554.156215	47722.087926
554.514086	47943.538253
554.871902	47670.791665
555.229661	47696.408288
555.587365	47521.636525
555.945014	47614.978530
556.302606	47546.373467
556.660143	47772.025596
557.017625	47865.092858
557.375050	47649.699477
557.732421	47996.240995
558.089735	47990.665479
558.446994	47905.522911
558.804197	48382.675685
559.161345	48319.676385
559.518437	47568.657888
559.875474	47881.587513
560.232455	48030.435142
560.589381	48206.812512
560.946251	47917.283923
561.303065	48591.487839
561.659825	48397.410977
562.016528	48075.699662
562.373177	47803.018610
562.729770	48275.727606
563.086307	47781.129920
563.442789	48256.563659
563.799216	48298.611924
564.155587	48096.383517
564.511904	48114.642576
564.868164	48210.855517
565.224370	48459.838106
565.580520	48192.488073
565.936615	48391.434689
566.292654	48122.002660
566.648638	48356.950677
567.004567	48297.596131
567.360441	48349.751909
567.716260	48194.597796
568.072023	48489.704422
568.427732	48478.230756
568.783385	48037.528045
569.138982	48438.947564
569.494525	48405.489426
569.850013	48149.988626
570.205445	48135.943971
570.560823	48088.907485
570.916145	47962.591293
571.271412	47992.850819
571.626625	47746.177079
571.981782	47795.628278
572.336884	47480.004156
572.691931	47827.710181
573.046923	47434.331302
573.401860	47261.250847
573.756743	47242.477590
574.111570	47366.139614
574.466342	47210.904843
574.821059	47347.043724
575.175722	46869.139818
575.530330	46881.205820
575.884882	46621.104967
576.239380	46563.807212
576.593823	46555.895121
576.948211	46450.343442
577.302544	45982.534448
577.656823	46015.165836
578.011047	46242.242091
578.365216	45951.657380
578.719330	45769.671726
579.073389	45613.378313
579.427394	45707.781481
579.781344	45666.814544
580.135239	45321.576164
580.489080	45404.082208
580.842866	44880.906221
581.196597	45341.929823
581.550273	45301.436754
581.903895	45145.297096
582.257463	45561.903091
582.610975	44947.696468
582.964434	45250.861378
583.317837	44886.985852
583.671186	44735.786525
584.024481	44949.518845
584.377721	44487.668495
584.730906	44776.473678
585.084037	44800.590558
585.437113	44505.902348
585.790135	44547.998503
586.143103	44140.469106
586.496016	44279.902380
586.848874	44312.357328
587.201679	44321.416282
587.554428	43797.532013
587.907124	43998.631201
588.259765	43745.953447
588.612352	44001.718908
588.964884	43388.860794
589.317362	43693.376733
589.669786	43622.447698
590.022155	43401.614913
590.374470	43823.257021
590.726731	43354.096997
591.078937	42851.922456
591.431090	42942.690952
591.783188	42601.871143
592.135232	42286.627629
592.487222	42529.608723
592.839157	42631.598827
593.191038	42296.117601
593.542866	42067.985225
593.894639	41464.440642
594.246358	41742.498085
594.598022	41729.212124
594.949633	41337.219563
595.301190	41285.262911
595.652692	41118.927519
596.004141	41450.509413
596.355535	40466.718158
596.706876	40415.547926
597.058162	40250.631619
597.409395	40714.238812
597.760573	40804.203243
598.111698	40377.494776
598.462768	40385.207742
598.813785	40439.480804
599.164748	39881.795598
599.515657	40251.647412
599.866511	39746.196121
600.217312	40362.885512
600.568060	39317.375410
600.918753	40057.938554
601.269392	40019.275425
601.619978	39670.367085
601.970510	39889.284232
602.320988	40079.655845
602.671412	40371.906657
603.021783	40116.894849
603.372100	39768.520871
603.722363	39862.480417
604.072572	39935.791397
604.422728	39965.534204
604.772830	39776.939598
605.122878	39864.481755
605.472872	39812.056276
605.822813	40085.231361
606.172701	39907.039176
606.522534	40156.011682
606.872314	40415.310992
607.222041	40164.526191
607.571714	40558.739380
607.921333	40012.603458
608.270899	40285.513883
608.620411	40616.967228
608.969870	40426.903125
609.319276	40416.654459
609.668627	40457.591149
610.017926	40954.079268
610.367171	41103.126022
610.716362	41175.007835
611.065500	41135.704479
611.414585	41311.063536
611.763616	41609.451953
612.112594	41544.199258
612.461518	41755.133737
612.810389	42065.628485
613.159207	41908.684763
613.507971	41988.118224
613.856682	42459.708084
614.205340	42335.456245
614.553945	43034.918862
614.902496	42478.567041
615.250994	42946.028196
615.599439	43013.811550
615.947830	43217.978281
616.296169	43269.506435
616.644454	43405.471396
616.992686	43558.407400
617.340864	44071.107870
617.688990	43798.373885
618.037063	44384.271909
618.385082	44344.625754
618.733048	44672.676320
619.080961	44674.559191
619.428821	44684.407085
619.776628	44807.575077
620.124382	44619.459380
620.472083	44762.585299
620.819731	44895.845680
621.167326	44558.030399
621.514868	44530.803128
621.862357	44102.108446
622.209793	44119.376918
622.557176	43802.106860
622.904506	43552.894899
623.251783	43197.974983
623.599007	42991.771626
623.946179	42761.393416
624.293297	42710.613873
624.640363	42109.201698
624.987376	42091.655962
625.334336	41839.802437
625.681243	41506.917404
626.028097	41460.702627
626.374899	41315.194762
626.721647	41279.843671
627.068343	41151.808445
627.414987	40922.430904
627.761577	40685.232013
628.108115	41030.757738
628.454600	40472.167645
628.801032	40661.102530
629.147412	40617.388164
629.493739	40631.556327
629.840014	40260.587898
630.186236	40600.885947
630.532405	40209.463036
630.878521	40424.977404
631.224585	40288.790633
631.570597	40009.137665
631.916556	40175.689826
632.262462	40114.255805
632.608316	40143.993571
632.954117	40035.449967
633.299866	40031.109534
633.645562	39944.482346
633.991206	39441.957445
634.336797	39017.250316
634.682336	39022.011686
635.027823	38768.960886
635.373257	38586.662681
635.718639	38343.588325
636.063968	38204.780154
636.409245	37627.109293
636.754470	37684.283540
637.099642	37422.917357
637.444762	36956.003167
637.789829	37091.002746
638.134845	36744.181444
638.479808	36689.762188
638.824719	36604.128108
639.169577	36200.324123
639.514383	36267.237879
639.859137	35950.993695
640.203839	36190.478750
640.548489	35828.055076
640.893086	35885.975413
641.237632	35637.295294
641.582125	35750.015494
641.926566	35702.442125
642.270955	35647.269217
642.615292	35660.066186
642.959576	35634.492413
643.303809	35626.550075
643.647990	35782.689733
643.992118	35724.333336
644.336195	35713.935956
644.680219	35816.102500
645.024192	36092.975272
645.368112	36614.270909
645.711981	36618.124872
646.055797	37497.213882
646.399562	37414.501150
646.743274	38357.290181
647.086935	38805.471443
647.430544	38692.264772
647.774101	38820.357970
648.117606	39069.912730
648.461059	39379.752128
648.804460	38994.139146
649.147810	38382.717761
649.491108	38125.142526
649.834354	37773.161602
650.177548	36949.459749
650.520690	36507.058170
650.863781	36510.546648
651.206820	36353.466815
651.549807	35909.946100
651.892742	35414.299854
652.235626	35244.385243
652.578458	35101.460969
652.921238	34490.132845
653.263967	34812.358358
653.606644	34483.710415
653.949269	34438.277016
654.291843	34024.786454
654.634365	34440.621153
654.976836	34033.810120
655.319255	34016.115670
655.661622	34023.490878
656.003938	33804.067095
656.346203	33648.797036
656.688416	33881.907552
657.030577	33678.922971
657.372687	33515.193856
657.714746	33763.921866
658.056753	33910.017025
658.398708	33349.140769
658.740612	33405.793256
659.082465	33677.869370
659.424266	33491.724764
659.766016	33602.388174
660.107715	33491.263499
660.449362	33618.706389
660.790958	33592.091617
661.132503	33621.166472
661.473996	33645.555574
661.815438	33744.735235
662.156829	33957.174499
662.498168	33709.570666
662.839456	33751.442490
663.180693	33878.030904
663.521879	34061.985129
663.863013	33992.560878
664.204097	33998.829553
664.545129	34459.369204
664.886110	34419.307154
665.227040	34475.657172
665.567918	34605.114003
665.908746	34680.484294
666.249522	34831.600442
666.590248	34831.330741
666.930922	34938.210764
667.271545	34894.009927
667.612118	34991.165564
667.952639	34782.328205
668.293109	34850.199779
668.633528	34716.639449
668.973896	34666.376625
669.314213	34688.827404
669.654480	34423.544244
669.994695	34444.548212
670.334859	34338.623487
670.674973	34235.854525
671.015035	34397.514246
671.355047	34345.577759
671.695008	34280.151144
672.034918	34166.581509
672.374777	34263.782517
672.714585	34087.919345
673.054342	34325.161086
673.394049	34071.722117
673.733705	34361.454873
674.073310	34016.158520
674.412864	34089.282977
674.752368	33691.997204
675.091820	33999.189996
675.431223	33565.433995
675.770574	33297.650424
676.109875	33160.473066
676.449125	32877.876063
676.788324	32805.999292
677.127473	32265.101128
677.466571	32179.855217
677.805619	31833.656497
678.144616	31832.343276
678.483562	31744.690214
678.822458	31416.745512
679.161303	31346.907887
679.500098	31258.407911
679.838842	31131.990896
680.177535	31285.922529
680.516179	31534.428728
680.854771	31776.315892
681.193314	32637.057624
681.531805	33746.189608
681.870247	34516.798029
682.208638	35248.042600
682.546978	35478.415769
682.885268	35599.688286
683.223508	35073.386784
683.561697	34744.378398
683.899836	34555.899738
684.237925	34046.791091
684.575963	33890.737132
684.913951	33419.832869
685.251889	33560.337389
685.589776	33538.574728
685.927614	33529.210784
686.265401	33670.126158
686.603137	33759.667133
686.940824	34264.195892
687.278460	34634.637520
687.616046	34770.579796
687.953582	35367.890991
688.291068	35240.140591
688.628504	35540.351385
688.965889	35473.989636
689.303224	35110.799707
689.640510	34776.803100
689.977745	34051.532296
690.314930	33267.239663
690.652065	32735.413056
690.989150	32012.667870
691.326185	31116.902723
691.663170	30413.563458
692.000105	29644.653906
692.336990	28962.812643
692.673825	28509.673406
693.010610	27978.875194
693.347345	27407.694819
693.684030	26729.536119
694.020665	26446.056914
694.357251	25765.448213
694.693786	25725.585289
695.030272	25469.502235
695.366707	24930.859988
695.703093	24627.800942
696.039429	24605.622386
696.375716	24343.754608
696.711952	24311.468538
697.048139	24151.008612
697.384276	23954.776657
697.720363	24093.347894
698.056400	23881.160687
698.392388	23669.623790
698.728326	23634.469303
699.064214	23427.214866
699.400053	23360.270863
699.735842	23011.637266
700.071581	22735.046799
700.407270	22431.052619
700.742910	22241.598496
701.078501	21984.108960
701.414042	21682.713495
701.749533	21393.936038
702.084974	21045.264632
702.420366	21245.179150
702.755709	20809.152110
703.091002	20504.205152
703.426246	20515.905670
703.761440	20424.650703
704.096584	20152.793879
704.431679	20094.692060
704.766725	20004.415077
705.101721	19938.438976
705.436668	20025.434168
705.771565	19696.816472
706.106413	20040.126611
706.441212	20014.091572
706.775961	20137.844337
707.110661	20208.334791
707.445311	20564.567928
707.779913	20397.846888
708.114465	20636.863115
708.448967	20916.390055
708.783421	21607.050817
709.117825	21879.371427
709.452180	22087.402202
709.786485	22488.756186
710.120742	23287.358135
710.454949	23302.005207
710.789107	23757.768365
711.123216	24460.537978
711.457275	24590.650159
711.791286	25153.235367
712.125247	25224.996192
712.459159	24916.280971
712.793023	25614.785769
713.126837	24503.332333
713.460602	24786.231805
713.794318	24430.591004
714.127985	24042.959041
714.461602	23139.732985
714.795171	23109.770887
715.128691	22088.843972
715.462162	21551.325902
715.795584	21128.262189
716.128957	20866.598578
716.462281	20447.414033
716.795556	20216.042716
717.128782	19709.381548
717.461960	19158.050717
717.795088	19078.960054
718.128167	18675.627417
718.461198	18215.239001
718.794180	18063.407009
719.127113	17698.911421
719.459997	17486.091550
719.792833	17138.282181
720.125619	17099.828260
720.458357	16775.606450
720.791046	16612.847757
721.123686	16437.718073
721.456278	16200.650251
721.788821	16158.241544
722.121315	15891.312448
722.453761	15961.636544
722.786158	15891.809002
723.118506	15895.521812
723.450805	15751.722898
723.783056	15910.466312
724.115259	15810.225489
724.447412	15734.177162
724.779518	15974.914944
725.111574	16002.195148
725.443582	16195.331834
725.775542	16166.612380
726.107453	16644.213816
726.439315	16523.125301
726.771129	16917.270435
727.102895	17282.917926
727.434612	17494.807705
727.766281	17621.847302
728.097901	17885.655924
728.429473	17928.173016
728.760996	17922.529444
729.092471	18014.724586
729.423897	17888.060555
729.755276	17747.273731
730.086606	17866.335702
730.417887	18397.408657
730.749120	18909.161390
731.080305	19078.508871
731.411442	19405.634385
731.742530	19488.090018
732.073570	19591.544577
732.404562	19894.336442
732.735506	19714.425223
733.066401	19435.566236
733.397249	18925.255273
733.728048	18301.674625
734.058798	17458.161037
734.389501	16762.990963
734.720156	16299.703883
735.050762	15760.476862
735.381320	15395.590585
735.711831	15142.968283
736.042293	14790.455518
736.372707	14799.900120
736.703073	14584.027830
737.033391	14762.434265
737.363661	14718.361977
737.693883	14818.038192
738.024056	14979.932327
738.354182	15160.672816
738.684260	15446.488595
739.014290	15661.995401
739.344272	15842.408215
739.674207	16132.209026
740.004093	16256.176040
740.333931	16247.936274
740.663722	16291.169210
740.993464	16287.673169
741.323159	16122.630834
741.652806	15854.033116
741.982405	15644.926054
742.311956	15318.221476
742.641460	15206.053283
742.970915	14895.124996
743.300323	14551.671184
743.629683	14341.581097
743.958996	14063.097677
744.288260	13792.392756
744.617477	13491.224143
744.946647	13414.273450
745.275768	13142.900577
745.604842	12951.177935
745.933869	12782.783232
746.262847	12734.191550
746.591778	12654.269097
746.920662	12547.565514
747.249498	12540.495295
747.578286	12659.378306
747.907027	12805.032364
748.235720	13025.242567
748.564365	13049.810630
748.892963	12951.019138
749.221514	13009.640196
749.550017	12860.444727
749.878473	12823.324191
750.206881	12593.422370
750.535242	12511.299453
750.863555	12412.757498
751.191821	12311.969709
751.520039	12336.182371
751.848210	12240.516395
752.176334	12276.956375
752.504411	12179.901561
752.832440	12025.170905
753.160421	12082.072929
753.488356	11959.525000
753.816243	11859.773168
754.144082	11718.265459
754.471875	11662.553147
754.799620	11613.696805
755.127318	11580.442833
755.454969	11537.598067
755.782572	11497.596511
756.110129	11501.367294
756.437638	11421.858216
756.765100	11415.531568
757.092515	11407.987481
757.419882	11423.461303
757.747203	11422.090109
758.074477	11505.420382
758.401703	11452.165633
758.728882	11614.160591
759.056014	11651.931436
759.383099	11774.973399
759.710138	11874.049716
760.037129	11957.311933
760.364073	11978.948566
760.690970	11956.379320
761.017820	11953.853702
761.344623	12144.963844
761.671379	12478.416006
761.998088	13106.261471
762.324751	14644.458662
762.651366	17493.519690
762.977935	21158.536839
763.304456	23405.447163
763.630931	23937.934162
763.957359	22794.116519
764.283740	20906.227089
764.610074	19035.286018
764.936362	16889.750776
765.262602	15364.078332
765.588796	13871.087688
765.914943	12834.755007
766.241044	11963.036163
766.567097	11314.126237
766.893104	10761.953533
767.219064	10394.498788
767.544978	9996.093879
767.870845	9682.657618
768.196665	9492.538063
768.522438	9294.319893
768.848165	9128.284450
769.173846	8959.395714
769.499479	8839.643105
769.825066	8675.152775
770.150607	8489.429106
770.476101	8422.616173
770.801548	8313.850758
771.126949	8178.074841
771.452303	8087.258455
771.777611	7923.463805
772.102872	7899.432624
772.428087	7781.691435
772.753256	7651.337279
773.078378	7566.986172
773.403453	7419.482011
773.728482	7315.291443
774.053465	7251.014211
774.378401	7159.131620
774.703291	7065.724081
775.028135	6974.229659
775.352932	6930.424552
775.677683	6845.826429
776.002388	6760.467092
776.327046	6755.786380
776.651658	6670.202712
776.976224	6587.747079
777.300743	6576.659061
777.625216	6507.597774
777.949643	6464.324509
778.274024	6469.037988
778.598359	6393.453448
778.922647	6399.921248
779.246889	6356.388364
779.571086	6365.996803
779.895236	6375.758998
780.219339	6369.228183
780.543397	6364.529827
780.867409	6413.403814
781.191374	6410.056488
781.515294	6376.918463
781.839167	6436.267967
782.162995	6400.274129
782.486776	6355.443148
782.810511	6309.203164
783.134201	6243.905098
783.457844	6232.769189
783.781441	6180.747002
784.104993	6136.616742
784.428498	6113.276199
784.751958	6089.408856
785.075372	6068.268778
785.398739	6021.010481
785.722061	6050.828906
786.045337	6050.042486
786.368568	6158.056769
786.691752	6178.738102
787.014891	6423.312202
787.337983	6703.333175
787.661030	7130.485263
787.984031	7564.485760
788.306987	7831.845875
788.629897	7923.884741
788.952760	7844.713420
789.275579	7665.560894
789.598351	7372.506018
789.921078	7107.454752
790.243759	6830.846641
790.566395	6625.490197
790.888984	6426.626761
791.211529	6285.025790
791.534027	6120.759792
791.856480	5983.136292
792.178888	5922.095481
792.501249	5853.457651
792.823566	5742.655610
793.145836	5737.254013
793.468062	5715.572011
793.790241	5678.688408
794.112375	5714.649479
794.434464	5814.638245
794.756507	5844.751578
795.078505	5962.008816
795.400457	6175.297515
795.722364	6412.950110
796.044226	6605.827177
796.366042	6765.674604
796.687812	6717.148457
797.009538	6749.731955
797.331218	6664.203738
797.652852	6593.136072
797.974442	6473.683411
798.295986	6403.147587
798.617484	6273.131188
798.938938	6168.602863
799.260346	6098.210711
799.581709	5955.846006
799.903026	5905.492441
800.224299	5829.446635
800.545526	5716.028235
800.866708	5647.781094
801.187845	5602.314928
801.508936	5520.847361
801.829983	5493.534389
802.150984	5384.839551
802.471940	5355.777299
802.792851	5339.317932
803.113717	5313.156864
803.434538	5294.565088
803.755314	5257.999079
804.076045	5238.247838
804.396731	5209.198189
804.717372	5218.955342
805.037967	5219.444334
805.358518	5249.025825
805.679024	5306.991532
805.999485	5314.676772
806.319901	5330.644626
806.640272	5346.904868
806.960598	5398.100306
807.280879	5387.072782
807.601115	5423.832876
807.921306	5389.832814
808.241453	5386.102360
808.561554	5397.162651
808.881611	5368.377663
809.201623	5363.011355
809.521590	5314.059230
809.841513	5303.765194
810.161390	5319.538964
810.481223	5231.464966
810.801011	5214.322522
811.120755	5193.716806
811.440453	5134.148011
811.760107	5111.387202
812.079716	5087.633285
812.399281	5029.662536
812.718801	5026.380745
813.038276	4992.133666
813.357707	4959.393893
813.677093	4983.954394
813.996434	4920.188839
814.315731	4939.632569
814.634983	4941.545687
814.954191	4944.525009
815.273354	5004.819730
815.592473	5042.512437
815.911547	5119.886587
816.230577	5173.663096
816.549562	5261.371611
816.868502	5316.612575
817.187399	5374.971492
817.506250	5455.798832
817.825058	5483.457123
818.143821	5639.735413
818.462539	5810.794366
818.781213	6045.623915
819.099843	6405.448873
819.418429	7041.597118
819.736970	7663.720873
820.055466	8384.507571
820.373919	9312.261360
820.692327	10791.719026
821.010691	13524.470553
821.329011	19808.694800
821.647286	29446.516396
821.965517	39867.554338
822.283704	45434.210664
822.601847	47045.123979
822.919945	42521.033721
823.237999	37425.299302
823.556010	32203.815821
823.873976	27429.427233
824.191897	23149.280931
824.509775	20009.494040
824.827609	17173.267789
825.145398	15565.295988
825.463144	14774.575884
825.780845	15043.864240
826.098502	16299.056095
826.416116	18748.449405
826.733685	21009.827841
827.051210	21521.121829
827.368692	20113.762745
827.686129	17539.830250
828.003522	15048.325661
828.320872	12823.974500
828.638177	11136.511264
828.955439	9870.281803
829.272656	8789.528994
829.589830	7935.849920
829.906960	7183.989550
830.224046	6639.920500
830.541088	6219.483228
830.858086	5950.628412
831.175041	5748.185755
831.491952	5681.438358
831.808819	5712.043203
832.125642	5957.940605
832.442421	6511.792014
832.759157	7633.426059
833.075849	9396.544411
833.392497	11251.454613
833.709101	12391.009960
834.025662	12152.639001
834.342179	11107.927922
834.658653	9797.255648
834.975083	8681.981018
835.291469	7770.154754
835.607811	7013.838005
835.924110	6484.297561
836.240366	5986.622250
836.556578	5523.993041
836.872746	5163.495088
837.188871	4881.888673
837.504952	4660.607225
837.820990	4490.385103
838.136984	4369.334397
838.452935	4315.941016
838.768842	4344.710881
839.084706	4631.033296
839.400526	5371.999732
839.716303	6285.056037
840.032037	6862.379058
840.347727	6725.801597
840.663373	6127.315813
840.978977	5540.923756
841.294537	5090.053038
841.610054	4750.012088
841.925527	4505.445550
842.240957	4296.449394
842.556344	4108.293368
842.871687	3947.135241
843.186987	3789.039616
843.502244	3669.216430
843.817458	3580.469437
844.132629	3506.409846
844.447756	3458.279429
844.762840	3409.075247
845.077881	3369.950852
845.392879	3333.248732
845.707833	3310.591266
846.022745	3280.674538
846.337613	3269.256325
846.652438	3246.482912
846.967221	3237.549988
847.281960	3215.741956
847.596656	3206.680482
847.911309	3197.072043
848.225919	3179.430525
848.540485	3172.100687
848.855009	3163.560973
849.169490	3151.099240
849.483928	3145.911893
849.798323	3139.854947
850.112675	3128.265334
850.426984	3130.291878
850.741251	3119.765949
851.055474	3115.838890
851.369654	3118.291411
851.683792	3113.840072
851.997887	3114.268570
852.311938	3115.024743
852.625947	3115.594394
852.939914	3110.147427
853.253837	3116.370732
853.567718	3116.038015
853.881555	3107.868826
854.195350	3111.654732
854.509103	3110.026439
854.822812	3110.283538
855.136479	3101.821962
855.450103	3106.331274
855.763685	3098.492279
856.077224	3104.453444
856.390720	3112.020216
856.704173	3120.940537
857.017584	3124.308028
857.330953	3131.839512
857.644278	3137.997282
857.957561	3140.946357
858.270802	3140.928712
858.584000	3142.244454
858.897155	3134.818834
859.210268	3123.342647
859.523339	3111.470730
859.836367	3108.655246
860.149352	3105.260028
860.462295	3101.096035
860.775195	3091.104468
861.088054	3089.322421
861.400869	3086.907708
861.713642	3084.470310
862.026373	3092.836105
862.339062	3096.145622
862.651708	3107.977210
862.964312	3121.059005
863.276873	3131.355561
863.589392	3164.463339
863.901869	3187.261957
864.214303	3206.171326
864.526696	3226.910632
864.839045	3246.858478
865.151353	3259.363060
865.463619	3258.891712
865.775842	3260.197371
866.088023	3267.058382
866.400162	3260.993874
866.712258	3262.186107
867.024313	3262.241559
867.336325	3260.058740
867.648296	3262.743154
867.960224	3258.548914
868.272110	3263.343051
868.583954	3261.334152
868.895755	3270.584669
869.207515	3267.925460
869.519233	3285.950106
869.830909	3292.405303
870.142542	3305.446768
870.454134	3310.591266
870.765684	3324.885458
871.077191	3344.518231
871.388657	3352.757997
871.700081	3373.913199
872.011463	3393.505644
872.322803	3414.907862
872.634101	3430.424534
872.945357	3451.181485
873.256571	3482.151813
873.567744	3492.801251
873.878874	3502.908764
874.189963	3518.743029
874.501010	3520.935931
874.812015	3519.216897
875.122979	3534.935215
875.433900	3533.286758
875.744780	3537.470915
876.055618	3546.774365
876.366415	3543.921072
876.677169	3552.110426
876.987882	3572.353179
877.298554	3590.955037
877.609183	3630.054226
877.919771	3680.110363
878.230317	3748.796084
878.540822	3855.189636
878.851285	4013.255015
879.161707	4244.890993
879.472087	4629.336947
879.782425	5276.328714
880.092722	6485.257900
880.402977	8455.035834
880.713191	10870.290450
881.023363	13303.481492
881.333494	14681.609445
881.643583	15160.352702
881.953631	14779.191060
882.263637	13945.747177
882.573602	12911.599836
882.883526	11926.172726
883.193408	10944.276944
883.503248	9997.500361
883.813048	9151.035178
884.122806	8365.920837
884.432522	7571.417346
884.742197	6891.345528
885.051831	6307.075797
885.361424	5788.552795
885.670975	5376.083067
885.980485	5042.242735
886.289954	4760.590949
886.599382	4539.218761
886.908768	4351.682796
887.218113	4179.008154
887.527417	4042.763409
887.836680	3917.266405
888.145901	3811.366886
888.455082	3731.678847
888.764221	3659.013134
889.073319	3601.606995
889.382376	3562.442271
889.691392	3534.839433
890.000366	3528.346427
890.309300	3521.351826
890.618193	3527.872558
890.927044	3519.872247
891.235855	3524.721837
891.544625	3544.528531
891.853353	3571.796132
892.162041	3632.554638
892.470687	3729.226325
892.779293	3849.447762
893.087858	4028.164228
893.396381	4308.102021
893.704864	4736.136312
894.013306	5314.989323
894.321707	5898.974229
894.630068	6261.985197
894.938387	6303.872144
895.246665	6126.786492
895.554903	5809.002235
895.863100	5466.216377
896.171256	5190.588770
896.479371	4943.844453
896.787446	4709.609761
897.095480	4512.114997
897.403473	4354.725133
897.711425	4206.268193
898.019336	4077.822114
898.327207	3954.820480
898.635038	3849.485571
898.942827	3737.932398
899.250576	3652.941065
899.558284	3567.322108
899.865952	3508.325484
900.173579	3444.091102
900.481165	3395.837177
900.788711	3355.235724
901.096216	3321.898574
901.403681	3292.440591
901.711105	3279.472223
902.018489	3271.373609
902.325832	3311.468427
902.633135	3367.417673
902.940397	3545.009961
903.247619	3956.690748
903.554800	4727.704982
903.861941	5713.048913
904.169041	6444.268278
904.476101	6675.911818
904.783121	6403.084572
905.090100	5993.110215
905.397039	5569.335699
905.703938	5198.669739
906.010796	4865.641034
906.317614	4601.287967
906.624391	4354.344526
906.931129	4145.360972
907.237826	3960.743836
907.544483	3786.990387
907.851099	3604.752675
908.157675	3440.776543
908.464211	3295.089718
908.770707	3185.164837
909.077163	3106.134669
909.383578	3041.612941
909.689954	2996.323214
909.996289	2962.711321
910.302584	2942.957560
910.608839	2931.194027
910.915054	2916.604928
911.221229	2909.343146
911.527363	2916.622572
911.833458	2924.050712
912.139513	2931.877104
912.445527	2949.551389
912.751502	2984.373159
913.057436	3031.891075
913.363331	3092.735282
913.669186	3179.032274
913.975000	3302.792601
914.280775	3498.422138
914.586510	3779.327833
914.892205	4163.103313
915.197859	4676.925440
915.503475	5269.384525
915.809050	5772.534528
916.114585	6073.619963
916.420081	6139.303677
916.725536	6076.684984
917.030952	5835.291853
917.336328	5628.314679
917.641665	5412.444909
917.946961	5181.116442
918.252218	4976.861491
918.557435	4737.575562
918.862612	4536.735992
919.167750	4360.144373
919.472848	4161.391842
919.777906	3991.784741
920.082925	3825.051098
920.387904	3664.439937
920.692843	3552.339798
920.997743	3446.284004
921.302603	3345.229034
921.607423	3282.242337
921.912204	3210.456306
922.216946	3162.893020
922.521647	3110.868312
922.826310	3068.341138
923.130932	3027.059129
923.435516	2987.314673
923.740059	2956.795527
924.044564	2926.664551
924.349028	2901.030283
924.653454	2868.461909
924.957840	2842.958712
925.262186	2822.199240
925.566493	2797.754685
925.870761	2773.196704
926.174989	2760.561052
926.479178	2744.860378
926.783328	2726.437482
927.087438	2715.760318
927.391509	2703.628781
927.695541	2689.445495
927.999533	2683.537262
928.303486	2668.733914
928.607400	2662.145126
928.911275	2659.463232
929.215110	2651.838487
929.518906	2651.162972
929.822663	2649.514515
930.126381	2648.581902
930.430060	2654.429640
930.733699	2652.171203
931.037299	2655.084990
931.340861	2655.732778
931.644383	2658.550783
931.947866	2658.520536
932.251309	2652.105668
932.554714	2653.555000
932.858080	2650.452170
933.161407	2646.814977
933.464694	2643.684421
933.767943	2640.747948
934.071153	2635.883235
934.374323	2633.987761
934.677455	2629.329735
934.980548	2626.869652
935.283602	2625.581637
935.586617	2622.849332
935.889593	2625.309415
936.192530	2627.567852
936.495428	2633.486166
936.798287	2644.760707
937.101108	2652.493837
937.403890	2678.279339
937.706632	2705.471323
938.009336	2737.465006
938.312002	2766.744027
938.614628	2789.328396
938.917216	2813.425112
939.219765	2820.480207
939.522275	2833.866991
939.824747	2832.178204
940.127179	2828.747699
940.429573	2821.881647
940.731929	2820.069352
941.034246	2813.878816
941.336524	2810.715492
941.638763	2802.145530
941.940964	2800.575211
942.243126	2779.856068
942.545250	2772.501025
942.847335	2757.586771
943.149381	2740.482136
943.451389	2728.496793
943.753359	2715.843497
944.055290	2705.781354
944.357182	2697.385312
944.659036	2690.678057
944.960851	2688.338961
945.262628	2683.801923
945.564367	2682.120698
945.866067	2681.195646
946.167729	2680.623475
946.469352	2676.066272
946.770937	2677.770182
947.072484	2670.926816
947.373992	2671.009995
947.675462	2668.189469
947.976893	2660.211843
948.278286	2660.148829
948.579641	2651.127684
948.880958	2652.531646
949.182236	2651.513332
949.483476	2649.300266
949.784678	2647.520739
950.085841	2650.129536
950.386967	2651.155411
950.688054	2657.421565
950.989103	2666.934222
951.290114	2674.649708
951.591087	2685.649506
951.892021	2699.217771
952.192917	2709.224462
952.493776	2718.356512
952.794596	2724.131154
953.095378	2726.321535
953.396122	2723.037223
953.696828	2721.560165
953.997496	2719.092520
954.298126	2706.618185
954.598718	2700.387319
954.899272	2688.994311
955.199788	2678.201201
955.500266	2663.465908
955.800706	2647.805564
956.101108	2629.125568
956.401472	2619.338168
956.701798	2607.362907
957.002087	2592.267172
957.302337	2583.198136
957.602550	2569.841599
957.902724	2558.796431
958.202861	2551.461552
958.502960	2540.398740
958.803022	2531.382636
959.103045	2525.063550
959.403031	2515.349247
959.702979	2509.443535
960.002889	2508.047135
960.302762	2501.178563
960.602596	2498.224447
960.902393	2494.655310
961.202153	2490.602222
961.501875	2490.135916
961.801559	2484.900677
962.101205	2485.046871
962.400814	2478.858854
962.700385	2479.037815
962.999918	2478.037146
963.299414	2472.018009
963.598873	2473.389203
963.898293	2472.484315
964.197677	2471.294603
964.497022	2471.110601
964.796331	2468.655559
965.095601	2467.087760
965.394835	2465.557770
965.694030	2464.824282
965.993189	2466.969293
966.292309	2465.341000
966.591393	2464.163891
966.890439	2461.746658
967.189447	2464.688171
967.488419	2464.370578
967.787353	2465.174642
968.086249	2463.160701
968.385108	2464.292440
968.683930	2464.171453
968.982714	2466.802935
969.281462	2467.785960
969.580172	2472.164202
969.878844	2472.030612
970.177480	2475.763586
970.476078	2477.301138
970.774639	2482.634679
971.073162	2483.015286
971.371649	2485.780359
971.670098	2483.809268
971.968510	2488.679022
972.266885	2483.700883
972.565223	2491.849908
972.863524	2492.729589
973.161788	2494.710763
973.460014	2493.077429
973.758204	2495.045999
974.056356	2497.407780
974.354471	2496.949035
974.652550	2498.819303
974.950591	2497.611947
975.248595	2494.045330
975.546563	2495.051041
975.844493	2492.638848
976.142386	2495.040958
976.440243	2487.632983
976.738062	2486.854124
977.035845	2482.561582
977.333590	2482.982518
977.631299	2477.704430
977.928971	2479.864565
978.226606	2475.095633
978.524204	2476.786940
978.821765	2472.769141
979.119290	2472.726291
979.416777	2471.952474
979.714228	2473.114460
980.011642	2476.086220
980.309020	2479.499081
980.606360	2484.633496
980.903664	2493.687408
981.200931	2506.272649
981.498162	2525.852491
981.795356	2556.873231
982.092513	2597.341093
982.389633	2641.985552
982.686717	2688.202850
982.983764	2719.699979
983.280775	2740.086406
983.577749	2740.010788
983.874686	2729.903275
984.171587	2716.682849
984.468451	2697.188707
984.765279	2680.313444
985.062070	2659.319559
985.358824	2640.377424
985.655543	2617.367077
985.952224	2594.157605
986.248869	2562.431103
986.545478	2538.591486
986.842050	2517.683301
987.138586	2493.626915
987.435086	2481.475213
987.731549	2469.560446
988.027975	2467.682616
988.324366	2458.696760
988.620719	2451.129988
988.917037	2449.037909
989.213318	2450.280553
989.509563	2446.668567
989.805772	2443.381734
990.101944	2441.294697
990.398080	2441.874429
990.694180	2438.685899
990.990244	2440.793102
991.286271	2439.177412
991.582262	2440.538523
991.878217	2440.430139
992.174136	2443.343926
992.470019	2446.265274
992.765865	2443.517845
993.061676	2447.689400
993.357450	2449.955399
993.653188	2451.601336
993.948890	2459.165587
994.244556	2465.779581
994.540186	2475.965232
994.835780	2484.968733
995.131337	2503.789881
995.426859	2516.818743
995.722345	2540.184491
996.017795	2558.693087
996.313208	2577.567167
996.608586	2587.621749
996.903928	2588.183837
997.199234	2585.459094
997.494504	2584.758373
997.789738	2575.757393
998.084936	2564.699622
998.380099	2553.571275
998.675225	2540.330684
998.970316	2530.104704
999.265371	2514.308248
999.560390	2500.014057
999.855373	2486.972592
1000.150320	2478.495891
1000.445232	2469.472226
1000.740108	2460.814044
1001.034948	2456.382870
1001.329752	2451.621500
1001.624521	2445.988011
1001.919254	2436.918975
1002.213951	2435.814962
1002.508613	2431.656010
1002.803239	2435.444438
1003.097829	2426.382963
1003.392384	2431.711463
1003.686903	2428.820361
1003.981386	2428.979158
1004.275834	2424.926070
1004.570246	2426.539239
1004.864623	2423.290216
1005.158964	2422.166038
1005.453270	2423.995977
1005.747540	2421.228384
1006.041775	2420.804927
1006.335974	2422.289547
1006.630138	2419.879875
1006.924266	2422.917170
1007.218359	2422.123188
1007.512416	2422.791141
1007.806438	2418.332241
1008.100425	2418.886768
1008.394376	2420.293250
1008.688292	2420.245359
1008.982172	2417.268557
1009.276017	2418.798547
1009.569827	2418.327200
1009.863602	2418.634710
1010.157341	2417.364339
1010.451045	2418.518763
1010.744714	2416.109092
1011.038347	2416.242683
1011.331945	2415.083217
1011.625508	2414.710172
1011.919036	2416.308217
1012.212528	2414.258988
1012.505986	2412.454255
1012.799408	2416.978691
1013.092795	2417.336613
1013.386147	2415.403330
1013.679464	2414.238824
1013.972745	2413.233114
1014.265992	2413.424677
1014.559204	2412.968453
1014.852380	2414.558937
1015.145521	2417.170255
1015.438628	2416.154462
1015.731699	2417.276119
1016.024736	2418.168403
1016.317737	2413.114647
1016.610703	2413.833011
1016.903635	2413.391910
1017.196531	2411.400654
1017.489393	2413.228073
1017.782219	2412.386200
1018.075011	2416.832497
1018.367768	2415.368042
1018.660490	2415.738567
1018.953177	2415.738567
1019.245829	2415.738567
