Dividing Wavelength (nm)	Counts (n)	Blue Motor Position (mm): 45.800000	Red Motor Position (mm): 0.000000	
326.493990	1975.489561
326.888308	1975.489561
327.282561	1975.489561
327.676750	1951.468462
328.070874	1952.786724
328.464933	1957.318722
328.858929	1966.478498
329.252859	1978.804119
329.646726	1995.253404
330.040528	2009.313182
330.434265	2025.341531
330.827938	2046.610159
331.221547	2069.335681
331.615091	2086.205902
332.008571	2108.150045
332.401986	2129.534619
332.795338	2151.501447
333.188625	2169.780671
333.581847	2189.211798
333.975006	2204.766279
334.368100	2223.146326
334.761129	2241.342370
335.154095	2254.225039
335.546996	2299.497121
335.939833	2382.958464
336.332606	2398.228119
336.725315	2411.199008
337.117960	2419.877354
337.510540	2421.087231
337.903056	2435.436876
338.295508	2440.992227
338.687896	2447.712085
339.080220	2458.406893
339.472480	2460.841771
339.864676	2466.089612
340.256807	2466.477781
340.648875	2471.261836
341.040879	2473.358956
341.432818	2471.161012
341.824694	2472.078502
342.216506	2475.105715
342.608253	2473.810139
342.999937	2473.452217
343.391557	2474.626806
343.783113	2472.998513
344.174605	2466.709674
344.566033	2467.443162
344.957397	2465.877883
345.348697	2462.835547
345.739934	2465.686319
346.131106	2461.053499
346.522215	2460.320011
346.913260	2455.704835
347.304241	2460.383026
347.695159	2455.291460
348.086012	2451.611418
348.476802	2450.809874
348.867528	2449.738629
349.258191	2448.644699
349.648789	2446.976077
350.039324	2445.020109
350.429796	2448.064966
350.820203	2447.165120
351.210548	2445.340223
351.600828	2444.689914
351.991045	2444.218566
352.381198	2443.734615
352.771288	2443.197732
353.161314	2445.287290
353.551276	2443.777465
353.941175	2442.028184
354.331010	2443.727053
354.720782	2446.512291
355.110490	2447.192847
355.500135	2447.470110
355.889717	2447.001283
356.279235	2447.250820
356.668689	2447.868361
357.058080	2447.449945
357.447408	2442.491971
357.836672	2443.898453
358.225873	2443.268308
358.615010	2446.940789
359.004084	2449.889864
359.393095	2453.522015
359.782043	2451.243414
360.170927	2452.932200
360.559748	2454.711728
360.948505	2456.955041
361.337199	2457.582665
361.725830	2457.703652
362.114398	2457.605350
362.502903	2460.622480
362.891344	2460.166256
363.279722	2457.464197
363.668037	2462.601133
364.056289	2461.663479
364.444478	2461.691205
364.832603	2463.075002
365.220665	2463.011987
365.608665	2463.359827
365.996601	2463.692543
366.384474	2466.462657
366.772284	2465.439303
367.160031	2467.551546
367.547715	2466.911320
367.935336	2466.923923
368.322893	2469.522637
368.710388	2472.265025
369.097820	2472.423822
369.485189	2470.654377
369.872495	2476.318113
370.259738	2472.229737
370.646918	2476.945737
371.034035	2472.862402
371.421090	2479.065542
371.808081	2478.029585
372.195010	2474.538586
372.581875	2479.713330
372.968678	2479.418423
373.355418	2483.136273
373.742096	2483.300111
374.128710	2483.055615
374.515262	2484.651140
374.901751	2487.832108
375.288177	2486.213898
375.674540	2488.205154
376.060841	2490.914774
376.447079	2491.290340
376.833254	2493.047182
377.219367	2490.098107
377.605417	2500.503048
377.991404	2494.562049
378.377329	2502.766527
378.763191	2503.711743
379.148991	2520.027437
379.534727	2523.069774
379.920402	2532.519417
380.306013	2539.879501
380.691563	2554.032541
381.077049	2568.218348
381.462474	2581.007755
381.847835	2601.721856
382.233134	2624.588530
382.618371	2646.401602
383.003545	2677.228258
383.388657	2708.622044
383.773706	2746.619741
384.158693	2777.569905
384.543618	2820.386945
384.928480	2860.577544
385.313280	2911.435225
385.698017	2966.542598
386.082692	3029.115920
386.467305	3078.206676
386.851856	3151.275681
387.236344	3236.282137
387.620770	3292.566620
388.005133	3372.277345
388.389435	3466.113383
388.773674	3541.077861
389.157851	3635.100421
389.541965	3741.894745
389.926018	3794.947848
390.310008	3922.602466
390.693936	4028.960730
391.077802	4139.200682
391.461606	4254.779217
391.845348	4366.402966
392.229027	4485.442252
392.612645	4664.617462
392.996200	4788.907111
393.379694	4948.051296
393.763125	5140.310822
394.146494	5263.597280
394.529801	5413.606895
394.913047	5630.757118
395.296230	5698.590884
395.679351	5800.180216
396.062410	6040.935642
396.445408	6043.771291
396.828343	6220.340225
397.211217	6382.899792
397.594028	6363.909766
397.976778	6575.812147
398.359466	6769.768021
398.742092	6814.551111
399.124656	6993.645663
399.507158	7206.473096
399.889598	7283.086032
400.271977	7524.156529
400.654294	7612.384283
401.036549	7844.330292
401.418742	7929.775329
401.800874	8257.704907
402.182944	8375.867033
402.564952	8765.754913
402.946898	8658.605188
403.328783	8761.507741
403.710606	8991.797731
404.092367	9270.185369
404.474067	9653.325665
404.855705	9508.999951
405.237282	9509.249488
405.618797	9945.447927
406.000250	10216.215862
406.381642	10603.381518
406.762972	10592.215363
407.144240	10435.422875
407.525447	10708.804648
407.906593	10682.693992
408.287677	10956.887391
408.668700	11125.680345
409.049661	11123.424429
409.430560	11304.104424
409.811399	11289.696806
410.192176	11471.753036
410.572891	11566.677963
410.953545	12044.874255
411.334138	11545.374047
411.714669	12138.556538
412.095139	11486.695016
412.475547	11980.949904
412.855894	11837.866834
413.236180	12167.066783
413.616405	11866.762728
413.996568	12133.222997
414.376670	12120.791511
414.756711	11998.475475
415.136691	12286.791666
415.516609	12454.334414
415.896466	12537.362218
416.276262	12818.091473
416.655997	13261.211417
417.035670	13298.440338
417.415283	13941.258029
417.794834	14037.004664
418.174324	13792.528868
418.553753	13690.770657
418.933121	14175.875850
419.312428	13990.666378
419.691674	13902.025250
420.070859	14357.382594
420.449983	14012.061035
420.829045	14552.954158
421.208047	14306.890397
421.586988	14763.329069
421.965867	15006.683210
422.344686	15011.789898
422.723444	15564.015535
423.102141	14266.941774
423.480777	15442.223778
423.859352	14956.982474
424.237866	16051.333795
424.616319	15756.527118
424.994712	16411.173877
425.373044	16206.528237
425.751314	16873.233436
426.129524	16005.789490
426.507673	17069.387252
426.885762	16785.522400
427.263789	16976.738406
427.641756	17144.011453
428.019662	17201.314248
428.397508	17245.439468
428.775292	17539.086680
429.153016	17495.793250
429.530679	17572.837205
429.908282	17609.229294
430.285824	17323.758834
430.663305	18033.386938
431.040726	17623.026932
431.418086	17464.212942
431.795385	18095.156196
432.172624	18514.527264
432.549802	18065.433553
432.926920	18269.617928
433.303977	18132.516187
433.680974	18397.612824
434.057910	18687.879942
434.434786	18713.907419
434.811601	18626.448441
435.188355	19654.995060
435.565050	19308.307348
435.941683	19258.069730
436.318257	20126.042996
436.694770	19933.208779
437.071222	20528.279182
437.447614	19613.193812
437.823946	19637.048552
438.200218	19781.759915
438.576429	19557.171470
438.952580	19845.969091
439.328670	19798.299940
439.704700	20208.743125
440.080670	19790.163518
440.456580	20364.701301
440.832429	20540.239319
441.208218	19554.487055
441.583947	19996.934005
441.959616	20094.949159
442.335224	20326.393573
442.710773	20448.946544
443.086261	20989.098617
443.461689	20352.731082
443.837057	20482.674384
444.212365	21115.936568
444.587612	21109.824169
444.962800	20699.552384
445.337927	21113.617637
445.712995	19869.171002
446.088002	21685.891942
446.462949	21887.228065
446.837837	22047.057848
447.212664	22003.703925
447.587431	24776.167141
447.962139	27675.332198
448.336786	30073.870348
448.711374	28553.818790
449.085901	24917.737865
449.460369	24849.750343
449.834776	24743.439970
450.209124	27186.509153
450.583412	26741.103046
450.957640	27269.726000
451.331808	25951.623066
451.705917	24597.269194
452.079965	24615.089673
452.453954	24973.364477
452.827883	24864.651994
453.201752	24673.637634
453.575562	24807.644106
453.949311	25930.722442
454.323001	25974.189791
454.696632	25745.354174
455.070202	27274.157174
455.443713	27420.113702
455.817164	27991.415064
456.190556	28517.784622
456.563888	27987.659405
456.937160	28426.756508
457.310373	26788.568030
457.683526	27207.417339
458.056619	27184.792640
458.429653	27124.603784
458.802628	27691.544548
459.175542	27803.911867
459.548398	29097.045967
459.921194	30639.172737
460.293930	31310.127629
460.666607	33320.375945
461.039224	35072.804530
461.411782	35478.274617
461.784280	34282.913696
462.156719	33810.330729
462.529099	33248.743670
462.901419	31956.015383
463.273680	30919.612126
463.645882	30993.860760
464.018024	30955.149740
464.390106	31778.491150
464.762130	34439.406235
465.134094	38432.201727
465.505999	43708.810225
465.877845	48304.731884
466.249631	49477.377366
466.621358	47783.869787
466.993026	45664.656930
467.364634	43591.351341
467.736184	41635.570171
468.107674	40400.149722
468.479105	39621.636771
468.850477	38923.678939
469.221790	37514.994032
469.593043	35797.903935
469.964238	34912.102628
470.335373	34819.640305
470.706449	36471.160113
471.077467	38993.236780
471.448425	43527.293399
471.819324	46391.878660
472.190164	44620.432322
472.560945	41090.326533
472.931667	37987.879468
473.302330	36873.522328
473.672934	36059.151651
474.043479	36562.016829
474.413965	35771.460563
474.784393	35410.251807
475.154761	36282.830167
475.525070	36320.192679
475.895321	35854.286720
476.265513	36449.195806
476.635645	37402.989676
477.005719	37247.485203
477.375734	37685.062398
477.745691	38374.495639
478.115588	39695.837515
478.485427	41636.795172
478.855207	44958.809692
479.224928	47565.013134
479.594591	49220.901102
479.964194	48238.342409
480.333739	48369.611534
480.703226	48379.003204
481.072653	49014.390235
481.442022	49509.239979
481.811333	49798.279576
482.180584	48500.081637
482.549777	47975.078232
482.918912	47447.332438
483.287988	47158.776792
483.657005	46337.093921
484.025964	45696.118771
484.394864	45710.438169
484.763706	45268.066836
485.132489	44425.289257
485.501213	44258.127116
485.869879	44408.567750
486.238487	43987.646527
486.607036	44190.726889
486.975527	43658.784335
487.343959	43854.050909
487.712333	43927.598823
488.080648	43852.412534
488.448905	44293.024503
488.817104	44099.590389
489.185244	45041.693823
489.553326	46687.557457
489.921350	49412.038971
490.289315	52299.974857
490.657222	52943.954534
491.025070	53234.393052
491.392861	52333.816123
491.760593	51095.464242
492.128267	49416.734806
492.495883	47890.749810
492.863440	46480.779408
493.230939	45159.548438
493.598380	44070.906224
493.965763	43744.801543
494.333088	42935.351032
494.700354	42444.917339
495.067563	42184.176259
495.434713	42033.382745
495.801805	42122.979172
496.168839	41743.796182
496.535815	41414.646645
496.902733	41448.823148
497.269593	41030.019209
497.636395	40975.224388
498.003139	41365.334078
498.369825	40818.260501
498.736453	41140.385191
499.103023	40659.149083
499.469535	40538.907481
499.835989	40626.618517
500.202385	40297.610132
500.568723	40328.882930
500.935003	40519.824193
501.301226	40304.486266
501.667390	40930.499271
502.033497	41186.743641
502.399546	40603.777049
502.765537	39929.169841
503.131470	40308.214199
503.497345	40661.967088
503.863163	39337.832413
504.228923	39962.748967
504.594625	40344.676865
504.960269	39638.338114
505.325856	40329.104740
505.691385	39689.180671
506.056856	39826.307617
506.422270	40256.491960
506.787625	39853.343326
507.152924	40023.515035
507.518164	40129.275922
507.883347	39354.072490
508.248472	39606.770409
508.613540	40058.359491
508.978550	40362.167148
509.343503	40122.225869
509.708398	40301.615328
510.073236	40831.758190
510.438016	40821.254946
510.802738	40297.290018
511.167403	40913.039234
511.532010	41135.966619
511.896561	41434.770931
512.261053	42278.927266
512.625488	41832.800274
512.989866	41695.537217
513.354186	41548.217057
513.718449	41544.022817
514.082655	42216.210271
514.446803	41887.229612
514.810894	42402.246492
515.174927	42330.858712
515.538904	42235.888415
515.902822	42902.094540
516.266684	42349.747916
516.630488	42772.841876
516.994235	42629.363076
517.357925	43194.786453
517.721558	43367.246847
518.085133	43670.202549
518.448651	43810.326461
518.812112	43582.045371
519.175516	43689.933625
519.538863	44042.174167
519.902152	43995.394780
520.265385	44466.750227
520.628560	44509.950395
520.991678	44285.198112
521.354739	44534.082398
521.717743	44859.912336
522.080690	44750.274801
522.443580	45301.184697
522.806413	45355.082193
523.169189	45292.768490
523.531908	45474.713815
523.894569	45326.544221
524.257174	45505.401839
524.619722	45817.681155
524.982213	45802.068702
525.344647	45718.788840
525.707025	45769.056706
526.069345	46162.175965
526.431608	46092.434122
526.793815	46393.436377
527.155964	45932.715245
527.518057	46108.263345
527.880093	45901.082004
528.242072	46425.503157
528.603995	46126.756818
528.965860	46132.095400
529.327669	46220.028246
529.689421	46123.018802
530.051117	46094.364884
530.412755	46234.115751
530.774337	46290.604400
531.135862	46105.510875
531.497331	46307.310784
531.858743	46222.395068
532.220098	46544.965900
532.581396	46269.602953
532.942638	45924.208297
533.303824	46227.380769
533.664953	46194.656119
534.026025	45913.621874
534.387040	46386.141827
534.747999	46337.915629
535.108902	46497.992428
535.469748	46033.573610
535.830537	46142.548232
536.191270	46325.970615
536.551947	45979.792060
536.912567	46281.520241
537.273131	46401.061122
537.633638	45896.602939
537.994089	46244.210661
538.354483	45842.486152
538.714821	46406.011535
539.075103	46746.251611
539.435328	46512.757968
539.795497	46404.090856
540.155609	46394.426964
540.515665	46850.527878
540.875665	46289.409647
541.235609	46612.411497
541.595496	46597.381297
541.955328	47257.122142
542.315102	46639.580796
542.674821	46430.241841
543.034483	46457.035574
543.394090	46438.201823
543.753640	46387.082002
544.113134	47394.632216
544.472571	46419.244564
544.831953	47648.237542
545.191278	46875.660551
545.550548	46593.066069
545.909761	47042.863021
546.268918	47233.584995
546.628019	47558.724294
546.987064	47103.697145
547.346053	46391.550985
547.704986	47272.119575
548.063863	46827.749425
548.422684	47011.479318
548.781449	46879.015439
549.140158	47280.729865
549.498811	47105.897609
549.857408	46548.061168
550.215949	47399.940551
550.574434	47310.205492
550.932864	47086.393385
551.291237	47796.898649
551.649555	47413.758354
552.007817	47652.366247
552.366022	47284.321687
552.724173	47466.803895
553.082267	47871.094351
553.440305	48180.089356
553.798288	47478.950555
554.156215	47796.840676
554.514086	47999.653857
554.871902	47752.075229
555.229661	47763.611910
555.587365	47572.123681
555.945014	47676.505813
556.302606	47596.424563
556.660143	47838.372222
557.017625	47910.044826
557.375050	47723.698574
557.732421	48060.719874
558.089735	48047.824602
558.446994	47959.445613
558.804197	48437.541082
559.161345	48375.776866
559.518437	47610.252448
559.875474	47937.115822
560.232455	48081.015559
560.589381	48252.132485
560.946251	47963.879308
561.303065	48644.639244
561.659825	48446.811764
562.016528	48111.706104
562.373177	47839.413220
562.729770	48324.959514
563.086307	47834.523301
563.442789	48295.186460
563.799216	48343.447946
564.155587	48124.354359
564.511904	48154.664296
564.868164	48241.490609
565.224370	48484.960696
565.580520	48236.015916
565.936615	48448.044327
566.292654	48169.175257
566.648638	48407.926824
567.004567	48338.202625
567.360441	48383.757012
567.716260	48240.908356
568.072023	48539.450528
568.427732	48523.444865
568.783385	48080.579499
569.138982	48465.675762
569.494525	48448.447619
569.850013	48194.030667
570.205445	48164.381120
570.560823	48134.915576
570.916145	47983.431423
571.271412	48036.572747
571.626625	47793.579049
571.981782	47850.889407
572.336884	47530.534162
572.691931	47839.824074
573.046923	47452.781926
573.401860	47304.506467
573.756743	47278.635266
574.111570	47394.385199
574.466342	47250.576204
574.821059	47377.893065
575.175722	46891.779640
575.530330	46906.666168
575.884882	46629.397665
576.239380	46608.544932
576.593823	46577.413287
576.948211	46490.027405
577.302544	46005.857346
577.656823	46042.546863
578.011047	46259.452590
578.365216	45974.271996
578.719330	45789.939685
579.073389	45625.149407
579.427394	45715.935547
579.781344	45692.862186
580.135239	45340.825810
580.489080	45434.878617
580.842866	44909.156847
581.196597	45373.598351
581.550273	45311.834134
581.903895	45159.765208
582.257463	45580.353714
582.610975	44971.919212
582.964434	45250.286687
583.317837	44892.142953
583.671186	44730.117748
584.024481	44959.028982
584.377721	44487.673536
584.730906	44774.421928
585.084037	44790.230987
585.437113	44494.242159
585.790135	44551.703751
586.143103	44144.791895
586.496016	44282.559068
586.848874	44305.723170
587.201679	44324.191437
587.554428	43799.999657
587.907124	43990.976209
588.259765	43735.661931
588.612352	43995.654400
588.964884	43375.917631
589.317362	43669.237168
589.669786	43603.745017
590.022155	43379.902663
590.374470	43809.325792
590.726731	43333.443389
591.078937	42844.643030
591.431090	42943.802526
591.783188	42597.140020
592.135232	42285.286682
592.487222	42514.921322
592.839157	42618.554842
593.191038	42296.430152
593.542866	42052.826475
593.894639	41445.599330
594.246358	41729.164233
594.598022	41724.191135
594.949633	41309.145377
595.301190	41263.774993
595.652692	41094.485485
596.004141	41425.762389
596.355535	40444.705960
596.706876	40407.739179
597.058162	40223.076672
597.409395	40696.221728
597.760573	40794.234362
598.111698	40351.028718
598.462768	40362.547755
598.813785	40413.649932
599.164748	39846.381492
599.515657	40240.387994
599.866511	39716.624713
600.217312	40331.060708
600.568060	39298.198861
600.918753	40035.404597
601.269392	40003.201706
601.619978	39654.951237
601.970510	39848.753355
602.320988	40053.830014
602.671412	40338.516575
603.021783	40098.159400
603.372100	39734.021735
603.722363	39833.574441
604.072572	39915.092419
604.422728	39914.676524
604.772830	39734.538453
605.122878	39839.091984
605.472872	39778.620823
605.822813	40054.439994
606.172701	39884.384230
606.522534	40121.376434
606.872314	40378.631556
607.222041	40143.668417
607.571714	40520.930727
607.921333	39965.403134
608.270899	40254.362073
608.620411	40590.763310
608.969870	40403.181976
609.319276	40387.012475
609.668627	40433.262541
610.017926	40925.508528
610.367171	41086.986768
610.716362	41158.929075
611.065500	41107.784049
611.414585	41293.119549
611.763616	41587.974117
612.112594	41524.039683
612.461518	41736.920049
612.810389	42018.647452
613.159207	41891.121383
613.507971	41961.445479
613.856682	42443.039509
614.205340	42327.556757
614.553945	43016.821119
614.902496	42462.226141
615.250994	42930.635032
615.599439	43001.919468
615.947830	43209.287332
616.296169	43275.964153
616.644454	43379.169175
616.992686	43543.140266
617.340864	44077.268160
617.688990	43781.249086
618.037063	44381.713523
618.385082	44341.507801
618.733048	44667.574672
619.080961	44664.396225
619.428821	44664.519733
619.776628	44777.865036
620.124382	44605.855826
620.472083	44757.024906
620.819731	44888.631789
621.167326	44540.971135
621.514868	44528.428744
621.862357	44092.636118
622.209793	44109.324857
622.557176	43800.574349
622.904506	43541.877457
623.251783	43211.500398
623.599007	42992.258097
623.946179	42763.125052
624.293297	42716.907753
624.640363	42122.558236
624.987376	42108.458128
625.334336	41862.883360
625.681243	41507.209791
626.028097	41470.953813
626.374899	41311.429020
626.721647	41293.986628
627.068343	41176.870542
627.414987	40929.637233
627.761577	40711.337628
628.108115	41032.532225
628.454600	40479.837761
628.801032	40669.559065
629.147412	40635.198561
629.493739	40641.910857
629.840014	40277.516092
630.186236	40616.115273
630.532405	40224.014327
630.878521	40440.050454
631.224585	40340.086894
631.570597	40029.972753
631.916556	40182.457575
632.262462	40125.981528
632.608316	40132.330862
632.954117	40046.056555
633.299866	40051.150641
633.645562	39975.104835
633.991206	39459.387235
634.336797	39028.192141
634.682336	39041.934326
635.027823	38793.614649
635.373257	38611.374417
635.718639	38372.496822
636.063968	38239.125535
636.409245	37665.321239
636.754470	37708.062662
637.099642	37452.289640
637.444762	36976.881106
637.789829	37118.194730
638.134845	36768.734384
638.479808	36711.217339
638.824719	36623.281972
639.169577	36235.786120
639.514383	36280.806144
639.859137	35990.029870
640.203839	36232.252271
640.548489	35858.208738
640.893086	35922.954797
641.237632	35666.055077
641.582125	35781.515144
641.926566	35717.721862
642.270955	35685.851688
642.615292	35708.274740
642.959576	35654.236092
643.303809	35650.286348
643.647990	35800.275798
643.992118	35764.748266
644.336195	35761.950426
644.680219	35845.681471
645.024192	36151.616495
645.368112	36643.781824
645.711981	36661.902252
646.055797	37521.156842
646.399562	37438.993596
646.743274	38393.964575
647.086935	38837.087039
647.430544	38732.210875
647.774101	38850.070531
648.117606	39100.134447
648.461059	39424.492368
648.804460	39026.551245
649.147810	38417.073224
649.491108	38183.904736
649.834354	37812.323806
650.177548	36995.387181
650.520690	36535.775103
650.863781	36550.286064
651.206820	36389.367392
651.549807	35961.091126
651.892742	35473.916539
652.235626	35276.199965
652.578458	35139.473790
652.921238	34516.424983
653.263967	34855.538361
653.606644	34526.535017
653.949269	34481.149509
654.291843	34083.112604
654.634365	34487.725694
654.976836	34080.781071
655.319255	34064.490582
655.661622	34072.301850
656.003938	33846.443034
656.346203	33696.897205
656.688416	33929.838842
657.030577	33714.102663
657.372687	33563.846032
657.714746	33842.016901
658.056753	33947.719815
658.398708	33394.402769
658.740612	33451.395534
659.082465	33725.392327
659.424266	33543.351221
659.766016	33658.680218
660.107715	33551.938827
660.449362	33671.520037
660.790958	33638.734893
661.132503	33670.063143
661.473996	33704.688309
661.815438	33819.704754
662.156829	34001.864328
662.498168	33772.620377
662.839456	33793.591577
663.180693	33940.916778
663.521879	34102.820995
663.863013	34050.632450
664.204097	34053.679828
664.545129	34515.726783
664.886110	34460.521108
665.227040	34533.209505
665.567918	34666.472407
665.908746	34718.996189
666.249522	34895.055966
666.590248	34888.900717
666.930922	34993.035833
667.271545	34964.956606
667.612118	35053.433897
667.952639	34838.791648
668.293109	34879.009974
668.633528	34795.031912
668.973896	34694.619689
669.314213	34744.965693
669.654480	34473.993591
669.994695	34502.113148
670.334859	34385.836413
670.674973	34293.180006
671.015035	34462.300635
671.355047	34405.771656
671.695008	34343.342007
672.034918	34231.874534
672.374777	34323.968853
672.714585	34146.472347
673.054342	34367.199268
673.394049	34127.038698
673.733705	34424.252526
674.073310	34077.627829
674.412864	34155.286804
674.752368	33751.447531
675.091820	34067.164914
675.431223	33626.673932
675.770574	33356.352140
676.109875	33218.433732
676.449125	32943.511887
676.788324	32879.721126
677.127473	32329.305264
677.466571	32250.625455
677.805619	31891.395353
678.144616	31907.718609
678.483562	31811.266212
678.822458	31486.081542
679.161303	31414.396334
679.500098	31327.005412
679.838842	31192.946008
680.177535	31350.645903
680.516179	31607.606117
680.854771	31839.789061
681.193314	32685.230890
681.531805	33818.759538
681.870247	34586.189511
682.208638	35303.611239
682.546978	35555.936112
682.885268	35665.606414
683.223508	35135.491278
683.561697	34800.373015
683.899836	34621.197804
684.237925	34108.401553
684.575963	33948.496153
684.913951	33479.941067
685.251889	33644.073475
685.589776	33624.838952
685.927614	33607.378916
686.265401	33728.419540
686.603137	33819.619055
686.940824	34320.389634
687.278460	34692.709092
687.616046	34822.123073
687.953582	35434.870282
688.291068	35320.892314
688.628504	35612.681860
688.965889	35547.134258
689.303224	35178.532650
689.640510	34839.651165
689.977745	34123.010817
690.314930	33329.281143
690.652065	32818.060253
690.989150	32074.255647
691.326185	31189.414679
691.663170	30483.297740
692.000105	29733.206815
692.336990	29033.708910
692.673825	28568.851511
693.010610	28051.404795
693.347345	27460.342109
693.684030	26791.597764
694.020665	26506.563363
694.357251	25823.315618
694.693786	25779.651664
695.030272	25531.997420
695.366707	24985.367464
695.703093	24680.365053
696.039429	24675.243241
696.375716	24390.591969
696.711952	24359.084757
697.048139	24197.669532
697.384276	24017.415514
697.720363	24128.988852
698.056400	23935.345529
698.392388	23717.424010
698.728326	23684.865718
699.064214	23475.128513
699.400053	23433.987656
699.735842	23059.863464
700.071581	22785.559160
700.407270	22490.329026
700.742910	22299.501189
701.078501	22028.582019
701.414042	21750.219586
701.749533	21443.296496
702.084974	21090.256930
702.420366	21295.068929
702.755709	20846.000424
703.091002	20555.206505
703.426246	20569.651932
703.761440	20457.924839
704.096584	20189.329641
704.431679	20145.554782
704.766725	20053.226049
705.101721	19981.578650
705.436668	20072.309337
705.771565	19740.228369
706.106413	20089.605536
706.441212	20066.968235
706.775961	20188.412151
707.110661	20254.831874
707.445311	20614.447625
707.779913	20443.426480
708.114465	20682.861123
708.448967	20968.772684
708.783421	21664.043582
709.117825	21927.012852
709.452180	22141.105614
709.786485	22535.691849
710.120742	23340.945600
710.454949	23349.160160
710.789107	23820.303878
711.123216	24522.241701
711.457275	24655.214737
711.791286	25200.017274
712.125247	25279.848987
712.459159	24983.449305
712.793023	25664.410887
713.126837	24562.424739
713.460602	24840.315824
713.794318	24475.212777
714.127985	24098.096661
714.461602	23202.633982
714.795171	23163.930524
715.128691	22139.873052
715.462162	21603.769026
715.795584	21168.014208
716.128957	20905.622150
716.462281	20494.120323
716.795556	20255.887996
717.128782	19745.642568
717.461960	19198.402633
717.795088	19123.337331
718.128167	18724.161126
718.461198	18249.468436
718.794180	18104.807485
719.127113	17720.598465
719.459997	17527.313065
719.792833	17173.673602
720.125619	17137.425185
720.458357	16815.300496
720.791046	16637.214174
721.123686	16484.855382
721.456278	16240.422434
721.788821	16192.818819
722.121315	15930.144456
722.453761	15998.552914
722.786158	15923.187664
723.118506	15930.260403
723.450805	15778.307423
723.783056	15944.292455
724.115259	15843.686147
724.447412	15769.339210
724.779518	16010.976838
725.111574	16021.074269
725.443582	16217.475102
725.775542	16206.818103
726.107453	16671.569638
726.439315	16557.695013
726.771129	16957.418184
727.102895	17322.107856
727.434612	17531.930762
727.766281	17660.356677
728.097901	17933.042770
728.429473	17973.087176
728.760996	17961.747100
729.092471	18053.155822
729.423897	17921.722859
729.755276	17780.401673
730.086606	17903.486485
730.417887	18411.917098
730.749120	18936.804557
731.080305	19110.890722
731.411442	19450.568710
731.742530	19527.852119
732.073570	19637.441762
732.404562	19932.203069
732.735506	19755.926522
733.066401	19481.234049
733.397249	18963.076530
733.728048	18332.526486
734.058798	17482.587948
734.389501	16803.443702
734.720156	16326.283367
735.050762	15790.325534
735.381320	15420.221662
735.711831	15176.590259
736.042293	14818.219673
736.372707	14820.717565
736.703073	14607.912817
737.033391	14784.191885
737.363661	14742.236882
737.693883	14844.068189
738.024056	15004.956614
738.354182	15182.843810
738.684260	15459.981243
739.014290	15685.653536
739.344272	15874.293513
739.674207	16156.981256
740.004093	16272.968124
740.333931	16269.716579
740.663722	16312.568908
740.993464	16316.188456
741.323159	16159.232131
741.652806	15880.226951
741.982405	15675.256156
742.311956	15343.999416
742.641460	15222.832763
742.970915	14908.242078
743.300323	14588.907667
743.629683	14363.694119
743.958996	14092.096914
744.288260	13810.119974
744.617477	13516.220705
744.946647	13442.118264
745.275768	13163.191221
745.604842	12982.765805
745.933869	12799.978607
746.262847	12745.816450
746.591778	12677.791120
746.920662	12567.893967
747.249498	12561.864747
747.578286	12683.618694
747.907027	12823.644304
748.235720	13037.999207
748.564365	13068.004154
748.892963	12966.349287
749.221514	13027.964790
749.550017	12877.035164
749.878473	12841.086696
750.206881	12615.893313
750.535242	12522.682378
750.863555	12433.612752
751.191821	12327.519148
751.520039	12350.746265
751.848210	12248.204154
752.176334	12288.107408
752.504411	12192.658201
752.832440	12031.621062
753.160421	12092.293869
753.488356	11964.702265
753.816243	11878.798483
754.144082	11734.490413
754.471875	11677.721979
754.799620	11621.069492
755.127318	11600.539393
755.454969	11555.920141
755.782572	11500.074238
756.110129	11517.398163
756.437638	11440.689446
756.765100	11427.958012
757.092515	11425.427353
757.419882	11438.536873
757.747203	11437.087542
758.074477	11505.417861
758.401703	11467.359670
758.728882	11622.438166
759.056014	11662.986687
759.383099	11779.023966
759.710138	11885.142775
760.037129	11960.278652
760.364073	11982.807569
760.690970	11971.258285
761.017820	11958.962911
761.344623	12157.259218
761.671379	12478.133702
761.998088	13115.297739
762.324751	14653.331093
762.651366	17508.368409
762.977935	21175.278511
763.304456	23427.469444
763.630931	23957.080464
763.957359	22816.279952
764.283740	20919.240827
764.610074	19049.980981
764.936362	16900.372487
765.262602	15384.021137
765.588796	13879.408113
765.914943	12848.209847
766.241044	11969.607308
766.567097	11330.084010
766.893104	10767.768504
767.219064	10404.497917
767.544978	10012.613740
767.870845	9687.648361
768.196665	9500.583744
768.522438	9304.238364
768.848165	9134.124627
769.173846	8970.395512
769.499479	8839.784257
769.825066	8687.259106
770.150607	8500.597782
770.476101	8432.665713
770.801548	8319.297725
771.126949	8179.892177
771.452303	8091.946728
771.777611	7925.470184
772.102872	7903.493274
772.428087	7781.174717
772.753256	7661.074268
773.078378	7571.346770
773.403453	7426.627846
773.728482	7320.987947
774.053465	7250.799962
774.378401	7167.676376
774.703291	7068.736170
775.028135	6970.829401
775.352932	6933.532424
775.677683	6848.611667
776.002388	6755.574652
776.327046	6759.315188
776.651658	6667.518297
776.976224	6590.827224
777.300743	6577.755512
777.625216	6512.338979
777.949643	6464.324509
778.274024	6471.785417
778.598359	6398.391258
778.922647	6401.970477
779.246889	6361.192584
779.571086	6367.128542
779.895236	6379.386108
780.219339	6365.444797
780.543397	6365.185177
780.867409	6415.518578
781.191374	6410.991622
781.515294	6381.579010
781.839167	6437.233348
782.162995	6408.642444
782.486776	6352.431058
782.810511	6317.758002
783.134201	6243.022896
783.457844	6235.740950
783.781441	6180.247928
784.104993	6138.217308
784.428498	6105.802689
784.751958	6093.522438
785.075372	6068.031843
785.398739	6026.850658
785.722061	6050.410490
786.045337	6050.402928
786.368568	6160.617675
786.691752	6180.013514
787.014891	6428.297903
787.337983	6701.359563
787.661030	7134.918958
787.984031	7558.532157
788.306987	7831.240936
788.629897	7923.347858
788.952760	7847.158379
789.275579	7677.163110
789.598351	7367.802622
789.921078	7113.546987
790.243759	6826.622154
790.566395	6627.204190
790.888984	6429.485095
791.211529	6285.456809
791.534027	6119.529751
791.856480	5981.588658
792.178888	5920.086581
792.501249	5848.043451
792.823566	5746.048306
793.145836	5739.353654
793.468062	5720.857660
793.790241	5676.626577
794.112375	5717.051589
794.434464	5816.480787
794.756507	5844.406259
795.078505	5957.476819
795.400457	6170.752915
795.722364	6407.913997
796.044226	6606.956395
796.366042	6766.135869
796.687812	6717.161060
797.009538	6749.351348
797.331218	6662.552761
797.652852	6596.473316
797.974442	6472.642413
798.295986	6402.227576
798.617484	6272.838801
798.938938	6168.199570
799.260346	6091.193425
799.581709	5953.491787
799.903026	5908.270116
800.224299	5832.350339
800.545526	5710.863573
800.866708	5652.141692
801.187845	5598.130770
801.508936	5522.329460
801.829983	5490.925592
802.150984	5381.555239
802.471940	5359.099419
802.792851	5335.963044
803.113717	5313.807173
803.434538	5288.631650
803.755314	5251.619499
804.076045	5245.817131
804.396731	5203.320204
804.717372	5219.724118
805.037967	5218.572215
805.358518	5248.264611
805.679024	5300.312004
805.999485	5314.800280
806.319901	5331.332744
806.640272	5345.972255
806.960598	5390.856168
807.280879	5382.918871
807.601115	5425.443524
807.921306	5388.527155
808.241453	5382.034149
808.561554	5395.168875
808.881611	5358.186970
809.201623	5357.796281
809.521590	5311.195855
809.841513	5295.941323
810.161390	5316.204241
810.481223	5227.074121
810.801011	5212.860587
811.120755	5191.556671
811.440453	5136.673629
811.760107	5106.477118
812.079716	5083.305454
812.399281	5028.064490
812.718801	5023.313203
813.038276	4989.408923
813.357707	4957.621927
813.677093	4979.840813
813.996434	4912.483435
814.315731	4938.793217
814.634983	4933.946148
814.954191	4940.789514
815.273354	4998.588864
815.592473	5042.169639
815.911547	5117.696206
816.230577	5169.683105
816.549562	5261.212814
816.868502	5313.368592
817.187399	5374.457294
817.506250	5456.151713
817.825058	5480.165249
818.143821	5643.924612
818.462539	5809.891999
818.781213	6043.506630
819.099843	6404.677577
819.418429	7031.746704
819.736970	7656.383474
820.055466	8382.556644
820.373919	9305.922109
820.692327	10787.648294
821.010691	13521.476107
821.329011	19778.856210
821.647286	29397.483613
821.965517	39809.205503
822.283704	45363.717689
822.601847	46961.342522
822.919945	42436.864096
823.237999	37341.971549
823.556010	32137.612868
823.873976	27390.650678
824.191897	23110.900106
824.509775	19983.252313
824.827609	17144.308881
825.145398	15541.562236
825.463144	14753.876906
825.780845	15029.809503
826.098502	16279.788805
826.416116	18719.256083
826.733685	20986.383955
827.051210	21488.137559
827.368692	20064.649304
827.686129	17505.802461
828.003522	15035.158167
828.320872	12802.133701
828.638177	11121.120621
828.955439	9859.435760
829.272656	8779.469372
829.589830	7928.802387
829.906960	7176.579054
830.224046	6636.094265
830.541088	6210.888061
830.858086	5947.011384
831.175041	5740.513119
831.491952	5679.331156
831.808819	5712.499427
832.125642	5957.262570
832.442421	6508.971488
832.759157	7624.238556
833.075849	9387.792968
833.392497	11240.263251
833.709101	12377.653423
834.025662	12136.784572
834.342179	11094.223545
834.658653	9779.820817
834.975083	8669.494080
835.291469	7760.425327
835.607811	7003.458269
835.924110	6474.651313
836.240366	5980.900540
836.556578	5522.803329
836.872746	5159.288245
837.188871	4884.270618
837.504952	4657.416174
837.820990	4486.924351
838.136984	4363.007748
838.452935	4320.402437
838.768842	4348.088454
839.084706	4630.879540
839.400526	5373.413776
839.716303	6278.653772
840.032037	6854.754313
840.347727	6715.061419
840.663373	6115.801817
840.978977	5534.657602
841.294537	5085.705043
841.610054	4744.870111
841.925527	4503.736599
842.240957	4292.444198
842.556344	4105.992081
842.871687	3943.845888
843.186987	3783.630458
843.502244	3670.229702
843.817458	3579.703182
844.132629	3506.644259
844.447756	3456.545273
844.762840	3407.295720
845.077881	3370.165101
845.392879	3330.909636
845.707833	3308.174032
846.022745	3275.827469
846.337613	3268.553084
846.652438	3243.851430
846.967221	3233.461612
847.281960	3209.430432
847.596656	3202.435831
847.911309	3193.127340
848.225919	3178.326512
848.540485	3166.978875
848.855009	3158.257679
849.169490	3147.882984
849.483928	3141.004330
849.798323	3135.229688
850.112675	3123.710652
850.426984	3124.335755
850.741251	3115.412912
851.055474	3116.053139
851.369654	3115.433077
851.683792	3112.887294
851.997887	3113.658591
852.311938	3113.673714
852.625947	3114.225721
852.939914	3108.932509
853.253837	3113.585494
853.567718	3110.273456
853.881555	3108.430914
854.195350	3108.561984
854.509103	3107.576439
854.822812	3105.557457
855.136479	3099.104780
855.450103	3104.193824
855.763685	3094.159408
856.077224	3100.566714
856.390720	3107.778085
856.704173	3118.603963
857.017584	3124.638224
857.330953	3128.971096
857.644278	3136.560553
857.957561	3139.539875
858.270802	3136.868063
858.584000	3137.115080
858.897155	3130.632156
859.210268	3122.304170
859.523339	3109.108949
859.836367	3108.045266
860.149352	3104.516458
860.462295	3095.928853
860.775195	3087.326124
861.088054	3085.521391
861.400869	3087.298397
861.713642	3083.028540
862.026373	3092.435333
862.339062	3095.873400
862.651708	3103.581324
862.964312	3118.377111
863.276873	3129.719707
863.589392	3157.662823
863.901869	3182.298942
864.214303	3206.410780
864.526696	3224.569017
864.839045	3241.784557
865.151353	3257.510436
865.463619	3256.378697
865.775842	3256.534973
866.088023	3263.562342
866.400162	3257.913729
866.712258	3256.960951
867.024313	3255.544386
867.336325	3255.352822
867.648296	3256.726537
867.960224	3254.871392
868.272110	3260.976230
868.583954	3262.692742
868.895755	3269.452930
869.207515	3265.442692
869.519233	3285.395579
869.830909	3287.674180
870.142542	3302.555667
870.454134	3308.015236
870.765684	3322.881599
871.077191	3340.520596
871.388657	3352.337061
871.700081	3367.294164
872.011463	3391.695869
872.322803	3407.220103
872.634101	3423.775252
872.945357	3451.635189
873.256571	3480.727687
873.567744	3492.917197
873.878874	3496.536746
874.189963	3516.870240
874.501010	3516.933254
874.812015	3513.661546
875.122979	3530.720810
875.433900	3527.706200
875.744780	3530.604864
876.055618	3541.793705
876.366415	3537.571738
876.677169	3543.651370
876.987882	3563.319432
877.298554	3583.625199
877.609183	3628.173876
877.919771	3674.023170
878.230317	3745.108480
878.540822	3853.906663
878.851285	4004.120444
879.161707	4236.515116
879.472087	4619.955360
879.782425	5260.287763
880.092722	6466.875333
880.402977	8432.890045
880.713191	10830.142701
881.023363	13259.678906
881.333494	14622.164159
881.643583	15102.344145
881.953631	14718.049426
882.263637	13888.328435
882.573602	12850.022142
882.883526	11875.015097
883.193408	10904.414020
883.503248	9963.694383
883.813048	9118.494530
884.122806	8336.120056
884.432522	7548.943883
884.742197	6865.507094
885.051831	6291.405370
885.361424	5776.360764
885.670975	5366.159555
885.980485	5031.379049
886.289954	4748.998816
886.599382	4528.592008
886.908768	4338.565714
887.218113	4172.434489
887.527417	4034.032131
887.836680	3904.126637
888.145901	3802.040751
888.455082	3723.255078
888.764221	3653.082217
889.073319	3590.894543
889.382376	3556.564285
889.691392	3528.016231
890.000366	3521.094727
890.309300	3520.020961
890.618193	3520.245292
890.927044	3515.743542
891.235855	3523.007845
891.544625	3534.962941
891.853353	3569.204979
892.162041	3625.675984
892.470687	3721.382290
892.779293	3841.429807
893.087858	4020.289945
893.396381	4309.682423
893.704864	4723.588880
894.013306	5299.525584
894.321707	5876.203337
894.630068	6242.821250
894.938387	6284.514113
895.246665	6107.947700
895.554903	5784.703874
895.863100	5447.271721
896.171256	5179.815824
896.479371	4932.108647
896.787446	4697.528635
897.095480	4498.201412
897.403473	4343.516127
897.711425	4195.346533
898.019336	4073.370775
898.327207	3944.972586
898.635038	3841.490301
898.942827	3733.302098
899.250576	3641.832882
899.558284	3556.758370
899.865952	3501.880369
900.173579	3437.938374
900.481165	3391.342989
900.788711	3345.539065
901.096216	3316.683500
901.403681	3283.056483
901.711105	3271.862601
902.018489	3267.386057
902.325832	3304.882159
902.633135	3363.046992
902.940397	3538.280020
903.247619	3948.393009
903.554800	4711.313671
903.861941	5697.925452
904.169041	6421.293220
904.476101	6648.049361
904.783121	6375.635489
905.090100	5968.716072
905.397039	5549.813831
905.703938	5182.752296
906.010796	4851.248540
906.317614	4586.782047
906.624391	4339.896579
906.931129	4137.945435
907.237826	3952.481385
907.544483	3776.640898
907.851099	3599.116665
908.157675	3435.730348
908.464211	3285.788789
908.770707	3183.317255
909.077163	3101.597630
909.383578	3036.992723
909.689954	2992.733913
909.996289	2961.211578
910.302584	2938.483536
910.608839	2925.507606
910.915054	2912.544279
911.221229	2906.573032
911.527363	2912.529155
911.833458	2920.736154
912.139513	2929.202772
912.445527	2945.384875
912.751502	2979.200935
913.057436	3023.835312
913.363331	3085.760845
913.669186	3175.120338
913.975000	3298.323618
914.280775	3490.376456
914.586510	3769.059002
914.892205	4152.607631
915.197859	4657.164117
915.503475	5251.843830
915.809050	5754.885449
916.114585	6043.708276
916.420081	6113.848370
916.725536	6055.151695
917.030952	5811.185055
917.336328	5602.050267
917.641665	5395.168875
917.946961	5157.135673
918.252218	4956.152431
918.557435	4722.971339
918.862612	4525.040515
919.167750	4347.034853
919.472848	4150.868433
919.777906	3979.542299
920.082925	3815.372083
920.387904	3656.495078
920.692843	3544.573901
920.997743	3439.470884
921.302603	3342.658045
921.607423	3277.203704
921.912204	3208.984289
922.216946	3157.254489
922.521647	3103.760285
922.826310	3061.538101
923.130932	3023.590816
923.435516	2983.516163
923.740059	2955.774693
924.044564	2924.363264
924.349028	2894.358316
924.653454	2863.672813
924.957840	2840.044925
925.262186	2821.155721
925.566493	2795.954993
925.870761	2769.534306
926.174989	2758.481576
926.479178	2744.187384
926.783328	2723.405227
927.087438	2715.591439
927.391509	2700.629294
927.695541	2688.832994
927.999533	2680.739422
928.303486	2669.863132
928.607400	2662.379540
928.911275	2658.891061
929.215110	2650.081645
929.518906	2644.138124
929.822663	2643.563433
930.126381	2647.077117
930.430060	2649.756490
930.733699	2651.321769
931.037299	2656.017603
931.340861	2651.299083
931.644383	2656.395690
931.947866	2654.520381
932.251309	2651.601553
932.554714	2650.245482
932.858080	2649.905204
933.161407	2644.639719
933.464694	2640.871457
933.767943	2639.986734
934.071153	2635.401805
934.374323	2630.958028
934.677455	2632.447689
934.980548	2623.638272
935.283602	2620.858076
935.586617	2622.977881
935.889593	2627.293109
936.192530	2627.618263
936.495428	2632.503141
936.798287	2637.612351
937.101108	2653.504588
937.403890	2675.945285
937.706632	2702.383616
938.009336	2734.518451
938.312002	2765.075405
938.614628	2790.792852
938.917216	2807.564770
939.219765	2817.591625
939.522275	2830.610405
939.824747	2830.340703
940.127179	2825.710404
940.429573	2815.502067
940.731929	2815.139104
941.034246	2811.504432
941.336524	2805.863381
941.638763	2801.286013
941.940964	2794.475414
942.243126	2775.515635
942.545250	2767.477515
942.847335	2754.113416
943.149381	2742.647312
943.451389	2729.013511
943.753359	2712.196222
944.055290	2703.754810
944.357182	2691.686287
944.659036	2689.599250
944.960851	2687.613035
945.262628	2678.226407
945.564367	2680.820080
945.866067	2679.763959
946.167729	2677.414781
946.469352	2679.222035
946.770937	2674.269101
947.072484	2670.132834
947.373992	2670.205931
947.675462	2667.012360
947.976893	2657.726555
948.278286	2654.187665
948.579641	2653.557520
948.880958	2648.849083
949.182236	2647.535862
949.483476	2646.920841
949.784678	2645.179123
950.085841	2644.186015
950.386967	2649.297745
950.688054	2654.278405
950.989103	2663.188645
951.290114	2668.093687
951.591087	2682.201357
951.892021	2694.360620
952.192917	2710.409133
952.493776	2719.158055
952.794596	2721.441698
953.095378	2724.174003
953.396122	2723.029662
953.696828	2716.705534
953.997496	2712.975080
954.298126	2705.267156
954.598718	2696.951773
954.899272	2685.465504
955.199788	2674.024605
955.500266	2662.671927
955.800706	2645.978146
956.101108	2631.157153
956.401472	2618.072838
956.701798	2601.459716
957.002087	2587.888930
957.302337	2578.948443
957.602550	2568.389747
957.902724	2555.323076
958.202861	2545.767569
958.502960	2540.678524
958.803022	2528.763757
959.103045	2520.793693
959.403031	2517.673218
959.702979	2512.004441
960.002889	2506.638133
960.302762	2501.428100
960.602596	2493.982316
960.902393	2492.227994
961.202153	2490.130874
961.501875	2485.717344
961.801559	2483.622745
962.101205	2482.385142
962.400814	2479.708289
962.700385	2474.951960
962.999918	2475.952629
963.299414	2475.670325
963.598873	2472.070941
963.898293	2468.607668
964.197677	2469.777216
964.497022	2467.791001
964.796331	2464.100877
965.095601	2466.641618
965.394835	2465.444344
965.694030	2465.971145
965.993189	2466.104735
966.292309	2463.614405
966.591393	2462.341514
966.890439	2461.895372
967.189447	2463.405197
967.488419	2463.357306
967.787353	2466.248408
968.086249	2464.047944
968.385108	2464.116000
968.683930	2466.346711
968.982714	2467.327215
969.281462	2467.755713
969.580172	2468.567339
969.878844	2472.282669
970.177480	2473.197639
970.476078	2477.152424
970.774639	2481.639051
971.073162	2482.541417
971.371649	2482.183495
971.670098	2483.070738
971.968510	2484.625934
972.266885	2484.663743
972.565223	2489.541059
972.863524	2490.203971
973.161788	2491.181955
973.460014	2492.916112
973.758204	2493.397542
974.056356	2492.162459
974.354471	2500.555981
974.652550	2495.978613
974.950591	2496.437358
975.248595	2494.173880
975.546563	2493.427789
975.844493	2495.431648
976.142386	2490.997953
976.440243	2486.196254
976.738062	2486.460914
977.035845	2480.368680
977.333590	2478.624441
977.631299	2478.344657
977.928971	2476.154275
978.226606	2473.371558
978.524204	2473.318626
978.821765	2471.113122
979.119290	2471.871815
979.416777	2473.071610
979.714228	2473.996662
980.011642	2477.880871
980.309020	2478.531179
980.606360	2481.903711
980.903664	2491.834784
981.200931	2504.268790
981.498162	2526.147398
981.795356	2556.359033
982.092513	2594.071905
982.389633	2640.947074
982.686717	2683.486851
982.983764	2716.191336
983.280775	2739.229409
983.577749	2735.287227
983.874686	2726.019066
984.171587	2710.351160
984.468451	2693.428006
984.765279	2679.771520
985.062070	2656.345278
985.358824	2640.813483
985.655543	2615.096037
985.952224	2592.781370
986.248869	2562.811710
986.545478	2535.740714
986.842050	2515.923938
987.138586	2495.439209
987.435086	2481.366828
987.731549	2467.702781
988.027975	2464.380661
988.324366	2457.307922
988.620719	2455.147787
988.917037	2448.808536
989.213318	2446.169492
989.509563	2438.796805
989.805772	2440.281425
990.101944	2438.201949
990.398080	2440.047011
990.694180	2437.632298
990.990244	2437.229006
991.286271	2441.652618
991.582262	2439.767227
991.878217	2441.234203
992.174136	2441.035077
992.470019	2442.595314
992.765865	2442.817125
993.061676	2446.534976
993.357450	2448.821139
993.653188	2454.575616
993.948890	2456.710545
994.244556	2462.465022
994.540186	2475.529172
994.835780	2485.729947
995.131337	2498.852071
995.426859	2519.261182
995.722345	2535.375230
996.017795	2556.316183
996.313208	2571.646332
996.608586	2582.257961
996.903928	2586.469845
997.199234	2584.874320
997.494504	2583.722416
997.789738	2572.720098
998.084936	2563.378840
998.380099	2548.830070
998.675225	2537.774819
998.970316	2524.892151
999.265371	2512.909328
999.560390	2499.197390
999.855373	2485.273723
1000.150320	2474.951960
1000.445232	2468.559777
1000.740108	2460.151133
1001.034948	2453.557303
1001.329752	2448.622014
1001.624521	2445.433484
1001.919254	2436.702205
1002.213951	2436.586259
1002.508613	2429.735331
1002.803239	2433.493511
1003.097829	2424.038827
1003.392384	2430.458736
1003.686903	2426.756009
1003.981386	2426.592171
1004.275834	2423.859866
1004.570246	2425.742737
1004.864623	2423.144022
1005.158964	2421.649320
1005.453270	2423.703590
1005.747540	2423.950607
1006.041775	2419.302663
1006.335974	2421.301480
1006.630138	2419.025399
1006.924266	2418.284350
1007.218359	2417.729823
1007.512416	2418.952303
1007.806438	2417.601273
1008.100425	2418.808630
1008.394376	2415.320151
1008.688292	2418.586819
1008.982172	2419.713517
1009.276017	2417.119843
1009.569827	2417.767632
1009.863602	2417.412230
1010.157341	2419.206881
1010.451045	2417.760070
1010.744714	2419.300142
1011.038347	2416.431726
1011.331945	2415.806623
1011.625508	2417.966757
1011.919036	2416.293094
1012.212528	2416.245203
1012.505986	2413.646488
1012.799408	2412.965932
1013.092795	2413.835532
1013.386147	2414.097672
1013.679464	2413.419636
1013.972745	2412.129101
1014.265992	2414.367373
1014.559204	2415.282343
1014.852380	2412.638258
1015.145521	2413.530542
1015.438628	2411.277146
1015.731699	2414.309400
1016.024736	2414.357291
1016.317737	2415.506674
1016.610703	2414.838721
1016.903635	2412.149266
1017.196531	2408.368400
1017.489393	2411.645150
1017.782219	2410.319327
1018.075011	2416.444329
1018.367768	2416.908115
1018.660490	2414.450552
1018.953177	2414.450552
1019.245829	2414.450552
