Dividing Wavelength (nm)	Counts (n)	Blue Motor Position (mm): 22.200000	Red Motor Position (mm): 0.000000	
326.493990	1971.431432
326.888308	1971.431432
327.282561	1971.431432
327.676750	1948.436208
328.070874	1951.803699
328.464933	1956.834771
328.858929	1963.768878
329.252859	1976.117184
329.646726	1990.403814
330.040528	2006.578356
330.434265	2028.280524
330.827938	2045.440611
331.221547	2067.956925
331.615091	2085.122054
332.008571	2105.828593
332.401986	2128.115534
332.795338	2148.504481
333.188625	2166.433345
333.581847	2186.794565
333.975006	2204.350383
334.368100	2223.216902
334.761129	2239.608213
335.154095	2255.107241
335.546996	2289.966820
335.939833	2358.231605
336.332606	2371.391537
336.725315	2380.107692
337.117960	2392.367778
337.510540	2400.796587
337.903056	2408.234810
338.295508	2414.339647
338.687896	2424.058992
339.080220	2428.200299
339.472480	2433.619540
339.864676	2439.547937
340.256807	2442.376024
340.648875	2445.186467
341.040879	2445.758638
341.432818	2445.418360
341.824694	2446.557661
342.216506	2444.909204
342.608253	2447.470110
342.999937	2446.940789
343.391557	2442.229831
343.783113	2443.646395
344.174605	2440.987186
344.566033	2439.777309
344.957397	2438.658173
345.348697	2435.744386
345.739934	2432.384457
346.131106	2430.909920
346.522215	2431.139292
346.913260	2429.561411
347.304241	2428.916143
347.695159	2426.506472
348.086012	2425.316759
348.476802	2420.976326
348.867528	2423.600247
349.258191	2422.408014
349.648789	2419.894998
350.039324	2416.550193
350.429796	2418.967426
350.820203	2417.049267
351.210548	2415.090779
351.600828	2419.088414
351.991045	2415.778896
352.381198	2413.611200
352.771288	2415.075655
353.161314	2414.765624
353.551276	2415.708320
353.941175	2412.333268
354.331010	2412.643299
354.720782	2416.628331
355.110490	2414.604307
355.500135	2413.487692
355.889717	2412.265212
356.279235	2414.526170
356.668689	2416.744277
357.058080	2416.053639
357.447408	2415.627662
357.836672	2416.930800
358.225873	2414.881571
358.615010	2409.714388
359.004084	2417.316448
359.393095	2420.482293
359.782043	2419.257293
360.170927	2418.518763
360.559748	2421.059505
360.948505	2417.518094
361.337199	2421.472880
361.725830	2423.075967
362.114398	2422.178641
362.502903	2424.321132
362.891344	2421.412386
363.279722	2422.377767
363.668037	2424.706780
364.056289	2423.844743
364.444478	2426.027562
364.832603	2427.791966
365.220665	2424.043868
365.608665	2428.124682
365.996601	2426.103179
366.384474	2423.196954
366.772284	2428.190217
367.160031	2426.025042
367.547715	2425.130237
367.935336	2426.186358
368.322893	2426.947573
368.710388	2428.719538
369.097820	2430.720876
369.485189	2432.684406
369.872495	2434.796649
370.259738	2428.258273
370.646918	2433.090219
371.034035	2428.812800
371.421090	2430.183993
371.808081	2434.063161
372.195010	2429.410176
372.581875	2433.372523
372.968678	2433.087698
373.355418	2432.472677
373.742096	2433.705239
374.128710	2435.562905
374.515262	2432.281113
374.901751	2434.867225
375.288177	2436.041814
375.674540	2436.190528
376.060841	2436.971907
376.447079	2434.209355
376.833254	2432.981834
377.219367	2430.799014
377.605417	2435.525096
377.991404	2433.798501
378.377329	2433.291865
378.763191	2431.310691
379.148991	2439.361414
379.534727	2435.855292
379.920402	2439.580704
380.306013	2436.893769
380.691563	2438.857299
381.077049	2437.385282
381.462474	2439.603389
381.847835	2440.596497
382.233134	2440.180602
382.618371	2440.104984
383.003545	2439.333688
383.388657	2439.552978
383.773706	2440.321754
384.158693	2438.958122
384.543618	2442.098761
384.928480	2440.984666
385.313280	2445.244441
385.698017	2441.816456
386.082692	2443.906014
386.467305	2443.648915
386.851856	2444.982301
387.236344	2443.880808
387.620770	2445.824173
388.005133	2446.227466
388.389435	2443.021292
388.773674	2443.419543
389.157851	2447.160079
389.541965	2446.045984
389.926018	2444.967177
390.310008	2446.960953
390.693936	2448.274174
391.077802	2447.916252
391.461606	2450.371294
391.845348	2444.906683
392.229027	2449.123608
392.612645	2449.973043
392.996200	2449.784000
393.379694	2449.509257
393.763125	2448.967333
394.146494	2448.553958
394.529801	2453.335492
394.913047	2450.769545
395.296230	2452.158383
395.679351	2451.583692
396.062410	2452.826336
396.445408	2450.015893
396.828343	2451.530759
397.211217	2447.061777
397.594028	2453.590071
397.976778	2447.802826
398.359466	2451.593774
398.742092	2448.884154
399.124656	2453.065791
399.507158	2452.259206
399.889598	2455.709876
400.271977	2453.403548
400.654294	2455.296501
401.036549	2452.783486
401.418742	2453.763991
401.800874	2456.128292
402.182944	2456.672736
402.564952	2454.633590
402.946898	2456.881944
403.328783	2454.258024
403.710606	2458.096862
404.092367	2457.806996
404.474067	2457.270113
404.855705	2455.793055
405.237282	2455.125102
405.618797	2458.981585
406.000250	2459.422686
406.381642	2456.753395
406.762972	2459.417645
407.144240	2460.251956
407.525447	2461.988633
407.906593	2457.572582
408.287677	2460.446040
408.668700	2460.042748
409.049661	2461.844960
409.430560	2461.078705
409.811399	2461.366051
410.192176	2463.006946
410.572891	2461.481997
410.953545	2461.436627
411.334138	2461.900413
411.714669	2464.075671
412.095139	2463.889148
412.475547	2462.470063
412.855894	2463.190948
413.236180	2461.671040
413.616405	2466.384519
413.996568	2463.553911
414.376670	2464.806638
414.756711	2462.608695
415.136691	2464.768829
415.516609	2464.557101
415.896466	2466.795373
416.276262	2467.634725
416.655997	2461.950824
417.035670	2464.529375
417.415283	2466.739921
417.794834	2463.095166
418.174324	2466.709674
418.553753	2468.101032
418.933121	2470.971969
419.312428	2466.581124
419.691674	2468.317802
420.070859	2472.451548
420.449983	2471.932309
420.829045	2470.165385
421.208047	2467.909468
421.586988	2471.042545
421.965867	2472.446507
422.344686	2470.437607
422.723444	2472.317957
423.102141	2471.869295
423.480777	2474.984728
423.859352	2472.895169
424.237866	2476.731487
424.616319	2474.059676
424.994712	2477.480099
425.373044	2477.628813
425.751314	2477.800212
426.129524	2476.854996
426.507673	2475.561940
426.885762	2475.519090
427.263789	2476.277784
427.641756	2479.720892
428.019662	2475.181333
428.397508	2478.415233
428.775292	2479.892291
429.153016	2480.890439
429.530679	2480.081334
429.908282	2478.747949
430.285824	2478.395068
430.663305	2481.071921
431.040726	2480.751808
431.418086	2482.654843
431.795385	2480.877837
432.172624	2478.632003
432.549802	2480.492188
432.926920	2482.795996
433.303977	2480.219966
433.680974	2484.204998
434.057910	2485.999649
434.434786	2487.920328
434.811601	2484.956130
435.188355	2486.491161
435.565050	2486.894454
435.941683	2486.055102
436.318257	2481.649133
436.694770	2484.593167
437.071222	2484.724237
437.447614	2486.839001
437.823946	2487.393528
438.200218	2491.050885
438.576429	2485.888743
438.952580	2487.595174
439.328670	2488.527787
439.704700	2489.770432
440.080670	2489.168014
440.456580	2489.692294
440.832429	2492.885865
441.208218	2489.949393
441.583947	2493.037100
441.959616	2491.965854
442.335224	2489.722541
442.710773	2493.190855
443.086261	2495.154384
443.461689	2494.476349
443.837057	2495.398880
444.212365	2494.932573
444.587612	2494.839312
444.962800	2496.775115
445.337927	2499.000785
445.712995	2496.170177
446.088002	2499.189828
446.462949	2501.617143
446.837837	2499.673779
447.212664	2500.301402
447.587431	2506.766682
447.962139	2511.548217
448.336786	2516.806140
448.711374	2514.456962
449.085901	2509.451097
449.460369	2512.299348
449.834776	2510.068638
450.209124	2516.042405
450.583412	2516.231448
450.957640	2517.716068
451.331808	2520.982736
451.705917	2516.811181
452.079965	2515.823115
452.453954	2517.436284
452.827883	2519.901408
453.201752	2521.161697
453.575562	2524.151101
453.949311	2525.371060
454.323001	2526.535567
454.696632	2529.656041
455.070202	2531.627132
455.443713	2534.477905
455.817164	2536.126362
456.190556	2534.644263
456.563888	2537.258101
456.937160	2536.519572
457.310373	2541.618699
457.683526	2538.462937
458.056619	2542.503422
458.429653	2543.904863
458.802628	2547.784030
459.175542	2549.382076
459.548398	2554.216543
459.921194	2563.184755
460.293930	2566.484191
460.666607	2575.064234
461.039224	2581.806778
461.411782	2585.597725
461.784280	2584.090420
462.156719	2583.414906
462.529099	2586.701738
462.901419	2579.860892
463.273680	2582.401634
463.645882	2586.008579
464.018024	2589.497058
464.390106	2595.198603
464.762130	2608.219903
465.134094	2630.116155
465.505999	2656.746050
465.877845	2679.968125
466.249631	2685.573888
466.621358	2685.047088
466.993026	2682.080369
467.364634	2677.928979
467.736184	2678.100378
468.107674	2678.612055
468.479105	2679.592559
468.850477	2681.936696
469.221790	2681.026768
469.593043	2676.991324
469.964238	2681.795544
470.335373	2687.202181
470.706449	2708.299410
471.077467	2734.876373
471.448425	2779.425050
471.819324	2812.850420
472.190164	2810.012251
472.560945	2795.579427
472.931667	2785.968467
473.302330	2790.679426
473.672934	2803.783905
474.043479	2820.210505
474.413965	2829.967658
474.784393	2841.128773
475.154761	2875.065820
475.525070	2892.213305
475.895321	2909.748959
476.265513	2935.650407
476.635645	2978.853096
477.005719	3005.465347
477.375734	3040.627395
477.745691	3082.176585
478.115588	3141.969711
478.485427	3219.119529
478.855207	3339.761903
479.224928	3448.555044
479.594591	3533.415307
479.964194	3552.619582
480.333739	3599.189762
480.703226	3663.131757
481.072653	3759.120368
481.442022	3851.058411
481.811333	3933.110751
482.180584	3961.653764
482.549777	4018.981766
482.918912	4087.554061
483.287988	4156.827077
483.657005	4212.022670
484.025964	4268.597019
484.394864	4355.607335
484.763706	4431.242286
485.132489	4485.386799
485.501213	4573.773350
485.869879	4690.909600
486.238487	4777.531747
486.607036	4899.840222
486.975527	4984.776102
487.343959	5114.278303
487.712333	5240.491152
488.080648	5358.479357
488.448905	5526.979925
488.817104	5649.200179
489.185244	5876.856166
489.553326	6191.900555
489.921350	6631.012782
490.289315	7109.554393
490.657222	7374.666153
491.025070	7602.042356
491.392861	7674.783685
491.760593	7707.006741
492.128267	7685.017228
492.495883	7690.393618
492.863440	7713.172072
493.230939	7739.164261
493.598380	7796.295658
493.965763	7953.103269
494.333088	8040.050570
494.700354	8172.320364
495.067563	8335.978903
495.434713	8516.769804
495.801805	8737.610151
496.168839	8893.449860
496.535815	9044.901245
496.902733	9266.817879
497.269593	9410.478160
497.636395	9621.977249
498.003139	9914.666642
498.369825	10042.956445
498.736453	10327.947996
499.103023	10468.739861
499.469535	10673.040182
499.835989	10930.988463
500.202385	11096.504667
500.568723	11344.907523
500.935003	11637.710341
501.301226	11841.544356
501.667390	12247.390008
502.033497	12583.745875
502.399546	12695.218389
502.765537	12763.979728
503.131470	13152.783759
503.497345	13518.577444
503.863163	13402.134352
504.228923	13843.119367
504.594625	14255.485752
504.960269	14311.762673
505.325856	14795.632783
505.691385	14874.978024
506.056856	15190.312280
506.422270	15633.580937
506.787625	15775.471774
507.152924	16133.265148
507.518164	16463.158255
507.883347	16459.304293
508.248472	16836.995101
508.613540	17312.257442
508.978550	17758.828055
509.343503	17961.482440
509.708398	18349.366461
510.073236	18878.140649
510.438016	19202.813642
510.802738	19253.273072
511.167403	19839.927268
511.532010	20252.439846
511.896561	20702.929957
512.261053	21419.116602
512.625488	21512.420797
512.989866	21753.907190
513.354186	21991.159014
513.718449	22277.841871
514.082655	22954.518472
514.446803	23083.385488
514.810894	23676.048740
515.174927	23948.626449
515.538904	24186.614281
515.902822	24866.978487
516.266684	24852.036507
516.630488	25391.024073
516.994235	25593.000422
517.357925	26230.724028
517.721558	26624.216333
518.085133	27130.885062
518.448651	27501.402308
518.812112	27638.809038
519.175516	27995.558893
519.538863	28494.257557
519.902152	28752.006712
520.265385	29353.980976
520.628560	29657.919703
520.991678	29778.249524
521.354739	30217.374354
521.717743	30696.435204
522.080690	30891.096839
522.443580	31542.817208
522.806413	31834.168174
523.169189	32070.194997
523.531908	32447.968984
523.894569	32589.050716
524.257174	32967.124651
524.619722	33430.222687
524.982213	33663.202133
525.344647	33849.283724
525.707025	34116.573263
526.069345	34659.797919
526.431608	34811.214016
526.793815	35282.854288
527.155964	35134.790558
527.518057	35481.828630
527.880093	35535.814347
528.242072	36173.331265
528.603995	36117.530733
528.965860	36331.726839
529.327669	36604.317151
529.689421	36719.202527
530.051117	36869.086113
530.412755	37175.537855
530.774337	37405.971518
531.135862	37435.187525
531.497331	37775.142776
531.858743	37860.739048
532.220098	38330.733382
532.581396	38252.224973
532.942638	38124.293091
533.303824	38536.851040
533.664953	38659.285543
534.026025	38587.562527
534.387040	39142.409563
534.747999	39234.549253
535.108902	39532.945231
535.469748	39241.758103
535.830537	39482.145524
536.191270	39800.849791
536.551947	39620.774734
536.912567	40014.007419
537.273131	40240.433365
537.633638	39915.281462
537.994089	40334.753353
538.354483	40115.977359
538.714821	40734.668088
539.075103	41161.510146
539.435328	41051.441593
539.795497	41064.261247
540.155609	41156.796667
540.515665	41679.198837
540.875665	41274.913422
541.235609	41687.236957
541.595496	41760.527772
541.955328	42474.566885
542.315102	41996.380675
542.674821	41882.296843
543.034483	42005.147242
543.394090	42066.490523
543.753640	42117.711166
544.113134	43135.436949
544.472571	42301.584732
544.831953	43536.468299
545.191278	42859.612737
545.550548	42686.744009
545.909761	43205.851786
546.268918	43460.155312
546.628019	43813.749404
546.987064	43497.774922
547.346053	42873.362484
547.704986	43759.415848
548.063863	43408.392744
548.422684	43664.682485
548.781449	43588.041823
549.140158	44009.943550
549.498811	43932.143423
549.857408	43447.310452
550.215949	44314.252802
550.574434	44289.843535
550.932864	44135.934588
551.291237	44872.800046
551.649555	44536.081216
552.007817	44812.991796
552.366022	44539.854519
552.724173	44757.551707
553.082267	45182.165575
553.440305	45526.524273
553.798288	44904.740796
554.156215	45245.132107
554.514086	45488.801319
554.871902	45271.749399
555.229661	45346.063569
555.587365	45210.781685
555.945014	45328.888357
556.302606	45293.043233
556.660143	45549.154013
557.017625	45667.772363
557.375050	45499.763308
557.732421	45879.110135
558.089735	45883.422842
558.446994	45810.305947
558.804197	46291.017775
559.161345	46268.453570
559.518437	45567.929791
559.875474	45903.128713
560.232455	46094.624503
560.589381	46289.112219
560.946251	46005.529671
561.303065	46692.361677
561.659825	46528.410751
562.016528	46232.116933
562.373177	45968.880482
562.729770	46481.079357
563.086307	46007.634352
563.442789	46488.678897
563.799216	46537.978861
564.155587	46344.322936
564.511904	46408.116217
564.868164	46505.801176
565.224370	46755.681089
565.580520	46504.077101
565.936615	46734.157883
566.292654	46475.695405
566.648638	46703.185034
567.004567	46689.208435
567.360441	46730.661843
567.716260	46606.790611
568.072023	46910.013494
568.427732	46901.428409
568.783385	46483.799060
569.138982	46869.878347
569.494525	46836.921804
569.850013	46614.876621
570.205445	46596.554548
570.560823	46551.955460
570.916145	46451.989379
571.271412	46466.608725
571.626625	46255.959070
571.981782	46317.319995
572.336884	46018.465272
572.691931	46344.285127
573.046923	45948.781402
573.401860	45793.607125
573.756743	45789.362473
574.111570	45910.090546
574.466342	45761.817609
574.821059	45899.244504
575.175722	45433.303257
575.530330	45461.137988
575.884882	45180.103743
576.239380	45144.654349
576.593823	45131.275127
576.948211	45056.081276
577.302544	44588.819247
577.656823	44631.732069
578.011047	44859.849321
578.365216	44575.198049
578.719330	44390.371705
579.073389	44245.556999
579.427394	44324.002394
579.781344	44298.594978
580.135239	43980.160413
580.489080	44054.860231
580.842866	43555.685177
581.196597	44018.652144
581.550273	43943.750680
581.903895	43806.553157
582.257463	44234.824382
582.610975	43642.700534
582.964434	43910.163992
583.317837	43589.551649
583.671186	43427.120631
584.024481	43645.032068
584.377721	43177.487733
584.730906	43479.664577
585.084037	43494.568749
585.437113	43211.328999
585.790135	43244.686314
586.143103	42857.036707
586.496016	42984.653517
586.848874	43011.011189
587.201679	43037.147052
587.554428	42522.326777
587.907124	42706.180178
588.259765	42479.096362
588.612352	42731.708581
588.964884	42141.129846
589.317362	42408.931062
589.669786	42375.505692
590.022155	42133.593321
590.374470	42543.373594
590.726731	42089.490787
591.078937	41628.008440
591.431090	41714.902809
591.783188	41380.354196
592.135232	41067.507750
592.487222	41309.639410
592.839157	41389.980279
593.191038	41074.353637
593.542866	40850.460871
593.894639	40264.872879
594.246358	40537.233818
594.598022	40504.206699
594.949633	40124.322989
595.301190	40080.961504
595.652692	39942.803642
596.004141	40256.355849
596.355535	39280.638002
596.706876	39252.069783
597.058162	39079.027136
597.409395	39532.718379
597.760573	39601.484759
598.111698	39188.105102
598.462768	39207.180828
598.813785	39256.153117
599.164748	38715.570026
599.515657	39113.891756
599.866511	38591.892878
600.217312	39196.906957
600.568060	38189.107206
600.918753	38926.766646
601.269392	38884.017661
601.619978	38551.787979
601.970510	38742.366279
602.320988	38937.441289
602.671412	39228.008356
603.021783	38957.923497
603.372100	38634.858632
603.722363	38755.614432
604.072572	38824.632869
604.422728	38843.380920
604.772830	38655.605501
605.122878	38751.316848
605.472872	38693.792241
605.822813	38969.356834
606.172701	38796.523395
606.522534	39022.354484
606.872314	39286.435329
607.222041	39055.893281
607.571714	39444.989699
607.921333	38897.157429
608.270899	39189.859424
608.620411	39519.152634
608.969870	39324.397738
609.319276	39335.316877
609.668627	39392.574302
610.017926	39862.624090
610.367171	40022.411023
610.716362	40108.390422
611.065500	40064.144215
611.414585	40262.997569
611.763616	40542.141381
612.112594	40468.089352
612.461518	40683.555829
612.810389	40966.480506
613.159207	40835.294560
613.507971	40930.378283
613.856682	41404.415623
614.205340	41275.989708
614.553945	41975.303611
614.902496	41429.631475
615.250994	41898.431056
615.599439	41967.444452
615.947830	42172.339630
616.296169	42235.888415
616.644454	42365.486398
616.992686	42541.364694
617.340864	43055.834609
617.688990	42784.688588
618.037063	43363.672668
618.385082	43335.404398
618.733048	43640.386644
619.080961	43655.406762
619.428821	43669.489225
619.776628	43768.656283
620.124382	43607.835914
620.472083	43725.289757
620.819731	43841.379969
621.167326	43536.183474
621.514868	43508.661294
621.862357	43066.000096
622.209793	43101.366310
622.557176	42782.518371
622.904506	42511.752957
623.251783	42174.035978
623.599007	41954.382823
623.946179	41749.855649
624.293297	41712.591440
624.640363	41124.344239
624.987376	41107.652979
625.334336	40880.153267
625.681243	40516.398729
626.028097	40502.129743
626.374899	40343.182162
626.721647	40323.698103
627.068343	40220.263708
627.414987	39976.639866
627.761577	39761.256568
628.108115	40106.517633
628.454600	39552.852748
628.801032	39729.265406
629.147412	39702.191889
629.493739	39726.959078
629.840014	39379.883198
630.186236	39705.498886
630.532405	39343.143268
630.878521	39559.597812
631.224585	39430.246845
631.570597	39136.491249
631.916556	39311.429369
632.262462	39269.925550
632.608316	39282.122622
632.954117	39173.034573
633.299866	39155.466152
633.645562	39070.696629
633.991206	38593.090152
634.336797	38171.538785
634.682336	38159.069491
635.027823	37911.967253
635.373257	37743.673373
635.718639	37494.315219
636.063968	37365.705302
636.409245	36806.870713
636.754470	36851.207661
637.099642	36620.085880
637.444762	36143.323797
637.789829	36299.891953
638.134845	35945.193847
638.479808	35907.682622
638.824719	35806.917518
639.169577	35422.519455
639.514383	35488.984548
639.859137	35184.463568
640.203839	35436.344819
640.548489	35072.144139
640.893086	35121.683558
641.237632	34897.962192
641.582125	35002.107389
641.926566	34936.365702
642.270955	34904.258593
642.615292	34929.547541
642.959576	34910.340745
643.303809	34921.194349
643.647990	35055.803239
643.992118	35028.069331
644.336195	35017.727404
644.680219	35107.701918
645.024192	35414.085605
645.368112	35914.137819
645.711981	35949.987985
646.055797	36811.843811
646.399562	36731.959167
646.743274	37671.093361
647.086935	38108.960422
647.430544	37999.358176
647.774101	38124.892989
648.117606	38362.719504
648.461059	38655.116509
648.804460	38281.708161
649.147810	37668.166971
649.491108	37412.882940
649.834354	37066.601041
650.177548	36223.939408
650.520690	35791.363038
650.863781	35806.763763
651.206820	35651.372716
651.549807	35231.956278
651.892742	34752.303092
652.235626	34569.127726
652.578458	34429.447435
652.921238	33821.416226
653.263967	34160.043133
653.606644	33840.602857
653.949269	33791.897750
654.291843	33411.799791
654.634365	33793.306752
654.976836	33407.361055
655.319255	33408.069337
655.661622	33404.401898
656.003938	33167.354241
656.346203	33039.651732
656.688416	33271.002884
657.030577	33061.966399
657.372687	32910.847730
657.714746	33177.242464
658.056753	33296.848880
658.398708	32754.370315
658.740612	32805.900989
659.082465	33082.788885
659.424266	32913.262443
659.766016	33030.960782
660.107715	32909.158944
660.449362	33026.910215
660.790958	33024.619011
661.132503	33038.272976
661.473996	33076.696651
661.815438	33183.248999
662.156829	33386.427663
662.498168	33152.384534
662.839456	33184.237065
663.180693	33321.003569
663.521879	33487.989269
663.863013	33435.886424
664.204097	33439.934470
664.545129	33906.581479
664.886110	33864.366857
665.227040	33931.381435
665.567918	34044.948549
665.908746	34118.962770
666.249522	34278.147285
666.590248	34282.782626
666.930922	34389.213987
667.271545	34343.634394
667.612118	34434.138229
667.952639	34216.090681
668.293109	34279.417656
668.633528	34179.275135
668.973896	34100.345789
669.314213	34128.450222
669.654480	33878.925709
669.994695	33902.319183
670.334859	33800.674398
670.674973	33695.379818
671.015035	33849.407233
671.355047	33816.362469
671.695008	33771.425624
672.034918	33659.688449
672.374777	33743.918568
672.714585	33581.560647
673.054342	33815.800381
673.394049	33578.866150
673.733705	33845.182746
674.073310	33515.589587
674.412864	33582.190791
674.752368	33188.262426
675.091820	33482.169257
675.431223	33057.739392
675.770574	32782.772176
676.109875	32649.105981
676.449125	32369.148023
676.788324	32292.366209
677.127473	31768.285334
677.466571	31702.576415
677.805619	31353.209330
678.144616	31351.679339
678.483562	31269.153130
678.822458	30945.939552
679.161303	30886.645500
679.500098	30782.147422
679.838842	30667.065441
680.177535	30838.467193
680.516179	31111.559099
680.854771	31348.697497
681.193314	32221.164952
681.531805	33331.806762
681.870247	34116.989158
682.208638	34843.772308
682.546978	35059.256429
682.885268	35162.683262
683.223508	34622.200994
683.561697	34286.719767
683.899836	34090.848255
684.237925	33599.988584
684.575963	33450.157930
684.913951	32993.076511
685.251889	33139.547236
685.589776	33136.749396
685.927614	33126.525936
686.265401	33273.036990
686.603137	33388.371028
686.940824	33879.870925
687.278460	34258.015437
687.616046	34422.031898
687.953582	35008.512175
688.291068	34876.953183
688.628504	35151.133979
688.965889	35090.612406
689.303224	34705.669899
689.640510	34355.108060
689.977745	33621.050525
690.314930	32818.135870
690.652065	32303.509679
690.989150	31537.367721
691.326185	30660.096046
691.663170	29947.440730
692.000105	29189.820842
692.336990	28519.864098
692.673825	28067.599502
693.010610	27544.668010
693.347345	26977.271022
693.684030	26314.021533
694.020665	26051.324486
694.357251	25381.992846
694.693786	25338.439797
695.030272	25091.261942
695.366707	24559.374841
695.703093	24264.742083
696.039429	24255.612554
696.375716	23989.036338
696.711952	23966.124294
697.048139	23819.010822
697.384276	23640.601867
697.720363	23757.813735
698.056400	23562.297624
698.392388	23336.738757
698.728326	23302.630310
699.064214	23082.752823
699.400053	23038.554507
699.735842	22678.371627
700.071581	22397.791086
700.407270	22109.812652
700.742910	21928.252975
701.078501	21653.527735
701.414042	21372.322091
701.749533	21080.104047
702.084974	20731.929194
702.420366	20931.052251
702.755709	20500.736838
703.091002	20200.092505
703.426246	20224.158973
703.761440	20119.701224
704.096584	19854.594505
704.431679	19799.068716
704.766725	19714.662157
705.101721	19664.457306
705.436668	19742.925386
705.771565	19430.439382
706.106413	19767.954715
706.441212	19753.196737
706.775961	19884.004597
707.110661	19962.507965
707.445311	20306.841458
707.779913	20151.503343
708.114465	20405.007847
708.448967	20678.855927
708.783421	21372.874097
709.117825	21651.539000
709.452180	21865.430116
709.786485	22278.973610
710.120742	23086.541251
710.454949	23098.284618
710.789107	23561.942223
711.123216	24264.031281
711.457275	24386.982503
711.791286	24924.775315
712.125247	24999.175184
712.459159	24683.293964
712.793023	25335.957029
713.126837	24236.927517
713.460602	24486.303316
713.794318	24100.019861
714.127985	23710.701632
714.461602	22825.623730
714.795171	22768.542745
715.128691	21761.844487
715.462162	21223.350954
715.795584	20803.443003
716.128957	20535.563649
716.462281	20140.911879
716.795556	19906.011754
717.128782	19402.319826
717.461960	18869.369042
717.795088	18778.298077
718.128167	18384.936842
718.461198	17924.535823
718.794180	17784.865615
719.127113	17420.712826
719.459997	17221.602372
719.792833	16876.081687
720.125619	16846.134713
720.458357	16534.767846
720.791046	16362.383069
721.123686	16197.426433
721.456278	15964.457070
721.788821	15924.427788
722.121315	15668.130485
722.453761	15744.695530
722.786158	15667.974209
723.118506	15672.586865
723.450805	15541.065682
723.783056	15704.058789
724.115259	15604.715290
724.447412	15535.709456
724.779518	15773.888852
725.111574	15800.390198
725.443582	16003.200858
725.775542	15979.217568
726.107453	16438.580110
726.439315	16333.058677
726.771129	16727.465952
727.102895	17101.544773
727.434612	17309.535219
727.766281	17431.818487
728.097901	17683.787960
728.429473	17722.183908
728.760996	17704.718830
729.092471	17784.127086
729.423897	17666.305238
729.755276	17524.888270
730.086606	17634.798027
730.417887	18169.669491
730.749120	18683.380712
731.080305	18853.875055
731.411442	19182.187761
731.742530	19257.497559
732.073570	19355.520275
732.404562	19642.616507
732.735506	19453.303536
733.066401	19163.974072
733.397249	18646.976019
733.728048	18008.468514
734.058798	17174.984302
734.389501	16495.459449
734.720156	16031.549787
735.050762	15509.253481
735.381320	15161.522250
735.711831	14915.715588
736.042293	14574.492487
736.372707	14575.140276
736.703073	14375.926479
737.033391	14561.914809
737.363661	14526.447771
737.693883	14638.981448
738.024056	14809.241378
738.354182	14986.856352
738.684260	15278.706392
739.014290	15501.301060
739.344272	15695.163673
739.674207	15967.108717
740.004093	16074.306333
740.333931	16072.471353
740.663722	16106.751199
740.993464	16101.949500
741.323159	15923.409475
741.652806	15642.133255
741.982405	15424.569658
742.311956	15093.307877
742.641460	14964.435820
742.970915	14672.953784
743.300323	14328.955528
743.629683	14114.807312
743.958996	13844.427546
744.288260	13573.246237
744.617477	13273.993262
744.946647	13202.739073
745.275768	12922.365220
745.604842	12744.762849
745.933869	12568.687948
746.262847	12526.581711
746.591778	12446.351747
746.920662	12357.831606
747.249498	12355.931091
747.578286	12470.743370
747.907027	12611.936007
748.235720	12834.114781
748.564365	12870.670708
748.892963	12760.738266
749.221514	12822.361330
749.550017	12683.215402
749.878473	12642.044298
750.206881	12416.603898
750.535242	12330.387565
750.863555	12247.294226
751.191821	12143.023000
751.520039	12162.252481
751.848210	12071.511712
752.176334	12105.433636
752.504411	12008.504851
752.832440	11853.688495
753.160421	11917.927919
753.488356	11790.056531
753.816243	11708.659540
754.144082	11558.644884
754.471875	11498.587098
754.799620	11449.471136
755.127318	11426.097826
755.454969	11392.468289
755.782572	11333.393528
756.110129	11341.630773
756.437638	11264.702765
756.765100	11261.110943
757.092515	11264.690162
757.419882	11274.580906
757.747203	11282.498038
758.074477	11359.284894
758.401703	11316.939201
758.728882	11475.922070
759.056014	11520.183401
759.383099	11624.212652
759.710138	11736.106103
760.037129	11807.743419
760.364073	11827.973570
760.690970	11817.719863
761.017820	11816.056282
761.344623	11993.993889
761.671379	12322.596462
761.998088	12953.943007
762.324751	14498.232433
762.651366	17367.241307
762.977935	21019.988287
763.304456	23217.722156
763.630931	23688.505431
763.957359	22503.688084
764.283740	20592.374933
764.610074	18714.903047
764.936362	16595.239007
765.262602	15085.720940
765.588796	13614.863483
765.914943	12590.044797
766.241044	11749.936508
766.567097	11116.288675
766.893104	10578.241284
767.219064	10213.002126
767.544978	9838.162091
767.870845	9522.858082
768.196665	9337.411677
768.522438	9145.091657
768.848165	8974.756110
769.173846	8813.255185
769.499479	8692.325466
769.825066	8539.071868
770.150607	8352.281995
770.476101	8290.059033
770.801548	8180.280346
771.126949	8038.853296
771.452303	7953.352806
771.777611	7784.050695
772.102872	7770.162316
772.428087	7647.969788
772.753256	7522.903802
773.078378	7438.966070
773.403453	7296.230840
773.728482	7193.804676
774.053465	7129.749255
774.378401	7041.960081
774.703291	6950.014476
775.028135	6856.067533
775.352932	6821.081926
775.677683	6736.541776
776.002388	6651.885679
776.327046	6648.684546
776.651658	6563.814201
776.976224	6489.449620
777.300743	6471.747608
777.625216	6403.215642
777.949643	6359.266863
778.274024	6368.056115
778.598359	6299.887112
778.922647	6303.549510
779.246889	6262.955619
779.571086	6269.567092
779.895236	6280.576972
780.219339	6279.278875
780.543397	6279.934225
780.867409	6323.913251
781.191374	6319.391336
781.515294	6285.295492
781.839167	6336.478327
782.162995	6304.847607
782.486776	6258.809270
782.810511	6219.014401
783.134201	6147.984543
783.457844	6130.965608
783.781441	6087.760399
784.104993	6042.387494
784.428498	6012.415314
784.751958	5994.065514
785.075372	5970.253623
785.398739	5933.261637
785.722061	5952.609585
786.045337	5957.446572
786.368568	6064.182923
786.691752	6087.205872
787.014891	6330.504560
787.337983	6612.400842
787.661030	7047.102058
787.984031	7472.545196
788.306987	7729.908703
788.629897	7818.721231
788.952760	7735.728715
789.275579	7559.114410
789.598351	7260.814214
789.921078	6994.721949
790.243759	6718.716256
790.566395	6506.042578
790.888984	6320.752447
791.211529	6180.807496
791.534027	6014.552763
791.856480	5886.736828
792.178888	5821.302651
792.501249	5757.998361
792.823566	5655.995654
793.145836	5645.041227
793.468062	5629.837107
793.790241	5587.420839
794.112375	5629.045646
794.434464	5729.011727
794.756507	5753.862095
795.078505	5880.140478
795.400457	6096.317758
795.722364	6335.177709
796.044226	6526.166864
796.366042	6679.201171
796.687812	6633.031764
797.009538	6657.299878
797.331218	6570.148411
797.652852	6496.282904
797.974442	6370.271702
798.295986	6301.485157
798.617484	6175.300036
798.938938	6068.326751
799.260346	5997.556513
799.581709	5864.323858
799.903026	5809.685312
800.224299	5738.388273
800.545526	5621.541888
800.866708	5558.315737
801.187845	5508.151215
801.508936	5434.903250
801.829983	5406.413169
802.150984	5299.563392
802.471940	5275.968272
802.792851	5256.668214
803.113717	5234.000666
803.434538	5211.847315
803.755314	5177.101162
804.076045	5163.888298
804.396731	5131.821519
804.717372	5148.860619
805.037967	5147.219723
805.358518	5177.012942
805.679024	5235.966716
805.999485	5248.677985
806.319901	5265.185244
806.640272	5277.203354
806.960598	5327.415767
807.280879	5320.038039
807.601115	5359.538000
807.921306	5316.373120
808.241453	5313.781967
808.561554	5326.876364
808.881611	5288.233399
809.201623	5284.102173
809.521590	5235.608794
809.841513	5223.343667
810.161390	5238.688939
810.481223	5152.666690
810.801011	5135.854442
811.120755	5107.177838
811.440453	5055.901742
811.760107	5027.865365
812.079716	5005.313763
812.399281	4954.750990
812.718801	4943.678095
813.038276	4911.964197
813.357707	4877.006315
813.677093	4900.581271
813.996434	4840.016849
814.315731	4859.400085
814.634983	4852.884394
814.954191	4860.496536
815.273354	4920.670269
815.592473	4962.002690
815.911547	5034.670922
816.230577	5087.151854
816.549562	5174.983878
816.868502	5225.392896
817.187399	5281.024549
817.506250	5358.721333
817.825058	5386.372062
818.143821	5536.706831
818.462539	5705.194795
818.781213	5937.034940
819.099843	6297.356453
819.418429	6915.671616
819.736970	7535.294958
820.055466	8240.575067
820.373919	9146.286411
820.692327	10586.846534
821.010691	13259.530192
821.329011	19443.813564
821.647286	28968.821698
821.965517	39221.258251
822.283704	44662.863714
822.601847	46121.272043
822.919945	41537.411344
823.237999	36451.708821
823.556010	31278.774173
823.873976	26613.879447
824.191897	22423.390065
824.509775	19388.592764
824.827609	16634.814585
825.145398	15095.967085
825.463144	14351.504609
825.780845	14645.416481
826.098502	15890.180709
826.416116	18336.556889
826.733685	20608.536872
827.051210	21134.150257
827.368692	19707.957422
827.686129	17157.819173
828.003522	14686.622872
828.320872	12489.899755
828.638177	10852.679179
828.955439	9623.988670
829.272656	8567.408194
829.589830	7725.195224
829.906960	7005.812488
830.224046	6474.124512
830.541088	6069.387914
830.858086	5813.088091
831.175041	5609.238952
831.491952	5557.035284
831.808819	5585.472433
832.125642	5832.322613
832.442421	6374.395366
832.759157	7470.881615
833.075849	9238.892407
833.392497	11071.412324
833.709101	12179.810820
834.025662	11930.964343
834.342179	10879.999712
834.658653	9578.996372
834.975083	8488.962799
835.291469	7581.963440
835.607811	6856.435538
835.924110	6338.686352
836.240366	5855.370768
836.556578	5406.277057
836.872746	5054.016350
837.188871	4787.150268
837.504952	4566.211619
837.820990	4396.982605
838.136984	4287.410605
838.452935	4239.615426
838.768842	4267.233387
839.084706	4547.768558
839.400526	5282.380619
839.716303	6185.457961
840.032037	6751.198930
840.347727	6594.018274
840.663373	5999.338561
840.978977	5424.498308
841.294537	4987.344570
841.610054	4661.365918
841.925527	4423.352881
842.240957	4217.033577
842.556344	4039.804252
842.871687	3883.042011
843.186987	3731.071388
843.502244	3612.158130
843.817458	3524.656302
844.132629	3455.398410
844.447756	3410.534661
844.762840	3365.474308
845.077881	3326.808658
845.392879	3294.424285
845.707833	3266.168618
846.022745	3241.847571
846.337613	3229.960531
846.652438	3206.597303
846.967221	3199.118751
847.281960	3179.485978
847.596656	3166.061385
847.911309	3158.066115
848.225919	3144.291162
848.540485	3133.440078
848.855009	3126.697535
849.169490	3114.447531
849.483928	3106.996706
849.798323	3102.704163
850.112675	3090.358378
850.426984	3093.836774
850.741251	3085.584405
851.055474	3081.518714
851.369654	3080.560895
851.683792	3081.105340
851.997887	3085.503747
852.311938	3083.883016
852.625947	3084.838314
852.939914	3077.813466
853.253837	3082.910073
853.567718	3082.766400
853.881555	3076.298600
854.195350	3082.930237
854.509103	3078.884712
854.822812	3074.778692
855.136479	3071.033114
855.450103	3076.338929
855.763685	3066.627146
856.077224	3071.232240
856.390720	3078.292376
856.704173	3089.554314
857.017584	3093.869541
857.330953	3099.787856
857.644278	3106.469905
857.957561	3109.668518
858.270802	3103.634256
858.584000	3107.294134
858.897155	3104.415635
859.210268	3090.423913
859.523339	3080.782706
859.836367	3076.926223
860.149352	3072.921027
860.462295	3065.071950
860.775195	3057.169941
861.088054	3053.416802
861.400869	3057.626166
861.713642	3050.626524
862.026373	3060.010632
862.339062	3064.235118
862.651708	3072.149730
862.964312	3089.624890
863.276873	3100.014708
863.589392	3125.636372
863.901869	3154.736433
864.214303	3174.797705
864.526696	3195.282433
864.839045	3210.534444
865.151353	3225.052967
865.463619	3221.940055
865.775842	3222.668502
866.088023	3230.600757
866.400162	3222.325703
866.712258	3219.855538
867.024313	3225.935169
867.336325	3221.451063
867.648296	3222.376115
867.960224	3220.309242
868.272110	3224.967268
868.583954	3225.799058
868.895755	3232.781056
869.207515	3225.788976
869.519233	3248.068355
869.830909	3255.922473
870.142542	3263.706014
870.454134	3270.357817
870.765684	3283.389200
871.077191	3298.600881
871.388657	3314.218376
871.700081	3331.559945
872.011463	3354.061135
872.322803	3370.858260
872.634101	3387.907442
872.945357	3407.953591
873.256571	3432.766150
873.567744	3450.740384
873.878874	3455.587453
874.189963	3476.684682
874.501010	3469.569093
874.812015	3469.180925
875.122979	3485.446208
875.433900	3484.127946
875.744780	3485.630210
876.055618	3493.398628
876.366415	3487.896208
876.677169	3494.721931
876.987882	3511.181298
877.298554	3533.564021
877.609183	3570.903847
877.919771	3614.693830
878.230317	3687.097402
878.540822	3787.300418
878.851285	3938.459416
879.161707	4153.046211
879.472087	4528.632337
879.782425	5147.988499
880.092722	6320.686912
880.402977	8232.300013
880.713191	10592.835425
881.023363	12954.303450
881.333494	14287.083704
881.643583	14734.836468
881.953631	14331.304705
882.263637	13491.539215
882.573602	12462.468316
882.883526	11516.825993
883.193408	10568.448843
883.503248	9663.395369
883.813048	8845.160647
884.122806	8081.569513
884.432522	7320.017525
884.742197	6669.373442
885.051831	6111.476507
885.361424	5618.023163
885.670975	5228.208380
885.980485	4905.183845
886.289954	4642.227178
886.599382	4428.048715
886.908768	4251.467178
887.218113	4089.809978
887.527417	3956.234524
887.836680	3834.878827
888.145901	3736.906523
888.455082	3663.247704
888.764221	3589.684666
889.073319	3531.671068
889.382376	3500.247035
889.691392	3477.834065
890.000366	3472.011532
890.309300	3464.429637
890.618193	3468.883497
890.927044	3462.725727
891.235855	3467.822334
891.544625	3487.475272
891.853353	3511.824045
892.162041	3570.775298
892.470687	3661.148063
892.779293	3779.811783
893.087858	3952.309986
893.396381	4227.599836
893.704864	4640.679543
894.013306	5200.512281
894.321707	5768.050422
894.630068	6123.693744
894.938387	6158.689434
895.246665	5982.175952
895.554903	5664.852962
895.863100	5333.344164
896.171256	5065.336261
896.479371	4825.268953
896.787446	4604.068164
897.095480	4410.404677
897.403473	4262.681225
897.711425	4120.467755
898.019336	3997.019979
898.327207	3877.297617
898.635038	3775.897327
898.942827	3668.167870
899.250576	3584.789706
899.558284	3505.527644
899.865952	3446.394909
900.173579	3385.031464
900.481165	3338.121007
900.788711	3299.588947
901.096216	3266.239194
901.403681	3238.480081
901.711105	3226.585478
902.018489	3221.022565
902.325832	3255.738471
902.633135	3317.177533
902.940397	3483.381855
903.247619	3881.814490
903.554800	4629.823419
903.861941	5585.366568
904.169041	6283.233660
904.476101	6489.384085
904.783121	6215.102466
905.090100	5817.045396
905.397039	5404.890740
905.703938	5047.402356
906.010796	4730.991815
906.317614	4479.712981
906.624391	4246.700767
906.931129	4052.152558
907.237826	3871.439796
907.544483	3704.126420
907.851099	3534.627704
908.157675	3379.743294
908.464211	3238.691809
908.770707	3138.534164
909.077163	3057.290929
909.383578	3000.482166
909.689954	2956.346864
909.996289	2926.087338
910.302584	2905.675707
910.608839	2895.386712
910.915054	2882.274670
911.221229	2877.762838
911.527363	2881.720143
911.833458	2888.639127
912.139513	2900.115314
912.445527	2915.584094
912.751502	2949.601801
913.057436	2990.039416
913.363331	3047.579146
913.669186	3132.454533
913.975000	3250.120105
914.280775	3434.492745
914.586510	3698.608877
914.892205	4068.606884
915.197859	4561.583840
915.503475	5141.109845
915.809050	5631.195698
916.114585	5918.052475
916.420081	5979.700746
916.725536	5914.707670
917.030952	5678.403583
917.336328	5477.967306
917.641665	5268.600625
917.946961	5042.419176
918.252218	4845.143702
918.557435	4620.890494
918.862612	4422.795833
919.167750	4255.663939
919.472848	4064.354671
919.777906	3899.130854
920.082925	3739.812748
920.387904	3595.250100
920.692843	3478.771720
920.997743	3383.728326
921.302603	3290.751805
921.607423	3225.673029
921.912204	3157.758605
922.216946	3111.662294
922.521647	3062.740416
922.826310	3023.482431
923.130932	2984.635299
923.435516	2947.499639
923.740059	2919.173396
924.044564	2889.929663
924.349028	2866.594161
924.653454	2838.363700
924.957840	2813.500729
925.262186	2793.230249
925.566493	2770.860129
925.870761	2746.851634
926.174989	2733.568194
926.479178	2720.640155
926.783328	2703.243133
927.087438	2693.528829
927.391509	2681.558609
927.695541	2666.354489
927.999533	2658.167656
928.303486	2650.701707
928.607400	2643.233237
928.911275	2640.846251
929.215110	2631.988944
929.518906	2627.298150
929.822663	2628.729838
930.126381	2628.467698
930.430060	2633.092956
930.733699	2632.780405
931.037299	2636.609161
931.340861	2640.430356
931.644383	2639.800212
931.947866	2639.724594
932.251309	2637.347690
932.554714	2634.849798
932.858080	2632.298975
933.161407	2630.116155
933.464694	2627.961062
933.767943	2623.655916
934.071153	2620.066615
934.374323	2613.487909
934.677455	2614.536469
934.980548	2609.906169
935.283602	2607.897269
935.586617	2604.683534
935.889593	2609.427260
936.192530	2611.025305
936.495428	2618.564351
936.798287	2625.697584
937.101108	2639.268370
937.403890	2660.794097
937.706632	2685.190761
938.009336	2720.415823
938.312002	2749.720051
938.614628	2770.366096
938.917216	2786.424692
939.219765	2798.036990
939.522275	2807.448824
939.824747	2808.237764
940.127179	2803.312557
940.429573	2795.206382
940.731929	2796.204530
941.034246	2787.208591
941.336524	2784.284722
941.638763	2776.644853
941.940964	2772.211158
942.243126	2751.368508
942.545250	2744.923393
942.847335	2730.835888
943.149381	2716.629917
943.451389	2704.208514
943.753359	2692.991946
944.055290	2682.776048
944.357182	2676.300686
944.659036	2669.422032
944.960851	2670.193328
945.262628	2662.142605
945.564367	2666.498162
945.866067	2663.919612
946.167729	2658.759991
946.469352	2661.068840
946.770937	2656.292346
947.072484	2651.336892
947.373992	2650.724392
947.675462	2646.204997
947.976893	2639.601086
948.278286	2637.178812
948.579641	2635.343832
948.880958	2631.469705
949.182236	2630.663120
949.483476	2627.577934
949.784678	2627.968623
950.085841	2628.268572
950.386967	2633.897020
950.688054	2639.459934
950.989103	2645.340440
951.290114	2654.517860
951.591087	2664.169149
951.892021	2675.100891
952.192917	2689.823581
952.493776	2699.842874
952.794596	2703.354038
953.095378	2703.837989
953.396122	2701.584593
953.696828	2698.789273
953.997496	2694.905064
954.298126	2684.868127
954.598718	2678.687672
954.899272	2665.943635
955.199788	2653.610452
955.500266	2647.417395
955.800706	2630.053141
956.101108	2611.814246
956.401472	2601.278234
956.701798	2589.141657
957.002087	2573.546847
957.302337	2566.181721
957.602550	2553.362067
957.902724	2542.876467
958.202861	2533.666279
958.502960	2523.921729
958.803022	2519.611542
959.103045	2511.268432
959.403031	2505.748369
959.702979	2498.758809
960.002889	2495.610609
960.302762	2489.757829
960.602596	2484.416727
960.902393	2484.457056
961.202153	2482.614514
961.501875	2479.995635
961.801559	2474.468009
962.101205	2472.943060
962.400814	2473.479943
962.700385	2468.844602
962.999918	2467.390229
963.299414	2465.222533
963.598873	2465.835033
963.898293	2462.371761
964.197677	2462.999384
964.497022	2460.859415
964.796331	2460.869497
965.095601	2459.488221
965.394835	2457.239866
965.694030	2456.710545
965.993189	2457.018055
966.292309	2453.622838
966.591393	2459.488221
966.890439	2454.351285
967.189447	2457.703652
967.488419	2454.207612
967.787353	2459.226081
968.086249	2457.693570
968.385108	2459.904116
968.683930	2458.810186
968.982714	2460.599795
969.281462	2460.241873
969.580172	2462.500310
969.878844	2465.940898
970.177480	2467.039869
970.476078	2467.213789
970.774639	2473.956332
971.073162	2476.991107
971.371649	2473.371558
971.670098	2476.812146
971.968510	2479.703248
972.266885	2477.853144
972.565223	2481.109730
972.863524	2485.664412
973.161788	2485.339258
973.460014	2484.618373
973.758204	2488.497541
974.056356	2488.154742
974.354471	2487.154073
974.652550	2486.125678
974.950591	2487.350678
975.248595	2485.876141
975.546563	2486.087869
975.844493	2485.429998
976.142386	2482.748105
976.440243	2478.879019
976.738062	2480.184678
977.035845	2477.495222
977.333590	2473.215283
977.631299	2470.931640
977.928971	2472.265025
978.226606	2465.802266
978.524204	2466.545836
978.821765	2463.153140
979.119290	2464.531895
979.416777	2466.089612
979.714228	2463.863942
980.011642	2464.206741
980.309020	2471.445838
980.606360	2471.544140
980.903664	2483.317755
981.200931	2497.576659
981.498162	2513.743639
981.795356	2545.220604
982.092513	2581.043043
982.389633	2624.888478
982.686717	2665.991526
982.983764	2696.785415
983.280775	2714.724361
983.577749	2716.627396
983.874686	2707.288659
984.171587	2688.273426
984.468451	2674.954698
984.765279	2657.492141
985.062070	2635.888276
985.358824	2620.878241
985.655543	2599.188676
985.952224	2574.766806
986.248869	2549.029195
986.545478	2520.907119
986.842050	2503.273163
987.138586	2486.486120
987.435086	2473.457258
987.731549	2464.441154
988.027975	2458.474949
988.324366	2451.757611
988.620719	2445.367949
988.917037	2442.260078
989.213318	2439.545416
989.509563	2438.867381
989.805772	2438.635488
990.101944	2434.884869
990.398080	2433.256577
990.694180	2432.341607
990.990244	2434.431166
991.286271	2435.648604
991.582262	2432.152564
991.878217	2435.875456
992.174136	2433.811104
992.470019	2438.000303
992.765865	2437.702874
993.061676	2439.971394
993.357450	2445.151179
993.653188	2446.045984
993.948890	2452.125616
994.244556	2457.134002
994.540186	2464.395784
994.835780	2477.301138
995.131337	2489.289002
995.426859	2507.225427
995.722345	2525.272758
996.017795	2544.403937
996.313208	2557.659651
996.608586	2568.803121
996.903928	2571.230437
997.199234	2572.367217
997.494504	2568.175498
997.789738	2561.508572
998.084936	2548.880481
998.380099	2536.630477
998.675225	2527.264014
998.970316	2518.399145
999.265371	2504.548574
999.560390	2489.881337
999.855373	2478.092599
1000.150320	2467.664972
1000.445232	2459.679785
1000.740108	2453.035544
1001.034948	2446.154369
1001.329752	2439.852927
1001.624521	2438.327978
1001.919254	2432.457554
1002.213951	2431.393870
1002.508613	2427.159301
1002.803239	2429.097625
1003.097829	2423.973292
1003.392384	2423.859866
1003.686903	2420.880544
1003.981386	2422.236614
1004.275834	2416.681263
1004.570246	2420.010945
1004.864623	2421.021696
1005.158964	2416.406520
1005.453270	2417.008938
1005.747540	2415.620100
1006.041775	2417.941551
1006.335974	2417.296284
1006.630138	2417.820564
1006.924266	2414.974832
1007.218359	2416.807292
1007.512416	2416.668660
1007.806438	2415.937693
1008.100425	2414.211097
1008.394376	2411.662794
1008.688292	2414.969791
1008.982172	2416.560275
1009.276017	2412.920562
1009.569827	2411.274625
1009.863602	2414.901736
1010.157341	2414.233783
1010.451045	2411.887126
1010.744714	2412.182033
1011.038347	2410.455438
1011.331945	2410.357135
1011.625508	2411.544327
1011.919036	2410.717578
1012.212528	2412.270253
1012.505986	2410.359656
1012.799408	2413.296128
1013.092795	2408.232289
1013.386147	2412.073648
1013.679464	2409.137176
1013.972745	2410.268915
1014.265992	2409.464851
1014.559204	2411.188926
1014.852380	2407.806312
1015.145521	2409.726991
1015.438628	2411.309913
1015.731699	2411.927455
1016.024736	2410.871333
1016.317737	2411.572053
1016.610703	2412.280336
1016.903635	2405.681465
1017.196531	2408.202042
1017.489393	2412.103895
1017.782219	2406.840931
1018.075011	2410.939389
1018.367768	2413.734708
1018.660490	2409.684141
1018.953177	2409.684141
1019.245829	2409.684141
