Dividing Wavelength (nm)	Counts (n)	Blue Motor Position (mm): 46.000000	Red Motor Position (mm): 0.000000	
326.493990	1972.671556
326.888308	1972.671556
327.282561	1972.671556
327.676750	1948.211877
328.070874	1949.230190
328.464933	1958.084977
328.858929	1962.687550
329.252859	1977.475775
329.646726	1994.023363
330.040528	2007.354694
330.434265	2025.238187
330.827938	2046.864737
331.221547	2064.828889
331.615091	2088.234966
332.008571	2105.919334
332.401986	2128.299537
332.795338	2147.604635
333.188625	2168.263284
333.581847	2185.935048
333.975006	2203.843748
334.368100	2221.565924
334.761129	2240.661815
335.154095	2252.059863
335.546996	2295.731379
335.939833	2383.384442
336.332606	2397.552605
336.725315	2407.340005
337.117960	2416.522467
337.510540	2424.696698
337.903056	2433.480908
338.295508	2441.410643
338.687896	2447.578495
339.080220	2455.568724
339.472480	2460.476287
339.864676	2467.473408
340.256807	2463.745475
340.648875	2467.556588
341.040879	2470.752679
341.432818	2472.257463
341.824694	2473.043883
342.216506	2476.048411
342.608253	2476.179481
342.999937	2469.704119
343.391557	2470.291413
343.783113	2467.697740
344.174605	2468.532051
344.566033	2467.017184
344.957397	2464.796556
345.348697	2462.490228
345.739934	2463.392594
346.131106	2461.043417
346.522215	2458.391770
346.913260	2460.007460
347.304241	2458.288426
347.695159	2452.685184
348.086012	2452.702828
348.476802	2449.610080
348.867528	2450.635955
349.258191	2446.257712
349.648789	2444.029523
350.039324	2446.172013
350.429796	2445.975408
350.820203	2444.563885
351.210548	2444.354677
351.600828	2442.532300
351.991045	2441.219079
352.381198	2443.681683
352.771288	2445.955243
353.161314	2441.090530
353.551276	2440.167999
353.941175	2442.008020
354.331010	2442.791919
354.720782	2446.988680
355.110490	2446.618155
355.500135	2444.715119
355.889717	2441.196394
356.279235	2442.504573
356.668689	2443.764862
357.058080	2445.804009
357.447408	2445.022630
357.836672	2441.619851
358.225873	2444.173195
358.615010	2443.722012
359.004084	2449.864658
359.393095	2448.770728
359.782043	2450.976232
360.170927	2451.981943
360.559748	2453.229628
360.948505	2450.749381
361.337199	2455.959413
361.725830	2457.121399
362.114398	2455.672067
362.502903	2456.448405
362.891344	2459.016873
363.279722	2457.396142
363.668037	2458.885803
364.056289	2460.332614
364.444478	2458.853035
364.832603	2457.577623
365.220665	2459.657099
365.608665	2464.075671
365.996601	2464.168932
366.384474	2464.098356
366.772284	2463.826134
367.160031	2464.226905
367.547715	2465.232616
367.935336	2465.174642
368.322893	2469.182360
368.710388	2468.829479
369.097820	2472.875005
369.485189	2469.701598
369.872495	2472.338122
370.259738	2474.122690
370.646918	2475.894656
371.034035	2477.555716
371.421090	2474.299131
371.808081	2473.699233
372.195010	2475.713174
372.581875	2476.834831
372.968678	2479.279791
373.355418	2479.635192
373.742096	2480.363639
374.128710	2483.368167
374.515262	2484.767087
374.901751	2484.134422
375.288177	2490.382932
375.674540	2488.089207
376.060841	2492.916112
376.447079	2492.192706
376.833254	2492.049033
377.219367	2490.806389
377.605417	2500.213182
377.991404	2498.224447
378.377329	2507.283400
378.763191	2506.050838
379.148991	2521.844773
379.534727	2528.496576
379.920402	2537.021167
380.306013	2547.983156
380.691563	2567.361351
381.077049	2576.311920
381.462474	2598.951742
381.847835	2619.852366
382.233134	2645.169040
382.618371	2668.212155
383.003545	2700.263811
383.388657	2734.578945
383.773706	2771.875922
384.158693	2811.925368
384.543618	2854.603777
384.928480	2898.018194
385.313280	2954.471555
385.698017	3011.688651
386.082692	3080.583580
386.467305	3129.881024
386.851856	3209.352294
387.236344	3291.520581
387.620770	3355.223121
388.005133	3436.171449
388.389435	3536.382026
388.773674	3610.741566
389.157851	3710.957184
389.541965	3813.274963
389.926018	3870.061040
390.310008	4007.760157
390.693936	4111.096250
391.077802	4223.962643
391.461606	4340.680478
391.845348	4453.924958
392.229027	4574.123710
392.612645	4756.994086
392.996200	4882.846492
393.379694	5045.597623
393.763125	5240.397890
394.146494	5363.129822
394.529801	5512.189179
394.913047	5736.205453
395.296230	5795.517149
395.679351	5900.166462
396.062410	6144.453215
396.445408	6138.176979
396.828343	6313.533515
397.211217	6474.038812
397.594028	6455.008457
397.976778	6667.074676
398.359466	6862.565581
398.742092	6900.780047
399.124656	7084.484735
399.507158	7295.711601
399.889598	7374.257819
400.271977	7609.112574
400.654294	7693.297323
401.036549	7924.184690
401.418742	8001.258891
401.800874	8326.362902
402.182944	8447.373280
402.564952	8827.531732
402.946898	8720.563489
403.328783	8822.614087
403.710606	9048.359477
404.092367	9326.195109
404.474067	9705.375578
404.855705	9556.144821
405.237282	9548.850272
405.618797	9990.987190
406.000250	10257.195402
406.381642	10629.726588
406.762972	10618.449527
407.144240	10462.317431
407.525447	10735.623587
407.906593	10703.060253
408.287677	10967.834256
408.668700	11141.812037
409.049661	11137.305246
409.430560	11319.258132
409.811399	11304.656430
410.192176	11473.673716
410.572891	11558.859133
410.953545	12061.547871
411.334138	11545.001001
411.714669	12140.199954
412.095139	11478.364509
412.475547	11977.310191
412.855894	11823.486943
413.236180	12155.411635
413.616405	11857.870133
413.996568	12132.887760
414.376670	12095.071544
414.756711	11988.284782
415.136691	12268.318358
415.516609	12443.863938
415.896466	12512.625276
416.276262	12802.705872
416.655997	13243.479158
417.035670	13283.276547
417.415283	13917.224328
417.794834	14016.983722
418.174324	13761.286317
418.553753	13668.214014
418.933121	14151.975740
419.312428	13968.797853
419.691674	13880.444070
420.070859	14330.220857
420.449983	13989.269979
420.829045	14531.569583
421.208047	14280.668836
421.586988	14732.837650
421.965867	14981.336288
422.344686	14983.861906
422.723444	15543.669438
423.102141	14238.754162
423.480777	15420.995480
423.859352	14930.481128
424.237866	16031.675815
424.616319	15722.108640
424.994712	16384.619599
425.373044	16174.002712
425.751314	16845.348293
426.129524	15970.501413
426.507673	17051.503759
426.885762	16757.125580
427.263789	16941.236080
427.641756	17118.414994
428.019662	17173.212336
428.397508	17214.864870
428.775292	17499.276688
429.153016	17471.167214
429.530679	17541.221608
429.908282	17569.366370
430.285824	17296.219011
430.663305	17989.859095
431.040726	17602.174199
431.418086	17435.979960
431.795385	18060.069765
432.172624	18479.042582
432.549802	18038.286939
432.926920	18234.201301
433.303977	18108.588350
433.680974	18369.263895
434.057910	18648.906781
434.434786	18683.481535
434.811601	18592.644984
435.188355	19626.414238
435.565050	19274.060270
435.941683	19224.062106
436.318257	20101.737073
436.694770	19898.487832
437.071222	20501.931591
437.447614	19583.700542
437.823946	19605.125446
438.200218	19753.083311
438.576429	19524.197282
438.952580	19798.446134
439.328670	19765.688716
439.704700	20183.741522
440.080670	19755.573641
440.456580	20333.514203
440.832429	20503.547281
441.208218	19516.328041
441.583947	19952.972623
441.959616	20058.000022
442.335224	20295.216557
442.710773	20419.496123
443.086261	20949.969181
443.461689	20317.011986
443.837057	20442.546799
444.212365	21085.510684
444.587612	21075.816545
444.962800	20667.082312
445.337927	21079.647822
445.712995	19828.897224
446.088002	21661.573416
446.462949	21845.623423
446.837837	22005.082681
447.212664	21962.676494
447.587431	24739.762449
447.962139	27632.384087
448.336786	30003.901653
448.711374	28498.121602
449.085901	24863.061510
449.460369	24803.719567
449.834776	24692.912485
450.209124	27145.595148
450.583412	26695.949431
450.957640	27245.878822
451.331808	25907.686889
451.705917	24555.341918
452.079965	24577.719599
452.453954	24932.478198
452.827883	24822.823020
453.201752	24635.163548
453.575562	24776.061277
453.949311	25879.191767
454.323001	25936.950787
454.696632	25709.619955
455.070202	27229.701759
455.443713	27379.887815
455.817164	27949.712119
456.190556	28491.268153
456.563888	27945.832951
456.937160	28381.925526
457.310373	26732.991830
457.683526	27174.627153
458.056619	27139.328994
458.429653	27078.462103
458.802628	27644.540830
459.175542	27748.769206
459.548398	29043.445899
459.921194	30598.011716
460.293930	31268.313778
460.666607	33268.759571
461.039224	35025.732756
461.411782	35418.350421
461.784280	34245.929271
462.156719	33756.302162
462.529099	33204.169787
462.901419	31914.534249
463.273680	30868.265453
463.645882	30941.495774
464.018024	30908.796330
464.390106	31721.059805
464.762130	34393.352774
465.134094	38382.715240
465.505999	43627.599757
465.877845	48236.230165
466.249631	49419.310835
466.621358	47707.120740
466.993026	45593.659840
467.364634	43534.643401
467.736184	41572.548186
468.107674	40331.670688
468.479105	39561.354654
468.850477	38871.545847
469.221790	37451.099927
469.593043	35741.143063
469.964238	34853.143813
470.335373	34759.761479
470.706449	36420.355365
471.077467	38936.115466
471.448425	43470.918175
471.819324	46330.283322
472.190164	44531.745823
472.560945	41012.854081
472.931667	37921.880682
473.302330	36816.811868
473.672934	36017.975506
474.043479	36503.872161
474.413965	35726.145631
474.784393	35335.723389
475.154761	36233.951140
475.525070	36259.494666
475.895321	35808.366850
476.265513	36408.067553
476.635645	37361.904272
477.005719	37172.664397
477.375734	37634.204717
477.745691	38324.626025
478.115588	39634.501796
478.485427	41572.336458
478.855207	44887.187499
479.224928	47511.886934
479.594591	49153.268982
479.964194	48175.406124
480.333739	48310.461156
480.703226	48316.881065
481.072653	48957.972162
481.442022	49450.364343
481.811333	49729.195603
482.180584	48430.276780
482.549777	47928.823124
482.918912	47400.026251
483.287988	47100.198584
483.657005	46269.655885
484.025964	45645.571122
484.394864	45660.881106
484.763706	45231.243728
485.132489	44359.330800
485.501213	44207.332450
485.869879	44352.023648
486.238487	43948.154128
486.607036	44128.675326
486.975527	43605.262405
487.343959	43805.764217
487.712333	43898.539092
488.080648	43793.194100
488.448905	44238.660700
488.817104	44050.096341
489.185244	45001.344428
489.553326	46652.150913
489.921350	49364.556343
490.289315	52254.420470
490.657222	52899.413420
491.025070	53194.467113
491.392861	52295.846152
491.760593	51045.249309
492.128267	49373.814422
492.495883	47847.564766
492.863440	46454.212528
493.230939	45102.618688
493.598380	44036.482705
493.965763	43714.917583
494.333088	42880.553690
494.700354	42423.326077
495.067563	42137.285967
495.434713	42005.568178
495.801805	42078.014600
496.168839	41707.071377
496.535815	41366.344829
496.902733	41402.376477
497.269593	40997.801195
497.636395	40934.232245
498.003139	41336.801147
498.369825	40780.635849
498.736453	41099.037647
499.103023	40633.595474
499.469535	40514.566270
499.835989	40608.936670
500.202385	40282.748810
500.568723	40280.918871
500.935003	40475.441875
501.301226	40277.173294
501.667390	40879.145037
502.033497	41162.989724
502.399546	40576.857287
502.765537	39917.320609
503.131470	40301.597684
503.497345	40634.520526
503.863163	39312.810646
504.228923	39926.908884
504.594625	40338.607315
504.960269	39622.559303
505.325856	40293.262137
505.691385	39671.571921
506.056856	39808.449330
506.422270	40235.296429
506.787625	39810.556532
507.152924	40005.351758
507.518164	40121.941044
507.883347	39326.943520
508.248472	39583.903735
508.613540	40051.760620
508.978550	40339.227377
509.343503	40093.501374
509.708398	40297.857148
510.073236	40829.101502
510.438016	40815.714718
510.802738	40275.827306
511.167403	40882.769626
511.532010	41116.590944
511.896561	41410.482652
512.261053	42254.472629
512.625488	41805.847745
512.989866	41684.373582
513.354186	41525.352904
513.718449	41511.981243
514.082655	42200.560009
514.446803	41847.543129
514.810894	42380.642627
515.174927	42309.874910
515.538904	42217.591547
515.902822	42881.093093
516.266684	42317.474449
516.630488	42748.674584
516.994235	42610.801547
517.357925	43179.703321
517.721558	43343.107281
518.085133	43647.635823
518.448651	43790.030776
518.812112	43567.365531
519.175516	43668.717929
519.538863	44008.577398
519.902152	43959.474039
520.265385	44431.888127
520.628560	44477.994520
520.991678	44271.206390
521.354739	44522.717117
521.717743	44837.275034
522.080690	44724.988374
522.443580	45276.210820
522.806413	45325.331823
523.169189	45262.118275
523.531908	45439.093022
523.894569	45306.548484
524.257174	45480.329660
524.619722	45768.759278
524.982213	45752.010044
525.344647	45680.783581
525.707025	45736.846253
526.069345	46118.648122
526.431608	46031.032868
526.793815	46367.330762
527.155964	45889.038688
527.518057	46072.902171
527.880093	45864.420213
528.242072	46389.877322
528.603995	46072.647593
528.965860	46085.812566
529.327669	46174.960331
529.689421	46075.019456
530.051117	46026.815943
530.412755	46186.519697
530.774337	46249.256856
531.135862	46054.287711
531.497331	46265.832170
531.858743	46161.019020
532.220098	46505.380239
532.581396	46221.038998
532.942638	45885.449386
533.303824	46175.373706
533.664953	46128.092724
534.026025	45855.217587
534.387040	46326.308372
534.747999	46282.977134
535.108902	46441.902030
535.469748	45964.098948
535.830537	46080.703357
536.191270	46282.641898
536.551947	45917.271670
536.912567	46235.008035
537.273131	46341.958634
537.633638	45837.913826
537.994089	46167.204516
538.354483	45786.743594
538.714821	46346.352000
539.075103	46682.685182
539.435328	46462.379197
539.795497	46339.105341
540.155609	46334.056626
540.515665	46789.340874
540.875665	46242.721000
541.235609	46562.856955
541.595496	46542.646969
541.955328	47222.943119
542.315102	46580.627022
542.674821	46372.001391
543.034483	46401.477017
543.394090	46367.633231
543.753640	46321.834348
544.113134	47331.761466
544.472571	46354.997579
544.831953	47591.718646
545.191278	46817.536047
545.550548	46514.151847
545.909761	46988.201790
546.268918	47185.318467
546.628019	47486.073706
546.987064	47057.711740
547.346053	46349.149840
547.704986	47194.674849
548.063863	46760.132428
548.422684	46949.135368
548.781449	46812.263000
549.140158	47201.858493
549.498811	47050.500369
549.857408	46499.981163
550.215949	47317.883169
550.574434	47263.607586
550.932864	47023.147068
551.291237	47732.457579
551.649555	47342.289916
552.007817	47582.316894
552.366022	47231.928976
552.724173	47409.317097
553.082267	47809.120926
553.440305	48113.377246
553.798288	47426.494829
554.156215	47737.841532
554.514086	47938.986091
554.871902	47685.900003
555.229661	47705.560503
555.587365	47520.492183
555.945014	47631.967218
556.302606	47554.431752
556.660143	47780.046072
557.017625	47871.830360
557.375050	47664.147424
557.732421	48005.589815
558.089735	47992.669338
558.446994	47922.899769
558.804197	48382.383298
559.161345	48320.850974
559.518437	47568.090758
559.875474	47887.281496
560.232455	48029.938588
560.589381	48212.214108
560.946251	47917.006660
561.303065	48592.551522
561.659825	48411.412782
562.016528	48078.318542
562.373177	47776.338303
562.729770	48270.391544
563.086307	47786.728121
563.442789	48251.709028
563.799216	48296.580339
564.155587	48093.968804
564.511904	48123.303278
564.868164	48199.419660
565.224370	48454.416345
565.580520	48168.000669
565.936615	48378.151249
566.292654	48120.535685
566.648638	48365.805463
567.004567	48315.928287
567.360441	48338.815126
567.716260	48202.696410
568.072023	48502.708078
568.427732	48475.790837
568.783385	48027.377682
569.138982	48433.404816
569.494525	48384.765243
569.850013	48152.436106
570.205445	48124.891242
570.560823	48077.554807
570.916145	47968.227303
571.271412	47983.789345
571.626625	47736.616531
571.981782	47812.790886
572.336884	47492.067638
572.691931	47829.275459
573.046923	47437.177034
573.401860	47266.017258
573.756743	47253.978982
574.111570	47374.414668
574.466342	47227.656598
574.821059	47356.689972
575.175722	46862.432563
575.530330	46887.522386
575.884882	46600.819364
576.239380	46579.528051
576.593823	46544.093780
576.948211	46469.323386
577.302544	45985.639798
577.656823	46011.006884
578.011047	46246.027997
578.365216	45965.238249
578.719330	45757.560354
579.073389	45617.123890
579.427394	45701.205295
579.781344	45668.097518
580.135239	45308.809442
580.489080	45411.906079
580.842866	44869.735024
581.196597	45345.093147
581.550273	45284.569053
581.903895	45155.389486
582.257463	45576.716522
582.610975	44953.660153
582.964434	45231.755405
583.317837	44892.591616
583.671186	44723.967540
584.024481	44943.766889
584.377721	44477.646681
584.730906	44773.464109
585.084037	44789.991532
585.437113	44485.752856
585.790135	44543.990786
586.143103	44140.151513
586.496016	44278.604283
586.848874	44306.212162
587.201679	44309.153675
587.554428	43802.558043
587.907124	43979.976411
588.259765	43729.481477
588.612352	43985.015045
588.964884	43355.211092
589.317362	43663.437320
589.669786	43594.398718
590.022155	43374.831263
590.374470	43794.981189
590.726731	43316.389166
591.078937	42832.183818
591.431090	42924.928446
591.783188	42592.756737
592.135232	42291.457054
592.487222	42518.979451
592.839157	42605.009262
593.191038	42275.539611
593.542866	42038.670915
593.894639	41440.059102
594.246358	41712.747716
594.598022	41701.637013
594.949633	41286.024125
595.301190	41249.533733
595.652692	41088.824269
596.004141	41416.143868
596.355535	40429.537128
596.706876	40397.377087
597.058162	40222.580118
597.409395	40677.985354
597.760573	40764.327717
598.111698	40349.450837
598.462768	40357.935099
598.813785	40401.130226
599.164748	39846.268066
599.515657	40233.554710
599.866511	39701.977640
600.217312	40323.947640
600.568060	39293.598808
600.918753	40022.292556
601.269392	39974.925874
601.619978	39645.302468
601.970510	39853.232420
602.320988	40025.523935
602.671412	40331.602632
603.021783	40078.304816
603.372100	39734.868648
603.722363	39845.610196
604.072572	39904.122868
604.422728	39917.118963
604.772830	39722.427081
605.122878	39831.290798
605.472872	39764.571127
605.822813	40034.615656
606.172701	39864.716169
606.522534	40113.320671
606.872314	40376.693233
607.222041	40121.736877
607.571714	40516.978462
607.921333	39964.715017
608.270899	40250.445096
608.620411	40593.382190
608.969870	40397.540924
609.319276	40374.190300
609.668627	40420.037073
610.017926	40900.892574
610.367171	41065.861813
610.716362	41156.035453
611.065500	41097.706782
611.414585	41281.787035
611.763616	41563.184243
612.112594	41511.540142
612.461518	41735.009451
612.810389	42010.306863
613.159207	41879.241904
613.507971	41945.954013
613.856682	42402.382603
614.205340	42304.513642
614.553945	43013.574616
614.902496	42459.488794
615.250994	42918.687498
615.599439	42988.318435
615.947830	43184.104248
616.296169	43235.965118
616.644454	43358.911299
616.992686	43517.321997
617.340864	44045.019899
617.688990	43760.887865
618.037063	44357.939442
618.385082	44315.014017
618.733048	44622.305111
619.080961	44640.125590
619.428821	44649.040870
619.776628	44775.422597
620.124382	44596.993477
620.472083	44720.254730
620.819731	44855.753384
621.167326	44523.765677
621.514868	44495.013456
621.862357	44060.324842
622.209793	44088.227628
622.557176	43771.633085
622.904506	43521.959858
623.251783	43179.529401
623.599007	42959.084784
623.946179	42738.430960
624.293297	42678.753781
624.640363	42091.141765
624.987376	42084.631115
625.334336	41835.976201
625.681243	41468.370222
626.028097	41438.808895
626.374899	41274.169852
626.721647	41246.032652
627.068343	41140.785962
627.414987	40897.633468
627.761577	40671.615856
628.108115	40995.557882
628.454600	40453.651487
628.801032	40648.597948
629.147412	40583.473802
629.493739	40610.678388
629.840014	40232.422971
630.186236	40572.169014
630.532405	40190.921672
630.878521	40410.801680
631.224585	40284.999685
631.570597	39988.617648
631.916556	40141.788066
632.262462	40087.217576
632.608316	40111.591555
632.954117	40018.476402
633.299866	40013.838541
633.645562	39928.222104
633.991206	39422.523797
634.336797	38992.036985
634.682336	38998.401442
635.027823	38755.707693
635.373257	38582.140766
635.718639	38324.235335
636.063968	38178.374590
636.409245	37608.525080
636.754470	37660.040631
637.099642	37407.816580
637.444762	36929.252284
637.789829	37071.947185
638.134845	36712.843111
638.479808	36662.781933
638.824719	36580.376712
639.169577	36187.532195
639.514383	36250.813799
639.859137	35943.868024
640.203839	36184.560435
640.548489	35811.232746
640.893086	35877.503754
641.237632	35630.812370
641.582125	35724.552626
641.926566	35687.240526
642.270955	35628.334643
642.615292	35654.893962
642.959576	35621.266945
643.303809	35601.896312
643.647990	35748.455257
643.992118	35713.013425
644.336195	35716.038117
644.680219	35801.117671
645.024192	36093.151713
645.368112	36592.851047
645.711981	36604.478468
646.055797	37470.367217
646.399562	37381.045533
646.743274	38326.735748
647.086935	38778.622258
647.430544	38679.772793
647.774101	38808.443203
648.117606	39049.047394
648.461059	39354.697593
648.804460	38965.419693
649.147810	38359.165490
649.491108	38123.297463
649.834354	37756.545959
650.177548	36930.283200
650.520690	36486.586044
650.863781	36486.220561
651.206820	36342.507347
651.549807	35907.067601
651.892742	35405.409779
652.235626	35229.949899
652.578458	35088.674083
652.921238	34469.948065
653.263967	34797.524763
653.606644	34470.752129
653.949269	34421.643729
654.291843	34014.270607
654.634365	34424.502063
654.976836	34021.870147
655.319255	34007.331459
655.661622	34017.925444
656.003938	33795.557627
656.346203	33639.841426
656.688416	33861.637072
657.030577	33650.632016
657.372687	33503.705067
657.714746	33766.865900
658.056753	33884.362593
658.398708	33341.490818
658.740612	33386.021851
659.082465	33662.100641
659.424266	33473.127948
659.766016	33595.842235
660.107715	33478.748834
660.449362	33611.752117
660.790958	33579.589555
661.132503	33621.080772
661.473996	33634.578462
661.815438	33744.203393
662.156829	33940.629432
662.498168	33710.755337
662.839456	33748.309413
663.180693	33881.894949
663.521879	34048.316040
663.863013	33994.446270
664.204097	33983.161647
664.545129	34455.810149
664.886110	34410.941360
665.227040	34474.780011
665.567918	34597.390955
665.908746	34646.993388
666.249522	34837.922049
666.590248	34817.744831
666.930922	34929.557623
667.271545	34889.636726
667.612118	34986.565512
667.952639	34772.102224
668.293109	34811.950025
668.633528	34722.041046
668.973896	34638.151205
669.314213	34679.614695
669.654480	34423.806384
669.994695	34440.285916
670.334859	34319.885518
670.674973	34223.339860
671.015035	34386.809356
671.355047	34344.607337
671.695008	34268.891727
672.034918	34161.089172
672.374777	34247.229888
672.714585	34093.857824
673.054342	34309.145340
673.394049	34058.221907
673.733705	34352.658059
674.073310	34014.152140
674.412864	34092.887402
674.752368	33688.112995
675.091820	33990.960312
675.431223	33570.636466
675.770574	33307.828513
676.109875	33163.225536
676.449125	32884.285891
676.788324	32808.151865
677.127473	32251.351381
677.466571	32193.065560
677.805619	31830.140292
678.144616	31826.407318
678.483562	31758.104724
678.822458	31430.520465
679.161303	31361.522192
679.500098	31251.945152
679.838842	31130.362603
680.177535	31281.292229
680.516179	31542.073638
680.854771	31776.509977
681.193314	32619.685807
681.531805	33733.460694
681.870247	34495.554606
682.208638	35240.120427
682.546978	35480.782591
682.885268	35576.987971
683.223508	35068.847225
683.561697	34737.429168
683.899836	34548.264911
684.237925	34039.935122
684.575963	33888.980290
684.913951	33408.918771
685.251889	33570.785180
685.589776	33551.974115
685.927614	33530.604663
686.265401	33661.152904
686.603137	33755.369549
686.940824	34252.843213
687.278460	34611.894355
687.616046	34755.554637
687.953582	35361.022419
688.291068	35237.259572
688.628504	35541.745264
688.965889	35478.488866
689.303224	35110.746775
689.640510	34763.870020
689.977745	34066.698608
690.314930	33258.402520
690.652065	32748.464603
690.989150	32019.589374
691.326185	31129.281276
691.663170	30419.494376
692.000105	29669.592494
692.336990	28974.283788
692.673825	28509.822120
693.010610	27988.828952
693.347345	27408.589624
693.684030	26732.618784
694.020665	26459.599974
694.357251	25775.835511
694.693786	25729.550157
695.030272	25478.107485
695.366707	24928.447796
695.703093	24629.348577
696.039429	24620.125786
696.375716	24353.726011
696.711952	24307.561644
697.048139	24145.468383
697.384276	23961.012564
697.720363	24084.604013
698.056400	23884.238312
698.392388	23675.932794
698.728326	23635.601042
699.064214	23428.497839
699.400053	23390.033836
699.735842	23017.767309
700.071581	22738.767170
700.407270	22454.073048
700.742910	22248.822469
701.078501	21986.337150
701.414042	21696.047347
701.749533	21393.442005
702.084974	21049.892412
702.420366	21263.516347
702.755709	20795.379677
703.091002	20508.830410
703.426246	20523.043944
703.761440	20420.469066
704.096584	20144.813732
704.431679	20090.578479
704.766725	20008.836169
705.101721	19929.579148
705.436668	20028.703356
705.771565	19695.326811
706.106413	20036.809532
706.441212	20012.886736
706.775961	20148.241717
707.110661	20206.683813
707.445311	20561.928884
707.779913	20395.258255
708.114465	20630.934718
708.448967	20919.782751
708.783421	21610.602310
709.117825	21873.740458
709.452180	22093.718768
709.786485	22483.707471
710.120742	23286.869143
710.454949	23295.640750
710.789107	23766.199694
711.123216	24470.688342
711.457275	24603.709268
711.791286	25141.388655
712.125247	25218.243566
712.459159	24924.566108
712.793023	25609.137156
713.126837	24521.941753
713.460602	24791.764471
713.794318	24423.097329
714.127985	24050.389701
714.461602	23155.504235
714.795171	23122.572898
715.128691	22089.579981
715.462162	21557.418137
715.795584	21132.282509
716.128957	20868.751151
716.462281	20447.262798
716.795556	20208.924606
717.128782	19708.806857
717.461960	19151.698863
717.795088	19087.048585
718.128167	18681.838119
718.461198	18209.393783
718.794180	18066.451866
719.127113	17696.721040
719.459997	17491.142786
719.792833	17141.382491
720.125619	17102.305987
720.458357	16789.736804
720.791046	16612.247860
721.123686	16443.681757
721.456278	16209.868001
721.788821	16163.524674
722.121315	15888.544855
722.453761	15971.169366
722.786158	15880.940274
723.118506	15889.674073
723.450805	15754.490492
723.783056	15910.181487
724.115259	15804.531505
724.447412	15740.902062
724.779518	15977.264121
725.111574	15990.537479
725.443582	16197.928028
725.775542	16162.904612
726.107453	16637.471273
726.439315	16523.253850
726.771129	16921.331084
727.102895	17279.827699
727.434612	17490.759658
727.766281	17626.182695
728.097901	17886.830513
728.429473	17931.401875
728.760996	17912.308505
729.092471	18004.193616
729.423897	17883.992343
729.755276	17742.154439
730.086606	17867.732102
730.417887	18385.017501
730.749120	18892.001302
731.080305	19065.500173
731.411442	19402.279497
731.742530	19484.248659
732.073570	19588.749257
732.404562	19887.404855
732.735506	19718.871520
733.066401	19443.201063
733.397249	18932.176778
733.728048	18296.862843
734.058798	17446.974717
734.389501	16767.152435
734.720156	16292.603418
735.050762	15765.666730
735.381320	15395.031017
735.711831	15150.325847
736.042293	14786.278922
736.372707	14787.690445
736.703073	14580.420884
737.033391	14756.415127
737.363661	14716.189240
737.693883	14805.939422
738.024056	14976.108612
738.354182	15148.758048
738.684260	15439.826710
739.014290	15654.458876
739.344272	15831.126113
739.674207	16127.256092
740.004093	16246.345790
740.333931	16243.777322
740.663722	16280.849968
740.993464	16287.474044
741.323159	16122.789630
741.652806	15858.421440
741.982405	15649.185829
742.311956	15314.372555
742.641460	15195.449215
742.970915	14890.688780
743.300323	14553.213777
743.629683	14344.394061
743.958996	14067.337287
744.288260	13793.998364
744.617477	13496.814783
744.946647	13415.460642
745.275768	13138.648364
745.604842	12954.805045
745.933869	12781.374229
746.262847	12722.453223
746.591778	12652.476966
746.920662	12543.860266
747.249498	12535.343236
747.578286	12658.551557
747.907027	12798.909883
748.235720	13011.870906
748.564365	13052.253069
748.892963	12942.063528
749.221514	12998.753824
749.550017	12855.469108
749.878473	12811.124598
750.206881	12596.124428
750.535242	12500.947443
750.863555	12412.477714
751.191821	12307.387300
751.520039	12332.857730
751.848210	12238.026065
752.176334	12269.397165
752.504411	12175.505675
752.832440	12011.708504
753.160421	12074.990108
753.488356	11945.228287
753.816243	11854.202693
754.144082	11714.794625
754.471875	11654.630974
754.799620	11604.156421
755.127318	11575.081566
755.454969	11538.074456
755.782572	11483.599748
756.110129	11505.944662
756.437638	11412.985785
756.765100	11408.637790
757.092515	11402.545555
757.419882	11422.107753
757.747203	11418.513410
758.074477	11495.915286
758.401703	11450.154212
758.728882	11601.053591
759.056014	11645.168728
759.383099	11764.898653
759.710138	11861.015813
760.037129	11948.719287
760.364073	11962.305196
760.690970	11947.501848
761.017820	11950.816407
761.344623	12137.984367
761.671379	12457.648973
761.998088	13099.544133
762.324751	14632.047341
762.651366	17484.788412
762.977935	21146.977473
763.304456	23390.502663
763.630931	23932.925776
763.957359	22788.566208
764.283740	20897.160573
764.610074	19019.731537
764.936362	16880.515382
765.262602	15351.732546
765.588796	13862.953787
765.914943	12825.370899
766.241044	11950.448402
766.567097	11309.657255
766.893104	10757.797102
767.219064	10387.229444
767.544978	9996.391307
767.870845	9683.910345
768.196665	9486.660077
768.522438	9287.700858
768.848165	9117.075445
769.173846	8948.557233
769.499479	8829.800252
769.825066	8666.469388
770.150607	8481.829566
770.476101	8421.872603
770.801548	8307.143503
771.126949	8172.499325
771.452303	8083.427178
771.777611	7910.492916
772.102872	7887.616160
772.428087	7780.927700
772.753256	7652.814337
773.078378	7556.639204
773.403453	7418.493944
773.728482	7313.143911
774.053465	7244.410299
774.378401	7156.585837
774.703291	7060.251908
775.028135	6964.248174
775.352932	6929.582680
775.677683	6843.441963
776.002388	6751.377891
776.327046	6751.824033
776.651658	6664.463358
776.976224	6588.659528
777.300743	6566.508697
777.625216	6502.722978
777.949643	6462.771834
778.274024	6462.764272
778.598359	6392.407408
778.922647	6393.672738
779.246889	6354.361820
779.571086	6354.092118
779.895236	6363.650146
780.219339	6359.113108
780.543397	6357.303333
780.867409	6403.422329
781.191374	6403.152628
781.515294	6373.112392
781.839167	6426.883859
782.162995	6393.715588
782.486776	6351.616912
782.810511	6314.665254
783.134201	6236.222380
783.457844	6225.963632
783.781441	6175.869686
784.104993	6130.118694
784.428498	6102.157934
784.751958	6082.893165
785.075372	6064.397172
785.398739	6024.120873
785.722061	6047.171549
786.045337	6041.953955
786.368568	6151.823382
786.691752	6174.634603
787.014891	6424.640546
787.337983	6692.618202
787.661030	7125.958307
787.984031	7558.673309
788.306987	7821.476221
788.629897	7914.606497
788.952760	7835.223448
789.275579	7656.378433
789.598351	7367.202725
789.921078	7103.477282
790.243759	6821.626370
790.566395	6618.971986
790.888984	6423.768426
791.211529	6282.248114
791.534027	6113.286282
791.856480	5975.690508
792.178888	5916.328401
792.501249	5851.020253
792.823566	5743.416824
793.145836	5731.696141
793.468062	5710.971958
793.790241	5671.466956
794.112375	5710.545980
794.434464	5803.976205
794.756507	5838.752605
795.078505	5950.764523
795.400457	6169.744684
795.722364	6407.583802
796.044226	6597.542041
796.366042	6758.770743
796.687812	6712.624021
797.009538	6741.421613
797.331218	6652.969527
797.652852	6587.958807
797.974442	6467.613862
798.295986	6397.012502
798.617484	6264.402430
798.938938	6163.576832
799.260346	6092.473878
799.581709	5955.629236
799.903026	5905.079066
800.224299	5829.907900
800.545526	5708.128747
800.866708	5646.316639
801.187845	5592.335964
801.508936	5515.959962
801.829983	5489.035160
802.150984	5378.964086
802.471940	5346.796483
802.792851	5338.831460
803.113717	5308.655113
803.434538	5287.532679
803.755314	5245.542388
804.076045	5240.229012
804.396731	5198.334503
804.717372	5214.466195
805.037967	5216.694385
805.358518	5244.445937
805.679024	5300.939627
805.999485	5306.409279
806.319901	5320.678265
806.640272	5341.301626
806.960598	5389.671497
807.280879	5383.838882
807.601115	5416.699643
807.921306	5381.819900
808.241453	5377.734044
808.561554	5390.571343
808.881611	5355.971383
809.201623	5356.674624
809.521590	5306.169824
809.841513	5294.812105
810.161390	5306.999094
810.481223	5225.952464
810.801011	5212.369075
811.120755	5188.433676
811.440453	5128.638030
811.760107	5105.093321
812.079716	5084.071709
812.399281	5031.263102
812.718801	5023.003172
813.038276	4988.405733
813.357707	4952.490032
813.677093	4977.340400
813.996434	4916.176081
814.315731	4933.878092
814.634983	4933.421868
814.954191	4937.631231
815.273354	4997.885623
815.592473	5037.504051
815.911547	5114.963900
816.230577	5168.551366
816.549562	5258.490591
816.868502	5311.878931
817.187399	5372.932345
817.506250	5452.327998
817.825058	5483.147092
818.143821	5637.877747
818.462539	5804.238345
818.781213	6033.671339
819.099843	6397.466206
819.418429	7029.682351
819.736970	7658.057137
820.055466	8372.423925
820.373919	9302.229464
820.692327	10782.589497
821.010691	13518.610212
821.329011	19799.363624
821.647286	29442.102865
821.965517	39877.714784
822.283704	45439.876921
822.601847	47040.944862
822.919945	42500.591842
823.237999	37399.949860
823.556010	32185.405527
823.873976	27409.305468
824.191897	23130.827787
824.509775	20000.979531
824.827609	17160.047363
825.145398	15545.519541
825.463144	14764.034831
825.780845	15040.101018
826.098502	16288.721729
826.416116	18740.333147
826.733685	20990.638689
827.051210	21502.835043
827.368692	20076.722867
827.686129	17513.477618
828.003522	15029.373443
828.320872	12800.472640
828.638177	11125.050201
828.955439	9852.945275
829.272656	8779.139176
829.589830	7927.090915
829.906960	7179.117275
830.224046	6637.286498
830.541088	6213.564914
830.858086	5950.429286
831.175041	5737.185958
831.491952	5678.111196
831.808819	5706.296288
832.125642	5952.932219
832.442421	6502.954871
832.759157	7617.586754
833.075849	9394.280933
833.392497	11243.040927
833.709101	12378.976726
834.025662	12132.829787
834.342179	11098.175810
834.658653	9787.032188
834.975083	8673.032970
835.291469	7761.078157
835.607811	7002.540779
835.924110	6473.890098
836.240366	5979.433565
836.556578	5521.124624
836.872746	5158.496784
837.188871	4879.199217
837.504952	4653.899969
837.820990	4483.508969
838.136984	4363.433726
838.452935	4315.764575
838.768842	4345.278010
839.084706	4628.227893
839.400526	5367.760122
839.716303	6280.418176
840.032037	6861.191866
840.347727	6716.752726
840.663373	6119.093691
840.978977	5535.602818
841.294537	5087.429118
841.610054	4748.308178
841.925527	4505.387577
842.240957	4290.369763
842.556344	4100.827419
842.871687	3943.891259
843.186987	3787.958288
843.502244	3668.939166
843.817458	3575.357707
844.132629	3499.148064
844.447756	3455.574850
844.762840	3407.494846
845.077881	3369.134185
845.392879	3332.192610
845.707833	3307.125473
846.022745	3278.774023
846.337613	3270.299844
846.652438	3239.321953
846.967221	3231.636714
847.281960	3213.780947
847.596656	3205.384906
847.911309	3189.510312
848.225919	3176.443641
848.540485	3166.308402
848.855009	3160.727844
849.169490	3150.219559
849.483928	3140.931233
849.798323	3133.654327
850.112675	3122.107565
850.426984	3126.732823
850.741251	3119.496247
851.055474	3110.681789
851.369654	3111.760596
851.683792	3111.150617
851.997887	3116.035495
852.311938	3113.819908
852.625947	3114.712192
852.939914	3106.240533
853.253837	3113.645988
853.567718	3109.071141
853.881555	3106.926130
854.195350	3109.396295
854.509103	3105.471757
854.822812	3105.328084
855.136479	3099.203082
855.450103	3101.592589
855.763685	3098.250304
856.077224	3100.097887
856.390720	3107.089967
856.704173	3116.544651
857.017584	3122.599077
857.330953	3125.361629
857.644278	3136.260604
857.957561	3139.698671
858.270802	3137.089874
858.584000	3139.839823
858.897155	3132.089049
859.210268	3119.493726
859.523339	3105.438989
859.836367	3104.599637
860.149352	3103.160388
860.462295	3097.274841
860.775195	3088.185640
861.088054	3082.791606
861.400869	3086.123808
861.713642	3080.956626
862.026373	3092.581527
862.339062	3094.524891
862.651708	3101.872373
862.964312	3117.925928
863.276873	3125.583440
863.589392	3157.330107
863.901869	3185.200126
864.214303	3204.729556
864.526696	3225.027762
864.839045	3239.929412
865.151353	3255.020106
865.463619	3256.494644
865.775842	3257.278543
866.088023	3262.808689
866.400162	3259.499172
866.712258	3257.628903
867.024313	3260.139398
867.336325	3257.167638
867.648296	3258.546393
867.960224	3253.280908
868.272110	3258.974892
868.583954	3260.739295
868.895755	3266.466046
869.207515	3266.186262
869.519233	3281.710495
869.830909	3288.906743
870.142542	3300.972744
870.454134	3304.153712
870.765684	3320.461845
871.077191	3338.665452
871.388657	3353.370497
871.700081	3371.420349
872.011463	3388.411558
872.322803	3408.243457
872.634101	3424.231476
872.945357	3448.668470
873.256571	3479.111998
873.567744	3494.484996
873.878874	3497.313084
874.189963	3515.370497
874.501010	3516.285466
874.812015	3516.363604
875.122979	3532.107128
875.433900	3529.110162
875.744780	3534.415976
876.055618	3540.223385
876.366415	3538.738765
876.677169	3548.314437
876.987882	3563.876479
877.298554	3583.342895
877.609183	3627.470635
877.919771	3673.191380
878.230317	3743.878439
878.540822	3848.419367
878.851285	4007.525744
879.161707	4238.536619
879.472087	4619.138693
879.782425	5260.302886
880.092722	6472.251723
880.402977	8450.430740
880.713191	10865.750891
881.023363	13303.138693
881.333494	14678.678014
881.643583	15155.891281
881.953631	14758.184572
882.263637	13922.880503
882.573602	12890.764747
882.883526	11916.556725
883.193408	10931.898391
883.503248	9993.724537
883.813048	9138.442375
884.122806	8359.649641
884.432522	7563.787560
884.742197	6879.791203
885.051831	6298.064735
885.361424	5777.631135
885.670975	5371.914032
885.980485	5033.466087
886.289954	4752.671297
886.599382	4531.034447
886.908768	4339.672247
887.218113	4172.628573
887.527417	4035.622615
887.836680	3909.492946
888.145901	3804.329435
888.455082	3724.704410
888.764221	3653.543482
889.073319	3593.145418
889.382376	3559.286508
889.691392	3533.657282
890.000366	3524.779810
890.309300	3515.952750
890.618193	3521.014068
890.927044	3513.180115
891.235855	3523.862320
891.544625	3536.578631
891.853353	3569.278075
892.162041	3631.425420
892.470687	3723.499574
892.779293	3841.858305
893.087858	4021.174668
893.396381	4309.445489
893.704864	4730.971650
894.013306	5303.407272
894.321707	5882.010746
894.630068	6247.932980
894.938387	6290.475277
895.246665	6112.943483
895.554903	5797.160565
895.863100	5454.357062
896.171256	5181.537378
896.479371	4932.343061
896.787446	4703.736816
897.095480	4500.172503
897.403473	4347.612065
897.711425	4198.096483
898.019336	4071.855908
898.327207	3947.261270
898.635038	3844.041125
898.942827	3732.959300
899.250576	3645.117194
899.558284	3561.529822
899.865952	3503.906913
900.173579	3438.538271
900.481165	3388.991290
900.788711	3351.152390
901.096216	3313.205104
901.403681	3287.228038
901.711105	3275.696399
902.018489	3268.676592
902.325832	3303.248825
902.633135	3362.583206
902.940397	3540.198179
903.247619	3949.292855
903.554800	4716.405236
903.861941	5705.252769
904.169041	6431.834272
904.476101	6659.018912
904.783121	6390.579990
905.090100	5982.203679
905.397039	5558.245161
905.703938	5191.420560
906.010796	4854.764744
906.317614	4594.421916
906.624391	4350.709854
906.931129	4141.774191
907.237826	3954.270995
907.544483	3778.271711
907.851099	3600.129937
908.157675	3439.425514
908.464211	3290.149387
908.770707	3184.391020
909.077163	3102.235336
909.383578	3037.766540
909.689954	2991.506392
909.996289	2960.543625
910.302584	2939.123762
910.608839	2922.180444
910.915054	2910.540420
911.221229	2905.307702
911.527363	2913.008065
911.833458	2919.806061
912.139513	2929.921136
912.445527	2942.168619
912.751502	2981.686224
913.057436	3027.560724
913.363331	3084.593818
913.669186	3177.570339
913.975000	3300.503917
914.280775	3493.887620
914.586510	3767.907099
914.892205	4162.367305
915.197859	4662.797606
915.503475	5264.270274
915.809050	5763.699906
916.114585	6061.213683
916.420081	6129.044928
916.725536	6065.828859
917.030952	5819.359286
917.336328	5617.277072
917.641665	5403.048198
917.946961	5165.367877
918.252218	4960.805416
918.557435	4737.540273
918.862612	4529.771638
919.167750	4350.094833
919.472848	4153.890605
919.777906	3984.228051
920.082925	3818.631189
920.387904	3658.572033
920.692843	3544.329405
920.997743	3441.447017
921.302603	3344.737521
921.607423	3276.192953
921.912204	3207.976059
922.216946	3154.408758
922.521647	3106.863115
922.826310	3060.474418
923.130932	3024.500744
923.435516	2982.681852
923.740059	2954.695887
924.044564	2923.506268
924.349028	2893.460991
924.653454	2865.177597
924.957840	2840.324709
925.262186	2818.645227
925.566493	2796.234777
925.870761	2766.993564
926.174989	2757.909405
926.479178	2741.011457
926.783328	2724.844477
927.087438	2713.995914
927.391509	2698.063347
927.695541	2688.109589
927.999533	2677.465192
928.303486	2667.050169
928.607400	2662.293840
928.911275	2658.518016
929.215110	2648.675163
929.518906	2646.391520
929.822663	2645.665594
930.126381	2642.978659
930.430060	2646.943527
930.733699	2650.255565
931.037299	2655.289157
931.340861	2651.165493
931.644383	2655.480721
931.947866	2653.880154
932.251309	2649.766573
932.554714	2650.303456
932.858080	2650.058960
933.161407	2646.366314
933.464694	2641.836838
933.767943	2637.279635
934.071153	2632.745117
934.374323	2629.682616
934.677455	2626.811679
934.980548	2625.236318
935.283602	2619.297839
935.586617	2619.910339
935.889593	2626.743623
936.192530	2625.385032
936.495428	2630.239663
936.798287	2637.607310
937.101108	2653.691111
937.403890	2673.931344
937.706632	2701.544264
938.009336	2733.255642
938.312002	2763.018614
938.614628	2787.684980
938.917216	2808.404122
939.219765	2816.840493
939.522275	2830.038234
939.824747	2830.771722
940.127179	2824.066987
940.429573	2817.268992
940.731929	2818.332675
941.034246	2808.573001
941.336524	2804.940850
941.638763	2800.353400
941.940964	2795.743265
942.243126	2778.749535
942.545250	2770.809718
942.847335	2753.546286
943.149381	2739.413412
943.451389	2722.873386
943.753359	2710.603217
944.055290	2704.710108
944.357182	2693.690146
944.659036	2689.889116
944.960851	2684.384176
945.262628	2678.932168
945.564367	2682.256809
945.866067	2678.841427
946.167729	2677.510563
946.469352	2674.503515
946.770937	2674.531241
947.072484	2667.551763
947.373992	2663.536484
947.675462	2662.195537
947.976893	2658.696977
948.278286	2653.963333
948.579641	2650.109371
948.880958	2649.275060
949.182236	2649.602735
949.483476	2642.555202
949.784678	2644.372538
950.085841	2645.300110
950.386967	2651.543579
950.688054	2656.531801
950.989103	2663.206289
951.290114	2670.309275
951.591087	2682.826460
951.892021	2694.842050
952.192917	2705.496528
952.493776	2716.609752
952.794596	2719.556307
953.095378	2720.761142
953.396122	2720.080587
953.696828	2718.454814
953.997496	2714.270657
954.298126	2703.263297
954.598718	2694.267358
954.899272	2686.607325
955.199788	2672.650891
955.500266	2659.531288
955.800706	2647.155255
956.101108	2628.480301
956.401472	2617.803137
956.701798	2600.980806
957.002087	2587.689804
957.302337	2579.008937
957.602550	2566.577452
957.902724	2556.452294
958.202861	2542.904193
958.502960	2537.270704
958.803022	2529.368695
959.103045	2520.856707
959.403031	2512.080058
959.702979	2508.478154
960.002889	2504.326764
960.302762	2498.534478
960.602596	2495.000629
960.902393	2494.549446
961.202153	2491.408807
961.501875	2484.595687
961.801559	2483.950420
962.101205	2480.174596
962.400814	2477.893473
962.700385	2476.683597
962.999918	2475.637557
963.299414	2472.154120
963.598873	2471.806280
963.898293	2470.152782
964.197677	2468.917699
964.497022	2468.242184
964.796331	2465.900568
965.095601	2462.873356
965.394835	2463.800928
965.694030	2462.596092
965.993189	2464.514251
966.292309	2461.242542
966.591393	2463.097687
966.890439	2460.224229
967.189447	2462.112141
967.488419	2459.394959
967.787353	2460.201544
968.086249	2462.996864
968.385108	2461.275310
968.683930	2462.913685
968.982714	2466.008953
969.281462	2466.654221
969.580172	2469.988944
969.878844	2471.498770
970.177480	2474.790643
970.476078	2473.941209
970.774639	2481.669298
971.073162	2478.392548
971.371649	2478.626961
971.670098	2479.068062
971.968510	2484.613332
972.266885	2482.523773
972.565223	2489.752788
972.863524	2488.028713
973.161788	2493.891575
973.460014	2492.885865
973.758204	2492.172542
974.056356	2491.345792
974.354471	2497.833757
974.652550	2497.904334
974.950591	2493.601709
975.248595	2491.963334
975.546563	2494.073057
975.844493	2491.237408
976.142386	2489.420072
976.440243	2489.558703
976.738062	2484.779690
977.035845	2481.145018
977.333590	2479.836838
977.631299	2478.848772
977.928971	2476.071096
978.226606	2473.885756
978.524204	2473.805098
978.821765	2475.060345
979.119290	2472.532206
979.416777	2471.493729
979.714228	2474.238637
980.011642	2471.034984
980.309020	2477.434728
980.606360	2480.318268
980.903664	2490.161121
981.200931	2506.517145
981.498162	2527.208561
981.795356	2556.734599
982.092513	2594.081987
982.389633	2639.522948
982.686717	2684.432067
982.983764	2714.613455
983.280775	2734.679768
983.577749	2737.233112
983.874686	2729.817575
984.171587	2711.518187
984.468451	2695.951104
984.765279	2674.697599
985.062070	2655.899136
985.358824	2640.135448
985.655543	2615.912704
985.952224	2587.979671
986.248869	2563.230126
986.545478	2536.159130
986.842050	2514.252796
987.138586	2493.445433
987.435086	2481.296252
987.731549	2465.794704
988.027975	2460.887141
988.324366	2458.928653
988.620719	2451.891202
988.917037	2449.443722
989.213318	2444.203442
989.509563	2443.031374
989.805772	2437.488625
990.101944	2438.028029
990.398080	2438.421239
990.694180	2438.822011
990.990244	2435.794798
991.286271	2438.758996
991.582262	2439.091712
991.878217	2440.200766
992.174136	2437.781012
992.470019	2442.459203
992.765865	2446.040943
993.061676	2444.306786
993.357450	2447.354163
993.653188	2449.778958
993.948890	2458.495113
994.244556	2463.760599
994.540186	2473.484984
994.835780	2485.737509
995.131337	2502.519510
995.426859	2515.802950
995.722345	2537.832793
996.017795	2554.617314
996.313208	2572.901579
996.608586	2580.657395
996.903928	2584.576892
997.199234	2585.650657
997.494504	2581.736202
997.789738	2572.667166
998.084936	2563.056206
998.380099	2550.561706
998.675225	2537.363965
998.970316	2524.882068
999.265371	2510.729029
999.560390	2498.393326
999.855373	2486.271871
1000.150320	2475.340129
1000.445232	2464.370578
1000.740108	2455.876234
1001.034948	2452.246603
1001.329752	2445.569595
1001.624521	2442.411312
1001.919254	2435.610796
1002.213951	2433.485949
1002.508613	2433.417894
1002.803239	2431.658531
1003.097829	2426.272058
1003.392384	2428.782553
1003.686903	2422.687798
1003.981386	2425.803231
1004.275834	2425.851122
1004.570246	2423.766605
1004.864623	2421.740061
1005.158964	2422.304670
1005.453270	2418.838877
1005.747540	2420.865421
1006.041775	2420.154618
1006.335974	2416.477096
1006.630138	2417.480286
1006.924266	2416.492220
1007.218359	2415.788979
1007.512416	2417.308887
1007.806438	2418.561613
1008.100425	2418.216294
1008.394376	2413.966602
1008.688292	2417.611356
1008.982172	2415.710841
1009.276017	2417.056829
1009.569827	2416.829977
1009.863602	2416.005748
1010.157341	2413.994328
1010.451045	2415.131108
1010.744714	2410.994841
1011.038347	2415.665470
1011.331945	2413.543145
1011.625508	2416.469534
1011.919036	2413.974163
1012.212528	2412.728998
1012.505986	2415.441139
1012.799408	2412.350912
1013.092795	2412.401323
1013.386147	2412.391241
1013.679464	2412.371076
1013.972745	2413.633885
1014.265992	2409.926117
1014.559204	2414.901736
1014.852380	2410.896539
1015.145521	2413.142373
1015.438628	2413.659091
1015.731699	2410.871333
1016.024736	2411.133473
1016.317737	2412.184554
1016.610703	2414.110274
1016.903635	2410.427712
1017.196531	2409.101888
1017.489393	2411.035171
1017.782219	2410.805798
1018.075011	2413.386869
1018.367768	2416.121695
1018.660490	2414.175809
1018.953177	2414.175809
1019.245829	2414.175809
