Dividing Wavelength (nm)	Counts (n)	Blue Motor Position (mm): 46.800000	Red Motor Position (mm): 0.000000	
326.493990	1974.854375
326.888308	1974.854375
327.282561	1974.854375
327.676750	1948.542073
328.070874	1952.695983
328.464933	1958.180759
328.858929	1969.369600
329.252859	1980.878554
329.646726	1993.131078
330.040528	2011.122957
330.434265	2029.530730
330.827938	2047.036137
331.221547	2068.135886
331.615091	2088.920563
332.008571	2107.093923
332.401986	2131.430093
332.795338	2149.235448
333.188625	2169.672286
333.581847	2188.470749
333.975006	2208.688296
334.368100	2223.930225
334.761129	2241.859089
335.154095	2259.056985
335.546996	2300.485187
335.939833	2384.470810
336.332606	2400.610064
336.725315	2409.303534
337.117960	2419.020358
337.510540	2426.864394
337.903056	2436.992072
338.295508	2443.064142
338.687896	2449.504216
339.080220	2457.270113
339.472480	2463.868983
339.864676	2465.464509
340.256807	2470.140179
340.648875	2472.229737
341.040879	2476.055973
341.432818	2474.432721
341.824694	2477.976652
342.216506	2474.137814
342.608253	2473.762248
342.999937	2472.781743
343.391557	2469.391567
343.783113	2470.107411
344.174605	2467.639767
344.566033	2468.847123
344.957397	2465.237657
345.348697	2465.840075
345.739934	2465.212451
346.131106	2462.467543
346.522215	2459.147943
346.913260	2459.606688
347.304241	2461.222378
347.695159	2456.874382
348.086012	2455.440174
348.476802	2451.447580
348.867528	2452.440688
349.258191	2450.124277
349.648789	2449.970522
350.039324	2446.303083
350.429796	2452.964968
350.820203	2446.262754
351.210548	2447.328958
351.600828	2447.770059
351.991045	2445.713268
352.381198	2445.362908
352.771288	2447.470110
353.161314	2442.907866
353.551276	2444.682352
353.941175	2443.986673
354.331010	2445.821653
354.720782	2446.842486
355.110490	2450.467076
355.500135	2447.722168
355.889717	2445.725871
356.279235	2442.050870
356.668689	2449.554627
357.058080	2446.224945
357.447408	2446.010696
357.836672	2445.365428
358.225873	2448.564040
358.615010	2445.118412
359.004084	2452.206274
359.393095	2450.497323
359.782043	2454.575616
360.170927	2451.349278
360.559748	2454.220215
360.948505	2455.057047
361.337199	2457.706173
361.725830	2457.146605
362.114398	2459.548715
362.502903	2459.251287
362.891344	2461.978551
363.279722	2461.265228
363.668037	2462.515434
364.056289	2462.165073
364.444478	2464.133644
364.832603	2464.778912
365.220665	2462.732203
365.608665	2465.814869
365.996601	2466.850826
366.384474	2467.523820
366.772284	2470.740076
367.160031	2468.143882
367.547715	2469.424335
367.935336	2469.149592
368.322893	2470.971969
368.710388	2474.258802
369.097820	2471.972638
369.485189	2473.968935
369.872495	2473.734522
370.259738	2474.044552
370.646918	2476.940695
371.034035	2477.538072
371.421090	2479.972949
371.808081	2478.662249
372.195010	2481.172744
372.581875	2480.570326
372.968678	2484.194916
373.355418	2482.778352
373.742096	2488.316059
374.128710	2488.391676
374.515262	2488.600884
374.901751	2490.241780
375.288177	2495.058602
375.674540	2493.009373
376.060841	2498.405928
376.447079	2500.399705
376.833254	2505.821466
377.219367	2506.290293
377.605417	2516.049967
377.991404	2520.191275
378.377329	2531.395239
378.763191	2539.108205
379.148991	2557.279044
379.534727	2572.810839
379.920402	2592.373036
380.306013	2608.839965
380.691563	2631.134468
381.077049	2655.072387
381.462474	2684.709331
381.847835	2714.900801
382.233134	2751.812129
382.618371	2785.174486
383.003545	2831.822803
383.388657	2876.825183
383.773706	2930.395004
384.158693	2977.307982
384.543618	3038.043804
384.928480	3092.095055
385.313280	3163.800427
385.698017	3232.206365
386.082692	3314.964467
386.467305	3373.890514
386.851856	3464.643886
387.236344	3571.697829
387.620770	3640.403715
388.005133	3735.931060
388.389435	3849.082278
388.773674	3931.243004
389.157851	4049.178277
389.541965	4163.178931
389.926018	4217.459555
390.310008	4369.528481
390.693936	4488.048528
391.077802	4605.562866
391.461606	4729.461824
391.845348	4851.104867
392.229027	4984.511442
392.612645	5176.954969
392.996200	5307.909022
393.379694	5484.523327
393.763125	5693.993352
394.146494	5817.988092
394.529801	5970.243541
394.913047	6206.260282
395.296230	6259.449496
395.679351	6354.124886
396.062410	6607.931859
396.445408	6582.322797
396.828343	6758.024653
397.211217	6918.051040
397.594028	6874.339195
397.976778	7092.941270
398.359466	7286.725745
398.742092	7314.194992
399.124656	7487.769481
399.507158	7702.157151
399.889598	7768.821369
400.271977	8001.639498
400.654294	8074.310251
401.036549	8294.820403
401.418742	8361.903037
401.800874	8684.451183
402.182944	8801.121127
402.564952	9183.379221
402.946898	9047.883088
403.328783	9137.277869
403.710606	9354.170992
404.092367	9633.032500
404.474067	10004.419345
404.855705	9829.158590
405.237282	9809.876177
405.618797	10245.719215
406.000250	10511.544298
406.381642	10884.070444
406.762972	10845.971924
407.144240	10670.650675
407.525447	10943.044382
407.906593	10899.796323
408.287677	11158.251240
408.668700	11323.757362
409.049661	11300.563013
409.430560	11471.891668
409.811399	11454.986158
410.192176	11622.541509
410.572891	11704.654344
410.953545	12190.815659
411.334138	11670.704693
411.714669	12267.468924
412.095139	11590.129411
412.475547	12090.025349
412.855894	11942.092690
413.236180	12266.301897
413.616405	11960.051800
413.996568	12230.570198
414.376670	12208.953730
414.756711	12084.240625
415.136691	12365.282432
415.516609	12551.941235
415.896466	12612.127571
416.276262	12912.053540
416.655997	13345.426412
417.035670	13387.585582
417.415283	14033.438048
417.794834	14124.506492
418.174324	13878.712434
418.553753	13777.055046
418.933121	14269.759779
419.312428	14076.733998
419.691674	13992.398015
420.070859	14447.664618
420.449983	14105.080406
420.829045	14649.721626
421.208047	14393.840219
421.586988	14849.749570
421.965867	15095.450367
422.344686	15102.946563
422.723444	15658.862324
423.102141	14349.669629
423.480777	15542.429314
423.859352	15045.013623
424.237866	16158.725495
424.616319	15856.084865
424.994712	16509.756161
425.373044	16293.228521
425.751314	16981.393912
426.129524	16101.702483
426.507673	17182.961928
426.885762	16890.663225
427.263789	17077.586689
427.641756	17247.476094
428.019662	17299.702448
428.397508	17358.111777
428.775292	17643.297412
429.153016	17616.128113
429.530679	17685.769133
429.908282	17713.692084
430.285824	17424.667611
430.663305	18132.639695
431.040726	17731.111791
431.418086	17561.960915
431.795385	18207.740285
432.172624	18640.026789
432.549802	18189.861832
432.926920	18379.426861
433.303977	18251.195031
433.680974	18510.280092
434.057910	18804.312951
434.434786	18825.637032
434.811601	18734.172857
435.188355	19777.222876
435.565050	19420.392363
435.941683	19360.432879
436.318257	20250.118395
436.694770	20062.713501
437.071222	20658.028400
437.447614	19728.522809
437.823946	19761.663355
438.200218	19905.898328
438.576429	19675.656229
438.952580	19957.648293
439.328670	19916.653630
439.704700	20333.481436
440.080670	19903.037473
440.456580	20496.686271
440.832429	20663.901344
441.208218	19664.941257
441.583947	20108.081365
441.959616	20215.624300
442.335224	20449.150711
442.710773	20584.540979
443.086261	21118.900767
443.461689	20472.486212
443.837057	20607.737849
444.212365	21241.176474
444.587612	21239.696895
444.962800	20831.068526
445.337927	21251.621744
445.712995	19983.811881
446.088002	21818.302889
446.462949	22019.689424
446.837837	22193.513450
447.212664	22126.193881
447.587431	24920.276086
447.962139	27851.094547
448.336786	30246.696225
448.711374	28731.569875
449.085901	25064.004423
449.460369	25001.680638
449.834776	24880.118254
450.209124	27359.251851
450.583412	26902.437613
450.957640	27447.096478
451.331808	26117.025844
451.705917	24746.101700
452.079965	24768.996100
452.453954	25127.981706
452.827883	25016.809141
453.201752	24816.418234
453.575562	24982.420910
453.949311	26080.704331
454.323001	26150.380638
454.696632	25907.263433
455.070202	27458.118961
455.443713	27595.636596
455.817164	28178.993878
456.190556	28711.251504
456.563888	28164.528287
456.937160	28605.311656
457.310373	26939.167460
457.683526	27366.929529
458.056619	27354.278753
458.429653	27290.014124
458.802628	27873.830151
459.175542	27982.035998
459.548398	29286.880697
459.921194	30831.810349
460.293930	31489.378457
460.666607	33504.093235
461.039224	35269.432216
461.411782	35673.034554
461.784280	34497.485368
462.156719	34009.937736
462.529099	33457.273519
462.901419	32150.767759
463.273680	31110.054315
463.645882	31193.326615
464.018024	31158.151964
464.390106	31985.145691
464.762130	34637.957120
465.134094	38659.159514
465.505999	43926.797279
465.877845	48542.139984
466.249631	49733.967055
466.621358	48045.369560
466.993026	45941.454085
467.364634	43849.723078
467.736184	41888.494942
468.107674	40629.524742
468.479105	39863.261796
468.850477	39174.776292
469.221790	37742.902077
469.593043	36027.173091
469.964238	35129.005834
470.335373	35038.935538
470.706449	36718.012814
471.077467	39234.045137
471.448425	43805.620544
471.819324	46681.664348
472.190164	44883.915790
472.560945	41334.615807
472.931667	38232.347703
473.302330	37113.037630
473.672934	36303.950082
474.043479	36800.196225
474.413965	36007.820102
474.784393	35627.885980
475.154761	36523.704060
475.525070	36544.576957
475.895321	36080.629487
476.265513	36676.254417
476.635645	37647.707448
477.005719	37482.657550
477.375734	37932.890562
477.745691	38617.771641
478.115588	39943.106111
478.485427	41890.226578
478.855207	45221.847017
479.224928	47846.758181
479.594591	49492.110138
479.964194	48512.155201
480.333739	48662.744548
480.703226	48668.909879
481.072653	49306.351180
481.442022	49803.918106
481.811333	50078.648388
482.180584	48780.871386
482.549777	48260.195811
482.918912	47746.522398
483.287988	47440.907488
483.657005	46623.408774
484.025964	45999.573547
484.394864	45989.135838
484.763706	45569.994143
485.132489	44698.189600
485.501213	44533.802614
485.869879	44682.912383
486.238487	44277.137307
486.607036	44477.566022
486.975527	43920.657154
487.343959	44138.860978
487.712333	44221.989605
488.080648	44123.230880
488.448905	44575.470271
488.817104	44380.302000
489.185244	45342.877559
489.553326	46997.404416
489.921350	49711.962419
490.289315	52598.995938
490.657222	53225.228234
491.025070	53525.033215
491.392861	52619.281542
491.760593	51391.937020
492.128267	49712.801771
492.495883	48189.755768
492.863440	46788.017571
493.230939	45447.640298
493.598380	44354.186302
493.965763	44029.306622
494.333088	43214.288157
494.700354	42743.754418
495.067563	42431.525514
495.434713	42312.271978
495.801805	42385.315777
496.168839	42012.315763
496.535815	41676.610205
496.902733	41719.102090
497.269593	41306.045068
497.636395	41238.859090
498.003139	41628.361321
498.369825	41106.241456
498.736453	41401.658112
499.103023	40924.734711
499.469535	40806.396145
499.835989	40915.567373
500.202385	40566.190206
500.568723	40579.927350
500.935003	40781.210541
501.301226	40576.234705
501.667390	41202.582947
502.033497	41441.279061
502.399546	40867.424354
502.765537	40202.758302
503.131470	40574.117420
503.497345	40928.737387
503.863163	39614.327098
504.228923	40222.113812
504.594625	40630.976594
504.960269	39924.138770
505.325856	40590.276839
505.691385	39970.892951
506.056856	40103.780287
506.422270	40538.002594
506.787625	40108.574424
507.152924	40324.459317
507.518164	40413.692781
507.883347	39637.738217
508.248472	39881.961956
508.613540	40345.443120
508.978550	40653.669348
509.343503	40406.932594
509.708398	40600.528025
510.073236	41130.517132
510.438016	41136.584161
510.802738	40576.602709
511.167403	41202.774511
511.532010	41430.538883
511.896561	41729.998544
512.261053	42594.110287
512.625488	42124.814152
512.989866	42004.146573
513.354186	41842.633045
513.718449	41832.926303
514.082655	42527.950184
514.446803	42181.454036
514.810894	42711.198647
515.174927	42646.102227
515.538904	42553.957497
515.902822	43210.701376
516.266684	42668.956298
516.630488	43101.883029
516.994235	42931.920527
517.357925	43506.085265
517.721558	43690.891444
518.085133	43988.609387
518.448651	44129.136592
518.812112	43915.593315
519.175516	43997.812014
519.538863	44343.990569
519.902152	44311.686855
520.265385	44768.765754
520.628560	44818.900029
520.991678	44618.839318
521.354739	44857.631214
521.717743	45182.127766
522.080690	45077.561632
522.443580	45611.775226
522.806413	45655.081258
523.169189	45602.179390
523.531908	45801.456201
523.894569	45655.925652
524.257174	45814.154868
524.619722	46105.568848
524.982213	46103.549866
525.344647	46017.809922
525.707025	46077.371154
526.069345	46460.471120
526.431608	46398.875782
526.793815	46720.599700
527.155964	46243.393994
527.518057	46423.320337
527.880093	46202.613580
528.242072	46719.054586
528.603995	46441.506299
528.965860	46429.878878
529.327669	46514.071188
529.689421	46417.893535
530.051117	46379.278296
530.412755	46524.211469
530.774337	46586.268073
531.135862	46387.114770
531.497331	46592.841738
531.858743	46496.228024
532.220098	46857.056173
532.581396	46545.391877
532.942638	46203.783128
533.303824	46494.690472
533.664953	46467.987481
534.026025	46185.687906
534.387040	46671.067843
534.747999	46613.485263
535.108902	46787.473126
535.469748	46307.046123
535.830537	46421.190449
536.191270	46618.450799
536.551947	46255.598628
536.912567	46556.527786
537.273131	46674.581527
537.633638	46174.599888
537.994089	46502.519384
538.354483	46108.427182
538.714821	46684.729370
539.075103	47016.147426
539.435328	46785.653270
539.795497	46675.851898
540.155609	46661.645926
540.515665	47116.683157
540.875665	46574.179386
541.235609	46898.088644
541.595496	46854.245729
541.955328	47540.256027
542.315102	46913.494411
542.674821	46716.710450
543.034483	46731.796103
543.394090	46692.281018
543.753640	46675.156218
544.113134	47673.937345
544.472571	46698.060701
544.831953	47932.614072
545.191278	47147.726583
545.550548	46850.732045
545.909761	47307.092579
546.268918	47519.390691
546.628019	47843.529322
546.987064	47383.584527
547.346053	46662.122315
547.704986	47550.996205
548.063863	47110.931201
548.422684	47288.561298
548.781449	47150.665576
549.140158	47555.621464
549.498811	47387.798932
549.857408	46827.348653
550.215949	47668.848300
550.574434	47599.751725
550.932864	47385.757265
551.291237	48093.366386
551.649555	47695.082465
552.007817	47928.069472
552.366022	47582.420238
552.724173	47772.123898
553.082267	48173.659364
553.440305	48462.129310
553.798288	47758.737114
554.156215	48097.739587
554.514086	48303.542172
554.871902	48051.277793
555.229661	48060.263649
555.587365	47874.466883
555.945014	47976.734251
556.302606	47914.085311
556.660143	48134.093868
557.017625	48236.336030
557.375050	48013.872431
557.732421	48365.674393
558.089735	48348.554635
558.446994	48273.254920
558.804197	48740.980735
559.161345	48676.849697
559.518437	47922.224254
559.875474	48222.346828
560.232455	48385.423113
560.589381	48556.749248
560.946251	48272.123181
561.303065	48957.586513
561.659825	48753.349206
562.016528	48433.399775
562.373177	48144.428233
562.729770	48620.257704
563.086307	48151.271600
563.442789	48610.770252
563.799216	48660.191204
564.155587	48434.534034
564.511904	48474.200353
564.868164	48571.343388
565.224370	48809.477413
565.580520	48548.943021
565.936615	48764.958984
566.292654	48488.630656
566.648638	48716.987364
567.004567	48649.594698
567.360441	48695.549857
567.716260	48563.143951
568.072023	48838.267443
568.427732	48839.676445
568.783385	48394.230009
569.138982	48789.398497
569.494525	48750.831150
569.850013	48510.811733
570.205445	48470.774889
570.560823	48437.946895
570.916145	48315.270417
571.271412	48337.829580
571.626625	48098.049618
571.981782	48157.683947
572.336884	47835.876850
572.691931	48160.842230
573.046923	47756.803832
573.401860	47599.938247
573.756743	47595.872557
574.111570	47710.132829
574.466342	47562.835355
574.821059	47684.377574
575.175722	47211.721510
575.530330	47224.538644
575.884882	46941.427444
576.239380	46913.108762
576.593823	46881.702374
576.948211	46800.217163
577.302544	46338.780187
577.656823	46333.078642
578.011047	46555.844710
578.365216	46279.627288
578.719330	46089.898422
579.073389	45952.970601
579.427394	46024.547424
579.781344	45990.527197
580.135239	45648.857954
580.489080	45724.596249
580.842866	45211.474843
581.196597	45660.142577
581.550273	45624.315096
581.903895	45453.810670
582.257463	45907.196924
582.610975	45262.773625
582.964434	45561.169603
583.317837	45187.350402
583.671186	45030.368871
584.024481	45257.029230
584.377721	44787.085307
584.730906	45078.121201
585.084037	45099.125168
585.437113	44817.647302
585.790135	44846.797774
586.143103	44446.845231
586.496016	44577.975725
586.848874	44612.308503
587.201679	44624.054391
587.554428	44102.489053
587.907124	44296.911233
588.259765	44043.873036
588.612352	44300.987006
588.964884	43672.859237
589.317362	43973.115401
589.669786	43910.645422
590.022155	43694.485787
590.374470	44113.458603
590.726731	43621.111792
591.078937	43146.257785
591.431090	43236.139038
591.783188	42899.677307
592.135232	42566.754466
592.487222	42816.740244
592.839157	42918.286726
593.191038	42591.209103
593.542866	42337.933972
593.894639	41752.182142
594.246358	42030.479040
594.598022	41995.932013
594.949633	41602.230500
595.301190	41562.937227
595.652692	41392.190825
596.004141	41730.555592
596.355535	40744.488256
596.706876	40695.659639
597.058162	40512.622905
597.409395	41000.001659
597.760573	41065.834087
598.111698	40653.969297
598.462768	40666.151245
598.813785	40711.771167
599.164748	40147.756793
599.515657	40534.143591
599.866511	40016.248212
600.217312	40626.492488
600.568060	39588.531514
600.918753	40329.623979
601.269392	40292.659719
601.619978	39942.665010
601.970510	40167.785297
602.320988	40343.991268
602.671412	40640.942956
603.021783	40388.408874
603.372100	40040.753261
603.722363	40152.102267
604.072572	40214.602492
604.422728	40230.429195
604.772830	40034.867714
605.122878	40142.236729
605.472872	40074.982696
605.822813	40362.973733
606.172701	40182.719715
606.522534	40418.305437
606.872314	40689.663187
607.222041	40433.567530
607.571714	40828.673004
607.921333	40278.690681
608.270899	40565.098796
608.620411	40901.696638
608.969870	40698.870854
609.319276	40689.373321
609.668627	40749.257187
610.017926	41232.376166
610.367171	41382.410987
610.716362	41474.744761
611.065500	41421.313571
611.414585	41602.454832
611.763616	41883.133675
612.112594	41809.069043
612.461518	42051.356979
612.810389	42333.129752
613.159207	42195.866695
613.507971	42264.799433
613.856682	42749.471087
614.205340	42613.160807
614.553945	43335.721991
614.902496	42764.551698
615.250994	43238.583998
615.599439	43309.250892
615.947830	43519.164538
616.296169	43566.662290
616.644454	43673.249926
616.992686	43846.383314
617.340864	44363.535122
617.688990	44099.131644
618.037063	44684.586046
618.385082	44643.576260
618.733048	44952.185616
619.080961	44965.350589
619.428821	44983.682745
619.776628	45093.620228
620.124382	44909.035859
620.472083	45023.182706
620.819731	45188.504826
621.167326	44849.104102
621.514868	44823.794989
621.862357	44397.459567
622.209793	44419.159214
622.557176	44097.112662
622.904506	43852.440260
623.251783	43510.224052
623.599007	43276.604380
623.946179	43061.490783
624.293297	43016.979916
624.640363	42425.581993
624.987376	42389.809966
625.334336	42162.627847
625.681243	41794.840386
626.028097	41746.707449
626.374899	41606.457508
626.721647	41584.036976
627.068343	41448.462705
627.414987	41214.709442
627.761577	40979.363175
628.108115	41316.548312
628.454600	40775.090580
628.801032	40939.777514
629.147412	40905.152349
629.493739	40910.206106
629.840014	40537.042254
630.186236	40882.073947
630.532405	40501.960865
630.878521	40711.476260
631.224585	40584.847516
631.570597	40291.560747
631.916556	40448.365838
632.262462	40386.715047
632.608316	40400.248024
632.954117	40312.289972
633.299866	40306.185134
633.645562	40228.445501
633.991206	39725.129139
634.336797	39293.538314
634.682336	39306.284872
635.027823	39038.231598
635.373257	38869.486535
635.718639	38613.501784
636.063968	38485.766507
636.409245	37900.667507
636.754470	37948.462686
637.099642	37699.974131
637.444762	37207.246713
637.789829	37374.247537
638.134845	36996.960021
638.479808	36949.106868
638.824719	36864.521348
639.169577	36461.191232
639.514383	36527.840327
639.859137	36215.795424
640.203839	36466.648281
640.548489	36101.482220
640.893086	36159.604203
641.237632	35906.419813
641.582125	36004.291294
641.926566	35959.856043
642.270955	35920.497235
642.615292	35926.387823
642.959576	35893.005302
643.303809	35895.125108
643.647990	36023.505652
643.992118	35993.162947
644.336195	35986.836299
644.680219	36070.758907
645.024192	36378.589405
645.368112	36884.804431
645.711981	36875.495940
646.055797	37755.850280
646.399562	37679.625513
646.743274	38638.851226
647.086935	39072.327442
647.430544	38978.685489
647.774101	39082.787837
648.117606	39342.039256
648.461059	39661.895426
648.804460	39257.194116
649.147810	38660.147581
649.491108	38399.409021
649.834354	38053.016217
650.177548	37228.646411
650.520690	36771.491895
650.863781	36775.671012
651.206820	36615.442978
651.549807	36187.852308
651.892742	35688.876380
652.235626	35502.852762
652.578458	35355.209969
652.921238	34743.967544
653.263967	35079.864666
653.606644	34749.659007
653.949269	34691.020306
654.291843	34282.260867
654.634365	34691.380748
654.976836	34293.321158
655.319255	34285.091474
655.661622	34277.743993
656.003938	34050.859302
656.346203	33916.688993
656.688416	34117.112667
657.030577	33930.947896
657.372687	33760.947586
657.714746	34038.258938
658.056753	34169.417158
658.398708	33610.116262
658.740612	33657.195598
659.082465	33919.343160
659.424266	33753.607666
659.766016	33872.281468
660.107715	33744.198352
660.449362	33874.930595
660.790958	33851.872357
661.132503	33874.444123
661.473996	33899.556631
661.815438	34025.088924
662.156829	34214.303592
662.498168	33984.341277
662.839456	34008.080071
663.180693	34160.607742
663.521879	34313.508459
663.863013	34246.246863
664.204097	34245.147892
664.545129	34733.446656
664.886110	34670.742264
665.227040	34749.641363
665.567918	34864.834249
665.908746	34923.485553
666.249522	35096.747491
666.590248	35089.210966
666.930922	35200.864962
667.271545	35171.127195
667.612118	35246.174852
667.952639	35037.685332
668.293109	35098.058191
668.633528	34996.957850
668.973896	34908.346968
669.314213	34951.925223
669.654480	34680.880025
669.994695	34709.395311
670.334859	34592.614462
670.674973	34484.766537
671.015035	34659.984442
671.355047	34610.316474
671.695008	34543.463212
672.034918	34434.644865
672.374777	34518.267525
672.714585	34344.216647
673.054342	34566.188733
673.394049	34332.611911
673.733705	34620.968432
674.073310	34273.544712
674.412864	34357.565623
674.752368	33952.516473
675.091820	34253.977473
675.431223	33826.850590
675.770574	33556.150711
676.109875	33433.242339
676.449125	33143.623009
676.788324	33075.695982
677.127473	32522.164686
677.466571	32438.859619
677.805619	32081.426688
678.144616	32078.175144
678.483562	32005.249812
678.822458	31668.808246
679.161303	31593.054827
679.500098	31498.510507
679.838842	31372.564840
680.177535	31528.792718
680.516179	31798.207103
680.854771	32020.138860
681.193314	32883.070973
681.531805	33995.635982
681.870247	34775.018532
682.208638	35500.934603
682.546978	35759.991938
682.885268	35862.695365
683.223508	35324.005227
683.561697	34993.915514
683.899836	34814.747865
684.237925	34294.236128
684.575963	34152.269673
684.913951	33663.358409
685.251889	33824.597194
685.589776	33803.815037
685.927614	33781.754948
686.265401	33903.765995
686.603137	34006.217364
686.940824	34511.973644
687.278460	34861.827201
687.616046	34995.132952
687.953582	35617.617150
688.291068	35481.150595
688.628504	35776.683198
688.965889	35716.983333
689.303224	35349.478177
689.640510	35021.513311
689.977745	34304.212571
690.314930	33504.988040
690.652065	32986.512929
690.989150	32255.144849
691.326185	31347.313700
691.663170	30654.845684
692.000105	29886.334383
692.336990	29199.003303
692.673825	28735.842253
693.010610	28209.389515
693.347345	27618.944371
693.684030	26936.994723
694.020665	26650.967215
694.357251	25966.723842
694.693786	25931.463492
695.030272	25666.926423
695.366707	25116.220694
695.703093	24812.854138
696.039429	24806.892974
696.375716	24533.884246
696.711952	24502.792930
697.048139	24329.208359
697.384276	24147.270596
697.720363	24272.860862
698.056400	24071.648247
698.392388	23864.812225
698.728326	23820.218178
699.064214	23607.428554
699.400053	23555.681110
699.735842	23192.975132
700.071581	22907.489548
700.407270	22622.001444
700.742910	22424.902411
701.078501	22146.991161
701.414042	21871.605530
701.749533	21555.784803
702.084974	21210.475847
702.420366	21409.188049
702.755709	20977.067903
703.091002	20655.686784
703.426246	20683.660146
703.761440	20590.111454
704.096584	20307.557302
704.431679	20257.372615
704.766725	20162.898872
705.101721	20089.643345
705.436668	20181.510812
705.771565	19847.584781
706.106413	20206.328412
706.441212	20178.629792
706.775961	20307.433794
707.110661	20368.063751
707.445311	20712.906400
707.779913	20553.547966
708.114465	20797.005449
708.448967	21074.589024
708.783421	21763.568562
709.117825	22038.908823
709.452180	22252.832707
709.786485	22637.248414
710.120742	23450.890645
710.454949	23458.076810
710.789107	23924.499487
711.123216	24630.712209
711.457275	24756.438586
711.791286	25319.353989
712.125247	25391.071964
712.459159	25090.689771
712.793023	25784.370184
713.126837	24671.779968
713.460602	24965.152437
713.794318	24598.045532
714.127985	24210.927766
714.461602	23322.414318
714.795171	23286.712867
715.128691	22249.908838
715.462162	21720.990976
715.795584	21291.494751
716.128957	21018.629696
716.462281	20608.494022
716.795556	20368.479646
717.128782	19859.154229
717.461960	19308.642585
717.795088	19238.812522
718.128167	18821.357093
718.461198	18351.619857
718.794180	18214.185400
719.127113	17835.972832
719.459997	17627.803426
719.792833	17266.105678
720.125619	17237.252634
720.458357	16904.743168
720.791046	16734.163124
721.123686	16570.343268
721.456278	16321.703478
721.788821	16276.602796
722.121315	16014.336767
722.453761	16087.723364
722.786158	16009.832496
723.118506	16011.894328
723.450805	15872.660179
723.783056	16026.589291
724.115259	15922.786892
724.447412	15846.836868
724.779518	16089.518015
725.111574	16115.545492
725.443582	16307.749565
725.775542	16289.500588
726.107453	16764.687311
726.439315	16641.257180
726.771129	17038.215278
727.102895	17410.743944
727.434612	17619.868649
727.766281	17750.439575
728.097901	18015.692488
728.429473	18056.883756
728.760996	18040.968833
729.092471	18139.493144
729.423897	18020.106018
729.755276	17874.817443
730.086606	17997.400661
730.417887	18522.497328
730.749120	19030.857364
731.080305	19207.572492
731.411442	19544.230828
731.742530	19621.504154
732.073570	19734.630167
732.404562	20044.056190
732.735506	19857.674650
733.066401	19581.767259
733.397249	19069.376821
733.728048	18433.306713
734.058798	17583.209379
734.389501	16888.538379
734.720156	16423.083603
735.050762	15886.001593
735.381320	15516.485016
735.711831	15266.839516
736.042293	14902.474998
736.372707	14902.623712
736.703073	14680.744887
737.033391	14867.320512
737.363661	14813.165916
737.693883	14914.722481
738.024056	15081.083079
738.354182	15268.074598
738.684260	15543.568615
739.014290	15758.430153
739.344272	15951.506346
739.674207	16237.758185
740.004093	16358.173706
740.333931	16346.798342
740.663722	16399.939666
740.993464	16408.214720
741.323159	16239.484780
741.652806	15960.187213
741.982405	15751.622075
742.311956	15420.206539
742.641460	15305.545495
742.970915	14995.844729
743.300323	14662.576569
743.629683	14444.508856
743.958996	14171.101877
744.288260	13885.215522
744.617477	13591.921191
744.946647	13520.815716
745.275768	13244.525198
745.604842	13055.398749
745.933869	12874.015513
746.262847	12817.549549
746.591778	12751.162594
746.920662	12641.537663
747.249498	12627.104839
747.578286	12755.550918
747.907027	12891.246177
748.235720	13113.631638
748.564365	13133.478661
748.892963	13029.807332
749.221514	13095.760748
749.550017	12952.816310
749.878473	12917.218202
750.206881	12684.523581
750.535242	12593.553440
750.863555	12502.850479
751.191821	12398.622103
751.520039	12420.041965
751.848210	12324.171822
752.176334	12356.813293
752.504411	12256.552305
752.832440	12098.922986
753.160421	12160.951863
753.488356	12037.317565
753.816243	11943.035386
754.144082	11801.820063
754.471875	11736.597615
754.799620	11682.342197
755.127318	11656.463433
755.454969	11610.956938
755.782572	11565.120246
756.110129	11578.219685
756.437638	11497.087355
756.765100	11485.883390
757.092515	11480.174283
757.419882	11492.515028
757.747203	11499.421409
758.074477	11563.857437
758.401703	11524.498629
758.728882	11680.474449
759.056014	11722.653783
759.383099	11840.140394
759.710138	11937.371649
760.037129	12022.763754
760.364073	12041.826877
760.690970	12023.998837
761.017820	12029.765917
761.344623	12217.362375
761.671379	12547.910833
761.998088	13184.996732
762.324751	14729.520571
762.651366	17604.188140
762.977935	21286.690531
763.304456	23546.100397
763.630931	24079.731737
763.957359	22949.701650
764.283740	21042.688603
764.610074	19152.356733
764.936362	16997.215573
765.262602	15463.225225
765.588796	13959.854846
765.914943	12924.515272
766.241044	12037.604911
766.567097	11395.876109
766.893104	10823.256485
767.219064	10457.924065
767.544978	10062.253982
767.870845	9744.313450
768.196665	9556.041478
768.522438	9352.638482
768.848165	9181.362759
769.173846	9011.193570
769.499479	8882.608859
769.825066	8721.680105
770.150607	8541.095892
770.476101	8472.390006
770.801548	8364.610137
771.126949	8218.961120
771.452303	8134.854509
771.777611	7962.825134
772.102872	7939.351001
772.428087	7826.764392
772.753256	7699.311419
773.078378	7607.385979
773.403453	7461.235367
773.728482	7357.178390
774.053465	7287.456712
774.378401	7201.338681
774.703291	7106.544824
775.028135	7010.016810
775.352932	6969.334698
775.677683	6882.281533
776.002388	6793.247195
776.327046	6791.724766
776.651658	6702.040119
776.976224	6626.964735
777.300743	6610.570903
777.625216	6543.543721
777.949643	6493.182594
778.274024	6500.759448
778.598359	6426.039466
778.922647	6429.669097
779.246889	6388.273662
779.571086	6393.493777
779.895236	6409.088586
780.219339	6396.120218
780.543397	6391.285752
780.867409	6442.266940
781.191374	6441.987156
781.515294	6409.091107
781.839167	6463.936340
782.162995	6433.218069
782.486776	6384.490276
782.810511	6348.322518
783.134201	6271.765035
783.457844	6260.608962
783.781441	6210.404110
784.104993	6167.584550
784.428498	6137.539273
784.751958	6119.559997
785.075372	6098.056956
785.398739	6059.582870
785.722061	6078.794707
786.045337	6078.764460
786.368568	6191.436769
786.691752	6210.978802
787.014891	6458.012984
787.337983	6732.791157
787.661030	7168.263670
787.984031	7602.168385
788.306987	7865.624126
788.629897	7961.816903
788.952760	7883.747074
789.275579	7710.406999
789.598351	7408.484733
789.921078	7145.195350
790.243759	6866.283432
790.566395	6658.119066
790.888984	6460.730166
791.211529	6322.917623
791.534027	6149.794318
791.856480	6015.198031
792.178888	5951.535819
792.501249	5881.544439
792.823566	5771.034785
793.145836	5767.634527
793.468062	5741.967492
793.790241	5704.791503
794.112375	5745.042596
794.434464	5839.581875
794.756507	5867.509867
795.078505	5985.523278
795.400457	6201.965219
795.722364	6446.501510
796.044226	6634.405478
796.366042	6796.145858
796.687812	6749.217757
797.009538	6781.261851
797.331218	6686.236101
797.652852	6623.945084
797.974442	6504.351271
798.295986	6439.605211
798.617484	6305.092103
798.938938	6192.492891
799.260346	6127.809846
799.581709	5984.469677
799.903026	5935.666267
800.224299	5858.324885
800.545526	5741.196196
800.866708	5675.515002
801.187845	5623.596159
801.508936	5542.897368
801.829983	5517.003481
802.150984	5405.707407
802.471940	5380.584817
802.792851	5357.778637
803.113717	5338.037478
803.434538	5311.480680
803.755314	5278.047748
804.076045	5266.193474
804.396731	5230.885233
804.717372	5246.278396
805.037967	5240.561728
805.358518	5272.222694
805.679024	5326.281508
805.999485	5333.402137
806.319901	5350.408470
806.640272	5365.733578
806.960598	5410.468777
807.280879	5406.390483
807.601115	5444.594868
807.921306	5411.983644
808.241453	5405.107510
808.561554	5420.087298
808.881611	5379.992481
809.201623	5381.976175
809.521590	5333.649154
809.841513	5321.658770
810.161390	5338.695349
810.481223	5248.713273
810.801011	5239.372015
811.120755	5210.226584
811.440453	5158.237165
811.760107	5130.271364
812.079716	5108.032314
812.399281	5050.691709
812.718801	5050.853026
813.038276	5012.567983
813.357707	4976.569104
813.677093	4999.085417
813.996434	4937.716931
814.315731	4957.541268
814.634983	4956.706958
814.954191	4961.314572
815.273354	5025.508625
815.592473	5063.559254
815.911547	5140.938445
816.230577	5199.176375
816.549562	5287.452020
816.868502	5336.799875
817.187399	5400.278084
817.506250	5481.259180
817.825058	5506.593498
818.143821	5670.567110
818.462539	5840.572461
818.781213	6073.022586
819.099843	6437.220745
819.418429	7072.731284
819.736970	7701.360648
820.055466	8428.647914
820.373919	9365.841264
820.692327	10861.549089
821.010691	13617.321045
821.329011	19938.063410
821.647286	29608.781056
821.965517	40074.198796
822.283704	45643.622716
822.601847	47247.488497
822.919945	42720.136612
823.237999	37615.431460
823.556010	32390.018400
823.873976	27595.525691
824.191897	23291.426346
824.509775	20145.277518
824.827609	17277.145805
825.145398	15661.360216
825.463144	14866.559297
825.780845	15147.124715
826.098502	16403.229018
826.416116	18857.817238
826.733685	21126.154987
827.051210	21653.142087
827.368692	20214.699248
827.686129	17644.537536
828.003522	15135.257838
828.320872	12893.305488
828.638177	11200.367560
828.955439	9920.123691
829.272656	8832.056168
829.589830	7974.260991
829.906960	7217.921556
830.224046	6671.863772
830.541088	6251.529843
830.858086	5983.037990
831.175041	5771.390187
831.491952	5712.121341
831.808819	5739.610753
832.125642	5988.762220
832.442421	6544.491458
832.759157	7669.785381
833.075849	9450.477196
833.392497	11315.353758
833.709101	12457.522944
834.025662	12213.702497
834.342179	11159.773668
834.658653	9846.144758
834.975083	8723.031134
835.291469	7810.189078
835.607811	7049.083232
835.924110	6514.476428
836.240366	6018.351272
836.556578	5548.304005
836.872746	5187.012071
837.188871	4905.927415
837.504952	4678.379812
837.820990	4504.646527
838.136984	4389.572109
838.452935	4334.731917
838.768842	4363.138818
839.084706	4647.265811
839.400526	5395.249533
839.716303	6314.698022
840.032037	6889.331587
840.347727	6752.766729
840.663373	6152.151057
840.978977	5563.873609
841.294537	5112.188745
841.610054	4768.392135
841.925527	4525.005227
842.240957	4311.905572
842.556344	4121.009679
842.871687	3960.940441
843.186987	3802.446564
843.502244	3678.240095
843.817458	3589.873709
844.132629	3517.659181
844.447756	3465.473156
844.762840	3418.350970
845.077881	3377.799929
845.392879	3343.436904
845.707833	3314.737615
846.022745	3289.211732
846.337613	3279.240330
846.652438	3252.408789
846.967221	3243.249012
847.281960	3222.164386
847.596656	3212.319013
847.911309	3199.985830
848.225919	3185.852955
848.540485	3174.840554
848.855009	3170.253104
849.169490	3155.570744
849.483928	3147.341060
849.798323	3142.403250
850.112675	3131.221971
850.426984	3132.260448
850.741251	3127.393214
851.055474	3119.029940
851.369654	3121.951289
851.683792	3116.549692
851.997887	3120.239817
852.311938	3119.904580
852.625947	3121.071607
852.939914	3114.414764
853.253837	3118.898870
853.567718	3117.222687
853.881555	3112.410905
854.195350	3123.453553
854.509103	3116.811832
854.822812	3112.216821
855.136479	3107.669700
855.450103	3113.323354
855.763685	3105.673403
856.077224	3107.261367
856.390720	3114.959208
856.704173	3124.918008
857.017584	3130.480921
857.330953	3137.097436
857.644278	3144.276039
857.957561	3150.143942
858.270802	3143.043477
858.584000	3146.153868
858.897155	3139.282776
859.210268	3127.960344
859.523339	3119.133284
859.836367	3113.514918
860.149352	3108.337653
860.462295	3105.751541
860.775195	3097.892382
861.088054	3093.042792
861.400869	3090.865014
861.713642	3090.169334
862.026373	3100.450768
862.339062	3102.512600
862.651708	3108.814042
862.964312	3127.425982
863.276873	3132.464615
863.589392	3165.685819
863.901869	3194.680015
864.214303	3213.531410
864.526696	3233.194431
864.839045	3247.932244
865.151353	3262.097886
865.463619	3265.092332
865.775842	3265.697270
866.088023	3271.018208
866.400162	3265.765326
866.712258	3267.315481
867.024313	3270.617436
867.336325	3264.890686
867.648296	3267.847322
867.960224	3265.896396
868.272110	3268.865635
868.583954	3266.496293
868.895755	3275.870319
869.207515	3275.658590
869.519233	3295.067033
869.830909	3298.336221
870.142542	3309.958601
870.454134	3319.244406
870.765684	3329.666992
871.077191	3349.050228
871.388657	3360.158411
871.700081	3380.565002
872.011463	3398.826582
872.322803	3421.373142
872.634101	3437.361162
872.945357	3459.665747
873.256571	3485.647854
873.567744	3502.936491
873.878874	3504.995802
874.189963	3528.709390
874.501010	3527.504554
874.812015	3524.716796
875.122979	3542.996020
875.433900	3539.943601
875.744780	3543.237995
876.055618	3555.745098
876.366415	3551.671846
876.677169	3555.876168
876.987882	3575.796287
877.298554	3597.881582
877.609183	3636.406080
877.919771	3688.423226
878.230317	3759.627003
878.540822	3867.041389
878.851285	4027.599618
879.161707	4258.408847
879.472087	4639.885562
879.782425	5292.089882
880.092722	6513.836202
880.402977	8493.250300
880.713191	10922.859602
881.023363	13359.677754
881.333494	14730.768257
881.643583	15220.266816
881.953631	14835.878835
882.263637	13996.514117
882.573602	12967.203763
882.883526	11970.315590
883.193408	10990.685807
883.503248	10044.312516
883.813048	9185.468779
884.122806	8401.796208
884.432522	7608.963860
884.742197	6915.417037
885.051831	6332.168140
885.361424	5814.358461
885.670975	5398.407816
885.980485	5057.104057
886.289954	4779.245739
886.599382	4548.590266
886.908768	4365.568655
887.218113	4187.618444
887.527417	4051.522414
887.836680	3924.664298
888.145901	3819.382321
888.455082	3738.227305
888.764221	3668.190555
889.073319	3605.070268
889.382376	3570.694640
889.691392	3541.375289
890.000366	3536.480328
890.309300	3528.858104
890.618193	3532.586037
890.927044	3523.852238
891.235855	3534.436141
891.544625	3548.669838
891.853353	3580.295517
892.162041	3641.185094
892.470687	3736.246132
892.779293	3860.555945
893.087858	4041.576217
893.396381	4327.381914
893.704864	4748.766923
894.013306	5328.870140
894.321707	5914.145581
894.630068	6282.043948
894.938387	6321.732952
895.246665	6144.034799
895.554903	5822.855326
895.863100	5484.021732
896.171256	5205.440009
896.479371	4956.659067
896.787446	4725.834714
897.095480	4519.454917
897.403473	4367.663254
897.711425	4216.032908
898.019336	4091.216459
898.327207	3962.969506
898.635038	3855.623176
898.942827	3747.571084
899.250576	3656.535407
899.558284	3576.413829
899.865952	3516.056094
900.173579	3450.054787
900.481165	3405.858991
900.788711	3355.765045
901.096216	3323.920077
901.403681	3297.504430
901.711105	3284.384828
902.018489	3280.099847
902.325832	3314.750218
902.633135	3374.601317
902.940397	3550.618244
903.247619	3964.590237
903.554800	4737.951127
903.861941	5729.558692
904.169041	6461.541792
904.476101	6691.829262
904.783121	6419.155771
905.090100	6006.408779
905.397039	5583.352627
905.703938	5209.200710
906.010796	4878.100246
906.317614	4612.181901
906.624391	4363.955485
906.931129	4160.378570
907.237826	3969.240701
907.544483	3791.938279
907.851099	3611.865743
908.157675	3445.260650
908.464211	3297.688433
908.770707	3193.870910
909.077163	3111.475771
909.383578	3045.613096
909.689954	2999.093328
909.996289	2966.829944
910.302584	2945.112653
910.608839	2930.188317
910.915054	2918.190371
911.221229	2911.651994
911.527363	2917.580391
911.833458	2922.303953
912.139513	2936.711570
912.445527	2953.140691
912.751502	2987.465907
913.057436	3032.453164
913.363331	3091.941300
913.669186	3182.961853
913.975000	3306.177736
914.280775	3507.455885
914.586510	3780.552833
914.892205	4173.639325
915.197859	4687.229558
915.503475	5283.262821
915.809050	5794.574453
916.114585	6086.172436
916.420081	6152.660214
916.725536	6092.501604
917.030952	5849.623853
917.336328	5642.495444
917.641665	5423.734573
917.946961	5191.937278
918.252218	4985.635619
918.557435	4747.481429
918.862612	4550.463054
919.167750	4366.294581
919.472848	4173.389788
919.777906	3998.063498
920.082925	3831.208868
920.387904	3674.547450
920.692843	3557.617887
920.997743	3451.892288
921.302603	3354.729088
921.607423	3283.646298
921.912204	3219.066597
922.216946	3165.297650
922.521647	3115.349898
922.826310	3074.662745
923.130932	3034.194883
923.435516	2990.987153
923.740059	2959.759726
924.044564	2930.024480
924.349028	2902.431724
924.653454	2868.807228
924.957840	2842.820080
925.262186	2825.039930
925.566493	2799.430869
925.870761	2774.807353
926.174989	2763.913419
926.479178	2747.212077
926.783328	2728.874879
927.087438	2718.230483
927.391509	2706.464430
927.695541	2691.870290
927.999533	2679.648012
928.303486	2670.379851
928.607400	2665.283244
928.911275	2660.862152
929.215110	2653.812099
929.518906	2650.109371
929.822663	2648.917138
930.126381	2649.491830
930.430060	2651.127684
930.733699	2652.080462
931.037299	2657.194713
931.340861	2653.960813
931.644383	2660.158911
931.947866	2657.111534
932.251309	2654.348982
932.554714	2654.296049
932.858080	2649.723723
933.161407	2649.063332
933.464694	2644.763227
933.767943	2642.159472
934.071153	2638.802063
934.374323	2633.743265
934.677455	2634.272586
934.980548	2626.809158
935.283602	2625.659775
935.586617	2623.010649
935.889593	2626.620115
936.192530	2627.414097
936.495428	2632.241001
936.798287	2642.517393
937.101108	2657.444250
937.403890	2677.429904
937.706632	2704.417722
938.009336	2738.440469
938.312002	2772.269132
938.614628	2793.749488
938.917216	2810.523928
939.219765	2823.393993
939.522275	2834.320694
939.824747	2833.912361
940.127179	2829.730724
940.429573	2824.339210
940.731929	2825.050012
941.034246	2810.796150
941.336524	2812.729432
941.638763	2804.882877
941.940964	2799.183852
942.243126	2785.923097
942.545250	2774.341046
942.847335	2756.528129
943.149381	2741.187898
943.451389	2728.365723
943.753359	2715.921635
944.055290	2709.206818
944.357182	2696.785415
944.659036	2692.233253
944.960851	2690.337779
945.262628	2683.620441
945.564367	2683.764114
945.866067	2684.180009
946.167729	2681.883764
946.469352	2679.501819
946.770937	2678.208763
947.072484	2670.006805
947.373992	2671.408246
947.675462	2669.104439
947.976893	2659.314518
948.278286	2656.499034
948.579641	2653.978457
948.880958	2652.738333
949.182236	2652.430822
949.483476	2647.798002
949.784678	2648.662560
950.085841	2648.869247
950.386967	2651.762870
950.688054	2656.597336
950.989103	2665.316012
951.290114	2672.255160
951.591087	2686.612366
951.892021	2698.138964
952.192917	2711.389637
952.493776	2720.521687
952.794596	2724.448746
953.095378	2725.703994
953.396122	2723.213664
953.696828	2721.103941
953.997496	2717.002962
954.298126	2709.705892
954.598718	2699.084181
954.899272	2687.391224
955.199788	2676.608196
955.500266	2665.058913
955.800706	2649.630462
956.101108	2631.789818
956.401472	2620.389249
956.701798	2606.289141
957.002087	2589.905391
957.302337	2579.462641
957.602550	2571.353945
957.902724	2558.062943
958.202861	2548.020965
958.502960	2538.296579
958.803022	2532.453882
959.103045	2528.730989
959.403031	2518.812519
959.702979	2514.585512
960.002889	2507.298524
960.302762	2501.977586
960.602596	2498.083295
960.902393	2491.607933
961.202153	2489.367140
961.501875	2484.890595
961.801559	2487.842191
962.101205	2480.144349
962.400814	2481.339102
962.700385	2476.494553
962.999918	2477.555716
963.299414	2472.698564
963.598873	2472.602783
963.898293	2471.700416
964.197677	2470.150261
964.497022	2470.349387
964.796331	2467.357462
965.095601	2465.565332
965.394835	2464.287399
965.694030	2464.294961
965.993189	2466.450054
966.292309	2462.313787
966.591393	2466.024077
966.890439	2462.777574
967.189447	2462.641463
967.488419	2467.964921
967.787353	2463.221195
968.086249	2462.517954
968.385108	2463.077522
968.683930	2463.947121
968.982714	2464.219344
969.281462	2467.987606
969.580172	2468.852164
969.878844	2473.361476
970.177480	2474.470530
970.476078	2478.964719
970.774639	2481.969246
971.073162	2483.887405
971.371649	2481.631489
971.670098	2487.186841
971.968510	2487.156594
972.266885	2488.547952
972.565223	2490.362767
972.863524	2491.799496
973.161788	2495.325783
973.460014	2495.570279
973.758204	2494.872080
974.056356	2496.762512
974.354471	2494.892244
974.652550	2498.937770
974.950591	2495.509786
975.248595	2496.565907
975.546563	2493.558859
975.844493	2493.011894
976.142386	2490.869403
976.440243	2490.186327
976.738062	2487.088538
977.035845	2483.040492
977.333590	2483.708444
977.631299	2479.456231
977.928971	2476.834831
978.226606	2475.509008
978.524204	2474.316775
978.821765	2472.564974
979.119290	2474.747793
979.416777	2472.534727
979.714228	2473.212762
980.011642	2472.449027
980.309020	2478.505974
980.606360	2482.591829
980.903664	2492.888386
981.200931	2507.200221
981.498162	2528.680578
981.795356	2558.022614
982.092513	2595.523757
982.389633	2641.834317
982.686717	2689.193437
982.983764	2718.356512
983.280775	2739.080695
983.577749	2739.413412
983.874686	2731.700446
984.171587	2717.902808
984.468451	2698.333049
984.765279	2678.175995
985.062070	2660.421051
985.358824	2639.976652
985.655543	2617.901439
985.952224	2592.733479
986.248869	2564.876063
986.545478	2534.414890
986.842050	2518.467200
987.138586	2496.477687
987.435086	2481.308855
987.731549	2469.999027
988.027975	2461.764302
988.324366	2461.376133
988.620719	2456.823971
988.917037	2448.685028
989.213318	2449.365584
989.509563	2445.020109
989.805772	2442.169337
990.101944	2440.241095
990.398080	2438.658173
990.694180	2440.231013
990.990244	2440.266301
991.286271	2441.861826
991.582262	2439.270673
991.878217	2444.052208
992.174136	2442.365942
992.470019	2442.353339
992.765865	2441.030036
993.061676	2448.236365
993.357450	2451.593774
993.653188	2453.549742
993.948890	2461.713890
994.244556	2465.454426
994.540186	2475.786271
994.835780	2486.871768
995.131337	2504.120076
995.426859	2519.919053
995.722345	2540.250026
996.017795	2559.577810
996.313208	2573.667835
996.608586	2584.831470
996.903928	2587.014290
997.199234	2587.238621
997.494504	2583.621593
997.789738	2577.715881
998.084936	2563.242729
998.380099	2551.816953
998.675225	2541.250695
998.970316	2527.944569
999.265371	2511.641478
999.560390	2498.690754
999.855373	2487.149032
1000.150320	2475.652681
1000.445232	2467.919551
1000.740108	2457.968313
1001.034948	2453.121243
1001.329752	2448.027157
1001.624521	2443.709409
1001.919254	2436.034252
1002.213951	2434.456371
1002.508613	2433.697678
1002.803239	2431.398912
1003.097829	2426.491348
1003.392384	2429.717687
1003.686903	2429.110228
1003.981386	2425.359609
1004.275834	2425.341965
1004.570246	2425.712490
1004.864623	2424.048909
1005.158964	2422.115627
1005.453270	2422.884403
1005.747540	2420.860379
1006.041775	2418.859041
1006.335974	2422.100503
1006.630138	2417.364339
1006.924266	2419.360636
1007.218359	2417.291243
1007.512416	2418.264185
1007.806438	2418.039854
1008.100425	2418.193609
1008.394376	2417.891140
1008.688292	2417.444998
1008.982172	2416.275450
1009.276017	2417.593712
1009.569827	2418.327200
1009.863602	2415.642785
1010.157341	2415.151273
1010.451045	2416.590522
1010.744714	2418.004566
1011.038347	2414.470717
1011.331945	2416.114133
1011.625508	2416.330903
1011.919036	2415.519277
1012.212528	2415.390728
1012.505986	2414.072466
1012.799408	2410.168092
1013.092795	2410.536096
1013.386147	2411.135994
1013.679464	2411.385531
1013.972745	2414.221180
1014.265992	2412.640778
1014.559204	2412.303021
1014.852380	2412.146745
1015.145521	2413.921231
1015.438628	2410.158010
1015.731699	2416.653537
1016.024736	2412.741601
1016.317737	2410.904101
1016.610703	2413.802764
1016.903635	2410.273956
1017.196531	2411.675397
1017.489393	2414.712692
1017.782219	2410.173133
1018.075011	2417.767632
1018.367768	2416.093968
1018.660490	2416.545152
1018.953177	2416.545152
1019.245829	2416.545152
