Dividing Wavelength (nm)	Counts (n)	Blue Motor Position (mm): 42.000000	Red Motor Position (mm): 0.000000	
326.493990	1971.837245
326.888308	1971.837245
327.282561	1971.837245
327.676750	1948.731116
328.070874	1947.359922
328.464933	1954.737651
328.858929	1966.360031
329.252859	1977.228759
329.646726	1992.203506
330.040528	2006.643891
330.434265	2027.504186
330.827938	2043.867771
331.221547	2064.896945
331.615091	2087.209092
332.008571	2106.335229
332.401986	2127.349279
332.795338	2147.307207
333.188625	2167.562563
333.581847	2183.457321
333.975006	2204.005064
334.368100	2221.820502
334.761129	2237.490929
335.154095	2252.740419
335.546996	2295.388581
335.939833	2380.019472
336.332606	2393.673437
336.725315	2405.794891
337.117960	2413.220511
337.510540	2421.634197
337.903056	2435.482246
338.295508	2437.881835
338.687896	2446.824842
339.080220	2452.541511
339.472480	2456.667695
339.864676	2462.333952
340.256807	2464.335290
340.648875	2465.126751
341.040879	2465.787142
341.432818	2472.053297
341.824694	2468.206896
342.216506	2469.076495
342.608253	2471.506332
342.999937	2466.681947
343.391557	2467.370065
343.783113	2465.550208
344.174605	2463.715228
344.566033	2459.825978
344.957397	2461.456791
345.348697	2460.647686
345.739934	2458.787500
346.131106	2456.768518
346.522215	2456.014866
346.913260	2451.694597
347.304241	2452.077725
347.695159	2448.947168
348.086012	2446.051025
348.476802	2447.533124
348.867528	2446.308124
349.258191	2443.467434
349.648789	2443.280911
350.039324	2439.177412
350.429796	2441.057762
350.820203	2440.233534
351.210548	2444.458021
351.600828	2441.640016
351.991045	2440.339398
352.381198	2440.188163
352.771288	2439.870571
353.161314	2435.802359
353.551276	2436.893769
353.941175	2435.509972
354.331010	2440.029367
354.720782	2442.040787
355.110490	2441.390478
355.500135	2439.852927
355.889717	2439.331167
356.279235	2436.994592
356.668689	2440.999789
357.058080	2442.552464
357.447408	2438.882504
357.836672	2437.244129
358.225873	2441.947526
358.615010	2437.662545
359.004084	2444.737805
359.393095	2443.908535
359.782043	2447.709565
360.170927	2441.725715
360.559748	2446.673608
360.948505	2446.658484
361.337199	2450.938424
361.725830	2449.093362
362.114398	2448.440532
362.502903	2451.059412
362.891344	2450.562858
363.279722	2451.871037
363.668037	2453.582509
364.056289	2452.783486
364.444478	2455.029320
364.832603	2455.288940
365.220665	2453.340534
365.608665	2456.876903
365.996601	2454.419341
366.384474	2457.416307
366.772284	2459.745320
367.160031	2458.606019
367.547715	2459.132819
367.935336	2458.127109
368.322893	2459.674743
368.710388	2462.510392
369.097820	2463.942080
369.485189	2464.375619
369.872495	2466.744962
370.259738	2463.102728
370.646918	2466.714715
371.034035	2464.312605
371.421090	2466.901238
371.808081	2467.294448
372.195010	2468.222020
372.581875	2467.531382
372.968678	2468.806794
373.355418	2467.123048
373.742096	2470.364510
374.128710	2471.181177
374.515262	2471.155971
374.901751	2474.886425
375.288177	2474.329378
375.674540	2475.849286
376.060841	2477.583443
376.447079	2478.548823
376.833254	2475.892135
377.219367	2474.253760
377.605417	2478.621920
377.991404	2477.845582
378.377329	2478.453042
378.763191	2475.088071
379.148991	2485.878661
379.534727	2485.644247
379.920402	2486.344968
380.306013	2484.683908
380.691563	2488.184989
381.077049	2490.304794
381.462474	2489.160452
381.847835	2492.548108
382.233134	2491.237408
382.618371	2492.366626
383.003545	2496.964158
383.388657	2498.743686
383.773706	2500.283758
384.158693	2501.924654
384.543618	2505.720643
384.928480	2506.461692
385.313280	2510.814729
385.698017	2514.797240
386.082692	2519.551048
386.467305	2521.370905
386.851856	2532.030425
387.236344	2535.977648
387.620770	2545.790254
388.005133	2558.030176
388.389435	2570.585169
388.773674	2581.872313
389.157851	2606.886518
389.541965	2622.491410
389.926018	2636.674696
390.310008	2664.010353
390.693936	2692.893644
391.077802	2725.973695
391.461606	2759.154570
391.845348	2796.711166
392.229027	2839.376972
392.612645	2896.102555
392.996200	2952.578602
393.379694	3013.684948
393.763125	3086.897626
394.146494	3152.387255
394.529801	3225.242011
394.913047	3316.549910
395.296230	3376.658108
395.679351	3445.852985
396.062410	3563.586613
396.445408	3607.537912
396.828343	3711.297462
397.211217	3814.038697
397.594028	3864.142726
397.976778	3989.687621
398.359466	4119.101602
398.742092	4193.062891
399.124656	4325.867048
399.507158	4472.360458
399.889598	4575.177311
400.271977	4740.958176
400.654294	4847.530689
401.036549	5021.054766
401.418742	5138.337210
401.800874	5362.144276
402.182944	5508.582234
402.564952	5775.768429
402.946898	5811.744623
403.328783	5942.237411
403.710606	6151.720038
404.092367	6394.381020
404.474067	6706.110850
404.855705	6707.285439
405.237282	6796.995293
405.618797	7160.845612
406.000250	7430.202024
406.381642	7771.541072
406.762972	7874.940178
407.144240	7866.826441
407.525447	8148.914287
407.906593	8226.159887
408.287677	8516.605966
408.668700	8736.987568
409.049661	8845.009413
409.430560	9068.226664
409.811399	9167.222323
410.192176	9388.591991
410.572891	9554.163648
410.953545	10032.503613
411.334138	9732.749043
411.714669	10299.737699
412.095139	9864.174445
412.475547	10361.940496
412.855894	10328.424385
413.236180	10688.410660
413.616405	10510.072281
413.996568	10824.000055
414.376670	10885.580270
414.756711	10860.908863
415.136691	11173.112562
415.516609	11394.071376
415.896466	11532.554392
416.276262	11849.910151
416.655997	12310.346458
417.035670	12406.115778
417.415283	13077.017738
417.794834	13215.528481
418.174324	13036.597766
418.553753	12993.599244
418.933121	13498.929547
419.312428	13383.212381
419.691674	13330.154237
420.070859	13803.483295
420.449983	13519.759595
420.829045	14077.275922
421.208047	13872.597514
421.586988	14334.457947
421.965867	14603.958032
422.344686	14626.746568
422.723444	15191.794379
423.102141	13957.798055
423.480777	15121.876096
423.859352	14658.631866
424.237866	15747.024543
424.616319	15483.417567
424.994712	16126.484796
425.373044	15929.516833
425.751314	16601.769822
426.129524	15773.848523
426.507673	16829.730798
426.885762	16549.747634
427.263789	16740.726707
427.641756	16920.854695
428.019662	16982.560939
428.397508	17034.585647
428.775292	17316.839851
429.153016	17296.292108
429.530679	17373.671298
429.908282	17408.704797
430.285824	17129.626520
430.663305	17822.422211
431.040726	17431.692459
431.418086	17272.404600
431.795385	17898.750321
432.172624	18333.441456
432.549802	17883.296664
432.926920	18077.754133
433.303977	17967.761197
433.680974	18211.997539
434.057910	18501.541251
434.434786	18533.189615
434.811601	18461.053224
435.188355	19465.213262
435.565050	19135.569691
435.941683	19082.713193
436.318257	19948.501119
436.694770	19754.265462
437.071222	20349.739157
437.447614	19437.328119
437.823946	19452.020562
438.200218	19613.839080
438.576429	19381.487258
438.952580	19663.703653
439.328670	19626.900710
439.704700	20027.175887
440.080670	19610.587536
440.456580	20191.930877
440.832429	20359.849191
441.208218	19387.367764
441.583947	19816.422888
441.959616	19911.325130
442.335224	20152.433436
442.710773	20268.531209
443.086261	20802.989299
443.461689	20169.157464
443.837057	20307.458999
444.212365	20932.615008
444.587612	20935.032242
444.962800	20529.826816
445.337927	20935.218764
445.712995	19701.534992
446.088002	21513.988596
446.462949	21696.967358
446.837837	21863.393490
447.212664	21819.913538
447.587431	24599.358752
447.962139	27476.987999
448.336786	29839.731437
448.711374	28329.840325
449.085901	24682.994015
449.460369	24627.385047
449.834776	24519.610219
450.209124	26981.593811
450.583412	26527.262341
450.957640	27071.543119
451.331808	25735.493677
451.705917	24376.970771
452.079965	24405.884309
452.453954	24761.762044
452.827883	24648.835157
453.201752	24467.333454
453.575562	24619.072184
453.949311	25711.152466
454.323001	25771.600941
454.696632	25542.286415
455.070202	27071.807780
455.443713	27209.141413
455.817164	27776.482949
456.190556	28304.664802
456.563888	27770.549511
456.937160	28197.983905
457.310373	26566.386736
457.683526	26981.006517
458.056619	26952.428215
458.429653	26901.028611
458.802628	27461.819167
459.175542	27584.730060
459.548398	28884.624347
459.921194	30442.063622
460.293930	31110.258482
460.666607	33130.697491
461.039224	34861.197057
461.411782	35231.759673
461.784280	34040.814803
462.156719	33530.392935
462.529099	32959.159628
462.901419	31668.919151
463.273680	30626.660593
463.645882	30724.179194
464.018024	30693.692816
464.390106	31533.791022
464.762130	34207.707242
465.134094	38261.223433
465.505999	43537.620203
465.877845	48105.379456
466.249631	49241.428681
466.621358	47466.456055
466.993026	45300.420962
467.364634	43211.838156
467.736184	41253.463312
468.107674	40019.784582
468.479105	39265.615363
468.850477	38559.432888
469.221790	37156.381471
469.593043	35450.719670
469.964238	34562.546500
470.335373	34477.323273
470.706449	36143.170041
471.077467	38647.867330
471.448425	43229.146957
471.819324	46088.975890
472.190164	44284.772135
472.560945	40741.471125
472.931667	37651.500916
473.302330	36553.978709
473.672934	35740.021407
474.043479	36237.056491
474.413965	35465.739788
474.784393	35091.318168
475.154761	35979.592161
475.525070	35998.151169
475.895321	35563.487761
476.265513	36152.128172
476.635645	37099.310568
477.005719	36924.841274
477.375734	37381.090903
477.745691	38063.360665
478.115588	39377.024863
478.485427	41347.984947
478.855207	44675.726218
479.224928	47302.452197
479.594591	48934.160271
479.964194	47896.534534
480.333739	48007.621400
480.703226	48023.158236
481.072653	48668.655301
481.442022	49179.165389
481.811333	49432.672413
482.180584	48143.898912
482.549777	47621.360631
482.918912	47111.430275
483.287988	46811.874831
483.657005	45984.689541
484.025964	45351.157655
484.394864	45354.885588
484.763706	44923.859372
485.132489	44053.610025
485.501213	43895.605140
485.869879	44023.872258
486.238487	43640.280780
486.607036	43849.196278
486.975527	43326.882328
487.343959	43524.155281
487.712333	43600.037249
488.080648	43503.484029
488.448905	43968.568280
488.817104	43764.635963
489.185244	44710.585797
489.553326	46373.105403
489.921350	49100.719994
490.289315	52019.265767
490.657222	52665.158562
491.025070	52955.352583
491.392861	52023.714585
491.760593	50757.522932
492.128267	49047.727385
492.495883	47504.728495
492.863440	46121.123328
493.230939	44777.620540
493.598380	43710.244434
493.965763	43375.610121
494.333088	42571.732605
494.700354	42114.061371
495.067563	41825.127638
495.434713	41701.687424
495.801805	41772.281222
496.168839	41390.439024
496.535815	41073.910015
496.902733	41112.570624
497.269593	40710.273944
497.636395	40636.350464
498.003139	41029.338654
498.369825	40500.267037
498.736453	40790.403085
499.103023	40345.891783
499.469535	40213.982431
499.835989	40311.458181
500.202385	39980.110701
500.568723	39999.776242
500.935003	40174.789980
501.301226	39996.375984
501.667390	40590.022261
502.033497	40865.594415
502.399546	40273.314291
502.765537	39605.283268
503.131470	39981.305454
503.497345	40321.727012
503.863163	39010.313688
504.228923	39623.121391
504.594625	40018.441114
504.960269	39319.901028
505.325856	40003.499134
505.691385	39364.215291
506.056856	39486.448149
506.422270	39932.963309
506.787625	39512.427735
507.152924	39699.250376
507.518164	39799.191251
507.883347	39014.023978
508.248472	39271.682392
508.613540	39752.787430
508.978550	40026.784224
509.343503	39787.591556
509.708398	39977.814455
510.073236	40500.992963
510.438016	40494.880564
510.802738	39952.384355
511.167403	40562.636192
511.532010	40813.945273
511.896561	41095.231576
512.261053	41920.329828
512.625488	41480.937818
512.989866	41338.308452
513.354186	41183.386233
513.718449	41188.379496
514.082655	41851.414735
514.446803	41526.232585
514.810894	42052.022411
515.174927	41972.878816
515.538904	41868.678166
515.902822	42532.623333
516.266684	41996.000068
516.630488	42407.547265
516.994235	42248.576999
517.357925	42817.103207
517.721558	42990.839012
518.085133	43287.740289
518.448651	43426.848408
518.812112	43209.622569
519.175516	43292.400835
519.538863	43655.379036
519.902152	43605.887508
520.265385	44067.039659
520.628560	44104.412253
520.991678	43900.593362
521.354739	44146.586546
521.717743	44449.794306
522.080690	44344.285476
522.443580	44901.448923
522.806413	44955.742150
523.169189	44905.149130
523.531908	45071.242546
523.894569	44937.115086
524.257174	45105.358555
524.619722	45427.062308
524.982213	45393.823460
525.344647	45327.257544
525.707025	45379.730915
526.069345	45777.024249
526.431608	45698.238576
526.793815	46004.745771
527.155964	45553.668366
527.518057	45726.143883
527.880093	45503.647517
528.242072	46035.176697
528.603995	45742.903199
528.965860	45750.059117
529.327669	45835.922570
529.689421	45744.435710
530.051117	45711.186780
530.412755	45858.075921
530.774337	45931.462518
531.135862	45728.004069
531.497331	45940.486183
531.858743	45831.816550
532.220098	46194.033537
532.581396	45896.005562
532.942638	45548.912038
533.303824	45845.294075
533.664953	45828.000397
534.026025	45537.546756
534.387040	46015.342277
534.747999	45977.125289
535.108902	46119.754655
535.469748	45657.536300
535.830537	45775.096008
536.191270	45967.169011
536.551947	45613.930319
536.912567	45906.748261
537.273131	46032.769546
537.633638	45530.925201
537.994089	45877.539816
538.354483	45483.450134
538.714821	46042.788839
539.075103	46389.403454
539.435328	46155.688000
539.795497	46041.894034
540.155609	46025.215377
540.515665	46487.622775
540.875665	45949.250229
541.235609	46261.012827
541.595496	46243.255363
541.955328	46894.116215
542.315102	46277.510003
542.674821	46074.157419
543.034483	46104.805113
543.394090	46085.678976
543.753640	46040.227933
544.113134	47043.089873
544.472571	46061.501602
544.831953	47286.484342
545.191278	46505.017276
545.550548	46226.783392
545.909761	46670.190682
546.268918	46887.076244
546.628019	47198.695169
546.987064	46743.907475
547.346053	46036.487397
547.704986	46914.512724
548.063863	46465.555124
548.422684	46668.159097
548.781449	46518.267949
549.140158	46918.041531
549.498811	46755.807118
549.857408	46204.909826
550.215949	47033.141156
550.574434	46982.941346
550.932864	46730.344250
551.291237	47456.439283
551.649555	47067.758759
552.007817	47313.794793
552.366022	46937.765046
552.724173	47130.843759
553.082267	47524.177267
553.440305	47831.296962
553.798288	47142.095614
554.156215	47462.649984
554.514086	47673.609670
554.871902	47408.462622
555.229661	47419.245650
555.587365	47255.813962
555.945014	47354.900362
556.302606	47279.832540
556.660143	47508.786624
557.017625	47589.155219
557.375050	47383.924805
557.732421	47734.095954
558.089735	47716.124241
558.446994	47637.754463
558.804197	48114.531670
559.161345	48038.997542
559.518437	47292.072462
559.875474	47602.720964
560.232455	47751.699663
560.589381	47933.347560
560.946251	47633.686252
561.303065	48306.536618
561.659825	48122.385788
562.016528	47815.485383
562.373177	47514.261317
562.729770	48002.318106
563.086307	47517.134775
563.442789	47968.655802
563.799216	48005.930093
564.155587	47827.881580
564.511904	47842.644599
564.868164	47939.374259
565.224370	48179.454170
565.580520	47920.991692
565.936615	48118.183986
566.292654	47848.991412
566.648638	48078.583202
567.004567	48040.519970
567.360441	48086.059233
567.716260	47934.862427
568.072023	48211.979695
568.427732	48223.672651
568.783385	47761.870191
569.138982	48170.783386
569.494525	48131.298548
569.850013	47885.517092
570.205445	47860.127321
570.560823	47807.774938
570.916145	47693.217238
571.271412	47715.559632
571.626625	47464.568143
571.981782	47532.646405
572.336884	47213.175883
572.691931	47533.732774
573.046923	47143.028228
573.401860	46999.945158
573.756743	46977.317939
574.111570	47097.302442
574.466342	46945.165460
574.821059	47056.887511
575.175722	46586.898218
575.530330	46597.383817
575.884882	46321.771334
576.239380	46284.068544
576.593823	46254.466889
576.948211	46191.432301
577.302544	45721.127935
577.656823	45737.741058
578.011047	45957.981508
578.365216	45675.760071
578.719330	45486.648747
579.073389	45332.744840
579.427394	45418.966215
579.781344	45382.150668
580.135239	45032.418100
580.489080	45124.194826
580.842866	44608.603255
581.196597	45067.864973
581.550273	45007.257701
581.903895	44870.002205
582.257463	45290.525177
582.610975	44683.698803
582.964434	44968.859232
583.317837	44612.379079
583.671186	44444.370024
584.024481	44658.324155
584.377721	44202.281214
584.730906	44477.263553
585.084037	44509.370662
585.437113	44217.636568
585.790135	44258.623670
586.143103	43870.805184
586.496016	43975.968694
586.848874	44017.422102
587.201679	44020.592988
587.554428	43514.962737
587.907124	43711.678642
588.259765	43447.824650
588.612352	43695.801528
588.964884	43089.239815
589.317362	43382.997932
589.669786	43319.996112
590.022155	43085.670678
590.374470	43506.753217
590.726731	43031.732852
591.078937	42555.469843
591.431090	42643.795899
591.783188	42314.643841
592.135232	41988.702998
592.487222	42239.908735
592.839157	42315.165601
593.191038	41985.713594
593.542866	41763.580191
593.894639	41143.011632
594.246358	41449.249125
594.598022	41411.130440
594.949633	41012.801148
595.301190	40975.010139
595.652692	40805.032513
596.004141	41137.662967
596.355535	40150.489098
596.706876	40104.579310
597.058162	39940.575452
597.409395	40403.570144
597.760573	40485.688020
598.111698	40060.673380
598.462768	40076.724414
598.813785	40127.103185
599.164748	39568.699615
599.515657	39954.204211
599.866511	39424.681411
600.217312	40035.613805
600.568060	39023.650061
600.918753	39758.521742
601.269392	39709.511645
601.619978	39363.910302
601.970510	39580.458106
602.320988	39766.070870
602.671412	40069.679402
603.021783	39799.599584
603.372100	39463.367226
603.722363	39556.631093
604.072572	39650.656173
604.422728	39653.499384
604.772830	39481.278445
605.122878	39547.604907
605.472872	39495.759160
605.822813	39776.546388
606.172701	39608.363413
606.522534	39841.814207
606.872314	40112.292275
607.222041	39858.235765
607.571714	40257.447259
607.921333	39704.810769
608.270899	39991.012196
608.620411	40331.932828
608.969870	40127.045212
609.319276	40120.766455
609.668627	40182.412205
610.017926	40650.541313
610.367171	40798.035392
610.716362	40894.593652
611.065500	40842.493327
611.414585	41043.738710
611.763616	41324.447800
612.112594	41251.439289
612.461518	41489.439724
612.810389	41755.559715
613.159207	41630.047587
613.507971	41700.795140
613.856682	42167.550534
614.205340	42060.761251
614.553945	42741.599325
614.902496	42201.875750
615.250994	42681.039944
615.599439	42739.517328
615.947830	42940.752628
616.296169	43025.312943
616.644454	43122.279537
616.992686	43291.705156
617.340864	43816.660671
617.688990	43542.253023
618.037063	44129.585255
618.385082	44111.898366
618.733048	44409.485240
619.080961	44402.551132
619.428821	44407.589766
619.776628	44513.834604
620.124382	44335.251729
620.472083	44460.801665
620.819731	44603.178973
621.167326	44282.649809
621.514868	44239.857974
621.862357	43794.966065
622.209793	43829.765150
622.557176	43512.865617
622.904506	43251.779218
623.251783	42900.057914
623.599007	42676.018955
623.946179	42450.031589
624.293297	42402.508632
624.640363	41813.107007
624.987376	41793.718729
625.334336	41557.250805
625.681243	41210.731972
626.028097	41176.061436
626.374899	41013.126303
626.721647	41002.827226
627.068343	40872.125230
627.414987	40643.312298
627.761577	40420.198390
628.108115	40763.478282
628.454600	40213.536288
628.801032	40395.378269
629.147412	40356.205983
629.493739	40366.852900
629.840014	40000.968475
630.186236	40322.831024
630.532405	39958.935334
630.878521	40173.754023
631.224585	40055.375128
631.570597	39767.784862
631.916556	39927.886867
632.262462	39869.792611
632.608316	39869.089370
632.954117	39786.542996
633.299866	39764.770253
633.645562	39683.242192
633.991206	39190.098879
634.336797	38756.473948
634.682336	38752.120912
635.027823	38507.095629
635.373257	38320.681322
635.718639	38086.572658
636.063968	37935.446427
636.409245	37365.070116
636.754470	37404.683503
637.099642	37164.540578
637.444762	36694.881480
637.789829	36838.783737
638.134845	36498.163054
638.479808	36428.552281
638.824719	36341.005083
639.169577	35950.953366
639.514383	35999.434142
639.859137	35715.841512
640.203839	35948.626873
640.548489	35599.968070
640.893086	35652.789280
641.237632	35407.355664
641.582125	35495.969067
641.926566	35443.203309
642.270955	35416.086943
642.615292	35418.166419
642.959576	35401.276033
643.303809	35405.283750
643.647990	35548.026542
643.992118	35508.551787
644.336195	35513.499679
644.680219	35608.495182
645.024192	35893.491774
645.368112	36413.000322
645.711981	36412.352533
646.055797	37300.666855
646.399562	37221.762715
646.743274	38173.993827
647.086935	38626.470152
647.430544	38501.580607
647.774101	38612.720405
648.117606	38858.338023
648.461059	39162.760701
648.804460	38771.370558
649.147810	38148.624220
649.491108	37900.866632
649.834354	37544.537714
650.177548	36722.872487
650.520690	36260.076920
650.863781	36268.576305
651.206820	36111.413293
651.549807	35684.301533
651.892742	35201.941248
652.235626	35001.875496
652.578458	34872.002770
652.921238	34260.278915
653.263967	34602.711893
653.606644	34272.886841
653.949269	34229.096858
654.291843	33826.656505
654.634365	34239.012808
654.976836	33836.592620
655.319255	33832.690767
655.661622	33827.815971
656.003938	33608.750110
656.346203	33461.676967
656.688416	33676.253680
657.030577	33475.482167
657.372687	33330.554035
657.714746	33589.876030
658.056753	33716.068713
658.398708	33152.508043
658.740612	33208.351424
659.082465	33492.352388
659.424266	33310.288596
659.766016	33418.554937
660.107715	33297.302584
660.449362	33430.048768
660.790958	33409.894235
661.132503	33441.376240
661.473996	33462.561689
661.815438	33564.052719
662.156829	33784.353663
662.498168	33542.577404
662.839456	33565.781835
663.180693	33715.055442
663.521879	33892.531783
663.863013	33839.153526
664.204097	33821.423788
664.545129	34298.916839
664.886110	34245.135289
665.227040	34316.427287
665.567918	34437.420020
665.908746	34504.674054
666.249522	34671.175803
666.590248	34659.576108
666.930922	34783.167557
667.271545	34746.130199
667.612118	34818.778267
667.952639	34601.131491
668.293109	34659.959236
668.633528	34547.130651
668.973896	34475.571472
669.314213	34503.058364
669.654480	34246.783746
669.994695	34262.996097
670.334859	34151.543747
670.674973	34066.718772
671.015035	34221.663677
671.355047	34179.416287
671.695008	34116.971514
672.034918	34006.885317
672.374777	34086.041515
672.714585	33933.178607
673.054342	34162.425078
673.394049	33915.355607
673.733705	34191.845252
674.073310	33855.025599
674.412864	33929.601908
674.752368	33526.322203
675.091820	33819.001513
675.431223	33400.008532
675.770574	33125.752119
676.109875	33001.631349
676.449125	32707.379199
676.788324	32638.229692
677.127473	32096.613164
677.466571	32018.903777
677.805619	31665.377740
678.144616	31667.832782
678.483562	31588.696749
678.822458	31256.020925
679.161303	31191.410976
679.500098	31105.789499
679.838842	30985.666364
680.177535	31138.660342
680.516179	31409.171178
680.854771	31657.001863
681.193314	32527.596530
681.531805	33656.391534
681.870247	34430.748053
682.208638	35168.173079
682.546978	35400.318213
682.885268	35491.300958
683.223508	34963.487109
683.561697	34623.907424
683.899836	34425.747228
684.237925	33899.957403
684.575963	33758.026237
684.913951	33295.928870
685.251889	33452.643219
685.589776	33441.950932
685.927614	33425.834363
686.265401	33554.842531
686.603137	33663.789427
686.940824	34178.524003
687.278460	34563.625307
687.616046	34698.297211
687.953582	35298.134025
688.291068	35178.825037
688.628504	35457.497501
688.965889	35375.309049
689.303224	34995.228734
689.640510	34651.162423
689.977745	33905.913526
690.314930	33109.995992
690.652065	32578.063521
690.989150	31842.072703
691.326185	30938.801278
691.663170	30228.701826
692.000105	29473.390787
692.336990	28786.173133
692.673825	28320.156268
693.010610	27817.207911
693.347345	27230.094969
693.684030	26584.121515
694.020665	26287.971371
694.357251	25620.903209
694.693786	25567.126700
695.030272	25338.001217
695.366707	24791.058710
695.703093	24493.310519
696.039429	24486.444468
696.375716	24229.776640
696.711952	24187.317522
697.048139	24030.824983
697.384276	23846.442261
697.720363	23980.736079
698.056400	23760.591411
698.392388	23568.011772
698.728326	23516.937322
699.064214	23306.023007
699.400053	23262.722016
699.735842	22889.580849
700.071581	22611.309157
700.407270	22321.954488
700.742910	22131.275364
701.078501	21864.656299
701.414042	21582.739852
701.749533	21281.619130
702.084974	20918.164541
702.420366	21139.040176
702.755709	20686.011845
703.091002	20389.264323
703.426246	20412.367932
703.761440	20315.481996
704.096584	20035.345077
704.431679	19995.096504
704.766725	19895.080012
705.101721	19831.727832
705.436668	19933.738100
705.771565	19614.068452
706.106413	19948.307035
706.441212	19925.158056
706.775961	20065.075281
707.110661	20129.786053
707.445311	20494.233749
707.779913	20328.974644
708.114465	20581.186092
708.448967	20857.282526
708.783421	21560.173127
709.117825	21822.681132
709.452180	22058.501267
709.786485	22448.099281
710.120742	23259.853599
710.454949	23265.350977
710.789107	23739.000149
711.123216	24445.013745
711.457275	24581.603808
711.791286	25115.769511
712.125247	25170.733212
712.459159	24879.853593
712.793023	25533.587904
713.126837	24432.589821
713.460602	24682.000908
713.794318	24317.800228
714.127985	23917.890534
714.461602	23021.399461
714.795171	22978.612667
715.128691	21961.605249
715.462162	21417.720202
715.795584	20992.428299
716.128957	20730.996581
716.462281	20312.895884
716.795556	20086.409444
717.128782	19588.913095
717.461960	19038.567809
717.795088	18966.214648
718.128167	18560.805056
718.461198	18103.348071
718.794180	17948.693033
719.127113	17590.430832
719.459997	17383.854429
719.792833	17032.324689
720.125619	17005.034403
720.458357	16679.259918
720.791046	16507.906058
721.123686	16353.303951
721.456278	16111.232785
721.788821	16071.057309
722.121315	15809.799511
722.453761	15884.832045
722.786158	15812.862012
723.118506	15814.437373
723.450805	15682.749831
723.783056	15838.428224
724.115259	15736.448202
724.447412	15674.540312
724.779518	15911.938329
725.111574	15930.651092
725.443582	16142.258566
725.775542	16106.284892
726.107453	16590.770024
726.439315	16468.373329
726.771129	16862.125253
727.102895	17233.988487
727.434612	17462.322509
727.766281	17576.020693
728.097901	17837.696907
728.429473	17868.763018
728.760996	17854.078137
729.092471	17941.464018
729.423897	17812.657496
729.755276	17684.657559
730.086606	17799.182492
730.417887	18327.145055
730.749120	18838.678497
731.080305	19013.011679
731.411442	19349.740592
731.742530	19421.486293
732.073570	19518.737713
732.404562	19807.462237
732.735506	19624.440627
733.066401	19340.759776
733.397249	18819.443975
733.728048	18181.458229
734.058798	17346.948142
734.389501	16649.854867
734.720156	16184.140472
735.050762	15660.830894
735.381320	15304.519620
735.711831	15067.552622
736.042293	14703.243557
736.372707	14719.231576
736.703073	14517.068704
737.033391	14692.894068
737.363661	14657.895857
737.693883	14762.668678
738.024056	14933.026911
738.354182	15121.460200
738.684260	15404.780608
739.014290	15629.366533
739.344272	15819.118084
739.674207	16101.626866
740.004093	16214.042076
740.333931	16199.647062
740.663722	16243.845378
740.993464	16235.088894
741.323159	16059.402162
741.652806	15780.981755
741.982405	15565.064095
742.311956	15233.900616
742.641460	15117.606238
742.970915	14801.450275
743.300323	14474.145800
743.629683	14251.614145
743.958996	13978.146673
744.288260	13705.521073
744.617477	13410.028799
744.946647	13341.257378
745.275768	13051.862380
745.604842	12877.632541
745.933869	12702.906149
746.262847	12654.848829
746.591778	12577.948548
746.920662	12470.879481
747.249498	12469.735139
747.578286	12590.707708
747.907027	12734.118453
748.235720	12952.171042
748.564365	12993.473215
748.892963	12877.582130
749.221514	12946.398921
749.550017	12798.277218
749.878473	12765.804625
750.206881	12529.470292
750.535242	12444.312601
750.863555	12356.087367
751.191821	12253.867891
751.520039	12278.511571
751.848210	12183.153105
752.176334	12221.052500
752.504411	12118.961572
752.832440	11962.229579
753.160421	12025.480936
753.488356	11904.042061
753.816243	11805.976495
754.144082	11667.990032
754.471875	11606.487955
754.799620	11551.632639
755.127318	11525.695903
755.454969	11488.061169
755.782572	11440.376894
756.110129	11445.201279
756.437638	11370.317459
756.765100	11359.829338
757.092515	11360.885460
757.419882	11380.530837
757.747203	11384.659542
758.074477	11450.615478
758.401703	11412.479149
758.728882	11575.923439
759.056014	11610.883841
759.383099	11731.821122
759.710138	11830.254692
760.037129	11910.673698
760.364073	11925.913107
760.690970	11914.913309
761.017820	11920.198959
761.344623	12104.916918
761.671379	12431.671907
761.998088	13068.533476
762.324751	14616.460093
762.651366	17508.320518
762.977935	21184.584481
763.304456	23415.007712
763.630931	23908.803854
763.957359	22718.504252
764.283740	20797.428906
764.610074	18918.200178
764.936362	16765.735871
765.262602	15245.570888
765.588796	13762.337397
765.914943	12728.119480
766.241044	11874.745395
766.567097	11236.303425
766.893104	10686.167347
767.219064	10316.043311
767.544978	9930.934445
767.870845	9617.178071
768.196665	9424.747146
768.522438	9236.364268
768.848165	9064.176097
769.173846	8894.692505
769.499479	8773.629195
769.825066	8617.519784
770.150607	8432.307792
770.476101	8368.068368
770.801548	8257.609126
771.126949	8114.122764
771.452303	8033.048407
771.777611	7861.686985
772.102872	7840.347781
772.428087	7723.894606
772.753256	7600.681244
773.078378	7513.587750
773.403453	7367.724484
773.728482	7267.012312
774.053465	7199.980090
774.378401	7110.151769
774.703291	7019.501741
775.028135	6920.685043
775.352932	6880.292798
775.677683	6799.639378
776.002388	6717.173662
776.327046	6711.099072
776.651658	6627.017667
776.976224	6549.537653
777.300743	6532.967380
777.625216	6461.135979
777.949643	6420.012767
778.274024	6427.110711
778.598359	6355.377613
778.922647	6358.608992
779.246889	6320.785215
779.571086	6330.186967
779.895236	6340.460838
780.219339	6331.747204
780.543397	6331.454817
780.867409	6380.457353
781.191374	6370.932093
781.515294	6344.786148
781.839167	6393.322378
782.162995	6366.649633
782.486776	6317.531150
782.810511	6278.094204
783.134201	6206.265323
783.457844	6192.419794
783.781441	6143.818030
784.104993	6095.972439
784.428498	6067.494961
784.751958	6053.546088
785.075372	6025.693713
785.398739	5989.231047
785.722061	6012.024624
786.045337	6012.203585
786.368568	6119.181911
786.691752	6147.092259
787.014891	6396.624333
787.337983	6674.918711
787.661030	7114.275433
787.984031	7538.924589
788.306987	7807.320661
788.629897	7896.012201
788.952760	7809.165723
789.275579	7629.778784
789.598351	7328.237126
789.921078	7064.166364
790.243759	6783.517768
790.566395	6584.261121
790.888984	6385.246449
791.211529	6245.850984
791.534027	6080.942238
791.856480	5942.910405
792.178888	5876.165528
792.501249	5813.665303
792.823566	5705.555238
793.145836	5701.615576
793.468062	5687.777609
793.790241	5644.166587
794.112375	5685.022618
794.434464	5780.555004
794.756507	5810.698584
795.078505	5936.311535
795.400457	6151.556201
795.722364	6393.287090
796.044226	6580.984371
796.366042	6744.481593
796.687812	6689.192738
797.009538	6724.432924
797.331218	6629.003882
797.652852	6558.296658
797.974442	6439.995901
798.295986	6364.333222
798.617484	6239.980560
798.938938	6131.106760
799.260346	6062.746194
799.581709	5922.166057
799.903026	5871.121854
800.224299	5797.331964
800.545526	5680.997257
800.866708	5612.455209
801.187845	5561.615172
801.508936	5487.053986
801.829983	5459.753617
802.150984	5349.690106
802.471940	5324.262526
802.792851	5308.836595
803.113717	5284.878511
803.434538	5264.361015
803.755314	5226.587649
804.076045	5215.560125
804.396731	5180.345145
804.717372	5191.438204
805.037967	5195.922310
805.358518	5228.941868
805.679024	5282.103356
805.999485	5293.945026
806.319901	5311.954548
806.640272	5327.839224
806.960598	5373.186924
807.280879	5370.832705
807.601115	5406.813940
807.921306	5369.726172
808.241453	5364.415316
808.561554	5372.251790
808.881611	5340.386656
809.201623	5335.743753
809.521590	5286.489160
809.841513	5266.609370
810.161390	5285.521258
810.481223	5199.897260
810.801011	5188.458882
811.120755	5161.907125
811.440453	5106.426706
811.760107	5077.155246
812.079716	5051.500814
812.399281	5005.422148
812.718801	4996.453935
813.038276	4959.686279
813.357707	4924.617493
813.677093	4950.622285
813.996434	4883.411101
814.315731	4905.524123
814.634983	4904.568824
814.954191	4909.047889
815.273354	4970.859997
815.592473	5009.989433
815.911547	5087.648408
816.230577	5140.855266
816.549562	5231.706941
816.868502	5283.950939
817.187399	5339.688456
817.506250	5416.810548
817.825058	5444.932625
818.143821	5602.360298
818.462539	5774.629128
818.781213	6004.019272
819.099843	6370.087700
819.418429	7003.221335
819.736970	7630.887838
820.055466	8349.708486
820.373919	9274.472871
820.692327	10735.467311
821.010691	13465.282366
821.329011	19753.244628
821.647286	29406.857638
821.965517	39848.705464
822.283704	45374.495676
822.601847	46902.870179
822.919945	42278.324848
823.237999	37117.161294
823.556010	31875.430018
823.873976	27120.888453
824.191897	22862.882898
824.509775	19750.502240
824.827609	16949.808563
825.145398	15363.790986
825.463144	14602.561632
825.780845	14890.320776
826.098502	16157.528221
826.416116	18648.707656
826.733685	20949.354160
827.051210	21474.155919
827.368692	20037.255674
827.686129	17445.790045
828.003522	14944.034270
828.320872	12703.548896
828.638177	11031.027640
828.955439	9778.104305
829.272656	8699.756127
829.589830	7849.946138
829.906960	7105.597087
830.224046	6571.401137
830.541088	6154.787581
830.858086	5895.576491
831.175041	5686.005643
831.491952	5626.956088
831.808819	5660.119318
832.125642	5910.069808
832.442421	6458.408715
832.759157	7587.647341
833.075849	9371.930978
833.392497	11232.073897
833.709101	12363.036598
834.025662	12112.093000
834.342179	11046.108252
834.658653	9732.297860
834.975083	8615.021892
835.291469	7702.179836
835.607811	6957.235929
835.924110	6429.943840
836.240366	5937.614673
836.556578	5478.486545
836.872746	5118.943891
837.188871	4846.721583
837.504952	4622.183550
837.820990	4450.801963
838.136984	4333.206968
838.452935	4284.217034
838.768842	4316.961849
839.084706	4600.294860
839.400526	5348.432338
839.716303	6263.434528
840.032037	6833.707495
840.347727	6686.692326
840.663373	6082.212609
840.978977	5500.284494
841.294537	5055.221186
841.610054	4718.971183
841.925527	4474.838185
842.240957	4265.612656
842.556344	4081.028287
842.871687	3923.565327
843.186987	3767.753343
843.502244	3647.932678
843.817458	3558.064029
844.132629	3485.083244
844.447756	3436.562139
844.762840	3391.474059
845.077881	3355.157586
845.392879	3318.977225
845.707833	3290.630817
846.022745	3266.231632
846.337613	3251.632451
846.652438	3230.131930
846.967221	3222.471897
847.281960	3199.479194
847.596656	3192.383770
847.911309	3178.843231
848.225919	3165.161539
848.540485	3154.076042
848.855009	3150.660660
849.169490	3136.321098
849.483928	3128.363637
849.798323	3125.744757
850.112675	3111.435442
850.426984	3112.428549
850.741251	3106.749689
851.055474	3101.693412
851.369654	3106.691716
851.683792	3099.739965
851.997887	3105.451592
852.311938	3104.408073
852.625947	3106.132148
852.939914	3096.871548
853.253837	3103.026797
853.567718	3099.190479
853.881555	3095.054212
854.195350	3100.791046
854.509103	3098.368771
854.822812	3094.620673
855.136479	3090.688573
855.450103	3096.493462
855.763685	3085.365115
856.077224	3093.635128
856.390720	3098.593103
856.704173	3107.067282
857.017584	3115.440639
857.330953	3117.227728
857.644278	3129.770118
857.957561	3132.096611
858.270802	3130.077629
858.584000	3128.497227
858.897155	3121.243007
859.210268	3110.502828
859.523339	3097.214347
859.836367	3096.685026
860.149352	3092.853749
860.462295	3087.585743
860.775195	3079.305648
861.088054	3077.929413
861.400869	3073.410018
861.713642	3070.828948
862.026373	3083.416709
862.339062	3084.021647
862.651708	3094.789552
862.964312	3115.450721
863.276873	3121.268213
863.589392	3151.689055
863.901869	3175.783250
864.214303	3196.638504
864.526696	3218.204560
864.839045	3236.506469
865.151353	3249.694127
865.463619	3246.586256
865.775842	3247.808736
866.088023	3253.434663
866.400162	3248.869899
866.712258	3247.221441
867.024313	3245.973756
867.336325	3245.031060
867.648296	3252.176896
867.960224	3248.295207
868.272110	3250.924169
868.583954	3250.483068
868.895755	3254.526073
869.207515	3254.740322
869.519233	3273.841254
869.830909	3280.286369
870.142542	3293.509316
870.454134	3298.719348
870.765684	3309.850216
871.077191	3330.569358
871.388657	3341.354907
871.700081	3356.281764
872.011463	3381.235475
872.322803	3398.090573
872.634101	3418.013213
872.945357	3436.136161
873.256571	3466.685553
873.567744	3480.359683
873.878874	3488.256651
874.189963	3503.559073
874.501010	3506.939167
874.812015	3500.115965
875.122979	3521.513143
875.433900	3518.730426
875.744780	3518.947195
876.055618	3527.345758
876.366415	3527.358361
876.677169	3533.627035
876.987882	3551.530693
877.298554	3570.245977
877.609183	3609.997996
877.919771	3657.349554
878.230317	3727.910584
878.540822	3830.230884
878.851285	3985.311899
879.161707	4218.782858
879.472087	4602.414665
879.782425	5242.520216
880.092722	6450.040400
880.402977	8418.936131
880.713191	10838.954638
881.023363	13268.858847
881.333494	14638.459689
881.643583	15101.943373
881.953631	14702.502507
882.263637	13850.686139
882.573602	12800.696972
882.883526	11817.417393
883.193408	10846.337408
883.503248	9908.765971
883.813048	9063.432527
884.122806	8279.144935
884.432522	7499.878332
884.742197	6817.101935
885.051831	6237.845631
885.361424	5733.420216
885.670975	5328.756714
885.980485	4995.859079
886.289954	4724.226586
886.599382	4503.766846
886.908768	4316.127538
887.218113	4148.330212
887.527417	4013.698637
887.836680	3883.944378
888.145901	3783.980818
888.455082	3708.824776
888.764221	3635.665030
889.073319	3576.670928
889.382376	3543.956360
889.691392	3519.050539
890.000366	3511.433356
890.309300	3506.558560
890.618193	3509.956297
890.927044	3500.632683
891.235855	3510.122656
891.544625	3523.017927
891.853353	3553.373235
892.162041	3610.492029
892.470687	3707.234292
892.779293	3829.883044
893.087858	4007.077081
893.396381	4289.492602
893.704864	4713.839289
894.013306	5295.142300
894.321707	5875.190065
894.630068	6245.798052
894.938387	6284.801459
895.246665	6108.043482
895.554903	5782.634480
895.863100	5440.395587
896.171256	5162.340664
896.479371	4915.813117
896.787446	4682.223692
897.095480	4485.222962
897.403473	4331.243438
897.711425	4182.189122
898.019336	4056.843352
898.327207	3932.296605
898.635038	3830.334227
898.942827	3723.885223
899.250576	3632.814258
899.558284	3546.398799
899.865952	3491.082218
900.173579	3422.565375
900.481165	3378.530896
900.788711	3333.982220
901.096216	3303.642035
901.403681	3274.902417
901.711105	3262.090325
902.018489	3255.846856
902.325832	3292.087711
902.633135	3351.739684
902.940397	3526.400541
903.247619	3938.361113
903.554800	4708.994740
903.861941	5699.785637
904.169041	6424.358241
904.476101	6641.717672
904.783121	6363.612337
905.090100	5950.915757
905.397039	5526.357342
905.703938	5159.126928
906.010796	4828.444880
906.317614	4570.993153
906.624391	4321.506449
906.931129	4121.377683
907.237826	3933.468673
907.544483	3755.687342
907.851099	3583.375662
908.157675	3417.985487
908.464211	3275.691358
908.770707	3169.620440
909.077163	3085.846545
909.383578	3024.936804
909.689954	2979.407623
909.996289	2949.753035
910.302584	2927.957607
910.608839	2918.543252
910.915054	2901.791498
911.221229	2899.369223
911.527363	2902.225037
911.833458	2909.317940
912.139513	2923.395362
912.445527	2933.339038
912.751502	2975.674648
913.057436	3019.898170
913.363331	3075.434042
913.669186	3167.009122
913.975000	3289.499078
914.280775	3477.357676
914.586510	3751.878750
914.892205	4139.987102
915.197859	4650.018281
915.503475	5248.730918
915.809050	5757.645481
916.114585	6057.276542
916.420081	6124.109639
916.725536	6056.898455
917.030952	5815.054141
917.336328	5599.852324
917.641665	5387.148399
917.946961	5148.716946
918.252218	4947.736224
918.557435	4715.162592
918.862612	4510.819420
919.167750	4332.130681
919.472848	4139.674551
919.777906	3968.970999
920.082925	3798.479176
920.387904	3646.753048
920.692843	3528.091848
920.997743	3426.288267
921.302603	3329.687157
921.607423	3261.303905
921.912204	3196.613298
922.216946	3144.749907
922.521647	3095.220571
922.826310	3054.283881
923.130932	3014.708303
923.435516	2971.195583
923.740059	2943.378496
924.044564	2912.730801
924.349028	2886.385731
924.653454	2859.899509
924.957840	2829.834067
925.262186	2809.283804
925.566493	2786.951492
925.870761	2763.439551
926.174989	2753.296749
926.479178	2733.469891
926.783328	2719.944475
927.087438	2706.345963
927.391509	2694.007739
927.695541	2681.513239
927.999533	2671.138544
928.303486	2664.617812
928.607400	2659.289312
928.911275	2648.554175
929.215110	2645.171561
929.518906	2641.098309
929.822663	2641.110912
930.126381	2641.688124
930.430060	2644.070069
930.733699	2646.081489
931.037299	2650.041316
931.340861	2649.980822
931.644383	2652.866882
931.947866	2652.390493
932.251309	2649.007879
932.554714	2645.791623
932.858080	2646.499905
933.161407	2642.139307
933.464694	2637.602268
933.767943	2636.001702
934.071153	2629.985085
934.374323	2625.627007
934.677455	2624.036523
934.980548	2620.074177
935.283602	2618.554269
935.586617	2613.697117
935.889593	2621.130298
936.192530	2619.839763
936.495428	2625.516102
936.798287	2635.197638
937.101108	2652.718168
937.403890	2672.406395
937.706632	2697.869263
938.009336	2735.801425
938.312002	2764.266300
938.614628	2785.171965
938.917216	2807.700882
939.219765	2819.030875
939.522275	2826.532112
939.824747	2827.757112
940.127179	2820.341575
940.429573	2816.303611
940.731929	2813.674649
941.034246	2807.027887
941.336524	2803.857002
941.638763	2796.514561
941.940964	2792.481638
942.243126	2772.957249
942.545250	2766.658327
942.847335	2747.635533
943.149381	2735.912330
943.451389	2722.225597
943.753359	2707.679348
944.055290	2695.416741
944.357182	2689.475742
944.659036	2685.276460
944.960851	2680.104237
945.262628	2676.736746
945.564367	2678.342353
945.866067	2674.783299
946.167729	2673.230623
946.469352	2671.854388
946.770937	2671.236847
947.072484	2662.923984
947.373992	2664.343069
947.675462	2659.516164
947.976893	2656.108344
948.278286	2651.505771
948.579641	2647.248516
948.880958	2644.460758
949.182236	2646.648619
949.483476	2641.312558
949.784678	2640.982362
950.085841	2639.280973
950.386967	2643.555871
950.688054	2650.265647
950.989103	2659.644714
951.290114	2669.427073
951.591087	2681.397292
951.892021	2691.900537
952.192917	2705.196580
952.493776	2716.463559
952.794596	2724.171483
953.095378	2721.164435
953.396122	2715.238558
953.696828	2715.757797
953.997496	2708.879143
954.298126	2700.757844
954.598718	2693.685105
954.899272	2680.570543
955.199788	2668.451609
955.500266	2657.870227
955.800706	2641.002527
956.101108	2623.570217
956.401472	2612.320882
956.701798	2599.004674
957.002087	2585.078487
957.302337	2573.995510
957.602550	2560.812892
957.902724	2553.152859
958.202861	2539.009902
958.502960	2534.553522
958.803022	2526.442306
959.103045	2517.274967
959.403031	2507.346415
959.702979	2504.785509
960.002889	2503.326095
960.302762	2494.988026
960.602596	2491.434013
960.902393	2488.174907
961.202153	2485.109885
961.501875	2483.184164
961.801559	2484.202477
962.101205	2475.703092
962.400814	2477.480099
962.700385	2472.272587
962.999918	2473.389202
963.299414	2466.944087
963.598873	2469.900724
963.898293	2463.770681
964.197677	2464.509210
964.497022	2464.610033
964.796331	2465.109107
965.095601	2463.173304
965.394835	2462.207923
965.694030	2464.607513
965.993189	2459.881431
966.292309	2458.444702
966.591393	2462.497790
966.890439	2460.176338
967.189447	2461.981071
967.488419	2460.584672
967.787353	2461.572738
968.086249	2458.603498
968.385108	2461.519806
968.683930	2458.449743
968.982714	2463.952162
969.281462	2463.841257
969.580172	2466.853347
969.878844	2467.498614
970.177480	2468.937864
970.476078	2474.440283
970.774639	2476.779378
971.073162	2481.747436
971.371649	2481.258444
971.670098	2477.908597
971.968510	2482.811119
972.266885	2479.196612
972.565223	2486.498723
972.863524	2486.314721
973.161788	2489.641883
973.460014	2490.458549
973.758204	2493.180773
974.056356	2489.500730
974.354471	2494.090701
974.652550	2493.349651
974.950591	2494.047851
975.248595	2492.051554
975.546563	2488.318580
975.844493	2490.453508
976.142386	2485.828250
976.440243	2481.903711
976.738062	2482.591829
977.035845	2480.625779
977.333590	2475.524131
977.631299	2475.887094
977.928971	2475.677886
978.226606	2473.734522
978.524204	2471.380303
978.821765	2470.296455
979.119290	2468.269911
979.416777	2467.664972
979.714228	2467.710343
980.011642	2469.512555
980.309020	2476.239975
980.606360	2478.251395
980.903664	2488.941162
981.200931	2500.445075
981.498162	2520.027437
981.795356	2552.994063
982.092513	2594.505444
982.389633	2634.890128
982.686717	2681.019206
982.983764	2713.660677
983.280775	2734.228585
983.577749	2734.871332
983.874686	2724.897409
984.171587	2705.930068
984.468451	2690.678057
984.765279	2671.856909
985.062070	2654.464928
985.358824	2632.961886
985.655543	2609.986828
985.952224	2587.286512
986.248869	2560.538150
986.545478	2529.966072
986.842050	2510.802126
987.138586	2490.319918
987.435086	2478.321972
987.731549	2467.733028
988.027975	2461.373612
988.324366	2455.172993
988.620719	2448.405244
988.917037	2448.730398
989.213318	2442.439038
989.509563	2443.142279
989.805772	2435.530137
990.101944	2435.141968
990.398080	2436.697164
990.694180	2435.383944
990.990244	2435.489808
991.286271	2433.080136
991.582262	2435.063830
991.878217	2436.470312
992.174136	2436.586259
992.470019	2438.673297
992.765865	2438.912751
993.061676	2444.286621
993.357450	2445.216714
993.653188	2447.616303
993.948890	2453.809361
994.244556	2459.969651
994.540186	2469.449541
994.835780	2482.859010
995.131337	2495.144302
995.426859	2515.621469
995.722345	2535.105528
996.017795	2554.024979
996.313208	2570.315467
996.608586	2578.628330
996.903928	2582.424319
997.199234	2583.500605
997.494504	2578.661098
997.789738	2570.365879
998.084936	2561.180897
998.380099	2547.100954
998.675225	2538.520910
998.970316	2523.294105
999.265371	2509.433453
999.560390	2494.612460
999.855373	2484.073928
1000.150320	2473.142186
1000.445232	2464.468881
1000.740108	2458.936214
1001.034948	2453.206943
1001.329752	2444.614296
1001.624521	2440.641867
1001.919254	2431.751792
1002.213951	2434.584921
1002.508613	2426.236770
1002.803239	2426.798859
1003.097829	2422.171079
1003.392384	2427.973447
1003.686903	2425.856163
1003.981386	2424.026224
1004.275834	2425.213416
1004.570246	2422.660071
1004.864623	2422.609660
1005.158964	2420.172262
1005.453270	2420.315935
1005.747540	2418.236459
1006.041775	2418.649833
1006.335974	2419.007755
1006.630138	2417.712179
1006.924266	2415.778896
1007.218359	2414.362332
1007.512416	2415.909966
1007.806438	2413.843093
1008.100425	2414.238824
1008.394376	2413.245717
1008.688292	2413.248237
1008.982172	2413.898546
1009.276017	2412.058525
1009.569827	2413.107085
1009.863602	2413.807805
1010.157341	2411.723288
1010.451045	2411.980387
1010.744714	2410.767989
1011.038347	2412.872671
1011.331945	2412.797054
1011.625508	2409.202711
1011.919036	2409.953843
1012.212528	2410.445356
1012.505986	2411.405695
1012.799408	2410.878895
1013.092795	2409.974008
1013.386147	2409.245561
1013.679464	2409.542989
1013.972745	2412.955850
1014.265992	2410.185736
1014.559204	2410.687331
1014.852380	2410.823442
1015.145521	2410.644481
1015.438628	2410.253792
1015.731699	2411.055335
1016.024736	2411.425860
1016.317737	2410.301683
1016.610703	2411.201529
1016.903635	2410.420150
1017.196531	2409.868143
1017.489393	2410.846127
1017.782219	2408.592732
1018.075011	2415.975501
1018.367768	2411.193967
1018.660490	2410.233627
1018.953177	2410.233627
1019.245829	2410.233627
