Dividing Wavelength (nm)	Counts (n)	Blue Motor Position (mm): 26.000000	Red Motor Position (mm): 0.000000	
326.493990	1970.619806
326.888308	1970.619806
327.282561	1970.619806
327.676750	1946.911259
328.070874	1948.264809
328.464933	1954.299070
328.858929	1966.082767
329.252859	1975.625672
329.646726	1991.694350
330.040528	2005.552482
330.434265	2025.621315
330.827938	2045.836342
331.221547	2063.999619
331.615091	2086.490727
332.008571	2104.961515
332.401986	2126.119238
332.795338	2145.872999
333.188625	2167.431493
333.581847	2186.202230
333.975006	2203.190918
334.368100	2221.039123
334.761129	2238.731053
335.154095	2253.872158
335.546996	2291.421193
335.939833	2362.065402
336.332606	2375.603421
336.725315	2388.271840
337.117960	2395.410114
337.510540	2402.049314
337.903056	2415.733526
338.295508	2419.118661
338.687896	2426.849270
339.080220	2436.850919
339.472480	2439.343770
339.864676	2440.578853
340.256807	2446.640840
340.648875	2448.027157
341.040879	2452.619649
341.432818	2451.566048
341.824694	2452.410441
342.216506	2450.966150
342.608253	2451.593774
342.999937	2450.504885
343.391557	2449.970522
343.783113	2449.569751
344.174605	2445.612445
344.566033	2445.859461
344.957397	2442.471806
345.348697	2441.808894
345.739934	2442.759152
346.131106	2438.491815
346.522215	2433.478387
346.913260	2436.258584
347.304241	2433.775816
347.695159	2431.393870
348.086012	2431.005702
348.476802	2429.531164
348.867528	2424.250555
349.258191	2427.625608
349.648789	2422.377767
350.039324	2424.714342
350.429796	2424.621080
350.820203	2420.923394
351.210548	2419.463980
351.600828	2418.377611
351.991045	2420.159659
352.381198	2419.075811
352.771288	2417.860893
353.161314	2419.590009
353.551276	2419.043043
353.941175	2419.383321
354.331010	2420.434402
354.720782	2420.517581
355.110490	2424.550504
355.500135	2418.601943
355.889717	2419.978177
356.279235	2422.060174
356.668689	2420.383990
357.058080	2423.499423
357.447408	2420.913312
357.836672	2420.164700
358.225873	2419.345513
358.615010	2418.841397
359.004084	2423.771646
359.393095	2422.987746
359.782043	2424.893303
360.170927	2423.905236
360.559748	2425.664599
360.948505	2426.897161
361.337199	2428.548139
361.725830	2428.782553
362.114398	2428.825403
362.502903	2426.962696
362.891344	2429.092584
363.279722	2430.584765
363.668037	2431.303130
364.056289	2430.468819
364.444478	2431.267842
364.832603	2429.085022
365.220665	2432.762544
365.608665	2431.406473
365.996601	2434.184149
366.384474	2430.937646
366.772284	2433.692637
367.160031	2433.677513
367.547715	2434.768923
367.935336	2432.994437
368.322893	2432.197934
368.710388	2434.521906
369.097820	2437.735642
369.485189	2437.108018
369.872495	2437.251691
370.259738	2439.613472
370.646918	2436.896290
371.034035	2438.484253
371.421090	2436.563574
371.808081	2437.937288
372.195010	2437.191197
372.581875	2437.912082
372.968678	2438.564912
373.355418	2439.313523
373.742096	2438.491815
374.128710	2437.455858
374.515262	2441.423246
374.901751	2443.558175
375.288177	2440.747731
375.674540	2440.883842
376.060841	2443.124635
376.447079	2444.538679
376.833254	2441.977773
377.219367	2438.517021
377.605417	2440.788061
377.991404	2439.782350
378.377329	2442.663370
378.763191	2439.951229
379.148991	2443.875767
379.534727	2445.153700
379.920402	2445.383072
380.306013	2446.212342
380.691563	2446.126642
381.077049	2445.294852
381.462474	2447.417178
381.847835	2448.513629
382.233134	2448.332147
382.618371	2447.933896
383.003545	2448.737960
383.388657	2446.638320
383.773706	2452.849021
384.158693	2449.395831
384.543618	2449.506736
384.928480	2448.115378
385.313280	2448.730398
385.698017	2452.939762
386.082692	2453.917746
386.467305	2452.115533
386.851856	2452.665019
387.236344	2452.390276
387.620770	2454.804989
388.005133	2451.513115
388.389435	2453.532097
388.773674	2454.011007
389.157851	2455.621656
389.541965	2454.051336
389.926018	2453.211984
390.310008	2454.948662
390.693936	2453.935390
391.077802	2455.745164
391.461606	2457.257510
391.845348	2458.389249
392.229027	2458.318673
392.612645	2458.129630
392.996200	2458.157356
393.379694	2460.758592
393.763125	2457.955710
394.146494	2458.172480
394.529801	2462.205403
394.913047	2459.727676
395.296230	2461.678602
395.679351	2461.358489
396.062410	2459.858746
396.445408	2462.207923
396.828343	2462.984261
397.211217	2457.544856
397.594028	2460.118365
397.976778	2458.036368
398.359466	2462.177676
398.742092	2459.011832
399.124656	2461.292954
399.507158	2464.073150
399.889598	2465.935857
400.271977	2463.740434
400.654294	2466.649180
401.036549	2467.029787
401.418742	2468.184211
401.800874	2465.739252
402.182944	2466.881073
402.564952	2466.223202
402.946898	2465.497276
403.328783	2468.469036
403.710606	2467.465847
404.092367	2469.474747
404.474067	2470.246043
404.855705	2468.763944
405.237282	2471.559264
405.618797	2471.153451
406.000250	2470.596403
406.381642	2472.280149
406.762972	2471.980200
407.144240	2470.177988
407.525447	2476.759214
407.906593	2473.860550
408.287677	2472.340643
408.668700	2475.057824
409.049661	2478.261478
409.430560	2474.238637
409.811399	2476.544965
410.192176	2478.551344
410.572891	2476.706282
410.953545	2478.619400
411.334138	2476.547485
411.714669	2478.059832
412.095139	2478.450521
412.475547	2475.836683
412.855894	2480.623258
413.236180	2477.840541
413.616405	2479.141159
413.996568	2478.357260
414.376670	2481.671818
414.756711	2479.425984
415.136691	2481.553351
415.516609	2479.642754
415.896466	2480.678711
416.276262	2481.230717
416.655997	2480.766931
417.035670	2478.848772
417.415283	2480.998824
417.794834	2478.117805
418.174324	2483.297590
418.553753	2486.904536
418.933121	2485.074597
419.312428	2485.871099
419.691674	2484.691469
420.070859	2486.833960
420.449983	2487.665750
420.829045	2486.816316
421.208047	2483.970584
421.586988	2491.696153
421.965867	2488.931080
422.344686	2490.261944
422.723444	2492.462408
423.102141	2487.161635
423.480777	2492.381750
423.859352	2491.481904
424.237866	2492.817809
424.616319	2492.401914
424.994712	2495.658500
425.373044	2496.495331
425.751314	2497.493480
426.129524	2495.711432
426.507673	2498.564725
426.885762	2495.368633
427.263789	2496.273520
427.641756	2498.085815
428.019662	2499.474653
428.397508	2500.649242
428.775292	2500.533295
429.153016	2502.098574
429.530679	2502.983296
429.908282	2504.382216
430.285824	2501.019767
430.663305	2504.737618
431.040726	2500.997082
431.418086	2504.732577
431.795385	2506.272649
432.172624	2508.672238
432.549802	2505.791219
432.926920	2511.583505
433.303977	2509.922444
433.680974	2512.327075
434.057910	2511.255830
434.434786	2514.025944
434.811601	2517.746315
435.188355	2517.907632
435.565050	2519.409896
435.941683	2517.501819
436.318257	2518.804958
436.694770	2518.505009
437.071222	2521.108765
437.447614	2519.611542
437.823946	2520.455935
438.200218	2527.460619
438.576429	2525.910464
438.952580	2532.917668
439.328670	2529.315763
439.704700	2531.775846
440.080670	2530.918850
440.456580	2535.516383
440.832429	2538.220962
441.208218	2539.448483
441.583947	2543.030222
441.959616	2542.458051
442.335224	2544.083823
442.710773	2547.854607
443.086261	2549.321582
443.461689	2551.622869
443.837057	2557.594116
444.212365	2562.910012
444.587612	2565.791032
444.962800	2569.110632
445.337927	2577.786457
445.712995	2575.848134
446.088002	2586.182499
446.462949	2597.711618
446.837837	2603.047679
447.212664	2611.847013
447.587431	2636.407515
447.962139	2668.925478
448.336786	2691.116637
448.711374	2695.867925
449.085901	2682.037519
449.460369	2693.180990
449.834776	2712.259236
450.209124	2749.987232
450.583412	2766.244953
450.957640	2791.100362
451.331808	2798.614202
451.705917	2803.035294
452.079965	2827.941114
452.453954	2857.731813
452.827883	2886.562172
453.201752	2912.715678
453.575562	2947.058538
453.949311	3004.815038
454.323001	3047.117881
454.696632	3085.148345
455.070202	3164.939728
455.443713	3222.613049
455.817164	3288.183337
456.190556	3359.177907
456.563888	3401.586613
456.937160	3467.567755
457.310373	3475.492449
457.683526	3555.911456
458.056619	3624.970222
458.429653	3695.075028
458.802628	3801.793735
459.175542	3894.218249
459.548398	4054.927713
459.921194	4244.817897
460.293930	4416.081016
460.666607	4663.304242
461.039224	4905.662754
461.411782	5055.906783
461.784280	5079.096091
462.156719	5149.737779
462.529099	5220.961722
462.901419	5232.533690
463.273680	5266.067446
463.645882	5406.277057
464.018024	5534.705493
464.390106	5769.502274
464.762130	6240.028451
465.134094	6936.950326
465.505999	7833.222110
465.877845	8668.798401
466.249631	9033.019246
466.621358	8969.871232
466.993026	8858.038275
467.364634	8758.142770
467.736184	8682.727109
468.107674	8702.692599
468.479105	8784.399620
468.850477	8884.015341
469.221790	8844.482612
469.593043	8726.799396
469.964238	8767.884800
470.335373	8954.704921
470.706449	9512.337194
471.077467	10289.443663
471.448425	11541.313397
471.819324	12451.501286
472.190164	12280.785132
472.560945	11691.953157
472.931667	11191.406909
473.302330	11150.878552
473.672934	11178.317553
474.043479	11536.481451
474.413965	11576.336814
474.784393	11695.981038
475.154761	12179.654544
475.525070	12430.494798
475.895321	12555.190259
476.265513	12981.871000
476.635645	13530.126728
477.005719	13739.695055
477.375734	14151.292663
477.745691	14636.178567
478.115588	15366.997160
478.485427	16363.179572
478.855207	17927.310978
479.224928	19296.949629
479.594591	20294.714963
479.964194	20215.707479
480.333739	20605.978486
480.703226	20986.278091
481.072653	21634.315898
481.442022	22217.355587
481.811333	22696.119009
482.180584	22456.729736
482.549777	22558.482906
482.918912	22664.420233
483.287988	22865.431202
483.657005	22800.730513
484.025964	22830.422909
484.394864	23165.984794
484.763706	23279.897227
485.132489	23173.871679
485.501213	23406.984715
485.869879	23824.122552
486.238487	23904.503750
486.607036	24355.961762
486.975527	24372.390883
487.343959	24796.432580
487.712333	25154.667054
488.080648	25411.644913
488.448905	25980.798744
488.817104	26182.384404
489.185244	27073.725939
489.553326	28427.633668
489.921350	30490.438534
490.289315	32801.794970
490.657222	33622.346102
491.025070	34167.050337
491.392861	33829.913091
491.760593	33272.835344
492.128267	32417.046546
492.495883	31681.060770
492.863440	31039.155527
493.230939	30409.908622
493.598380	29952.607912
493.965763	30020.855053
494.333088	29734.623379
494.700354	29664.140487
495.067563	29724.712471
495.434713	29893.480219
495.801805	30209.880678
496.168839	30170.352991
496.535815	30194.820231
496.902733	30455.906630
497.269593	30385.834592
497.636395	30564.571222
498.003139	31098.540320
498.369825	30912.156259
498.736453	31358.195031
499.103023	31234.240619
499.469535	31352.806037
499.835989	31647.343012
500.202385	31591.633221
500.568723	31810.189926
500.935003	32167.648063
501.301226	32212.980639
501.667390	32893.304515
502.033497	33310.807835
502.399546	33026.451470
502.765537	32670.914013
503.131470	33174.880683
503.497345	33636.967968
503.863163	32713.847000
504.228923	33397.303953
504.594625	33916.842748
504.960269	33494.764580
505.325856	34228.207094
505.691385	33841.641335
506.056856	34120.517966
506.422270	34660.513763
506.787625	34432.487251
507.152924	34751.181436
507.518164	34992.496429
507.883347	34459.732167
508.248472	34790.484792
508.613540	35344.265624
508.978550	35749.264362
509.343503	35654.946894
509.708398	35961.617927
510.073236	36548.841774
510.438016	36674.111926
510.802738	36296.312733
511.167403	36966.188818
511.532010	37290.763509
511.896561	37665.906013
512.261053	38556.546828
512.625488	38234.091943
512.989866	38212.220897
513.354186	38168.078033
513.718449	38240.809280
514.082655	38959.125812
514.446803	38750.747198
514.810894	39327.556021
515.174927	39329.454015
515.538904	39306.050458
515.902822	40008.973827
516.266684	39567.575437
516.630488	40034.900481
516.994235	39963.656375
517.357925	40552.563967
517.721558	40797.692593
518.085133	41126.227110
518.448651	41328.725219
518.812112	41161.709271
519.175516	41307.496920
519.538863	41674.162724
519.902152	41686.175794
520.265385	42173.521780
520.628560	42263.972683
520.991678	42096.734925
521.354739	42357.662528
521.717743	42699.548540
522.080690	42654.979699
522.443580	43201.405488
522.806413	43285.272644
523.169189	43278.204946
523.531908	43480.395545
523.894569	43370.105181
524.257174	43545.005493
524.619722	43892.953493
524.982213	43900.018670
525.344647	43842.141183
525.707025	43903.605451
526.069345	44311.061752
526.431608	44252.559162
526.793815	44573.050517
527.155964	44153.369418
527.518057	44331.480946
527.880093	44128.662723
528.242072	44681.238720
528.603995	44389.517229
528.965860	44396.824382
529.327669	44529.699115
529.689421	44444.894304
530.051117	44430.302684
530.412755	44578.258029
530.774337	44643.941743
531.135862	44462.339217
531.497331	44684.084451
531.858743	44593.542808
532.220098	44937.276403
532.581396	44662.193241
532.942638	44325.844936
533.303824	44635.666689
533.664953	44614.715654
534.026025	44341.109549
534.387040	44817.871633
534.747999	44780.776303
535.108902	44942.410818
535.469748	44471.251977
535.830537	44600.076143
536.191270	44802.906968
536.551947	44469.658973
536.912567	44759.172438
537.273131	44889.738323
537.633638	44402.099949
537.994089	44757.738230
538.354483	44368.851019
538.714821	44928.918170
539.075103	45264.888389
539.435328	45055.567078
539.795497	44936.742041
540.155609	44957.438498
540.515665	45397.100210
540.875665	44861.906112
541.235609	45181.117015
541.595496	45159.135063
541.955328	45833.903588
542.315102	45214.237396
542.674821	45012.573598
543.034483	45064.943624
543.394090	45026.013314
543.753640	44986.178116
544.113134	45978.912378
544.472571	45027.213108
544.831953	46249.297186
545.191278	45479.810421
545.550548	45225.963119
545.909761	45654.491443
546.268918	45868.208640
546.628019	46174.310022
546.987064	45743.016625
547.346053	45041.015788
547.704986	45888.015333
548.063863	45463.151928
548.422684	45680.551688
548.781449	45523.025713
549.140158	45913.208500
549.498811	45786.857020
549.857408	45226.260548
550.215949	46053.334933
550.574434	45980.999416
550.932864	45772.731707
551.291237	46474.898903
551.649555	46075.576503
552.007817	46322.701427
552.366022	45975.958262
552.724173	46175.746751
553.082267	46553.147692
553.440305	46851.553753
553.798288	46177.448140
554.156215	46500.487799
554.514086	46705.287195
554.871902	46448.306816
555.229661	46474.649365
555.587365	46288.688762
555.945014	46397.076090
556.302606	46322.693865
556.660143	46544.736527
557.017625	46626.284752
557.375050	46441.476053
557.732421	46776.637166
558.089735	46758.554547
558.446994	46676.005653
558.804197	47129.833007
559.161345	47075.275120
559.518437	46354.846344
559.875474	46654.457241
560.232455	46809.036662
560.589381	46992.711102
560.946251	46684.119390
561.303065	47351.207717
561.659825	47170.653751
562.016528	46850.916047
562.373177	46575.449757
562.729770	47042.275727
563.086307	46567.343582
563.442789	47026.239816
563.799216	47079.176973
564.155587	46867.773666
564.511904	46896.566216
564.868164	47006.176024
565.224370	47227.775065
565.580520	46961.345043
565.936615	47184.413580
566.292654	46908.874193
566.648638	47131.705796
567.004567	47104.420551
567.360441	47135.511867
567.716260	46997.477513
568.072023	47285.508879
568.427732	47280.651728
568.783385	46840.344748
569.138982	47230.283039
569.494525	47186.586317
569.850013	46963.006103
570.205445	46936.146835
570.560823	46894.925320
570.916145	46758.126049
571.271412	46799.768500
571.626625	46555.091057
571.981782	46610.949562
572.336884	46315.046435
572.691931	46632.765156
573.046923	46239.971051
573.401860	46094.067456
573.756743	46061.030254
574.111570	46189.115891
574.466342	46025.709410
574.821059	46167.653178
575.175722	45697.931066
575.530330	45699.534153
575.884882	45433.706549
576.239380	45404.054482
576.593823	45371.337393
576.948211	45296.415765
577.302544	44830.877810
577.656823	44869.485487
578.011047	45084.556233
578.365216	44800.351103
578.719330	44625.178569
579.073389	44472.328263
579.427394	44562.151543
579.781344	44521.257703
580.135239	44185.002659
580.489080	44295.852591
580.842866	43786.146567
581.196597	44224.495058
581.550273	44183.674315
581.903895	44036.540678
582.257463	44452.224142
582.610975	43849.506309
582.964434	44132.549453
583.317837	43782.388386
583.671186	43642.019978
584.024481	43862.295716
584.377721	43402.930654
584.730906	43684.441288
585.084037	43719.242893
585.437113	43436.749235
585.790135	43458.043068
586.143103	43073.153493
586.496016	43194.015156
586.848874	43222.525402
587.201679	43239.383020
587.554428	42726.730442
587.907124	42925.430041
588.259765	42680.238400
588.612352	42931.308027
588.964884	42338.433046
589.317362	42620.503248
589.669786	42572.957605
590.022155	42353.813607
590.374470	42764.082871
590.726731	42282.798872
591.078937	41825.276352
591.431090	41910.068560
591.783188	41576.394587
592.135232	41250.184042
592.487222	41503.048319
592.839157	41591.288676
593.191038	41275.039451
593.542866	41040.013297
593.894639	40440.368047
594.246358	40709.240508
594.598022	40685.872239
594.949633	40308.055402
595.301190	40271.726327
595.652692	40120.219490
596.004141	40437.691194
596.355535	39466.384356
596.706876	39418.596738
597.058162	39259.450032
597.409395	39709.617509
597.760573	39787.306731
598.111698	39367.476918
598.462768	39368.210406
598.813785	39426.498747
599.164748	38885.688804
599.515657	39278.329153
599.866511	38746.184953
600.217312	39366.599757
600.568060	38344.485650
600.918753	39073.330632
601.269392	39041.654542
601.619978	38702.102583
601.970510	38911.607896
602.320988	39088.058363
602.671412	39370.723421
603.021783	39126.585381
603.372100	38772.371227
603.722363	38891.949917
604.072572	38961.880803
604.422728	38979.048452
604.772830	38793.697828
605.122878	38895.191379
605.472872	38825.353754
605.822813	39101.886248
606.172701	38938.764592
606.522534	39169.137761
606.872314	39413.701778
607.222041	39173.034573
607.571714	39570.592568
607.921333	39022.941779
608.270899	39308.472733
608.620411	39662.704531
608.969870	39446.985996
609.319276	39437.427969
609.668627	39500.265951
610.017926	39981.562553
610.367171	40129.306169
610.716362	40228.914328
611.065500	40164.637096
611.414585	40367.830884
611.763616	40641.923460
612.112594	40569.986195
612.461518	40794.655298
612.810389	41076.107958
613.159207	40947.407301
613.507971	41029.832687
613.856682	41497.399706
614.205340	41380.006356
614.553945	42067.818867
614.902496	41523.149920
615.250994	41979.560866
615.599439	42055.100035
615.947830	42274.584312
616.296169	42312.536639
616.644454	42460.527272
616.992686	42623.986685
617.340864	43141.829132
617.688990	42850.016900
618.037063	43457.317142
618.385082	43418.994291
618.733048	43713.438005
619.080961	43724.349582
619.428821	43742.159979
619.776628	43831.920243
620.124382	43652.576154
620.472083	43791.212926
620.819731	43914.731278
621.167326	43591.968882
621.514868	43570.569184
621.862357	43136.611537
622.209793	43163.440558
622.557176	42831.513345
622.904506	42584.547218
623.251783	42241.360588
623.599007	42017.462781
623.946179	41801.598053
624.293297	41763.890222
624.640363	41158.051914
624.987376	41154.187870
625.334336	40926.854517
625.681243	40569.469476
626.028097	40542.524509
626.374899	40381.091639
626.721647	40355.714471
627.068343	40256.922979
627.414987	40029.105675
627.761577	39808.703908
628.108115	40143.975927
628.454600	39590.242986
628.801032	39765.758319
629.147412	39736.474256
629.493739	39745.477757
629.840014	39400.700642
630.186236	39736.025593
630.532405	39356.890495
630.878521	39579.064227
631.224585	39458.084097
631.570597	39168.583234
631.916556	39330.726906
632.262462	39280.504411
632.608316	39291.766349
632.954117	39194.630876
633.299866	39182.088485
633.645562	39103.806928
633.991206	38606.262687
634.336797	38173.391409
634.682336	38182.052112
635.027823	37924.739016
635.373257	37749.500947
635.718639	37518.328755
636.063968	37372.664615
636.409245	36802.384086
636.754470	36862.056224
637.099642	36628.597869
637.444762	36156.650087
637.789829	36300.295245
638.134845	35949.113345
638.479808	35907.133136
638.824719	35808.966747
639.169577	35433.826763
639.514383	35493.060321
639.859137	35199.347574
640.203839	35423.384013
640.548489	35067.844035
640.893086	35135.972709
641.237632	34896.933796
641.582125	35013.762537
641.926566	34935.289415
642.270955	34899.872789
642.615292	34930.472593
642.959576	34908.533491
643.303809	34901.264147
643.647990	35050.288217
643.992118	35019.902662
644.336195	35020.840317
644.680219	35110.192248
645.024192	35408.573103
645.368112	35906.177837
645.711981	35918.571514
646.055797	36787.880686
646.399562	36718.249749
646.743274	37665.222937
647.086935	38090.719007
647.430544	38005.311778
647.774101	38112.557285
648.117606	38355.503092
648.461059	38638.021956
648.804460	38263.136551
649.147810	37635.525500
649.491108	37395.737976
649.834354	37046.038175
650.177548	36219.727524
650.520690	35776.829391
650.863781	35792.177184
651.206820	35631.180374
651.549807	35215.459102
651.892742	34741.756998
652.235626	34537.176893
652.578458	34410.948921
652.921238	33818.404137
653.263967	34134.892816
653.606644	33832.199254
653.949269	33783.219403
654.291843	33395.963006
654.634365	33787.141421
654.976836	33388.655853
655.319255	33381.378948
655.661622	33378.011457
656.003938	33155.764628
656.346203	33023.056253
656.688416	33255.851697
657.030577	33058.422468
657.372687	32885.031981
657.714746	33147.557630
658.056753	33265.024076
658.398708	32730.563466
658.740612	32789.885244
659.082465	33056.179154
659.424266	32900.102511
659.766016	33001.780063
660.107715	32894.947931
660.449362	33020.460059
660.790958	32990.858403
661.132503	33020.954092
661.473996	33049.061045
661.815438	33157.158507
662.156829	33346.829400
662.498168	33135.204282
662.839456	33156.757735
663.180693	33303.682164
663.521879	33453.147335
663.863013	33415.159720
664.204097	33408.570932
664.545129	33872.039493
664.886110	33829.935776
665.227040	33904.441509
665.567918	34029.492372
665.908746	34088.945219
666.249522	34250.206690
666.590248	34248.258284
666.930922	34359.324985
667.271545	34332.470759
667.612118	34413.855147
667.952639	34200.326993
668.293109	34250.796505
668.633528	34141.569824
668.973896	34057.402720
669.314213	34105.278558
669.654480	33842.808362
669.994695	33871.734503
670.334859	33759.546145
670.674973	33667.598019
671.015035	33816.586801
671.355047	33777.870739
671.695008	33724.928541
672.034918	33624.216370
672.374777	33714.934454
672.714585	33538.783936
673.054342	33785.926503
673.394049	33548.001685
673.733705	33822.631144
674.073310	33472.172649
674.412864	33546.496901
674.752368	33150.237003
675.091820	33437.570169
675.431223	33029.060267
675.770574	32757.768053
676.109875	32617.881074
676.449125	32343.687676
676.788324	32270.371655
677.127473	31720.989229
677.466571	31658.362975
677.805619	31305.333492
678.144616	31298.835444
678.483562	31233.333212
678.822458	30914.008883
679.161303	30840.027430
679.500098	30755.953587
679.838842	30645.383439
680.177535	30795.531685
680.516179	31070.042677
680.854771	31319.126088
681.193314	32180.971832
681.531805	33283.867909
681.870247	34070.923094
682.208638	34811.108152
682.546978	35028.069331
682.885268	35128.542048
683.223508	34579.507462
683.561697	34241.208230
683.899836	34059.474634
684.237925	33560.460897
684.575963	33410.136210
684.913951	32951.557568
685.251889	33121.701552
685.589776	33104.448202
685.927614	33085.874071
686.265401	33231.139960
686.603137	33339.809593
686.940824	33838.762836
687.278460	34230.924276
687.616046	34356.948081
687.953582	34979.255838
688.291068	34844.805745
688.628504	35119.772961
688.965889	35064.146349
689.303224	34659.054349
689.640510	34325.967670
689.977745	33587.783951
690.314930	32783.934162
690.652065	32266.006015
690.989150	31513.596160
691.326185	30621.974841
691.663170	29929.363152
692.000105	29165.804785
692.336990	28490.622886
692.673825	28025.183233
693.010610	27522.514660
693.347345	26949.524511
693.684030	26305.985934
694.020665	26036.697578
694.357251	25357.888569
694.693786	25320.780635
695.030272	25082.437402
695.366707	24545.279774
695.703093	24256.887966
696.039429	24239.730399
696.375716	23973.375994
696.711952	23951.237767
697.048139	23792.844713
697.384276	23617.861222
697.720363	23741.896292
698.056400	23549.392270
698.392388	23324.854237
698.728326	23287.408546
699.064214	23071.977357
699.400053	23033.450339
699.735842	22662.111385
700.071581	22381.598900
700.407270	22097.509716
700.742910	21910.238412
701.078501	21641.897793
701.414042	21370.774457
701.749533	21065.487221
702.084974	20714.113757
702.420366	20926.036303
702.755709	20490.369705
703.091002	20200.803308
703.426246	20211.475430
703.761440	20103.526682
704.096584	19845.036478
704.431679	19795.958324
704.766725	19706.200580
705.101721	19648.141611
705.436668	19738.910107
705.771565	19420.031920
706.106413	19754.973744
706.441212	19748.808412
706.775961	19861.657162
707.110661	19944.919379
707.445311	20300.623195
707.779913	20149.350771
708.114465	20387.242821
708.448967	20668.203969
708.783421	21370.834951
709.117825	21644.814100
709.452180	21858.816122
709.786485	22256.590887
710.120742	23065.469228
710.454949	23077.711670
710.789107	23534.518346
711.123216	24244.794238
711.457275	24365.124059
711.791286	24906.002058
712.125247	24976.464786
712.459159	24658.211703
712.793023	25329.683313
713.126837	24227.707247
713.460602	24468.656757
713.794318	24089.977883
714.127985	23699.845507
714.461602	22818.122493
714.795171	22765.472683
715.128691	21760.211153
715.462162	21219.771734
715.795584	20796.156015
716.128957	20537.678413
716.462281	20128.581217
716.795556	19895.032121
717.128782	19400.447038
717.461960	18858.742289
717.795088	18777.536863
718.128167	18377.370070
718.461198	17927.338705
718.794180	17774.521167
719.127113	17422.164678
719.459997	17221.919965
719.792833	16879.048407
720.125619	16852.741145
720.458357	16527.987494
720.791046	16356.978952
721.123686	16212.229782
721.456278	15966.839015
721.788821	15931.170331
722.121315	15673.403532
722.453761	15748.120994
722.786158	15674.764644
723.118506	15676.692885
723.450805	15542.489808
723.783056	15708.646239
724.115259	15608.438183
724.447412	15536.969744
724.779518	15778.541837
725.111574	15794.436595
725.443582	16001.146588
725.775542	15984.203270
726.107453	16441.146057
726.439315	16328.783779
726.771129	16731.030047
727.102895	17105.171883
727.434612	17302.323848
727.766281	17428.390503
728.097901	17686.739555
728.429473	17722.461171
728.760996	17706.793265
729.092471	17790.103374
729.423897	17673.370415
729.755276	17532.071914
730.086606	17653.659504
730.417887	18185.617181
730.749120	18680.945834
731.080305	18860.569708
731.411442	19185.943421
731.742530	19261.976624
732.073570	19358.660913
732.404562	19653.094545
732.735506	19447.912022
733.066401	19178.220373
733.397249	18655.823244
733.728048	18015.649638
734.058798	17180.196855
734.389501	16504.899009
734.720156	16051.676593
735.050762	15520.021385
735.381320	15173.893242
735.711831	14941.876656
736.042293	14580.559516
736.372707	14593.505199
736.703073	14388.531884
737.033391	14574.495008
737.363661	14532.154357
737.693883	14648.433612
738.024056	14817.438294
738.354182	14998.428320
738.684260	15281.526917
739.014290	15506.168294
739.344272	15698.097624
739.674207	15980.288814
740.004093	16089.167654
740.333931	16074.145016
740.663722	16122.466996
740.993464	16108.306395
741.323159	15931.540856
741.652806	15653.286808
741.982405	15448.464727
742.311956	15098.117137
742.641460	14983.695548
742.970915	14679.058621
743.300323	14357.148181
743.629683	14133.086536
743.958996	13860.725597
744.288260	13589.045213
744.617477	13285.335858
744.946647	13217.018142
745.275768	12948.939662
745.604842	12756.213830
745.933869	12584.922984
746.262847	12543.371274
746.591778	12463.741208
746.920662	12367.172864
747.249498	12375.175696
747.578286	12486.683499
747.907027	12627.608954
748.235720	12851.461391
748.564365	12879.996842
748.892963	12776.325513
749.221514	12838.815657
749.550017	12695.662011
749.878473	12657.354283
750.206881	12440.176334
750.535242	12348.755009
750.863555	12261.921134
751.191821	12160.243581
751.520039	12178.210254
751.848210	12087.870256
752.176334	12114.041406
752.504411	12025.521265
752.832440	11864.176616
753.160421	11944.056219
753.488356	11808.018162
753.816243	11710.620549
754.144082	11577.546691
754.471875	11521.504183
754.799620	11465.242386
755.127318	11434.365318
755.454969	11396.171016
755.782572	11350.583862
756.110129	11364.230266
756.437638	11286.732607
756.765100	11272.997984
757.092515	11278.729776
757.419882	11289.679162
757.747203	11294.674945
758.074477	11364.726819
758.401703	11327.021509
758.728882	11483.196455
759.056014	11525.484174
759.383099	11640.966927
759.710138	11747.841909
760.037129	11828.001296
760.364073	11846.809841
760.690970	11828.102119
761.017820	11829.221255
761.344623	12015.254956
761.671379	12338.975170
761.998088	12966.014050
762.324751	14517.038457
762.651366	17388.063793
762.977935	21037.120648
763.304456	23247.792639
763.630931	23717.499628
763.957359	22530.189430
764.283740	20616.280084
764.610074	18745.402027
764.936362	16623.860158
765.262602	15100.388177
765.588796	13643.043532
765.914943	12618.514713
766.241044	11774.234870
766.567097	11145.338324
766.893104	10599.887999
767.219064	10233.131454
767.544978	9852.166416
767.870845	9537.641266
768.196665	9351.053039
768.522438	9156.817381
768.848165	8993.491558
769.173846	8823.377822
769.499479	8705.498001
769.825066	8551.606697
770.150607	8364.905044
770.476101	8302.709808
770.801548	8196.543108
771.126949	8051.791417
771.452303	7966.096843
771.777611	7807.111453
772.102872	7782.087166
772.428087	7664.966038
772.753256	7539.484157
773.078378	7452.118441
773.403453	7312.299518
773.728482	7209.984260
774.053465	7144.482027
774.378401	7057.138996
774.703291	6966.415870
775.028135	6876.597632
775.352932	6831.839748
775.677683	6747.551656
776.002388	6663.228275
776.327046	6657.960269
776.651658	6576.754843
776.976224	6501.538307
777.300743	6482.122303
777.625216	6420.660555
777.949643	6374.665067
778.274024	6378.130861
778.598359	6310.324821
778.922647	6313.220964
779.246889	6273.713441
779.571086	6282.313649
779.895236	6297.517769
780.219339	6287.397653
780.543397	6284.279699
780.867409	6336.775755
781.191374	6333.635116
781.515294	6298.586494
781.839167	6351.687488
782.162995	6325.712943
782.486776	6271.129850
782.810511	6233.999231
783.134201	6156.093239
783.457844	6150.101828
783.781441	6100.096102
784.104993	6055.761675
784.428498	6021.277662
784.751958	6009.030179
785.075372	5983.751313
785.398739	5945.030210
785.722061	5964.547037
786.045337	5966.676925
786.368568	6078.356127
786.691752	6101.542914
787.014891	6343.011662
787.337983	6627.673017
787.661030	7065.464461
787.984031	7489.564131
788.306987	7750.738750
788.629897	7836.418201
788.952760	7754.202023
789.275579	7570.323416
789.598351	7273.712006
789.921078	7010.669639
790.243759	6739.584112
790.566395	6528.873963
790.888984	6336.811043
791.211529	6195.817532
791.534027	6035.307193
791.856480	5897.139249
792.178888	5837.557851
792.501249	5770.029075
792.823566	5668.071738
793.145836	5662.541593
793.468062	5647.707997
793.790241	5605.629486
794.112375	5646.326721
794.434464	5742.491772
794.756507	5769.129229
795.078505	5891.437704
795.400457	6108.076249
795.722364	6346.328742
796.044226	6541.161776
796.366042	6696.459561
796.687812	6636.626106
797.009538	6675.095151
797.331218	6583.613333
797.652852	6510.304873
797.974442	6390.648046
798.295986	6321.654814
798.617484	6191.885432
798.938938	6086.550522
799.260346	6015.513103
799.581709	5873.652513
799.903026	5826.492519
800.224299	5750.431589
800.545526	5632.932376
800.866708	5571.591616
801.187845	5519.430797
801.508936	5444.940187
801.829983	5419.588224
802.150984	5308.541687
802.471940	5285.307009
802.792851	5271.602633
803.113717	5248.577162
803.434538	5221.854006
803.755314	5190.626578
804.076045	5178.621070
804.396731	5144.074043
804.717372	5159.288245
805.037967	5161.955016
805.358518	5188.572308
805.679024	5246.202779
805.999485	5258.064614
806.319901	5275.943066
806.640272	5297.904853
806.960598	5342.256924
807.280879	5331.980532
807.601115	5367.946644
807.921306	5330.758052
808.241453	5325.026260
808.561554	5342.793807
808.881611	5305.096059
809.201623	5298.774452
809.521590	5252.937760
809.841513	5234.802209
810.161390	5246.278396
810.481223	5163.084234
810.801011	5146.730731
811.120755	5122.502946
811.440453	5065.739553
811.760107	5040.742992
812.079716	5019.673490
812.399281	4965.213905
812.718801	4961.160817
813.038276	4925.172020
813.357707	4887.265063
813.677093	4912.387653
813.996434	4849.635370
814.315731	4868.428792
814.634983	4868.499368
814.954191	4875.405749
815.273354	4928.819294
815.592473	4977.960462
815.911547	5045.975710
816.230577	5100.546200
816.549562	5189.124314
816.868502	5241.811934
817.187399	5296.450480
817.506250	5377.323190
817.825058	5402.980143
818.143821	5559.197939
818.462539	5726.463423
818.781213	5957.103774
819.099843	6318.168856
819.418429	6938.916376
819.736970	7563.265801
820.055466	8273.072865
820.373919	9183.981639
820.692327	10640.393670
821.010691	13332.062313
821.329011	19541.369973
821.647286	29116.293092
821.965517	39452.256523
822.283704	44896.478345
822.601847	46384.037146
822.919945	41794.434573
823.237999	36666.550195
823.556010	31458.695474
823.873976	26779.146114
824.191897	22566.084966
824.509775	19500.702985
824.827609	16729.031230
825.145398	15180.534962
825.463144	14425.312142
825.780845	14721.666453
826.098502	15975.890407
826.416116	18442.511860
826.733685	20717.191381
827.051210	21233.894527
827.368692	19806.872422
827.686129	17248.360817
828.003522	14766.008443
828.320872	12562.404150
828.638177	10906.067519
828.955439	9661.063836
829.272656	8603.202907
829.589830	7769.207017
829.906960	7036.445059
830.224046	6507.532239
830.541088	6096.738694
830.858086	5835.952244
831.175041	5632.541686
831.491952	5575.286781
831.808819	5611.857832
832.125642	5857.848496
832.442421	6409.330562
832.759157	7514.487596
833.075849	9279.980331
833.392497	11124.112546
833.709101	12234.587998
834.025662	11986.482570
834.342179	10937.667992
834.658653	9631.706676
834.975083	8526.879838
835.291469	7619.116744
835.607811	6888.542646
835.924110	6367.209201
836.240366	5879.321290
836.556578	5425.851858
836.872746	5076.600719
837.188871	4807.009894
837.504952	4582.136624
837.820990	4417.071603
838.136984	4301.190599
838.452935	4249.980038
838.768842	4283.675110
839.084706	4564.812699
839.400526	5301.675636
839.716303	6203.964036
840.032037	6768.253154
840.347727	6626.090095
840.663373	6026.283528
840.978977	5449.716680
841.294537	5008.726624
841.610054	4679.705636
841.925527	4436.956434
842.240957	4233.934045
842.556344	4050.990572
842.871687	3892.597518
843.186987	3741.425918
843.502244	3621.358236
843.817458	3535.242725
844.132629	3467.056078
844.447756	3417.410795
844.762840	3370.757437
845.077881	3336.250739
845.392879	3297.892599
845.707833	3273.500976
846.022745	3249.205135
846.337613	3232.483628
846.652438	3211.756924
846.967221	3205.682334
847.281960	3182.724919
847.596656	3172.055317
847.911309	3165.443844
848.225919	3150.211997
848.540485	3140.180101
848.855009	3133.225829
849.169490	3118.172944
849.483928	3111.170781
849.798323	3109.020729
850.112675	3098.739296
850.426984	3099.366920
850.741251	3088.253696
851.055474	3085.080290
851.369654	3088.767894
851.683792	3085.450814
851.997887	3089.125816
852.311938	3085.934765
852.625947	3089.302256
852.939914	3084.576174
853.253837	3089.637493
853.567718	3088.563727
853.881555	3081.871595
854.195350	3088.213367
854.509103	3080.515525
854.822812	3080.573498
855.136479	3074.521593
855.450103	3083.729260
855.763685	3071.817014
856.077224	3074.622416
856.390720	3083.988880
856.704173	3093.562031
857.017584	3099.008998
857.330953	3102.373968
857.644278	3111.957201
857.957561	3115.284363
858.270802	3112.602469
858.584000	3112.201697
858.897155	3107.500821
859.210268	3096.417845
859.523339	3085.241607
859.836367	3083.439394
860.149352	3076.643919
860.462295	3070.287024
860.775195	3063.743606
861.088054	3058.934345
861.400869	3060.103893
861.713642	3055.637431
862.026373	3067.950449
862.339062	3071.638053
862.651708	3079.771955
862.964312	3094.925663
863.276873	3103.145264
863.589392	3133.624081
863.901869	3160.901764
864.214303	3185.328675
864.526696	3198.531457
864.839045	3219.313614
865.151353	3228.218812
865.463619	3228.160839
865.775842	3232.992785
866.088023	3235.485635
866.400162	3230.830130
866.712258	3230.971282
867.024313	3230.414234
867.336325	3228.675036
867.648296	3226.882906
867.960224	3226.953482
868.272110	3230.890623
868.583954	3231.959348
868.895755	3236.191397
869.207515	3236.158629
869.519233	3255.700662
869.830909	3258.077566
870.142542	3272.520472
870.454134	3278.879888
870.765684	3290.429171
871.077191	3310.941626
871.388657	3319.173830
871.700081	3336.901048
872.011463	3359.369470
872.322803	3379.092985
872.634101	3395.814492
872.945357	3416.231165
873.256571	3442.399795
873.567744	3457.697176
873.878874	3464.704380
874.189963	3482.265239
874.501010	3482.272801
874.812015	3481.619972
875.122979	3495.528515
875.433900	3491.311590
875.744780	3496.098166
876.055618	3503.430524
876.366415	3498.598578
876.677169	3505.968745
876.987882	3524.608411
877.298554	3541.783622
877.609183	3583.652926
877.919771	3626.447281
878.230317	3701.820092
878.540822	3799.570586
878.851285	3951.077424
879.161707	4173.430117
879.472087	4551.176378
879.782425	5172.357437
880.092722	6362.510845
880.402977	8301.366341
880.713191	10681.108549
881.023363	13073.662850
881.333494	14412.074072
881.643583	14872.964083
881.953631	14459.299602
882.263637	13616.055715
882.573602	12574.719689
882.883526	11619.504214
883.193408	10661.246403
883.503248	9748.134645
883.813048	8911.025843
884.122806	8147.903536
884.432522	7377.164045
884.742197	6717.682819
885.051831	6153.827241
885.361424	5656.955994
885.670975	5257.394140
885.980485	4937.457312
886.289954	4666.586033
886.599382	4450.663332
886.908768	4270.850415
887.218113	4107.043162
887.527417	3973.825630
887.836680	3853.140407
888.145901	3750.787340
888.455082	3676.150537
888.764221	3607.893314
889.073319	3547.772513
889.382376	3514.069879
889.691392	3490.134481
890.000366	3483.273470
890.309300	3476.520845
890.618193	3481.322544
890.927044	3475.830207
891.235855	3480.780620
891.544625	3495.805779
891.853353	3522.428112
892.162041	3583.438677
892.470687	3676.919313
892.779293	3796.533291
893.087858	3970.957214
893.396381	4249.380141
893.704864	4660.481196
894.013306	5229.370366
894.321707	5805.382687
894.630068	6160.925185
894.938387	6198.322985
895.246665	6021.582652
895.554903	5704.811668
895.863100	5370.505030
896.171256	5098.272640
896.479371	4853.025546
896.787446	4630.166217
897.095480	4434.433337
897.403473	4283.710398
897.711425	4137.912668
898.019336	4015.571425
898.327207	3894.104823
898.635038	3791.711427
898.942827	3685.320396
899.250576	3598.335286
899.558284	3514.231196
899.865952	3459.703555
900.173579	3396.978999
900.481165	3346.413705
900.788711	3306.104639
901.096216	3278.020371
901.403681	3250.349477
901.711105	3236.130903
902.018489	3232.075295
902.325832	3268.038886
902.633135	3325.039213
902.940397	3495.740244
903.247619	3900.892737
903.554800	4654.280577
903.861941	5623.240757
904.169041	6330.441545
904.476101	6539.641868
904.783121	6265.647595
905.090100	5861.712540
905.397039	5444.002532
905.703938	5081.276390
906.010796	4763.396352
906.317614	4506.867156
906.624391	4267.180455
906.931129	4069.746185
907.237826	3891.274216
907.544483	3717.901373
907.851099	3549.080692
908.157675	3389.933986
908.464211	3247.584404
908.770707	3145.624547
909.077163	3068.121848
909.383578	3006.960049
909.689954	2962.330714
909.996289	2932.628236
910.302584	2914.840524
910.608839	2897.637587
910.915054	2886.887326
911.221229	2882.864485
911.527363	2885.553941
911.833458	2893.176166
912.139513	2909.138979
912.445527	2921.436874
912.751502	2950.531893
913.057436	2998.206085
913.363331	3055.755898
913.669186	3144.023981
913.975000	3260.681322
914.280775	3445.361473
914.586510	3715.501784
914.892205	4092.471707
915.197859	4591.324127
915.503475	5176.062685
915.809050	5672.538201
916.114585	5962.782633
916.420081	6030.709661
916.725536	5964.937727
917.030952	5725.094750
917.336328	5517.270662
917.641665	5305.156553
917.946961	5075.721038
918.252218	4876.918095
918.557435	4649.594824
918.862612	4450.406233
919.167750	4276.950211
919.472848	4087.344853
919.777906	3921.090120
920.082925	3760.536932
920.387904	3605.118159
920.692843	3495.599091
920.997743	3393.180489
921.302603	3302.482570
921.607423	3239.117787
921.912204	3167.908968
922.216946	3120.184364
922.521647	3070.891962
922.826310	3032.135571
923.130932	2991.143429
923.435516	2952.636575
923.740059	2926.866197
924.044564	2896.291599
924.349028	2872.903165
924.653454	2843.994669
924.957840	2815.242448
925.262186	2795.859211
925.566493	2774.882970
925.870761	2749.646954
926.174989	2737.664131
926.479178	2723.821123
926.783328	2709.179091
927.087438	2694.602595
927.391509	2683.146573
927.695541	2673.346570
927.999533	2662.656803
928.303486	2652.355205
928.607400	2644.904380
928.911275	2641.196611
929.215110	2632.760240
929.518906	2631.119345
929.822663	2631.414252
930.126381	2629.884262
930.430060	2633.881897
930.733699	2639.601086
931.037299	2641.123514
931.340861	2637.012453
931.644383	2642.898001
931.947866	2638.151754
932.251309	2639.535551
932.554714	2638.212248
932.858080	2635.782412
933.161407	2634.527165
933.464694	2625.092645
933.767943	2625.770680
934.071153	2619.743981
934.374323	2617.326748
934.677455	2616.822632
934.980548	2609.679317
935.283602	2608.600510
935.586617	2605.963987
935.889593	2609.074379
936.192530	2612.842641
936.495428	2617.193157
936.798287	2625.420320
937.101108	2639.830458
937.403890	2664.758964
937.706632	2688.646472
938.009336	2723.523695
938.312002	2751.149218
938.614628	2774.577980
938.917216	2791.430557
939.219765	2800.222330
939.522275	2812.721871
939.824747	2810.793629
940.127179	2807.612661
940.429573	2800.557567
940.731929	2799.950107
941.034246	2792.040537
941.336524	2790.238325
941.638763	2782.018723
941.940964	2776.178547
942.243126	2759.804879
942.545250	2750.216604
942.847335	2737.359141
943.149381	2723.707697
943.451389	2707.686910
943.753359	2696.072091
944.055290	2688.051616
944.357182	2677.770182
944.659036	2671.488905
944.960851	2670.521003
945.262628	2666.629232
945.564367	2664.821979
945.866067	2665.326094
946.167729	2664.252328
946.469352	2662.581186
946.770937	2657.842501
947.072484	2653.849907
947.373992	2652.882006
947.675462	2651.757828
947.976893	2647.165337
948.278286	2640.994965
948.579641	2638.416415
948.880958	2634.779222
949.182236	2632.785446
949.483476	2630.043058
949.784678	2630.496762
950.085841	2633.445837
950.386967	2634.698564
950.688054	2640.425315
950.989103	2648.886891
951.290114	2657.124137
951.591087	2668.738955
951.892021	2680.305883
952.192917	2693.874148
952.493776	2701.395550
952.794596	2707.092054
953.095378	2709.446272
953.396122	2707.641539
953.696828	2703.916127
953.997496	2700.107535
954.298126	2688.452387
954.598718	2683.224711
954.899272	2671.559481
955.199788	2659.604384
955.500266	2646.162148
955.800706	2630.375774
956.101108	2612.567898
956.401472	2605.648915
956.701798	2590.694332
957.002087	2572.936867
957.302337	2568.465364
957.602550	2555.809547
957.902724	2545.134904
958.202861	2536.121321
958.502960	2524.955165
958.803022	2522.280833
959.103045	2512.889163
959.403031	2509.141066
959.702979	2498.118583
960.002889	2498.012718
960.302762	2489.770432
960.602596	2487.383446
960.902393	2479.020171
961.202153	2481.414719
961.501875	2477.228041
961.801559	2476.318113
962.101205	2473.996662
962.400814	2474.452886
962.700385	2468.010291
962.999918	2468.327884
963.299414	2466.608851
963.598873	2462.777574
963.898293	2464.564663
964.197677	2462.396967
964.497022	2460.985443
964.796331	2456.332458
965.095601	2460.110803
965.394835	2458.341358
965.694030	2455.876234
965.993189	2455.732561
966.292309	2455.162911
966.591393	2456.181224
966.890439	2455.336831
967.189447	2455.775411
967.488419	2454.893209
967.787353	2458.714404
968.086249	2455.256172
968.385108	2454.754577
968.683930	2456.334979
968.982714	2459.752881
969.281462	2456.599640
969.580172	2460.993005
969.878844	2463.742955
970.177480	2465.648511
970.476078	2468.262349
970.774639	2472.638071
971.073162	2477.134780
971.371649	2476.643267
971.670098	2473.172433
971.968510	2479.347846
972.266885	2477.568319
972.565223	2480.472024
972.863524	2482.412868
973.161788	2486.738178
973.460014	2485.760194
973.758204	2485.971923
974.056356	2488.109372
974.354471	2487.310349
974.652550	2486.786069
974.950591	2488.926039
975.248595	2486.448312
975.546563	2485.409834
975.844493	2480.151910
976.142386	2482.420430
976.440243	2476.302989
976.738062	2482.183495
977.035845	2476.481950
977.333590	2470.646815
977.631299	2473.016157
977.928971	2469.668831
978.226606	2466.833182
978.524204	2469.288224
978.821765	2468.776547
979.119290	2463.531226
979.416777	2465.189766
979.714228	2465.184725
980.011642	2465.144395
980.309020	2471.138327
980.606360	2471.390385
980.903664	2482.201139
981.200931	2490.488796
981.498162	2513.786489
981.795356	2544.078782
982.092513	2582.648650
982.389633	2626.731020
982.686717	2670.152999
982.983764	2701.062834
983.280775	2721.164435
983.577749	2716.849207
983.874686	2709.514328
984.171587	2691.282995
984.468451	2678.881757
984.765279	2661.333500
985.062070	2642.792136
985.358824	2623.416462
985.655543	2599.738162
985.952224	2577.647826
986.248869	2551.426264
986.545478	2524.060360
986.842050	2503.830210
987.138586	2487.743888
987.435086	2469.870477
987.731549	2462.061730
988.027975	2458.238015
988.324366	2450.915739
988.620719	2444.780654
988.917037	2442.517176
989.213318	2435.825045
989.509563	2436.624067
989.805772	2433.095260
990.101944	2434.257246
990.398080	2434.930240
990.694180	2432.349169
990.990244	2434.915116
991.286271	2431.845054
991.582262	2431.333377
991.878217	2434.264808
992.174136	2435.010898
992.470019	2434.617688
992.765865	2434.955446
993.061676	2439.580704
993.357450	2444.752928
993.653188	2443.444749
993.948890	2451.621500
994.244556	2454.479834
994.540186	2467.145733
994.835780	2477.596045
995.131337	2492.346462
995.426859	2507.306086
995.722345	2526.976668
996.017795	2549.593805
996.313208	2559.918088
996.608586	2570.958215
996.903928	2573.433421
997.199234	2570.801939
997.494504	2570.123904
997.789738	2561.848850
998.084936	2554.188816
998.380099	2539.647608
998.675225	2530.366844
998.970316	2515.760101
999.265371	2501.637308
999.560390	2487.862355
999.855373	2475.657722
1000.150320	2467.861577
1000.445232	2457.509568
1000.740108	2451.929011
1001.034948	2446.585387
1001.329752	2440.208328
1001.624521	2436.079623
1001.919254	2431.235074
1002.213951	2429.334559
1002.508613	2425.278951
1002.803239	2424.510175
1003.097829	2419.811819
1003.392384	2423.665782
1003.686903	2422.309711
1003.981386	2419.806778
1004.275834	2418.402817
1004.570246	2418.894329
1004.864623	2418.783424
1005.158964	2414.435429
1005.453270	2418.327200
1005.747540	2416.290573
1006.041775	2416.046078
1006.335974	2413.437280
1006.630138	2415.221849
1006.924266	2412.187074
1007.218359	2414.455593
1007.512416	2411.962743
1007.806438	2413.931313
1008.100425	2413.432239
1008.394376	2411.355284
1008.688292	2413.865778
1008.982172	2411.458627
1009.276017	2411.945099
1009.569827	2410.331930
1009.863602	2411.803947
1010.157341	2414.432908
1010.451045	2416.527508
1010.744714	2411.617424
1011.038347	2408.701116
1011.331945	2410.891498
1011.625508	2409.974008
1011.919036	2410.460479
1012.212528	2409.159861
1012.505986	2409.109450
1012.799408	2407.982752
1013.092795	2409.001065
1013.386147	2408.837228
1013.679464	2408.249933
1013.972745	2407.602145
1014.265992	2409.459810
1014.559204	2408.249933
1014.852380	2410.158010
1015.145521	2409.459810
1015.438628	2406.079716
1015.731699	2405.774727
1016.024736	2407.569377
1016.317737	2409.457289
1016.610703	2408.902762
1016.903635	2409.530386
1017.196531	2405.356311
1017.489393	2408.260015
1017.782219	2405.285735
1018.075011	2412.600449
1018.367768	2412.096333
1018.660490	2410.813360
1018.953177	2410.813360
1019.245829	2410.813360
