Dividing Wavelength (nm)	Counts (n)	Blue Motor Position (mm): 10.200000	Red Motor Position (mm): 0.000000	
326.493990	1975.234982
326.888308	1975.234982
327.282561	1975.234982
327.676750	1952.355706
328.070874	1953.860490
328.464933	1960.262755
328.858929	1967.970680
329.252859	1981.349902
329.646726	1996.102839
330.040528	2010.719664
330.434265	2030.216327
330.827938	2049.355067
331.221547	2070.689230
331.615091	2090.168249
332.008571	2109.667432
332.401986	2132.226595
332.795338	2149.963895
333.188625	2170.352842
333.581847	2190.502334
333.975006	2208.574870
334.368100	2225.079608
334.761129	2242.673235
335.154095	2257.733682
335.546996	2287.688218
335.939833	2327.170535
336.332606	2339.138234
336.725315	2350.306911
337.117960	2360.888293
337.510540	2364.001205
337.903056	2377.206508
338.295508	2382.996273
338.687896	2390.338713
339.080220	2398.976731
339.472480	2401.416649
339.864676	2405.552916
340.256807	2408.549882
340.648875	2410.110119
341.040879	2411.617424
341.432818	2413.863258
341.824694	2414.027095
342.216506	2415.897363
342.608253	2414.301838
342.999937	2412.610531
343.391557	2411.420819
343.783113	2411.040212
344.174605	2409.497619
344.566033	2405.928482
344.957397	2406.425035
345.348697	2404.184243
345.739934	2398.235681
346.131106	2398.782646
346.522215	2398.112173
346.913260	2397.807183
347.304241	2394.066647
347.695159	2392.392984
348.086012	2391.170504
348.476802	2386.451984
348.867528	2388.095400
349.258191	2388.284443
349.648789	2388.952396
350.039324	2382.822353
350.429796	2385.015255
350.820203	2384.032230
351.210548	2383.492827
351.600828	2383.150028
351.991045	2383.250851
352.381198	2379.464945
352.771288	2382.063659
353.161314	2379.790099
353.551276	2381.176416
353.941175	2379.364122
354.331010	2381.567106
354.720782	2381.773793
355.110490	2383.283619
355.500135	2381.118443
355.889717	2383.616335
356.279235	2380.571478
356.668689	2383.480224
357.058080	2381.856972
357.447408	2382.361088
357.836672	2378.681045
358.225873	2380.412682
358.615010	2379.152393
359.004084	2383.717158
359.393095	2383.568444
359.782043	2386.073897
360.170927	2386.779659
360.559748	2386.759494
360.948505	2387.878630
361.337199	2386.812426
361.725830	2386.152035
362.114398	2388.985164
362.502903	2387.634134
362.891344	2388.375184
363.279722	2388.294526
363.668037	2390.295864
364.056289	2389.869886
364.444478	2387.987015
364.832603	2391.251162
365.220665	2392.186296
365.608665	2391.886348
365.996601	2392.461039
366.384474	2393.050854
366.772284	2393.048334
367.160031	2393.910371
367.547715	2390.873076
367.935336	2394.744682
368.322893	2391.069681
368.710388	2393.103786
369.097820	2393.892727
369.485189	2396.085629
369.872495	2395.639487
370.259738	2394.359034
370.646918	2394.132182
371.034035	2394.563200
371.421090	2395.601678
371.808081	2396.065464
372.195010	2395.682337
372.581875	2398.694426
372.968678	2398.036555
373.355418	2395.836092
373.742096	2397.439179
374.128710	2395.866339
374.515262	2396.428427
374.901751	2401.189797
375.288177	2398.719632
375.674540	2398.084446
376.060841	2399.397667
376.447079	2401.446896
376.833254	2396.798952
377.219367	2393.799466
377.605417	2398.933881
377.991404	2395.021945
378.377329	2398.918757
378.763191	2396.304919
379.148991	2399.969838
379.534727	2400.887328
379.920402	2400.594941
380.306013	2401.734242
380.691563	2401.484705
381.077049	2399.763151
381.462474	2401.051165
381.847835	2403.705333
382.233134	2404.620302
382.618371	2402.979407
383.003545	2402.248439
383.388657	2404.101063
383.773706	2402.644170
384.158693	2404.814387
384.543618	2404.950498
384.928480	2402.765158
385.313280	2404.574932
385.698017	2399.511093
386.082692	2406.724984
386.467305	2405.812535
386.851856	2405.207597
387.236344	2404.280024
387.620770	2406.876219
388.005133	2406.704819
388.389435	2411.138514
388.773674	2404.035528
389.157851	2407.385375
389.541965	2406.051990
389.926018	2404.930333
390.310008	2406.397309
390.693936	2407.198853
391.077802	2405.711712
391.461606	2406.218348
391.845348	2407.145920
392.229027	2409.235479
392.612645	2405.835220
392.996200	2410.793195
393.379694	2407.609707
393.763125	2408.454100
394.146494	2408.149110
394.529801	2411.488874
394.913047	2407.587021
395.296230	2407.604665
395.679351	2411.617424
396.062410	2410.362177
396.445408	2410.417629
396.828343	2410.173133
397.211217	2406.730025
397.594028	2408.194480
397.976778	2408.501991
398.359466	2410.006775
398.742092	2406.848492
399.124656	2412.159348
399.507158	2409.096847
399.889598	2410.929306
400.271977	2411.710685
400.654294	2411.748494
401.036549	2411.839235
401.418742	2413.515418
401.800874	2413.374266
402.182944	2412.179513
402.564952	2413.575912
402.946898	2413.298649
403.328783	2411.224214
403.710606	2412.121539
404.092367	2415.481468
404.474067	2416.267888
404.855705	2414.304359
405.237282	2414.846283
405.618797	2415.758732
406.000250	2415.050450
406.381642	2414.402661
406.762972	2414.415264
407.144240	2415.216808
407.525447	2415.269740
407.906593	2416.277971
408.287677	2418.097827
408.668700	2415.675553
409.049661	2417.429874
409.430560	2416.363670
409.811399	2415.942734
410.192176	2416.267888
410.572891	2416.615728
410.953545	2416.209915
411.334138	2415.821746
411.714669	2417.321489
412.095139	2418.112951
412.475547	2415.882240
412.855894	2415.415933
413.236180	2415.942734
413.616405	2417.712179
413.996568	2419.199319
414.376670	2420.736871
414.756711	2416.179668
415.136691	2418.682601
415.516609	2419.627817
415.896466	2417.591191
416.276262	2418.783424
416.655997	2416.247724
417.035670	2414.775707
417.415283	2417.548341
417.794834	2413.961560
418.174324	2420.026068
418.553753	2417.145049
418.933121	2419.577406
419.312428	2417.324010
419.691674	2421.304001
420.070859	2420.958682
420.449983	2421.087231
420.829045	2422.002201
421.208047	2421.745102
421.586988	2418.168403
421.965867	2422.279464
422.344686	2422.503796
422.723444	2421.689649
423.102141	2421.815678
423.480777	2422.831471
423.859352	2419.784093
424.237866	2421.568662
424.616319	2421.472880
424.994712	2422.332396
425.373044	2420.653692
425.751314	2422.571851
426.129524	2421.228384
426.507673	2420.583116
426.885762	2422.123188
427.263789	2420.751995
427.641756	2423.932963
428.019662	2423.277613
428.397508	2421.427509
428.775292	2424.767274
429.153016	2422.649989
429.530679	2426.181317
429.908282	2424.255597
430.285824	2422.934814
430.663305	2423.965730
431.040726	2423.259969
431.418086	2424.442119
431.795385	2422.420617
432.172624	2423.106213
432.549802	2426.549322
432.926920	2424.268199
433.303977	2426.385484
433.680974	2423.794331
434.057910	2423.428847
434.434786	2425.470515
434.811601	2425.278951
435.188355	2424.835329
435.565050	2424.812644
435.941683	2424.026224
436.318257	2421.896337
436.694770	2419.179155
437.071222	2422.922211
437.447614	2419.101017
437.823946	2421.246028
438.200218	2424.898344
438.576429	2426.380443
438.952580	2424.883220
439.328670	2426.541760
439.704700	2424.679053
440.080670	2425.034455
440.456580	2424.394228
440.832429	2425.692325
441.208218	2425.674681
441.583947	2426.420772
441.959616	2423.265010
442.335224	2426.234249
442.710773	2425.659558
443.086261	2427.111410
443.461689	2425.601585
443.837057	2426.445978
444.212365	2425.800710
444.587612	2428.303643
444.962800	2427.212233
445.337927	2427.663417
445.712995	2424.671492
446.088002	2427.290371
446.462949	2425.374733
446.837837	2427.365988
447.212664	2427.262645
447.587431	2429.266503
447.962139	2426.904723
448.336786	2430.415887
448.711374	2428.969075
449.085901	2431.661052
449.460369	2429.185845
449.834776	2428.359096
450.209124	2429.475711
450.583412	2431.353541
450.957640	2431.182142
451.331808	2432.281113
451.705917	2428.291040
452.079965	2429.916812
452.453954	2430.945208
452.827883	2430.315063
453.201752	2430.597368
453.575562	2429.374888
453.949311	2433.886721
454.323001	2431.834971
454.696632	2433.732966
455.070202	2437.239088
455.443713	2432.596186
455.817164	2429.402615
456.190556	2432.490321
456.563888	2430.201638
456.937160	2426.393046
457.310373	2433.236412
457.683526	2432.966710
458.056619	2433.924530
458.429653	2435.590631
458.802628	2434.549633
459.175542	2433.203645
459.548398	2435.187339
459.921194	2436.402257
460.293930	2437.715477
460.666607	2438.587597
461.039224	2436.447627
461.411782	2440.301589
461.784280	2438.544747
462.156719	2435.872936
462.529099	2437.108018
462.901419	2437.113059
463.273680	2437.039963
463.645882	2438.083482
464.018024	2440.629264
464.390106	2438.461568
464.762130	2443.653957
465.134094	2442.439038
465.505999	2445.781323
465.877845	2448.415326
466.249631	2446.703855
466.621358	2450.227621
466.993026	2449.163938
467.364634	2452.793568
467.736184	2448.861468
468.107674	2446.600511
468.479105	2446.224945
468.850477	2446.282918
469.221790	2444.324430
469.593043	2444.299224
469.964238	2442.638164
470.335373	2445.645212
470.706449	2445.123453
471.077467	2445.640171
471.448425	2449.897426
471.819324	2451.813064
472.190164	2448.622014
472.560945	2448.004472
472.931667	2445.907352
473.302330	2450.136880
473.672934	2445.907352
474.043479	2445.874585
474.413965	2446.169492
474.784393	2444.092537
475.154761	2447.492795
475.525070	2443.104471
475.895321	2446.013217
476.265513	2442.809563
476.635645	2445.831735
477.005719	2448.460697
477.375734	2446.721499
477.745691	2450.328444
478.115588	2449.289967
478.485427	2452.864145
478.855207	2451.137549
479.224928	2458.492593
479.594591	2457.161728
479.964194	2455.435133
480.333739	2454.661316
480.703226	2457.161728
481.072653	2456.718107
481.442022	2456.445884
481.811333	2457.552418
482.180584	2452.891871
482.549777	2455.072170
482.918912	2455.540997
483.287988	2455.364557
483.657005	2454.134515
484.025964	2453.786676
484.394864	2455.283898
484.763706	2454.845318
485.132489	2453.562344
485.501213	2453.832046
485.869879	2453.443877
486.238487	2456.284567
486.607036	2455.069649
486.975527	2455.422530
487.343959	2454.938579
487.712333	2455.498147
488.080648	2451.944134
488.448905	2453.595112
488.817104	2454.109310
489.185244	2454.605863
489.553326	2456.690380
489.921350	2458.593416
490.289315	2461.857563
490.657222	2462.197841
491.025070	2461.292954
491.392861	2462.853191
491.760593	2465.769498
492.128267	2457.270113
492.495883	2459.578962
492.863440	2459.931842
493.230939	2456.279526
493.598380	2461.716411
493.965763	2454.815071
494.333088	2455.717438
494.700354	2453.995884
495.067563	2456.778601
495.434713	2453.600153
495.801805	2457.300360
496.168839	2458.106945
496.535815	2455.977057
496.902733	2458.013683
497.269593	2459.876390
497.636395	2460.778756
498.003139	2461.038376
498.369825	2461.789508
498.736453	2462.465022
499.103023	2460.751030
499.469535	2462.969137
499.835989	2461.633232
500.202385	2462.326390
500.568723	2464.864611
500.935003	2466.712194
501.301226	2468.544654
501.667390	2464.514251
502.033497	2469.928450
502.399546	2470.374593
502.765537	2468.060703
503.131470	2470.364510
503.497345	2474.097485
503.863163	2472.108749
504.228923	2473.001034
504.594625	2477.442290
504.960269	2475.940026
505.325856	2476.355922
505.691385	2479.524287
506.056856	2482.032261
506.422270	2483.864720
506.787625	2484.449494
507.152924	2486.231542
507.518164	2489.593992
507.883347	2488.016110
508.248472	2490.549290
508.613540	2492.411997
508.978550	2495.585403
509.343503	2496.512975
509.708398	2501.120590
510.073236	2503.074037
510.438016	2506.809532
510.802738	2503.651249
511.167403	2508.329440
511.532010	2510.088803
511.896561	2515.268588
512.261053	2519.195647
512.625488	2518.996521
512.989866	2516.952333
513.354186	2522.868128
513.718449	2521.615401
514.082655	2532.471526
514.446803	2529.895496
514.810894	2535.045035
515.174927	2535.745755
515.538904	2538.465458
515.902822	2541.439738
516.266684	2545.235727
516.630488	2546.695141
516.994235	2551.501881
517.357925	2551.131357
517.721558	2557.243756
518.085133	2561.306926
518.448651	2564.800445
518.812112	2563.124262
519.175516	2564.588717
519.538863	2572.261353
519.902152	2572.755386
520.265385	2575.044070
520.628560	2579.089596
520.991678	2582.855338
521.354739	2583.654361
521.717743	2590.817840
522.080690	2594.457553
522.443580	2595.720362
522.806413	2598.150198
523.169189	2598.082143
523.531908	2605.328802
523.894569	2607.640171
524.257174	2607.423401
524.619722	2613.432456
524.982213	2615.204422
525.344647	2614.798609
525.707025	2618.670215
526.069345	2622.478807
526.431608	2625.606843
526.793815	2630.310239
527.155964	2631.205044
527.518057	2633.765950
527.880093	2633.884417
528.242072	2637.239305
528.603995	2640.150572
528.965860	2641.380613
529.327669	2644.150727
529.689421	2648.110554
530.051117	2648.055101
530.412755	2648.332364
530.774337	2652.350164
531.135862	2651.092396
531.497331	2655.765546
531.858743	2653.005514
532.220098	2663.004643
532.581396	2659.478356
532.942638	2658.379384
533.303824	2663.851557
533.664953	2664.658141
534.026025	2665.721825
534.387040	2673.318843
534.747999	2673.152485
535.108902	2677.881088
535.469748	2676.517456
535.830537	2680.865451
536.191270	2681.777900
536.551947	2681.059535
536.912567	2683.401151
537.273131	2685.044567
537.633638	2682.382838
537.994089	2688.951462
538.354483	2687.734023
538.714821	2691.305680
539.075103	2697.302133
539.435328	2697.039993
539.795497	2697.178625
540.155609	2697.833975
540.515665	2701.410673
540.875665	2696.750127
541.235609	2701.987885
541.595496	2703.013760
541.955328	2707.485264
542.315102	2704.689944
542.674821	2703.671631
543.034483	2708.178422
543.394090	2708.700182
543.753640	2709.282435
544.113134	2717.847355
544.472571	2710.446942
544.831953	2718.134701
545.191278	2717.096223
545.550548	2711.397199
545.909761	2718.139742
546.268918	2720.254506
546.628019	2725.005794
546.987064	2719.926831
547.346053	2716.622355
547.704986	2723.276678
548.063863	2722.462532
548.422684	2722.752398
548.781449	2722.127295
549.140158	2727.440671
549.498811	2725.136864
549.857408	2723.143087
550.215949	2727.385218
550.574434	2724.912532
550.932864	2726.061916
551.291237	2725.547718
551.649555	2730.606516
552.007817	2730.026783
552.366022	2728.824468
552.724173	2734.069788
553.082267	2736.071127
553.440305	2736.683627
553.798288	2736.086250
554.156215	2736.643297
554.514086	2740.640932
554.871902	2738.170767
555.229661	2737.459964
555.587365	2739.504152
555.945014	2739.428535
556.302606	2738.445510
556.660143	2743.552199
557.017625	2742.354925
557.375050	2743.688310
557.732421	2744.804926
558.089735	2745.034298
558.446994	2744.235275
558.804197	2750.811460
559.161345	2751.524784
559.518437	2743.922724
559.875474	2749.266347
560.232455	2747.670822
560.589381	2752.686770
560.946251	2751.300452
561.303065	2757.884199
561.659825	2758.131216
562.016528	2757.922008
562.373177	2757.611977
562.729770	2759.570465
563.086307	2759.522574
563.442789	2765.019952
563.799216	2768.619336
564.155587	2766.865015
564.511904	2771.051693
564.868164	2775.918927
565.224370	2777.645522
565.580520	2776.286931
565.936615	2782.704320
566.292654	2785.744136
566.648638	2787.024589
567.004567	2790.734878
567.360441	2797.719397
567.716260	2796.476752
568.072023	2802.914306
568.427732	2801.275931
568.783385	2807.269863
569.138982	2812.802529
569.494525	2816.291008
569.850013	2817.125319
570.205445	2829.387925
570.560823	2835.117197
570.916145	2839.613906
571.271412	2845.985924
571.626625	2848.246882
571.981782	2855.458252
572.336884	2861.885724
572.691931	2871.864688
573.046923	2873.646736
573.401860	2876.973897
573.756743	2889.831360
574.111570	2895.676578
574.466342	2900.579100
574.821059	2910.792478
575.175722	2916.400761
575.530330	2923.183634
575.884882	2933.210489
576.239380	2938.289451
576.593823	2946.771193
576.948211	2958.116309
577.302544	2963.782566
577.656823	2969.839513
578.011047	2990.054540
578.365216	2995.662823
578.719330	3005.903927
579.073389	3016.422295
579.427394	3034.071374
579.781344	3042.931202
580.135239	3052.766493
580.489080	3069.452713
580.842866	3078.753642
581.196597	3101.025459
581.550273	3114.475258
581.903895	3129.533184
582.257463	3156.808347
582.610975	3166.363854
582.964434	3187.642565
583.317837	3200.104297
583.671186	3217.173644
584.024481	3239.747931
584.377721	3246.704723
584.730906	3269.286572
585.084037	3289.811630
585.437113	3301.204637
585.790135	3322.904284
586.143103	3332.979030
586.496016	3353.612473
586.848874	3374.979403
587.201679	3404.039135
587.554428	3409.302099
587.907124	3444.587656
588.259765	3458.249182
588.612352	3495.601612
588.964884	3505.189887
589.317362	3539.822613
589.669786	3562.588464
590.022155	3584.797267
590.374470	3619.472844
590.726731	3630.054226
591.078937	3640.174342
591.431090	3667.061337
591.783188	3683.631609
592.135232	3700.973178
592.487222	3736.102459
592.839157	3763.992643
593.191038	3779.393368
593.542866	3800.848518
593.894639	3811.334118
594.246358	3850.261908
594.598022	3876.092781
594.949633	3890.081983
595.301190	3913.982093
595.652692	3937.247018
596.004141	3977.225889
596.355535	3971.975527
596.706876	3992.596367
597.058162	4012.987834
597.409395	4060.165472
597.760573	4096.434054
598.111698	4109.034418
598.462768	4142.210251
598.813785	4174.645035
599.164748	4183.744318
599.515657	4227.612438
599.866511	4241.266404
600.217312	4305.556239
600.568060	4292.159372
600.918753	4358.969784
601.269392	4394.441863
601.619978	4413.268052
601.970510	4457.156338
602.320988	4505.909337
602.671412	4549.716963
603.021783	4577.292075
603.372100	4595.641875
603.722363	4638.927742
604.072572	4679.123383
604.422728	4721.486719
604.772830	4744.663424
605.122878	4790.563130
605.472872	4830.070652
605.822813	4884.326071
606.172701	4919.278911
606.522534	4975.283609
606.872314	5032.321745
607.222041	5062.568668
607.571714	5129.991580
607.921333	5137.265965
608.270899	5202.717786
608.620411	5272.142036
608.969870	5306.515143
609.319276	5351.028532
609.668627	5402.851593
610.017926	5489.572043
610.367171	5555.452362
610.716362	5612.240960
611.065500	5655.010109
611.414585	5726.516356
611.763616	5802.065608
612.112594	5857.984607
612.461518	5927.885246
612.810389	6007.064129
613.159207	6049.790428
613.507971	6114.760819
613.856682	6219.483228
614.205340	6266.015599
614.553945	6390.643004
614.902496	6396.614251
615.250994	6504.111816
615.599439	6577.453043
615.947830	6666.739439
616.296169	6736.569502
616.644454	6819.257028
616.992686	6907.409165
617.340864	7037.881788
617.688990	7087.844664
618.037063	7226.569656
618.385082	7300.931716
618.733048	7407.973056
619.080961	7485.944583
619.428821	7548.527987
619.776628	7633.524362
620.124382	7676.653953
620.472083	7747.527535
620.819731	7822.428999
621.167326	7840.834252
621.514868	7884.601550
621.862357	7883.840335
622.209793	7938.062986
622.557176	7943.971218
622.904506	7955.543187
623.251783	7961.998385
623.599007	7983.987898
623.946179	8003.708892
624.293297	8054.816109
624.640363	8028.239146
624.987376	8082.035819
625.334336	8107.970035
625.681243	8121.928990
626.028097	8175.065272
626.374899	8213.804019
626.721647	8286.378991
627.068343	8331.116710
627.414987	8355.702418
627.761577	8390.181389
628.108115	8511.252261
628.454600	8494.054364
628.801032	8588.754960
629.147412	8652.701997
629.493739	8724.140188
629.840014	8737.751303
630.186236	8872.264411
630.532405	8881.129280
630.878521	8993.292433
631.224585	9048.024240
631.570597	9071.437879
631.916556	9167.832302
632.262462	9242.315350
632.608316	9314.502153
632.954117	9361.770532
633.299866	9417.843286
633.645562	9475.851843
633.991206	9437.710473
634.336797	9413.318851
634.682336	9471.957552
635.027823	9481.457607
635.373257	9501.002160
635.718639	9512.667390
636.063968	9540.204693
636.409245	9479.060538
636.754470	9548.812463
637.099642	9561.932066
637.444762	9528.562148
637.789829	9614.675138
638.134845	9605.265824
638.479808	9650.507660
638.824719	9695.636069
639.169577	9680.230303
639.514383	9755.797199
639.859137	9743.295137
640.203839	9864.791986
640.548489	9852.547023
640.893086	9933.618860
641.237632	9935.884858
641.582125	10022.353250
641.926566	10073.185724
642.270955	10132.268047
642.615292	10208.644049
642.959576	10266.206464
643.303809	10329.825826
643.647990	10435.100241
643.992118	10491.546041
644.336195	10560.385517
644.680219	10652.810032
645.024192	10803.452312
645.368112	11006.058805
645.711981	11097.102044
646.055797	11407.566545
646.399562	11485.457413
646.743274	11812.010756
647.086935	12026.227027
647.430544	12089.740524
647.774101	12198.019468
648.117606	12337.644306
648.461059	12500.408040
648.804460	12452.716204
649.147810	12343.935666
649.491108	12342.566993
649.834354	12298.126701
650.177548	12126.409877
650.520690	12064.020557
650.863781	12124.665638
651.206820	12152.021459
651.549807	12090.446286
651.892742	12023.083867
652.235626	12028.624096
652.578458	12048.055223
652.921238	11951.396139
653.263967	12106.905653
653.606644	12082.897158
653.949269	12141.336734
654.291843	12092.944177
654.634365	12277.231118
654.976836	12221.526368
655.319255	12286.978189
655.661622	12352.848426
656.003938	12355.121986
656.346203	12367.848379
656.688416	12511.453208
657.030577	12511.329700
657.372687	12526.185980
657.714746	12681.657685
658.056753	12787.070733
658.398708	12670.078155
658.740612	12763.165581
659.082465	12914.352306
659.424266	12934.106067
659.766016	13046.218808
660.107715	13082.081577
660.449362	13193.135675
660.790958	13258.862239
661.132503	13328.404956
661.473996	13402.885484
661.815438	13509.271474
662.156829	13645.241476
662.498168	13642.713337
662.839456	13717.907188
663.180693	13839.126773
663.521879	13961.893993
663.863013	14020.719217
664.204097	14085.679525
664.545129	14325.101566
664.886110	14393.825095
665.227040	14484.817922
665.567918	14599.216827
665.908746	14697.602506
666.249522	14837.882694
666.590248	14897.786725
666.930922	15016.813408
667.271545	15069.841306
667.612118	15180.542523
667.952639	15166.830585
668.293109	15258.511529
668.633528	15276.594148
668.973896	15315.501774
669.314213	15397.044958
669.654480	15360.708321
669.994695	15435.095587
670.334859	15465.224043
670.674973	15487.884029
671.015035	15621.577950
671.355047	15679.218503
671.695008	15725.587036
672.034918	15742.432052
672.374777	15848.162692
672.714585	15859.878333
673.054342	16018.329361
673.394049	15983.948691
673.733705	16168.424675
674.073310	16107.623319
674.412864	16191.349322
674.752368	16077.973772
675.091820	16273.305881
675.431223	16166.135991
675.770574	16098.466063
676.109875	16102.400683
676.449125	16042.778957
676.788324	16063.735033
677.127473	15896.953499
677.466571	15915.746921
677.805619	15817.111705
678.144616	15884.138886
678.483562	15912.371868
678.822458	15817.434339
679.161303	15848.689493
679.500098	15861.317583
679.838842	15871.296547
680.177535	16008.355438
680.516179	16207.420521
680.854771	16390.926082
681.193314	16860.847321
681.531805	17485.408473
681.870247	17952.695709
682.208638	18392.632164
682.546978	18562.319923
682.885268	18677.230504
683.223508	18461.713615
683.561697	18361.142596
683.899836	18334.132094
684.237925	18136.803688
684.575963	18123.386657
684.913951	17951.790822
685.251889	18091.592100
685.589776	18140.592115
685.927614	18211.190954
686.265401	18346.533332
686.603137	18441.155790
686.940824	18772.997304
687.278460	19027.242857
687.616046	19146.420775
687.953582	19526.513692
688.291068	19501.091154
688.628504	19705.867864
688.965889	19752.279247
689.303224	19600.505228
689.640510	19481.876796
689.977745	19149.755498
690.314930	18776.901677
690.652065	18559.827072
690.989150	18217.867963
691.326185	17781.856046
691.663170	17451.267259
692.000105	17095.344153
692.336990	16782.046524
692.673825	16600.431395
693.010610	16363.237545
693.347345	16099.723831
693.684030	15789.952488
694.020665	15687.798547
694.357251	15364.887437
694.693786	15378.501073
695.030272	15287.331806
695.366707	15045.242995
695.703093	14922.677422
696.039429	14950.822184
696.375716	14850.021792
696.711952	14869.329411
697.048139	14815.268077
697.384276	14753.859262
697.720363	14860.560324
698.056400	14778.104691
698.392388	14689.997925
698.728326	14707.049628
699.064214	14640.387930
699.400053	14640.372807
699.735842	14477.122601
700.071581	14359.983830
700.407270	14219.648189
700.742910	14150.284433
701.078501	14039.983986
701.414042	13905.508687
701.749533	13770.645219
702.084974	13609.711423
702.420366	13767.318057
702.755709	13537.650650
703.091002	13400.110329
703.426246	13452.412300
703.761440	13408.609714
704.096584	13284.188996
704.431679	13295.138382
704.766725	13273.506791
705.101721	13259.099173
705.436668	13354.404707
705.771565	13185.037062
706.106413	13424.559925
706.441212	13444.240589
706.775961	13567.227099
707.110661	13640.888439
707.445311	13887.360533
707.779913	13820.091376
708.114465	13994.364065
708.448967	14192.297409
708.783421	14656.126412
709.117825	14849.338716
709.452180	15012.662018
709.786485	15277.017605
710.120742	15802.235260
710.454949	15824.242417
710.789107	16139.581713
711.123216	16591.856392
711.457275	16678.959969
711.791286	17043.329528
712.125247	17112.877287
712.459159	16946.725897
712.793023	17411.840395
713.126837	16728.411168
713.460602	16933.603773
713.794318	16740.267962
714.127985	16539.400666
714.461602	16009.280489
714.795171	16028.169693
715.128691	15412.808646
715.462162	15096.471201
715.795584	14862.463360
716.128957	14734.869235
716.462281	14501.993133
716.795556	14380.140883
717.128782	14089.407459
717.461960	13750.949431
717.795088	13726.512437
718.128167	13485.104182
718.461198	13210.520094
718.794180	13138.275318
719.127113	12907.960123
719.459997	12799.280407
719.792833	12577.401583
720.125619	12586.326946
720.458357	12383.087787
720.791046	12285.004577
721.123686	12190.674507
721.456278	12053.683671
721.788821	12030.771627
722.121315	11867.092923
722.453761	11935.289653
722.786158	11902.459138
723.118506	11917.998495
723.450805	11849.801766
723.783056	11975.260962
724.115259	11924.526789
724.447412	11889.851212
724.779518	12077.180489
725.111574	12100.642019
725.443582	12248.743558
725.775542	12251.599371
726.107453	12606.090789
726.439315	12525.525589
726.771129	12829.557577
727.102895	13110.488478
727.434612	13257.097835
727.766281	13355.493597
728.097901	13552.254872
728.429473	13599.523251
728.760996	13611.125467
729.092471	13691.645297
729.423897	13631.199342
729.755276	13567.123756
730.086606	13666.633612
730.417887	14054.857911
730.749120	14446.893322
731.080305	14591.950003
731.411442	14859.300036
731.742530	14935.217292
732.073570	15029.829668
732.404562	15257.639410
732.735506	15133.334638
733.066401	14952.974757
733.397249	14596.885293
733.728048	14179.674359
734.058798	13606.719498
734.389501	13130.395995
734.720156	12798.894759
735.050762	12411.897981
735.381320	12163.406905
735.711831	11995.778458
736.042293	11751.035480
736.372707	11770.154056
736.703073	11624.278187
737.033391	11771.837801
737.363661	11746.551373
737.693883	11840.374808
738.024056	11965.982718
738.354182	12107.175355
738.684260	12319.027325
739.014290	12488.422697
739.344272	12634.946354
739.674207	12852.323428
740.004093	12954.963841
740.333931	12956.266979
740.663722	12991.693688
740.993464	13008.374866
741.323159	12894.560736
741.652806	12694.328626
741.982405	12547.409238
742.311956	12304.859162
742.641460	12236.241496
742.970915	12016.734534
743.300323	11781.461364
743.629683	11633.659774
743.958996	11433.117633
744.288260	11242.204096
744.617477	11017.103973
744.946647	10980.301030
745.275768	10786.486308
745.604842	10661.763121
745.933869	10540.321725
746.262847	10515.952787
746.591778	10466.083173
746.920662	10386.372448
747.249498	10401.505992
747.578286	10498.704479
747.907027	10610.406366
748.235720	10782.891966
748.564365	10812.234002
748.892963	10745.448796
749.221514	10790.602411
749.550017	10692.950219
749.878473	10670.300315
750.206881	10512.784422
750.535242	10446.299165
750.863555	10396.595908
751.191821	10317.631274
751.520039	10342.592548
751.848210	10273.576631
752.176334	10302.132247
752.504411	10240.773843
752.832440	10118.145255
753.160421	10172.572073
753.488356	10076.187732
753.816243	10001.692081
754.144082	9893.927335
754.471875	9853.225059
754.799620	9820.510491
755.127318	9797.023755
755.454969	9764.157953
755.782572	9730.480524
756.110129	9750.468699
756.437638	9690.637765
756.765100	9687.333288
757.092515	9696.397283
757.419882	9709.932781
757.747203	9717.451662
758.074477	9779.006671
758.401703	9743.834541
758.728882	9872.550322
759.056014	9914.890973
759.383099	10007.655766
759.710138	10102.167318
760.037129	10164.481021
760.364073	10185.190081
760.690970	10182.321664
761.017820	10185.815184
761.344623	10349.377941
761.671379	10626.008737
761.998088	11145.943263
762.324751	12403.207032
762.651366	14734.193721
762.977935	17684.796190
763.304456	19539.159427
763.630931	19949.413568
763.957359	19032.488177
764.283740	17463.469372
764.610074	15947.657425
764.936362	14249.615328
765.262602	13007.487623
765.588796	11774.738985
765.914943	10948.723242
766.241044	10253.641388
766.567097	9735.690557
766.893104	9283.912431
767.219064	8988.016865
767.544978	8677.418774
767.870845	8416.367663
768.196665	8263.555167
768.522438	8105.935930
768.848165	7970.613717
769.173846	7835.157913
769.499479	7735.224599
769.825066	7605.828263
770.150607	7457.048689
770.476101	7407.796616
770.801548	7317.194478
771.126949	7201.187446
771.452303	7129.078782
771.777611	6995.515931
772.102872	6975.931048
772.428087	6889.054323
772.753256	6793.148892
773.078378	6716.011677
773.403453	6602.832732
773.728482	6515.991295
774.053465	6463.974149
774.378401	6396.258850
774.703291	6314.496376
775.028135	6235.430919
775.352932	6204.841197
775.677683	6141.569675
776.002388	6069.156021
776.327046	6070.028140
776.651658	5995.101471
776.976224	5933.097799
777.300743	5918.266724
777.625216	5863.103898
777.949643	5830.238096
778.274024	5839.034909
778.598359	5776.640548
778.922647	5779.387977
779.246889	5743.288274
779.571086	5753.272280
779.895236	5762.452221
780.219339	5759.072127
780.543397	5758.464668
780.867409	5801.657274
781.191374	5802.942768
781.515294	5775.339931
781.839167	5822.512528
782.162995	5799.088806
782.486776	5757.315285
782.810511	5725.319082
783.134201	5666.057797
783.457844	5659.287528
783.781441	5615.676506
784.104993	5577.620836
784.428498	5560.067538
784.751958	5541.836205
785.075372	5527.478999
785.398739	5491.671683
785.722061	5519.229151
786.045337	5520.325602
786.368568	5613.309684
786.691752	5632.786182
787.014891	5846.944480
787.337983	6082.852836
787.661030	6455.706657
787.984031	6820.182080
788.306987	7045.877058
788.629897	7127.967207
788.952760	7069.452014
789.275579	6927.495642
789.598351	6673.628176
789.921078	6445.689884
790.243759	6210.661209
790.566395	6030.402151
790.888984	5862.385534
791.211529	5745.846660
791.534027	5602.783755
791.856480	5480.452595
792.178888	5432.596922
792.501249	5371.326738
792.823566	5285.617040
793.145836	5280.810300
793.468062	5263.004945
793.790241	5227.731991
794.112375	5266.944606
794.434464	5350.342935
794.756507	5379.316967
795.078505	5488.054655
795.400457	5667.297921
795.722364	5872.422471
796.044226	6040.260127
796.366042	6175.473955
796.687812	6139.384335
797.009538	6167.700496
797.331218	6088.042704
797.652852	6029.421646
797.974442	5929.442963
798.295986	5869.652357
798.617484	5757.317806
798.938938	5657.097147
799.260346	5607.600577
799.581709	5483.870497
799.903026	5445.771977
800.224299	5372.965113
800.545526	5270.750677
800.866708	5220.752514
801.187845	5174.625956
801.508936	5106.986274
801.829983	5081.692285
802.150984	4989.476978
802.471940	4962.216939
802.792851	4947.554743
803.113717	4925.683697
803.434538	4907.263321
803.755314	4875.861973
804.076045	4869.764698
804.396731	4836.525850
804.717372	4851.062017
805.037967	4849.158981
805.358518	4875.131006
805.679024	4925.759314
805.999485	4934.939255
806.319901	4951.317964
806.640272	4970.809585
806.960598	5003.279657
807.280879	5000.461652
807.601115	5035.744688
807.921306	5002.793186
808.241453	4992.597452
808.561554	5011.050596
808.881611	4981.874918
809.201623	4981.600175
809.521590	4938.735244
809.841513	4926.812915
810.161390	4939.541829
810.481223	4861.063666
810.801011	4851.084702
811.120755	4834.171631
811.440453	4786.550371
811.760107	4760.414509
812.079716	4735.722937
812.399281	4691.010423
812.718801	4687.539589
813.038276	4660.970188
813.357707	4629.029437
813.677093	4652.075072
813.996434	4596.773614
814.315731	4612.073516
814.634983	4613.200214
814.954191	4619.166419
815.273354	4673.003422
815.592473	4710.819638
815.911547	4781.894866
816.230577	4826.246937
816.549562	4908.037138
816.868502	4952.714364
817.187399	5005.800234
817.506250	5078.778498
817.825058	5100.447898
818.143821	5240.218929
818.462539	5394.886570
818.781213	5603.968426
819.099843	5932.535710
819.418429	6498.057390
819.736970	7042.451594
820.055466	7698.056172
820.373919	8523.779528
820.692327	9837.060599
821.010691	12205.230838
821.329011	17552.488587
821.647286	25653.199361
821.965517	34461.085717
822.283704	39203.039521
822.601847	40719.292569
822.919945	36910.330313
823.237999	32586.162134
823.556010	28085.137676
823.873976	23996.179653
824.191897	20311.159206
824.509775	17597.879136
824.827609	15207.011102
825.145398	13858.646121
825.463144	13206.782079
825.780845	13482.641579
826.098502	14580.277212
826.416116	16722.812967
826.733685	18780.551473
827.051210	19267.216903
827.368692	17997.372935
827.686129	15751.634678
828.003522	13550.888720
828.320872	11550.218596
828.638177	10077.581611
828.955439	8952.602759
829.272656	8002.040270
829.589830	7243.437357
829.906960	6589.977789
830.224046	6109.495334
830.541088	5737.619497
830.858086	5508.559548
831.175041	5328.575233
831.491952	5278.224188
831.808819	5312.012522
832.125642	5536.873189
832.442421	6036.317945
832.759157	7037.720471
833.075849	8628.196948
833.392497	10296.740733
833.709101	11295.068155
834.025662	11079.475649
834.342179	10138.365323
834.658653	8956.547462
834.975083	7955.134854
835.291469	7132.070706
835.607811	6470.686445
835.924110	5997.100288
836.240366	5555.076796
836.556578	5147.751565
836.872746	4822.254343
837.188871	4575.825099
837.504952	4372.979151
837.820990	4227.083117
838.136984	4120.840800
838.452935	4075.646856
838.768842	4102.211216
839.084706	4354.500801
839.400526	5027.522566
839.716303	5844.698646
840.032037	6360.784250
840.347727	6227.889352
840.663373	5686.343401
840.978977	5163.182537
841.294537	4759.597842
841.610054	4460.075166
841.925527	4242.040221
842.240957	4052.787744
842.556344	3888.819174
842.871687	3744.427925
843.186987	3603.215123
843.502244	3497.804596
843.817458	3418.910538
844.132629	3351.830425
844.447756	3308.910041
844.762840	3272.386881
845.077881	3233.738875
845.392879	3202.720656
845.707833	3179.251564
846.022745	3156.410096
846.337613	3144.525576
846.652438	3122.548666
846.967221	3115.831328
847.281960	3097.010180
847.596656	3087.613469
847.911309	3076.969073
848.225919	3064.603123
848.540485	3054.820764
848.855009	3046.754918
849.169490	3039.709905
849.483928	3031.984337
849.798323	3028.982330
850.112675	3018.221987
850.426984	3020.727440
850.741251	3014.337778
851.055474	3006.728156
851.369654	3012.036491
851.683792	3009.011799
851.997887	3012.646471
852.311938	3012.777541
852.625947	3010.103208
852.939914	3006.098012
853.253837	3010.834176
853.567718	3007.990965
853.881555	3004.353773
854.195350	3006.279493
854.509103	3006.932323
854.822812	3007.133969
855.136479	2998.737927
855.450103	3002.375120
855.763685	2996.555108
856.077224	2998.518637
856.390720	3007.164216
856.704173	3014.506656
857.017584	3021.292049
857.330953	3025.856814
857.644278	3031.044162
857.957561	3033.443751
858.270802	3034.255377
858.584000	3031.490304
858.897155	3029.461239
859.210268	3016.248375
859.523339	3007.091119
859.836367	3002.551560
860.149352	2999.882269
860.462295	2994.032010
860.775195	2987.397852
861.088054	2985.913232
861.400869	2985.804847
861.713642	2982.873416
862.026373	2992.413800
862.339062	2993.573265
862.651708	3000.819924
862.964312	3016.457583
863.276873	3024.757843
863.589392	3052.499312
863.901869	3079.043508
864.214303	3097.274841
864.526696	3115.632202
864.839045	3131.133751
865.151353	3140.749752
865.463619	3142.446100
865.775842	3139.943167
866.088023	3149.828870
866.400162	3143.068682
866.712258	3142.791419
867.024313	3143.610606
867.336325	3140.616161
867.648296	3142.408291
867.960224	3139.439052
868.272110	3144.283600
868.583954	3143.419042
868.895755	3147.376348
869.207515	3145.367448
869.519233	3166.308402
869.830909	3168.503824
870.142542	3182.823222
870.454134	3185.008562
870.765684	3198.990202
871.077191	3214.925289
871.388657	3225.801579
871.700081	3242.545771
872.011463	3260.663678
872.322803	3279.194960
872.634101	3293.595016
872.945357	3313.832728
873.256571	3335.844926
873.567744	3351.243130
873.878874	3354.265302
874.189963	3373.976214
874.501010	3371.836244
874.812015	3371.621995
875.122979	3381.996689
875.433900	3382.626834
875.744780	3383.861916
876.055618	3389.913822
876.366415	3390.324676
876.677169	3395.771642
876.987882	3409.735638
877.298554	3430.059050
877.609183	3466.773774
877.919771	3509.621061
878.230317	3570.039290
878.540822	3663.472035
878.851285	3802.365906
879.161707	4008.223944
879.472087	4355.685472
879.782425	4930.545890
880.092722	6009.864490
880.402977	7743.814726
880.713191	9827.610956
881.023363	11881.243442
881.333494	13079.722317
881.643583	13510.957740
881.953631	13201.481305
882.263637	12459.400774
882.573602	11564.941285
882.883526	10711.965452
883.193408	9857.099185
883.503248	9024.771918
883.813048	8278.925645
884.122806	7585.519974
884.432522	6894.869294
884.742197	6298.130270
885.051831	5791.315347
885.361424	5345.062326
885.670975	4990.812884
885.980485	4691.895146
886.289954	4447.767189
886.599382	4256.715020
886.908768	4090.825770
887.218113	3940.004529
887.527417	3820.481292
887.836680	3704.711194
888.145901	3615.714664
888.455082	3546.499622
888.764221	3483.759942
889.073319	3429.948145
889.382376	3399.769277
889.691392	3377.131976
890.000366	3369.141747
890.309300	3365.829709
890.618193	3369.615616
890.927044	3361.612784
891.235855	3369.335832
891.544625	3381.918552
891.853353	3408.346801
892.162041	3464.880820
892.470687	3548.619427
892.779293	3658.425840
893.087858	3817.817042
893.396381	4074.532761
893.704864	4452.228610
894.013306	4971.583403
894.321707	5502.588302
894.630068	5828.408157
894.938387	5859.794381
895.246665	5700.808992
895.554903	5408.999281
895.863100	5093.596970
896.171256	4845.695709
896.479371	4626.566833
896.787446	4417.704268
897.095480	4240.842947
897.403473	4106.796145
897.711425	3969.593582
898.019336	3858.975543
898.327207	3744.627050
898.635038	3653.014161
898.942827	3555.762742
899.250576	3476.394816
899.558284	3398.874473
899.865952	3348.173068
900.173579	3294.983853
900.481165	3250.397368
900.788711	3210.325236
901.096216	3178.515556
901.403681	3153.367760
901.711105	3144.853251
902.018489	3143.383754
902.325832	3169.106242
902.633135	3227.571024
902.940397	3383.539283
903.247619	3751.878750
903.554800	4441.296868
903.861941	5327.869471
904.169041	5964.937727
904.476101	6159.193549
904.783121	5905.076545
905.090100	5535.915370
905.397039	5158.708513
905.703938	4828.913707
906.010796	4533.103841
906.317614	4301.137667
906.624391	4083.385027
906.931129	3901.868200
907.237826	3740.147985
907.544483	3583.733584
907.851099	3427.104934
908.157675	3282.035650
908.464211	3150.597646
908.770707	3058.846125
909.077163	2985.593118
909.383578	2930.057247
909.689954	2888.233314
909.996289	2861.187524
910.302584	2843.379648
910.608839	2833.473781
910.915054	2820.603715
911.221229	2820.336534
911.527363	2823.630928
911.833458	2829.871876
912.139513	2839.649194
912.445527	2851.183354
912.751502	2882.617469
913.057436	2923.435692
913.363331	2976.405616
913.669186	3058.470559
913.975000	3165.310253
914.280775	3336.893486
914.586510	3581.727205
914.892205	3926.965585
915.197859	4380.898803
915.503475	4917.900155
915.809050	5370.131984
916.114585	5636.897243
916.420081	5695.394792
916.725536	5636.796420
917.030952	5417.208800
917.336328	5228.420109
917.641665	5034.497003
917.946961	4825.175692
918.252218	4645.874453
918.557435	4431.116258
918.862612	4255.162344
919.167750	4097.527984
919.472848	3923.015841
919.777906	3766.430041
920.082925	3621.327989
920.387904	3480.263901
920.692843	3378.092316
920.997743	3284.412554
921.302603	3201.011705
921.607423	3144.084475
921.912204	3083.091554
922.216946	3041.328115
922.521647	2992.922956
922.826310	2953.854014
923.130932	2923.120619
923.435516	2885.241389
923.740059	2858.389683
924.044564	2831.452278
924.349028	2807.920172
924.653454	2781.733898
924.957840	2758.065681
925.262186	2738.758062
925.566493	2718.532952
925.870761	2698.201979
926.174989	2689.533715
926.479178	2674.017043
926.783328	2658.908705
927.087438	2645.902528
927.391509	2635.265694
927.695541	2627.212450
927.999533	2618.705503
928.303486	2607.977928
928.607400	2601.459716
928.911275	2597.091556
929.215110	2592.940166
929.518906	2588.433374
929.822663	2591.422779
930.126381	2587.853642
930.430060	2589.771801
930.733699	2593.290526
931.037299	2597.404108
931.340861	2597.394025
931.644383	2597.320929
931.947866	2598.742534
932.251309	2593.603078
932.554714	2593.598037
932.858080	2595.289344
933.161407	2588.241811
933.464694	2585.690987
933.767943	2580.974987
934.071153	2578.938361
934.374323	2576.475757
934.677455	2570.791857
934.980548	2572.682289
935.283602	2570.668348
935.586617	2565.884293
935.889593	2565.791032
936.192530	2570.655745
936.495428	2576.042218
936.798287	2585.562437
937.101108	2599.150867
937.403890	2620.449742
937.706632	2646.270532
938.009336	2673.394461
938.312002	2704.314378
938.614628	2721.605536
938.917216	2739.206724
939.219765	2748.595873
939.522275	2757.435537
939.824747	2756.918818
940.127179	2752.033940
940.429573	2746.387848
940.731929	2746.705441
941.034246	2737.018863
941.336524	2736.318143
941.638763	2730.223388
941.940964	2723.962275
942.243126	2707.656663
942.545250	2697.652493
942.847335	2686.438446
943.149381	2676.172137
943.451389	2663.055054
943.753359	2650.177427
944.055290	2642.376241
944.357182	2633.597072
944.659036	2627.441823
944.960851	2627.010804
945.262628	2620.936214
945.564367	2623.638272
945.866067	2621.183230
946.167729	2622.143570
946.469352	2616.865482
946.770937	2615.743825
947.072484	2611.355501
947.373992	2612.285594
947.675462	2609.223093
947.976893	2600.819489
948.278286	2601.883173
948.579641	2595.821185
948.880958	2595.208685
949.182236	2590.890937
949.483476	2588.206522
949.784678	2590.752305
950.085841	2591.460587
950.386967	2593.139292
950.688054	2599.012236
950.989103	2606.722681
951.290114	2613.117384
951.591087	2627.666154
951.892021	2638.250057
952.192917	2647.924031
952.493776	2660.524395
952.794596	2662.785352
953.095378	2664.529592
953.396122	2662.707215
953.696828	2655.422747
953.997496	2652.082983
954.298126	2645.685759
954.598718	2640.415232
954.899272	2626.549539
955.199788	2619.920421
955.500266	2608.953391
955.800706	2594.356730
956.101108	2576.939544
956.401472	2566.264900
956.701798	2554.574465
957.002087	2540.854964
957.302337	2531.140661
957.602550	2520.886954
957.902724	2508.992352
958.202861	2502.620333
958.502960	2492.906030
958.803022	2489.455360
959.103045	2482.496047
959.403031	2477.570840
959.702979	2474.329378
960.002889	2468.355610
960.302762	2462.137347
960.602596	2458.580813
960.902393	2458.558128
961.202153	2452.783486
961.501875	2451.775255
961.801559	2451.780297
962.101205	2447.858279
962.400814	2445.791406
962.700385	2443.255705
962.999918	2443.880808
963.299414	2441.458534
963.598873	2442.499532
963.898293	2437.062648
964.197677	2437.496187
964.497022	2434.884869
964.796331	2435.242791
965.095601	2434.879828
965.394835	2435.404108
965.694030	2435.593152
965.993189	2433.909406
966.292309	2432.394539
966.591393	2433.001998
966.890439	2431.870259
967.189447	2434.468974
967.488419	2433.599375
967.787353	2434.632812
968.086249	2432.986875
968.385108	2435.938471
968.683930	2435.351176
968.982714	2437.781012
969.281462	2436.883687
969.580172	2438.360745
969.878844	2443.313679
970.177480	2442.600355
970.476078	2446.958433
970.774639	2447.485233
971.073162	2450.628393
971.371649	2453.075873
971.670098	2451.739967
971.968510	2455.490586
972.266885	2450.925821
972.565223	2459.752881
972.863524	2457.844805
973.161788	2463.208592
973.460014	2459.732717
973.758204	2463.039714
974.056356	2463.443006
974.354471	2463.374950
974.652550	2463.979889
974.950591	2465.840075
975.248595	2459.591564
975.546563	2461.328242
975.844493	2459.626852
976.142386	2459.321863
976.440243	2455.765329
976.738062	2453.590071
977.035845	2454.883127
977.333590	2450.789710
977.631299	2447.049174
977.928971	2447.427260
978.226606	2446.315686
978.524204	2443.550613
978.821765	2444.589091
979.119290	2442.285283
979.416777	2443.467434
979.714228	2441.554316
980.011642	2445.297373
980.309020	2449.479010
980.606360	2450.557817
980.903664	2458.472428
981.200931	2471.458441
981.498162	2489.571306
981.795356	2516.158352
982.092513	2548.716644
982.389633	2589.371029
982.686717	2629.443161
982.983764	2659.412821
983.280775	2675.529389
983.577749	2675.206756
983.874686	2670.238698
984.171587	2652.587098
984.468451	2636.468009
984.765279	2625.087604
985.062070	2602.944336
985.358824	2590.598550
985.655543	2570.103739
985.952224	2547.584905
986.248869	2522.235463
986.545478	2495.182111
986.842050	2480.028402
987.138586	2465.134313
987.435086	2446.429112
987.731549	2444.314348
988.027975	2439.323605
988.324366	2431.126689
988.620719	2430.367996
988.917037	2424.830288
989.213318	2423.514547
989.509563	2419.716038
989.805772	2417.298804
990.101944	2415.983063
990.398080	2417.603794
990.694180	2415.993145
990.990244	2419.000194
991.286271	2417.986922
991.582262	2418.042374
991.878217	2419.048085
992.174136	2420.015986
992.470019	2419.590009
992.765865	2421.210740
993.061676	2423.751481
993.357450	2424.759712
993.653188	2426.105700
993.948890	2433.995106
994.244556	2438.519541
994.540186	2450.721654
994.835780	2456.375308
995.131337	2466.679427
995.426859	2485.959320
995.722345	2504.278873
996.017795	2520.602129
996.313208	2531.516227
996.608586	2541.129707
996.903928	2546.271684
997.199234	2544.063659
997.494504	2541.001158
997.789738	2534.737524
998.084936	2526.719569
998.380099	2514.530059
998.675225	2506.716271
998.970316	2493.258910
999.265371	2482.682570
999.560390	2467.493573
999.855373	2459.127778
1000.150320	2447.843155
1000.445232	2444.082455
1000.740108	2435.464602
1001.034948	2430.506627
1001.329752	2427.252562
1001.624521	2420.721748
1001.919254	2416.779565
1002.213951	2418.697724
1002.508613	2411.105747
1002.803239	2411.259502
1003.097829	2405.658780
1003.392384	2410.906621
1003.686903	2409.222876
1003.981386	2408.262536
1004.275834	2407.937382
1004.570246	2405.747000
1004.864623	2407.297155
1005.158964	2405.419325
1005.453270	2406.740107
1005.747540	2406.230951
1006.041775	2404.602658
1006.335974	2403.024777
1006.630138	2403.798594
1006.924266	2406.198183
1007.218359	2401.378840
1007.512416	2403.849006
1007.806438	2402.530744
1008.100425	2403.044942
1008.394376	2401.318347
1008.688292	2401.555281
1008.982172	2403.342370
1009.276017	2400.335322
1009.569827	2400.862122
1009.863602	2399.823644
1010.157341	2402.003943
1010.451045	2400.967986
1010.744714	2401.081412
1011.038347	2401.078892
1011.331945	2401.804818
1011.625508	2398.139899
1011.919036	2399.276679
1012.212528	2399.470764
1012.505986	2397.492111
1012.799408	2400.395815
1013.092795	2400.151319
1013.386147	2398.563356
1013.679464	2399.112842
1013.972745	2397.144271
1014.265992	2402.041752
1014.559204	2399.218706
1014.852380	2398.656617
1015.145521	2398.442368
1015.438628	2396.796432
1015.731699	2399.856412
1016.024736	2396.612429
1016.317737	2399.448078
1016.610703	2401.797256
1016.903635	2398.379354
1017.196531	2396.718294
1017.489393	2398.094529
1017.782219	2398.308778
1018.075011	2404.315313
1018.367768	2398.094529
1018.660490	2401.761968
1018.953177	2401.761968
1019.245829	2401.761968
