Dividing Wavelength (nm)	Counts (n)	Blue Motor Position (mm): 29.800000	Red Motor Position (mm): 0.000000	
326.493990	1971.312965
326.888308	1971.312965
327.282561	1971.312965
327.676750	1946.283636
328.070874	1947.150714
328.464933	1954.314194
328.858929	1962.632098
329.252859	1975.978552
329.646726	1988.195789
330.040528	2004.728253
330.434265	2023.957734
330.827938	2043.656043
331.221547	2062.210010
331.615091	2082.886302
332.008571	2103.923037
332.401986	2125.163939
332.795338	2144.912659
333.188625	2164.729435
333.581847	2186.897909
333.975006	2203.085054
334.368100	2220.855121
334.761129	2238.010168
335.154095	2254.567838
335.546996	2292.575617
335.939833	2364.810310
336.332606	2382.141797
336.725315	2392.879455
337.117960	2405.875550
337.510540	2408.501991
337.903056	2421.384659
338.295508	2426.050247
338.687896	2432.213058
339.080220	2441.685386
339.472480	2447.623865
339.864676	2449.771397
340.256807	2454.016048
340.648875	2454.270627
341.040879	2455.974537
341.432818	2458.227932
341.824694	2458.147274
342.216506	2457.007973
342.608253	2456.803806
342.999937	2454.041254
343.391557	2453.922787
343.783113	2452.513784
344.174605	2452.410441
344.566033	2451.860955
344.957397	2450.174689
345.348697	2447.011365
345.739934	2445.861982
346.131106	2444.117743
346.522215	2442.930551
346.913260	2441.133380
347.304241	2441.554316
347.695159	2437.347473
348.086012	2436.634150
348.476802	2435.472164
348.867528	2432.145002
349.258191	2431.981165
349.648789	2430.095773
350.039324	2430.897317
350.429796	2428.938828
350.820203	2428.570824
351.210548	2426.798859
351.600828	2424.742068
351.991045	2426.342634
352.381198	2424.840370
352.771288	2426.214085
353.161314	2424.230391
353.551276	2425.092428
353.941175	2423.524629
354.331010	2424.890782
354.720782	2428.875814
355.110490	2429.717687
355.500135	2427.053437
355.889717	2427.620567
356.279235	2426.889599
356.668689	2425.341965
357.058080	2428.033941
357.447408	2426.922367
357.836672	2425.586461
358.225873	2426.234249
358.615010	2423.466656
359.004084	2431.865218
359.393095	2431.265321
359.782043	2427.396235
360.170927	2431.411514
360.559748	2429.170722
360.948505	2437.944850
361.337199	2432.765064
361.725830	2432.341607
362.114398	2434.852102
362.502903	2437.738163
362.891344	2436.359407
363.279722	2434.990734
363.668037	2438.181784
364.056289	2434.983172
364.444478	2439.903338
364.832603	2440.725046
365.220665	2439.184974
365.608665	2440.074737
365.996601	2443.122115
366.384474	2441.856785
366.772284	2442.151693
367.160031	2439.421908
367.547715	2443.908535
367.935336	2440.649429
368.322893	2442.910386
368.710388	2444.374842
369.097820	2444.372321
369.485189	2443.157403
369.872495	2444.639502
370.259738	2442.343257
370.646918	2446.696293
371.034035	2445.582198
371.421090	2444.515994
371.808081	2445.778803
372.195010	2446.557661
372.581875	2445.327620
372.968678	2446.182095
373.355418	2449.867179
373.742096	2447.765018
374.128710	2448.664863
374.515262	2448.566561
374.901751	2451.901284
375.288177	2451.467745
375.674540	2449.663012
376.060841	2452.596963
376.447079	2449.708382
376.833254	2452.254165
377.219367	2447.286108
377.605417	2447.921293
377.991404	2449.300049
378.377329	2450.996397
378.763191	2447.563371
379.148991	2455.127623
379.534727	2454.467232
379.920402	2453.201902
380.306013	2453.615277
380.691563	2458.532922
381.077049	2457.320525
381.462474	2455.455298
381.847835	2458.900926
382.233134	2458.210288
382.618371	2456.657613
383.003545	2456.755915
383.388657	2459.783128
383.773706	2457.743982
384.158693	2459.460494
384.543618	2461.182048
384.928480	2460.819085
385.313280	2461.237501
385.698017	2461.068622
386.082692	2462.681792
386.467305	2463.127934
386.851856	2463.551391
387.236344	2465.088943
387.620770	2462.971658
388.005133	2463.982409
388.389435	2465.913171
388.773674	2463.289251
389.157851	2467.591876
389.541965	2467.982565
389.926018	2467.584314
390.310008	2467.060034
390.693936	2468.030456
391.077802	2468.564818
391.461606	2471.271918
391.845348	2467.271762
392.229027	2471.029943
392.612645	2471.337453
392.996200	2473.832824
393.379694	2472.373410
393.763125	2472.169243
394.146494	2472.839717
394.529801	2473.258133
394.913047	2473.416929
395.296230	2475.834162
395.679351	2476.272742
396.062410	2474.833493
396.445408	2475.698051
396.828343	2476.459265
397.211217	2473.759727
397.594028	2474.112608
397.976778	2470.898873
398.359466	2480.126705
398.742092	2474.977166
399.124656	2479.725933
399.507158	2479.539410
399.889598	2478.692496
400.271977	2480.527476
400.654294	2480.081334
401.036549	2479.456231
401.418742	2482.523773
401.800874	2487.075935
402.182944	2480.439256
402.564952	2484.300780
402.946898	2485.240955
403.328783	2485.034268
403.710606	2485.868579
404.092367	2488.414362
404.474067	2486.866727
404.855705	2488.656337
405.237282	2489.069712
405.618797	2490.708087
406.000250	2492.086842
406.381642	2491.499548
406.762972	2492.437202
407.144240	2493.009373
407.525447	2492.875783
407.906593	2491.250011
408.287677	2492.865700
408.668700	2494.766215
409.049661	2495.151864
409.430560	2499.557832
409.811399	2495.688747
410.192176	2499.139416
410.572891	2498.068171
410.953545	2501.912051
411.334138	2497.009529
411.714669	2500.808038
412.095139	2497.659838
412.475547	2499.698984
412.855894	2503.177381
413.236180	2501.158398
413.616405	2504.530930
413.996568	2503.986486
414.376670	2504.709891
414.756711	2503.452123
415.136691	2507.192660
415.516609	2507.172495
415.896466	2508.281549
416.276262	2510.083761
416.655997	2507.669049
417.035670	2508.276508
417.415283	2513.620131
417.794834	2511.616272
418.174324	2514.809843
418.553753	2513.887312
418.933121	2517.025430
419.312428	2517.590039
419.691674	2517.222035
420.070859	2523.241173
420.449983	2522.958868
420.829045	2523.725124
421.208047	2524.372912
421.586988	2527.563962
421.965867	2530.444982
422.344686	2530.273582
422.723444	2539.337577
423.102141	2532.705939
423.480777	2538.326826
423.859352	2540.396219
424.237866	2544.870243
424.616319	2548.799823
424.994712	2550.811243
425.373044	2554.932387
425.751314	2560.006308
426.129524	2561.228788
426.507673	2568.966959
426.885762	2570.454099
427.263789	2580.309555
427.641756	2588.655185
428.019662	2595.884200
428.397508	2604.819645
428.775292	2616.696603
429.153016	2628.931484
429.530679	2641.189049
429.908282	2656.630104
430.285824	2663.755775
430.663305	2689.740402
431.040726	2703.442258
431.418086	2720.551934
431.795385	2751.534866
432.172624	2783.432767
432.549802	2799.629994
432.926920	2833.841785
433.303977	2863.773636
433.680974	2899.510375
434.057910	2944.810184
434.434786	2989.744509
434.811601	3028.846218
435.188355	3108.020060
435.565050	3151.482368
435.941683	3200.358875
436.318257	3296.937301
436.694770	3346.917820
437.071222	3446.689817
437.447614	3467.494659
437.823946	3539.416801
438.200218	3629.638331
438.576429	3696.577292
438.952580	3800.636790
439.328670	3887.712640
439.704700	4008.667565
440.080670	4070.141916
440.456580	4220.743866
440.832429	4342.023946
441.208218	4352.643136
441.583947	4500.777442
441.959616	4623.579950
442.335224	4765.793420
442.710773	4905.075460
443.086261	5098.960757
443.461689	5143.380884
443.837057	5284.276093
444.212365	5513.300754
444.587612	5659.128732
444.962800	5735.371142
445.337927	5945.688081
445.712995	5872.374580
446.088002	6352.289906
446.462949	6557.336318
446.837837	6754.422748
447.212664	6925.973214
447.587431	7740.507729
447.962139	8628.743913
448.336786	9405.174867
448.711374	9254.109130
449.085901	8547.861120
449.460369	8721.322183
449.834776	8920.329292
450.209124	9838.454478
450.583412	9953.362539
450.957640	10330.713069
451.331808	10150.010388
451.705917	9932.141802
452.079965	10159.598663
452.453954	10500.201702
452.827883	10692.219252
453.201752	10841.583599
453.575562	11123.253029
453.949311	11773.050198
454.323001	12050.694267
454.696632	12200.983666
455.070202	13091.102721
455.443713	13407.155341
455.817164	13918.945883
456.190556	14405.439914
456.563888	14424.089663
456.937160	14873.042221
457.310373	14361.977606
457.683526	14810.300020
458.056619	15048.524787
458.429653	15284.291990
458.802628	15817.388968
459.175542	16138.074408
459.548398	17099.309021
459.921194	18239.360922
460.293930	18905.902284
460.666607	20347.359732
461.039224	21660.025782
461.411782	22204.914019
461.784280	21773.837392
462.156719	21762.809868
462.529099	21698.225125
462.901419	21178.948471
463.273680	20771.708939
463.645882	21087.214594
464.018024	21342.191114
464.390106	22161.600425
464.762130	24245.799948
465.134094	27315.313154
465.505999	31372.453934
465.877845	35082.385243
466.249631	36332.533424
466.621358	35354.116038
466.993026	34056.097061
467.364634	32807.143634
467.736184	31626.510444
468.107674	30959.873301
468.479105	30630.975821
468.850477	30369.639885
469.221790	29508.877989
469.593043	28401.633917
469.964238	27919.051821
470.335373	28058.593480
470.706449	29633.008841
471.077467	31902.012022
471.448425	35943.557993
471.819324	38608.778223
472.190164	37296.538150
472.560945	34499.277498
472.931667	32084.176637
473.302330	31333.301813
473.672934	30818.463894
474.043479	31427.571390
474.413965	30921.310994
474.784393	30761.360224
475.154761	31689.061081
475.525070	31872.770810
475.895321	31608.785747
476.265513	32278.364404
476.635645	33283.026036
477.005719	33258.236162
477.375734	33806.194462
477.745691	34570.657716
478.115588	35873.755656
478.485427	37801.192938
478.855207	41001.335044
479.224928	43592.515847
479.594591	45284.654753
479.964194	44438.547492
480.333739	44674.975086
480.703226	44804.252956
481.072653	45538.186983
481.442022	46139.901627
481.811333	46494.148548
482.180584	45350.275453
482.549777	44968.808821
482.918912	44542.271753
483.287988	44357.470614
483.657005	43643.771779
484.025964	43094.291051
484.394864	43189.568859
484.763706	42820.763084
485.132489	42049.055692
485.501213	41964.775161
485.869879	42169.120853
486.238487	41840.540966
486.607036	42078.985022
486.975527	41626.450724
487.343959	41862.379244
487.712333	41999.264215
488.080648	41955.605302
488.448905	42419.598144
488.817104	42281.936835
489.185244	43217.174217
489.553326	44878.254574
489.921350	47580.663396
490.289315	50565.901113
490.657222	51238.290213
491.025070	51562.219636
491.392861	50673.305416
491.760593	49395.524151
492.128267	47719.567349
492.495883	46209.537605
492.863440	44864.726638
493.230939	43557.507554
493.598380	42531.252140
493.965763	42228.896335
494.333088	41463.916362
494.700354	41022.855730
495.067563	40767.428026
495.434713	40658.292087
495.801805	40736.949210
496.168839	40371.518488
496.535815	40072.711656
496.902733	40101.098393
497.269593	39714.804856
497.636395	39659.528604
498.003139	40066.198485
498.369825	39537.406652
498.736453	39858.815498
499.103023	39408.078371
499.469535	39281.918455
499.835989	39380.024350
500.202385	39067.709746
500.568723	39085.409237
500.935003	39287.370463
501.301226	39105.301630
501.667390	39718.134538
502.033497	39952.704468
502.399546	39402.545705
502.765537	38751.417671
503.131470	39128.465732
503.497345	39466.303698
503.863163	38177.063890
504.228923	38784.190212
504.594625	39179.802322
504.960269	38489.204574
505.325856	39152.895163
505.691385	38539.918582
506.056856	38661.596912
506.422270	39113.632137
506.787625	38693.330976
507.152924	38877.496929
507.518164	38980.684307
507.883347	38229.864935
508.248472	38470.859815
508.613540	38922.814381
508.978550	39219.065349
509.343503	38978.161209
509.708398	39165.656844
510.073236	39693.906753
510.438016	39683.481647
510.802738	39159.234414
511.167403	39761.521229
511.532010	39996.915387
511.896561	40289.224172
512.261053	41104.398914
512.625488	40667.272902
512.989866	40536.742306
513.354186	40392.436756
513.718449	40371.904137
514.082655	41045.251056
514.446803	40732.954096
514.810894	41239.511919
515.174927	41156.854640
515.538904	41074.174676
515.902822	41715.318704
516.266684	41177.835923
516.630488	41602.139759
516.994235	41457.062913
517.357925	41991.102587
517.721558	42158.957887
518.085133	42461.341418
518.448651	42594.944598
518.812112	42373.186761
519.175516	42466.531286
519.538863	42799.285248
519.902152	42767.772996
520.265385	43211.283629
520.628560	43258.373047
520.991678	43041.883216
521.354739	43260.772636
521.717743	43572.268053
522.080690	43478.815143
522.443580	44018.894119
522.806413	44071.803549
523.169189	44004.768806
523.531908	44187.871075
523.894569	44064.798866
524.257174	44224.303494
524.619722	44517.416343
524.982213	44503.676679
525.344647	44435.348879
525.707025	44477.210621
526.069345	44867.342997
526.431608	44800.111648
526.793815	45101.045848
527.155964	44641.587524
527.518057	44808.495087
527.880093	44591.415441
528.242072	45135.902906
528.603995	44827.578375
528.965860	44829.799003
529.327669	44930.186020
529.689421	44827.066698
530.051117	44793.081759
530.412755	44946.017764
530.774337	45002.337535
531.135862	44815.232589
531.497331	45015.479823
531.858743	44919.531542
532.220098	45240.915182
532.581396	44989.510319
532.942638	44640.541485
533.303824	44925.575885
533.664953	44892.969702
534.026025	44622.995749
534.387040	45088.599239
534.747999	45039.924378
535.108902	45206.106014
535.469748	44732.537502
535.830537	44859.579620
536.191270	45053.285956
536.551947	44698.219847
536.912567	44996.504920
537.273131	45115.496315
537.633638	44636.894210
537.994089	44960.017048
538.354483	44586.275984
538.714821	45136.797711
539.075103	45475.159957
539.435328	45255.516884
539.795497	45143.946067
540.155609	45132.001053
540.515665	45584.368993
540.875665	45051.075410
541.235609	45350.784609
541.595496	45346.300503
541.955328	46007.740217
542.315102	45382.616975
542.674821	45178.291448
543.034483	45231.011835
543.394090	45183.377972
543.753640	45149.458569
544.113134	46129.857128
544.472571	45167.626887
544.831953	46388.095274
545.191278	45604.674761
545.550548	45343.757241
545.909761	45785.846268
546.268918	45986.600138
546.628019	46272.491534
546.987064	45869.088321
547.346053	45157.746226
547.704986	46002.610843
548.063863	45594.799141
548.422684	45777.369568
548.781449	45641.016439
549.140158	46028.444236
549.498811	45867.830553
549.857408	45329.006825
550.215949	46138.275854
550.574434	46067.800524
550.932864	45854.418564
551.291237	46553.268680
551.649555	46154.357135
552.007817	46400.844352
552.366022	46058.711323
552.724173	46235.189517
553.082267	46609.217926
553.440305	46901.163748
553.798288	46253.924965
554.156215	46550.485963
554.514086	46765.420599
554.871902	46500.341606
555.229661	46525.870009
555.587365	46351.395674
555.945014	46468.942779
556.302606	46390.900677
556.660143	46600.710979
557.017625	46673.785025
557.375050	46488.872981
557.732421	46823.595514
558.089735	46815.002867
558.446994	46732.809374
558.804197	47175.473094
559.161345	47120.033004
559.518437	46400.735968
559.875474	46700.805609
560.232455	46880.951242
560.589381	47035.394552
560.946251	46738.702483
561.303065	47405.987415
561.659825	47220.520844
562.016528	46905.237001
562.373177	46628.555792
562.729770	47106.426930
563.086307	46634.857235
563.442789	47080.187724
563.799216	47131.811660
564.155587	46924.554702
564.511904	46964.125239
564.868164	47067.357988
565.224370	47299.364491
565.580520	47035.452525
565.936615	47251.491173
566.292654	46987.702716
566.648638	47207.527270
567.004567	47165.665529
567.360441	47203.189357
567.716260	47080.401973
568.072023	47378.563538
568.427732	47354.484467
568.783385	46915.067251
569.138982	47307.493351
569.494525	47288.135320
569.850013	47045.988537
570.205445	47014.088115
570.560823	46975.253586
570.916145	46851.195831
571.271412	46882.907210
571.626625	46647.472722
571.981782	46704.412555
572.336884	46396.748415
572.691931	46723.473158
573.046923	46322.396437
573.401860	46166.226532
573.756743	46165.651840
574.111570	46276.847091
574.466342	46123.795140
574.821059	46256.165758
575.175722	45787.693851
575.530330	45804.274206
575.884882	45525.016968
576.239380	45488.766031
576.593823	45475.885883
576.948211	45376.010543
577.302544	44941.395026
577.656823	44964.448223
578.011047	45172.574780
578.365216	44907.210962
578.719330	44711.614193
579.073389	44575.707205
579.427394	44647.417619
579.781344	44631.043951
580.135239	44277.618737
580.489080	44359.804668
580.842866	43860.667423
581.196597	44325.494575
581.550273	44267.352428
581.903895	44120.488493
582.257463	44543.327874
582.610975	43943.657418
582.964434	44226.380450
583.317837	43865.829565
583.671186	43701.162795
584.024481	43940.831852
584.377721	43467.749810
584.730906	43753.600877
585.084037	43774.625009
585.437113	43506.516283
585.790135	43534.224985
586.143103	43148.037313
586.496016	43262.678192
586.848874	43285.872541
587.201679	43301.527844
587.554428	42781.169862
587.907124	42974.107423
588.259765	42750.839760
588.612352	43000.717153
588.964884	42397.248188
589.317362	42671.847400
589.669786	42627.780153
590.022155	42383.269068
590.374470	42801.934375
590.726731	42343.844725
591.078937	41867.490974
591.431090	41952.295785
591.783188	41613.925977
592.135232	41285.895576
592.487222	41527.321475
592.839157	41617.774898
593.191038	41309.664616
593.542866	41070.451784
593.894639	40474.040434
594.246358	40750.593093
594.598022	40730.355381
594.949633	40331.935348
595.301190	40299.666923
595.652692	40142.571966
596.004141	40454.299276
596.355535	39484.484619
596.706876	39448.006830
597.058162	39264.486145
597.409395	39728.100899
597.760573	39792.927617
598.111698	39371.487156
598.462768	39397.360878
598.813785	39435.804717
599.164748	38899.078108
599.515657	39281.714288
599.866511	38763.062736
600.217312	39362.055157
600.568060	38346.093778
600.918753	39090.110113
601.269392	39056.878827
601.619978	38721.856345
601.970510	38916.490254
602.320988	39085.991490
602.671412	39380.752797
603.021783	39144.438628
603.372100	38784.369173
603.722363	38884.788958
604.072572	38963.771236
604.422728	38980.102053
604.772830	38794.078435
605.122878	38885.461952
605.472872	38829.179990
605.822813	39107.630643
606.172701	38941.537227
606.522534	39153.479937
606.872314	39431.156773
607.222041	39181.423053
607.571714	39578.658414
607.921333	39021.391624
608.270899	39322.434208
608.620411	39652.120629
608.969870	39454.131832
609.319276	39448.712592
609.668627	39502.867187
610.017926	39976.460905
610.367171	40133.283640
610.716362	40226.842414
611.065500	40183.869098
611.414585	40365.169155
611.763616	40657.488023
612.112594	40596.250606
612.461518	40802.418675
612.810389	41082.394277
613.159207	40961.945988
613.507971	41035.710672
613.856682	41502.627382
614.205340	41389.619837
614.553945	42094.022784
614.902496	41550.180587
615.250994	41994.815397
615.599439	42068.438928
615.947830	42280.994139
616.296169	42330.873836
616.644454	42463.834269
616.992686	42647.528874
617.340864	43164.108511
617.688990	42886.093918
618.037063	43473.300121
618.385082	43436.905510
618.733048	43736.385337
619.080961	43765.571097
619.428821	43774.521666
619.776628	43870.535482
620.124382	43695.259604
620.472083	43831.852188
620.819731	43960.116786
621.167326	43626.319304
621.514868	43602.721663
621.862357	43168.310313
622.209793	43200.412381
622.557176	42866.297307
622.904506	42603.678397
623.251783	42268.517283
623.599007	42048.982595
623.946179	41825.641836
624.293297	41785.622636
624.640363	41215.836140
624.987376	41195.933665
625.334336	40965.663839
625.681243	40599.552562
626.028097	40570.626421
626.374899	40414.204458
626.721647	40395.592518
627.068343	40294.386314
627.414987	40055.193646
627.761577	39835.447229
628.108115	40168.057519
628.454600	39627.446701
628.801032	39811.562243
629.147412	39777.486563
629.493739	39792.451228
629.840014	39445.234195
630.186236	39768.339389
630.532405	39393.806864
630.878521	39614.029670
631.224585	39499.424079
631.570597	39205.209737
631.916556	39372.634018
632.262462	39333.013070
632.608316	39331.170528
632.954117	39231.317873
633.299866	39233.846012
633.645562	39144.491560
633.991206	38641.086978
634.336797	38218.136691
634.682336	38220.410251
635.027823	37963.089594
635.373257	37791.249263
635.718639	37561.483553
636.063968	37406.566374
636.409245	36847.078956
636.754470	36888.192086
637.099642	36651.116703
637.444762	36197.085182
637.789829	36344.518767
638.134845	35982.440413
638.479808	35940.127488
638.824719	35846.057037
639.169577	35452.647911
639.514383	35514.505389
639.859137	35234.123974
640.203839	35467.660467
640.548489	35098.421154
640.893086	35166.784241
641.237632	34928.375473
641.582125	35034.610228
641.926566	34981.340356
642.270955	34930.091986
642.615292	34958.282118
642.959576	34923.200728
643.303809	34917.317702
643.647990	35082.342393
643.992118	35050.585645
644.336195	35044.498452
644.680219	35131.692769
645.024192	35439.218277
645.368112	35938.824350
645.711981	35960.397968
646.055797	36822.730183
646.399562	36767.219517
646.743274	37693.718059
647.086935	38145.047522
647.430544	38030.850264
647.774101	38156.916918
648.117606	38387.768997
648.461059	38687.528608
648.804460	38295.430182
649.147810	37694.305353
649.491108	37419.295288
649.834354	37083.471263
650.177548	36260.238237
650.520690	35808.399617
650.863781	35823.376885
651.206820	35675.945821
651.549807	35242.726703
651.892742	34767.408910
652.235626	34580.220785
652.578458	34443.971000
652.921238	33844.522355
653.263967	34165.356509
653.606644	33857.329406
653.949269	33808.752847
654.291843	33405.009357
654.634365	33826.422092
654.976836	33406.990530
655.319255	33401.472987
655.661622	33411.124276
656.003938	33178.104501
656.346203	33033.201575
656.688416	33275.257618
657.030577	33071.683223
657.372687	32914.056425
657.714746	33170.751978
658.056753	33303.873728
658.398708	32765.571759
658.740612	32815.388441
659.082465	33087.588063
659.424266	32915.425098
659.766016	33007.685775
660.107715	32897.586975
660.449362	33032.934394
660.790958	33013.304141
661.132503	33047.014337
661.473996	33077.261260
661.815438	33179.432845
662.156829	33373.638256
662.498168	33165.088242
662.839456	33172.634849
663.180693	33325.835515
663.521879	33491.518077
663.863013	33427.729837
664.204097	33423.820422
664.545129	33893.217380
664.886110	33862.602453
665.227040	33953.580156
665.567918	34039.579720
665.908746	34124.102226
666.249522	34279.112666
666.590248	34268.982467
666.930922	34387.636105
667.271545	34351.120508
667.612118	34427.330151
667.952639	34226.621652
668.293109	34278.603509
668.633528	34164.446581
668.973896	34080.085392
669.314213	34121.929489
669.654480	33861.977350
669.994695	33888.829056
670.334859	33791.350784
670.674973	33687.069476
671.015035	33853.551061
671.355047	33801.755726
671.695008	33733.536312
672.034918	33646.984741
672.374777	33726.244283
672.714585	33555.039136
673.054342	33788.991524
673.394049	33556.748087
673.733705	33828.496527
674.073310	33507.808566
674.412864	33572.438679
674.752368	33169.108562
675.091820	33461.374498
675.431223	33035.371792
675.770574	32772.662142
676.109875	32633.231388
676.449125	32353.999356
676.788324	32283.750877
677.127473	31752.176327
677.466571	31683.556141
677.805619	31334.698213
678.144616	31310.979584
678.483562	31246.987177
678.822458	30916.826888
679.161303	30868.358714
679.500098	30759.270666
679.838842	30659.657466
680.177535	30807.640537
680.516179	31073.765569
680.854771	31316.976036
681.193314	32188.795703
681.531805	33303.296516
681.870247	34092.191723
682.208638	34830.567006
682.546978	35061.552675
682.885268	35137.419520
683.223508	34602.177531
683.561697	34268.546408
683.899836	34079.823252
684.237925	33567.505910
684.575963	33428.780918
684.913951	32976.607062
685.251889	33135.010198
685.589776	33125.048878
685.927614	33103.906278
686.265401	33248.597476
686.603137	33350.905173
686.940824	33859.761763
687.278460	34247.920527
687.616046	34389.181219
687.953582	35001.837687
688.291068	34869.613263
688.628504	35140.663502
688.965889	35070.596505
689.303224	34684.146692
689.640510	34330.822302
689.977745	33607.943525
690.314930	32793.542601
690.652065	32284.799437
690.989150	31523.658303
691.326185	30642.777162
691.663170	29942.356726
692.000105	29177.089408
692.336990	28494.416354
692.673825	28049.645432
693.010610	27529.395835
693.347345	26955.563813
693.684030	26313.714023
694.020665	26030.691043
694.357251	25362.705391
694.693786	25325.123589
695.030272	25076.796351
695.366707	24548.904364
695.703093	24258.075158
696.039429	24237.688731
696.375716	23981.991326
696.711952	23945.276603
697.048139	23802.236383
697.384276	23622.536892
697.720363	23746.461057
698.056400	23537.636300
698.392388	23318.073885
698.728326	23292.779896
699.064214	23078.503131
699.400053	23025.019009
699.735842	22669.123630
700.071581	22385.747769
700.407270	22105.129420
700.742910	21910.281262
701.078501	21642.595993
701.414042	21356.404648
701.749533	21071.115669
702.084974	20714.726257
702.420366	20918.320817
702.755709	20482.684466
703.091002	20192.586227
703.426246	20211.147755
703.761440	20104.454255
704.096584	19835.670014
704.431679	19792.711821
704.766725	19701.615651
705.101721	19651.136057
705.436668	19737.468337
705.771565	19416.480427
706.106413	19741.377752
706.441212	19733.173274
706.775961	19860.782522
707.110661	19937.108112
707.445311	20295.428286
707.779913	20140.160747
708.114465	20385.894312
708.448967	20666.406797
708.783421	21367.038962
709.117825	21640.393008
709.452180	21853.124660
709.786485	22256.555599
710.120742	23055.447414
710.454949	23078.243511
710.789107	23544.381363
711.123216	24245.941100
711.457275	24367.901735
711.791286	24911.391052
712.125247	24983.046013
712.459159	24675.563354
712.793023	25331.447717
713.126837	24233.812084
713.460602	24479.182686
713.794318	24084.828344
714.127985	23704.543862
714.461602	22814.828099
714.795171	22768.855297
715.128691	21745.806056
715.462162	21209.129859
715.795584	20792.324738
716.128957	20528.387567
716.462281	20120.719537
716.795556	19885.002745
717.128782	19388.212157
717.461960	18855.858749
717.795088	18774.287839
718.128167	18372.412096
718.461198	17909.863545
718.794180	17774.720293
719.127113	17413.924912
719.459997	17220.221096
719.792833	16867.287395
720.125619	16840.597006
720.458357	16522.883326
720.791046	16349.230699
721.123686	16197.592791
721.456278	15953.187571
721.788821	15911.063689
722.121315	15656.089689
722.453761	15725.619804
722.786158	15658.978270
723.118506	15671.908830
723.450805	15530.353230
723.783056	15694.226018
724.115259	15592.868579
724.447412	15521.775707
724.779518	15765.008859
725.111574	15793.574558
725.443582	15980.298896
725.775542	15969.031917
726.107453	16438.479287
726.439315	16326.268243
726.771129	16725.653657
727.102895	17098.762056
727.434612	17303.808468
727.766281	17419.651663
728.097901	17672.831012
728.429473	17720.482518
728.760996	17702.667081
729.092471	17782.307229
729.423897	17657.642015
729.755276	17525.228548
730.086606	17641.570817
730.417887	18153.820103
730.749120	18669.336057
731.080305	18843.278550
731.411442	19178.464869
731.742530	19246.795189
732.073570	19347.318317
732.404562	19637.847575
732.735506	19449.401683
733.066401	19165.022633
733.397249	18640.508219
733.728048	18001.083224
734.058798	17162.784710
734.389501	16491.199674
734.720156	16031.322935
735.050762	15505.079405
735.381320	15165.789587
735.711831	14920.870168
736.042293	14570.124328
736.372707	14580.451131
736.703073	14373.718453
737.033391	14556.649323
737.363661	14526.072205
737.693883	14629.430982
738.024056	14806.385564
738.354182	14986.924407
738.684260	15267.956131
739.014290	15505.323901
739.344272	15690.722416
739.674207	15973.453009
740.004093	16071.044706
740.333931	16076.448823
740.663722	16106.675582
740.993464	16101.778101
741.323159	15923.101964
741.652806	15635.887265
741.982405	15429.782211
742.311956	15090.439460
742.641460	14975.226410
742.970915	14671.751469
743.300323	14338.813504
743.629683	14122.283343
743.958996	13851.936345
744.288260	13572.974015
744.617477	13281.600363
744.946647	13201.254453
745.275768	12928.228082
745.604842	12741.430647
745.933869	12571.712641
746.262847	12525.823017
746.591778	12450.447685
746.920662	12349.846419
747.249498	12350.204341
747.578286	12472.517856
747.907027	12617.413221
748.235720	12833.802229
748.564365	12865.095192
748.892963	12765.723967
749.221514	12828.582114
749.550017	12683.780011
749.878473	12641.477169
750.206881	12417.387798
750.535242	12333.177843
750.863555	12245.885223
751.191821	12148.376705
751.520039	12164.664673
751.848210	12074.808627
752.176334	12102.807195
752.504411	12020.094463
752.832440	11859.148065
753.160421	11922.391861
753.488356	11796.486523
753.816243	11709.055271
754.144082	11561.498177
754.471875	11508.918943
754.799620	11453.062958
755.127318	11422.909296
755.454969	11387.442258
755.782572	11340.199085
756.110129	11352.219717
756.437638	11270.590833
756.765100	11261.156313
757.092515	11262.383834
757.419882	11279.861515
757.747203	11285.121959
758.074477	11364.895698
758.401703	11317.375261
758.728882	11479.869294
759.056014	11519.969152
759.383099	11630.574588
759.710138	11741.527863
760.037129	11818.037455
760.364073	11839.414468
760.690970	11820.626088
761.017820	11813.805407
761.344623	12009.704645
761.671379	12323.614775
761.998088	12952.723048
762.324751	14494.645652
762.651366	17351.021394
762.977935	21011.930003
763.304456	23240.205702
763.630931	23708.760787
763.957359	22532.936859
764.283740	20613.401585
764.610074	18749.094673
764.936362	16621.253881
765.262602	15102.243322
765.588796	13639.852482
765.914943	12607.056170
766.241044	11762.728436
766.567097	11128.304266
766.893104	10585.886194
767.219064	10228.047450
767.544978	9840.745682
767.870845	9536.081029
768.196665	9345.086833
768.522438	9149.689190
768.848165	8986.776741
769.173846	8822.639293
769.499479	8694.352010
769.825066	8548.208960
770.150607	8361.227522
770.476101	8293.146740
770.801548	8193.657048
771.126949	8049.003659
771.452303	7956.831202
771.777611	7796.988816
772.102872	7777.227493
772.428087	7658.034452
772.753256	7529.071654
773.078378	7445.060825
773.403453	7308.274157
773.728482	7204.716254
774.053465	7141.606049
774.378401	7050.887965
774.703291	6953.760054
775.028135	6859.392174
775.352932	6823.990671
775.677683	6745.663743
776.002388	6657.216699
776.327046	6655.737121
776.651658	6570.337454
776.976224	6496.708881
777.300743	6479.803372
777.625216	6408.254275
777.949643	6369.076948
778.274024	6376.530294
778.598359	6310.223998
778.922647	6312.472352
779.246889	6272.332165
779.571086	6274.782166
779.895236	6285.986130
780.219339	6286.278517
780.543397	6281.963289
780.867409	6329.302244
781.191374	6327.215207
781.515294	6296.658253
781.839167	6339.601322
782.162995	6317.846222
782.486776	6272.284274
782.810511	6227.319702
783.134201	6155.037118
783.457844	6142.797196
783.781441	6090.711995
784.104993	6046.649789
784.428498	6024.317478
784.751958	6003.172358
785.075372	5981.959183
785.398739	5939.210198
785.722061	5965.867820
786.045337	5964.509229
786.368568	6076.483338
786.691752	6094.671821
787.014891	6340.365057
787.337983	6618.235977
787.661030	7064.252064
787.984031	7484.588513
788.306987	7747.177175
788.629897	7834.799991
788.952760	7748.263544
789.275579	7566.613127
789.598351	7271.385513
789.921078	7003.246540
790.243759	6730.762093
790.566395	6522.073447
790.888984	6333.879612
791.211529	6192.525658
791.534027	6027.649681
791.856480	5893.592797
792.178888	5836.927707
792.501249	5767.435401
792.823566	5663.428836
793.145836	5659.564791
793.468062	5639.652234
793.790241	5600.830308
794.112375	5640.937728
794.434464	5739.807358
794.756507	5766.535555
795.078505	5891.256222
795.400457	6105.941320
795.722364	6343.694739
796.044226	6533.685745
796.366042	6695.559715
796.687812	6638.130891
797.009538	6669.184398
797.331218	6574.498926
797.652852	6510.816550
797.974442	6383.424072
798.295986	6317.944525
798.617484	6186.466191
798.938938	6078.565334
799.260346	6012.241394
799.581709	5875.520260
799.903026	5817.360468
800.224299	5748.936887
800.545526	5632.642509
800.866708	5570.548097
801.187845	5523.834245
801.508936	5445.330876
801.829983	5414.186628
802.150984	5310.225433
802.471940	5281.783243
802.792851	5271.693373
803.113717	5244.705556
803.434538	5217.992482
803.755314	5186.729766
804.076045	5178.668961
804.396731	5142.806193
804.717372	5158.194315
805.037967	5163.101878
805.358518	5190.130025
805.679024	5247.052213
805.999485	5255.786012
806.319901	5274.541625
806.640272	5293.788751
806.960598	5343.544939
807.280879	5334.211243
807.601115	5368.460842
807.921306	5333.729812
808.241453	5328.797043
808.561554	5334.203681
808.881611	5305.204443
809.201623	5295.762362
809.521590	5249.255198
809.841513	5237.829422
810.161390	5244.962655
810.481223	5162.650695
810.801011	5150.829189
811.120755	5127.561744
811.440453	5066.951951
811.760107	5038.696284
812.079716	5012.232747
812.399281	4963.245334
812.718801	4956.843069
813.038276	4924.383079
813.357707	4889.886463
813.677093	4910.582920
813.996434	4851.225854
814.315731	4867.725551
814.634983	4867.044995
814.954191	4873.989185
815.273354	4930.399696
815.592473	4969.254389
815.911547	5047.785484
816.230577	5100.699955
816.549562	5187.438048
816.868502	5235.354216
817.187399	5291.618534
817.506250	5373.781780
817.825058	5399.050563
818.143821	5548.125044
818.462539	5719.267176
818.781213	5948.100273
819.099843	6309.359440
819.418429	6934.540655
819.736970	7550.146198
820.055466	8262.146164
820.373919	9174.531996
820.692327	10617.222006
821.010691	13295.150985
821.329011	19485.723196
821.647286	29059.471727
821.965517	39415.730842
822.283704	44911.218679
822.601847	46409.799962
822.919945	41805.469659
823.237999	36696.963477
823.556010	31487.871152
823.873976	26788.648689
824.191897	22567.486407
824.509775	19500.884466
824.827609	16732.930562
825.145398	15175.700495
825.463144	14424.676957
825.780845	14708.199011
826.098502	15956.184537
826.416116	18417.661493
826.733685	20713.604600
827.051210	21246.038667
827.368692	19825.622994
827.686129	17253.714522
828.003522	14784.537204
828.320872	12556.097667
828.638177	10908.961141
828.955439	9666.213374
829.272656	8607.465203
829.589830	7770.986545
829.906960	7036.366921
830.224046	6501.165261
830.541088	6090.412046
830.858086	5832.448642
831.175041	5631.220904
831.491952	5578.046813
831.808819	5605.362305
832.125642	5847.614953
832.442421	6392.286421
832.759157	7497.645101
833.075849	9265.613043
833.392497	11120.061979
833.709101	12238.595715
834.025662	11996.978252
834.342179	10941.368199
834.658653	9628.190472
834.975083	8527.310856
835.291469	7619.613298
835.607811	6887.357975
835.924110	6368.177102
836.240366	5882.797166
836.556578	5431.694555
836.872746	5074.730451
837.188871	4802.752640
837.504952	4580.951953
837.820990	4412.995830
838.136984	4300.439468
838.452935	4252.225872
838.768842	4281.751910
839.084706	4561.450249
839.400526	5296.465603
839.716303	6206.804727
840.032037	6770.214163
840.347727	6631.335415
840.663373	6026.641450
840.978977	5450.452689
841.294537	5003.980378
841.610054	4676.658258
841.925527	4442.131179
842.240957	4228.083786
842.556344	4048.285993
842.871687	3891.672467
843.186987	3738.643201
843.502244	3626.157414
843.817458	3535.237684
844.132629	3464.737147
844.447756	3416.664704
844.762840	3371.833723
845.077881	3333.042044
845.392879	3297.264976
845.707833	3274.121038
846.022745	3247.460896
846.337613	3236.516551
846.652438	3210.047973
846.967221	3203.161757
847.281960	3186.057122
847.596656	3173.958352
847.911309	3163.644152
848.225919	3149.460865
848.540485	3139.754124
848.855009	3133.006539
849.169490	3122.583954
849.483928	3112.763786
849.798323	3106.802622
850.112675	3097.047989
850.426984	3100.100408
850.741251	3091.714448
851.055474	3087.852924
851.369654	3089.977771
851.683792	3087.666402
851.997887	3088.513315
852.311938	3089.405600
852.625947	3089.093048
852.939914	3082.733633
853.253837	3089.302256
853.567718	3086.244796
853.881555	3082.395875
854.195350	3087.023654
854.509103	3081.798498
854.822812	3077.135431
855.136479	3075.081161
855.450103	3078.869588
855.763685	3074.960173
856.077224	3075.555029
856.390720	3082.630289
856.704173	3094.482042
857.017584	3101.219544
857.330953	3103.425048
857.644278	3114.419805
857.957561	3117.772172
858.270802	3107.538630
858.584000	3111.107767
858.897155	3107.029473
859.210268	3100.206272
859.523339	3086.335537
859.836367	3081.518714
860.149352	3077.142993
860.462295	3070.239133
860.775195	3062.697567
861.088054	3059.546845
861.400869	3063.262176
861.713642	3060.053481
862.026373	3069.150243
862.339062	3068.474729
862.651708	3081.685073
862.964312	3095.480190
863.276873	3104.095522
863.589392	3132.832619
863.901869	3160.561486
864.214303	3181.159641
864.526696	3200.381560
864.839045	3217.962584
865.151353	3231.692167
865.463619	3231.737537
865.775842	3233.708628
866.088023	3236.292220
866.400162	3228.727968
866.712258	3229.819378
867.024313	3231.238463
867.336325	3228.128071
867.648296	3229.894996
867.960224	3227.676888
868.272110	3232.246694
868.583954	3231.583782
868.895755	3238.230543
869.207515	3237.575193
869.519233	3256.393821
869.830909	3259.463883
870.142542	3271.073661
870.454134	3276.593724
870.765684	3293.053092
871.077191	3310.021615
871.388657	3320.383707
871.700081	3341.309537
872.011463	3360.453318
872.322803	3382.639437
872.634101	3397.326838
872.945357	3416.533634
873.256571	3445.240485
873.567744	3460.679019
873.878874	3464.787559
874.189963	3480.120228
874.501010	3484.127946
874.812015	3481.569560
875.122979	3494.472393
875.433900	3497.088752
875.744780	3494.994153
876.055618	3508.441431
876.366415	3503.548991
876.677169	3507.775998
876.987882	3525.777959
877.298554	3546.139179
877.609183	3582.521187
877.919771	3630.412148
878.230317	3697.668702
878.540822	3798.602684
878.851285	3952.778813
879.161707	4174.823996
879.472087	4549.318712
879.782425	5171.959186
880.092722	6351.203537
880.402977	8289.703632
880.713191	10673.408187
881.023363	13055.116445
881.333494	14415.938117
881.643583	14879.903232
881.953631	14467.259583
882.263637	13631.632881
882.573602	12598.776075
882.883526	11629.750359
883.193408	10675.825420
883.503248	9753.652188
883.813048	8918.325434
884.122806	8155.097262
884.432522	7383.168059
884.742197	6724.753037
885.051831	6152.811448
885.361424	5661.692158
885.670975	5262.490747
885.980485	4936.418834
886.289954	4671.634749
886.599382	4450.559988
886.908768	4270.837812
887.218113	4106.221454
887.527417	3973.641628
887.836680	3850.524048
888.145901	3751.901435
888.455082	3675.938808
888.764221	3606.138992
889.073319	3546.776885
889.382376	3513.906042
889.691392	3493.348216
890.000366	3480.480671
890.309300	3476.200731
890.618193	3480.972183
890.927044	3475.492449
891.235855	3481.993017
891.544625	3499.211078
891.853353	3523.968185
892.162041	3585.003955
892.470687	3673.554343
892.779293	3792.548259
893.087858	3969.817913
893.396381	4248.424842
893.704864	4660.040095
894.013306	5230.900356
894.321707	5806.869827
894.630068	6168.731412
894.938387	6206.595519
895.246665	6033.134456
895.554903	5711.788625
895.863100	5371.762798
896.171256	5099.540490
896.479371	4858.956464
896.787446	4634.559583
897.095480	4435.618008
897.403473	4288.232313
897.711425	4142.490035
898.019336	4021.025954
898.327207	3898.964496
898.635038	3793.574133
898.942827	3687.140252
899.250576	3602.106069
899.558284	3518.243954
899.865952	3463.169349
900.173579	3394.241652
900.481165	3350.406299
900.788711	3310.906338
901.096216	3281.617234
901.403681	3248.978283
901.711105	3238.452354
902.018489	3232.486149
902.325832	3269.669699
902.633135	3325.787824
902.940397	3496.748474
903.247619	3902.135382
903.554800	4654.194877
903.861941	5623.732270
904.169041	6331.845507
904.476101	6552.312808
904.783121	6273.673112
905.090100	5866.340319
905.397039	5454.651970
905.703938	5088.323923
906.010796	4767.923308
906.317614	4512.682127
906.624391	4272.415693
906.931129	4079.132814
907.237826	3892.731109
907.544483	3725.453022
907.851099	3551.881053
908.157675	3391.567320
908.464211	3248.557347
908.770707	3150.897594
909.077163	3068.265521
909.383578	3010.806449
909.689954	2965.872125
909.996289	2934.427928
910.302584	2913.179464
910.608839	2900.891652
910.915054	2889.060063
911.221229	2885.644682
911.527363	2887.537635
911.833458	2894.958213
912.139513	2906.169740
912.445527	2920.474014
912.751502	2952.497943
913.057436	2998.231291
913.363331	3053.449570
913.669186	3142.158754
913.975000	3260.094028
914.280775	3447.229220
914.586510	3716.699058
914.892205	4094.357098
915.197859	4595.306638
915.503475	5181.983520
915.809050	5679.099262
916.114585	5971.589529
916.420081	6037.260640
916.725536	5975.788810
917.030952	5734.115895
917.336328	5524.872722
917.641665	5317.527544
917.946961	5084.291000
918.252218	4883.199373
918.557435	4656.181092
918.862612	4457.153817
919.167750	4283.662508
919.472848	4093.537911
919.777906	3926.726130
920.082925	3762.349227
920.387904	3608.803242
920.692843	3501.519927
920.997743	3397.031931
921.302603	3304.294865
921.607423	3237.371027
921.912204	3173.885256
922.216946	3125.356588
922.521647	3073.369689
922.826310	3033.486601
923.130932	2997.550735
923.435516	2955.449539
923.740059	2926.334355
924.044564	2898.703791
924.349028	2872.366283
924.653454	2841.118690
924.957840	2818.655309
925.262186	2798.987247
925.566493	2775.772734
925.870761	2750.093096
926.174989	2738.465675
926.479178	2721.469424
926.783328	2710.288145
927.087438	2699.147195
927.391509	2683.779238
927.695541	2669.900941
927.999533	2661.484735
928.303486	2653.494506
928.607400	2646.832621
928.911275	2642.872795
929.215110	2635.931126
929.518906	2633.612195
929.822663	2631.963738
930.126381	2632.367030
930.430060	2636.011784
930.733699	2637.879532
931.037299	2644.896818
931.340861	2638.071096
931.644383	2645.990748
931.947866	2640.460603
932.251309	2639.202835
932.554714	2638.401291
932.858080	2635.255611
933.161407	2632.525827
933.464694	2628.825620
933.767943	2627.330917
934.071153	2621.105092
934.374323	2616.825153
934.677455	2615.738784
934.980548	2612.192332
935.283602	2609.538165
935.586617	2607.042794
935.889593	2611.312651
936.192530	2613.059411
936.495428	2619.756584
936.798287	2626.063067
937.101108	2642.376241
937.403890	2661.414159
937.706632	2690.345341
938.009336	2723.485886
938.312002	2754.294898
938.614628	2777.277518
938.917216	2796.829633
939.219765	2806.443114
939.522275	2814.776141
939.824747	2814.352684
940.127179	2809.180460
940.429573	2801.979172
940.731929	2801.643935
941.034246	2792.358130
941.336524	2791.702780
941.638763	2782.439660
941.940964	2777.184257
942.243126	2762.456526
942.545250	2753.642068
942.847335	2736.093812
943.149381	2723.090155
943.451389	2710.406612
943.753359	2697.594520
944.055290	2687.628159
944.357182	2681.377128
944.659036	2675.751200
944.960851	2671.980417
945.262628	2662.760147
945.564367	2666.145282
945.866067	2665.179901
946.167729	2665.129489
946.469352	2663.901968
946.770937	2660.302584
947.072484	2653.665905
947.373992	2651.954433
947.675462	2651.273878
947.976893	2646.502426
948.278286	2641.229379
948.579641	2638.292907
948.880958	2635.820221
949.182236	2637.519089
949.483476	2633.629839
949.784678	2633.740745
950.085841	2632.140178
950.386967	2635.399284
950.688054	2643.578556
950.989103	2647.112405
951.290114	2656.456184
951.591087	2668.423883
951.892021	2679.317817
952.192917	2692.507996
952.493776	2705.783874
952.794596	2709.978114
953.095378	2711.414843
953.396122	2708.412836
953.696828	2704.624409
953.997496	2698.484283
954.298126	2692.540763
954.598718	2683.103723
954.899272	2670.205931
955.199788	2661.935918
955.500266	2650.850421
955.800706	2630.998357
956.101108	2618.844135
956.401472	2603.899634
956.701798	2589.605443
957.002087	2575.354101
957.302337	2568.848492
957.602550	2553.152859
957.902724	2544.971067
958.202861	2535.844058
958.502960	2527.435413
958.803022	2521.466687
959.103045	2512.264060
959.403031	2506.895232
959.702979	2501.513800
960.002889	2496.749909
960.302762	2491.549959
960.602596	2486.171048
960.902393	2486.118116
961.202153	2480.383803
961.501875	2478.652167
961.801559	2478.059832
962.101205	2474.652012
962.400814	2471.997844
962.700385	2468.940384
962.999918	2470.152782
963.299414	2464.806638
963.598873	2467.670013
963.898293	2460.541822
964.197677	2460.093159
964.497022	2463.354786
964.796331	2458.903447
965.095601	2459.647017
965.394835	2456.370267
965.694030	2456.642489
965.993189	2460.645166
966.292309	2455.828343
966.591393	2456.042592
966.890439	2455.399845
967.189447	2457.070988
967.488419	2456.055195
967.787353	2456.297170
968.086249	2454.358847
968.385108	2456.592078
968.683930	2454.835236
968.982714	2457.905298
969.281462	2461.897892
969.580172	2460.952676
969.878844	2465.792184
970.177480	2469.520117
970.476078	2470.767803
970.774639	2472.721250
971.073162	2474.404995
971.371649	2475.045222
971.670098	2474.946919
971.968510	2480.900522
972.266885	2478.042188
972.565223	2483.403455
972.863524	2483.869761
973.161788	2484.245327
973.460014	2484.736840
973.758204	2486.470997
974.056356	2485.346819
974.354471	2488.908395
974.652550	2489.281440
974.950591	2490.090545
975.248595	2487.113744
975.546563	2488.739516
975.844493	2481.500419
976.142386	2483.985708
976.440243	2480.905563
976.738062	2478.518577
977.035845	2476.229893
977.333590	2475.249388
977.631299	2471.667648
977.928971	2473.268215
978.226606	2468.559777
978.524204	2467.496094
978.821765	2463.306895
979.119290	2466.750003
979.416777	2464.433593
979.714228	2462.878397
980.011642	2463.206072
980.309020	2473.185036
980.606360	2472.159161
980.903664	2482.740543
981.200931	2495.172028
981.498162	2515.964267
981.795356	2545.056766
982.092513	2584.128229
982.389633	2628.024076
982.686717	2670.498318
982.983764	2704.236240
983.280775	2721.156873
983.577749	2720.859445
983.874686	2713.416181
984.171587	2694.658048
984.468451	2679.819411
984.765279	2665.202586
985.062070	2644.899339
985.358824	2625.271606
985.655543	2602.732607
985.952224	2580.493557
986.248869	2549.482899
986.545478	2523.329393
986.842050	2502.670745
987.138586	2487.275061
987.435086	2473.326188
987.731549	2461.996195
988.027975	2456.944959
988.324366	2448.662343
988.620719	2444.949533
988.917037	2442.071034
989.213318	2440.556168
989.509563	2436.644232
989.805772	2437.642381
990.101944	2434.963007
990.398080	2433.269180
990.694180	2434.516865
990.990244	2434.806732
991.286271	2434.186670
991.582262	2432.913778
991.878217	2435.061310
992.174136	2434.983172
992.470019	2434.731114
992.765865	2440.553647
993.061676	2439.298400
993.357450	2442.834769
993.653188	2444.299224
993.948890	2450.015893
994.244556	2458.442181
994.540186	2466.704633
994.835780	2477.704430
995.131337	2491.345793
995.426859	2505.062772
995.722345	2528.496576
996.017795	2544.323278
996.313208	2561.518654
996.608586	2572.145406
996.903928	2573.844275
997.199234	2573.135993
997.494504	2568.362020
997.789738	2561.869014
998.084936	2553.798127
998.380099	2542.291693
998.675225	2528.904909
998.970316	2516.415451
999.265371	2504.911538
999.560390	2489.846049
999.855373	2477.472537
1000.150320	2468.007771
1000.445232	2458.212809
1000.740108	2452.909515
1001.034948	2444.967177
1001.329752	2441.156065
1001.624521	2437.957453
1001.919254	2428.081832
1002.213951	2428.401946
1002.508613	2426.211564
1002.803239	2426.070412
1003.097829	2423.290216
1003.392384	2424.119485
1003.686903	2421.601429
1003.981386	2421.823240
1004.275834	2420.794844
1004.570246	2421.780390
1004.864623	2416.565316
1005.158964	2417.046747
1005.453270	2413.772517
1005.747540	2415.725964
1006.041775	2414.889133
1006.335974	2415.720923
1006.630138	2415.058011
1006.924266	2412.116498
1007.218359	2412.809657
1007.512416	2412.406364
1007.806438	2414.044739
1008.100425	2413.341498
1008.394376	2414.745460
1008.688292	2413.512898
1008.982172	2411.294790
1009.276017	2412.333268
1009.569827	2411.753535
1009.863602	2413.124729
1010.157341	2408.751528
1010.451045	2409.772362
1010.744714	2410.067269
1011.038347	2409.180026
1011.331945	2410.039543
1011.625508	2406.921589
1011.919036	2412.270253
1012.212528	2411.635068
1012.505986	2407.196332
1012.799408	2405.615930
1013.092795	2410.450397
1013.386147	2408.023081
1013.679464	2408.559964
1013.972745	2407.181208
1014.265992	2407.617268
1014.559204	2408.680952
1014.852380	2408.229768
1015.145521	2410.440314
1015.438628	2408.703637
1015.731699	2411.110788
1016.024736	2408.834707
1016.317737	2409.333781
1016.610703	2412.073648
1016.903635	2407.246743
1017.196531	2406.185581
1017.489393	2407.156003
1017.782219	2406.480488
1018.075011	2412.479461
1018.367768	2409.721950
1018.660490	2409.376631
1018.953177	2409.376631
1019.245829	2409.376631
