Dividing Wavelength (nm)	Counts (n)	Blue Motor Position (mm): 7.400000	Red Motor Position (mm): 0.000000	
326.493990	1975.660960
326.888308	1975.660960
327.282561	1975.660960
327.676750	1955.395521
328.070874	1953.527774
328.464933	1959.183948
328.858929	1969.069651
329.252859	1982.027937
329.646726	1994.918167
330.040528	2011.627072
330.434265	2030.317150
330.827938	2048.188040
331.221547	2068.592110
331.615091	2090.773187
332.008571	2109.632144
332.401986	2129.632922
332.795338	2148.756539
333.188625	2173.740497
333.581847	2190.885462
333.975006	2208.252237
334.368100	2227.295195
334.761129	2241.596949
335.154095	2257.204361
335.546996	2278.036929
335.939833	2303.741773
336.332606	2316.077476
336.725315	2325.096100
337.117960	2330.457368
337.510540	2340.413646
337.903056	2350.500995
338.295508	2357.261183
338.687896	2361.578931
339.080220	2371.530168
339.472480	2378.184492
339.864676	2379.485109
340.256807	2384.357384
340.648875	2385.289998
341.040879	2388.859135
341.432818	2388.523898
341.824694	2387.198075
342.216506	2387.518188
342.608253	2386.673795
342.999937	2387.472818
343.391557	2384.846376
343.783113	2384.342261
344.174605	2385.184134
344.566033	2379.739688
344.957397	2379.074255
345.348697	2378.486961
345.739934	2376.367156
346.131106	2373.821373
346.522215	2372.334232
346.913260	2371.449510
347.304241	2367.661083
347.695159	2367.409025
348.086012	2365.074971
348.476802	2367.351052
348.867528	2363.547501
349.258191	2362.806452
349.648789	2362.332583
350.039324	2362.287213
350.429796	2360.190093
350.820203	2357.722448
351.210548	2358.327387
351.600828	2359.106245
351.991045	2357.611543
352.381198	2357.412417
352.771288	2356.638600
353.161314	2357.631707
353.551276	2356.870493
353.941175	2358.193796
354.331010	2356.724300
354.720782	2358.534074
355.110490	2358.420648
355.500135	2355.723631
355.889717	2356.779752
356.279235	2355.297653
356.668689	2358.425689
357.058080	2356.746985
357.447408	2356.663806
357.836672	2352.872858
358.225873	2356.202540
358.615010	2356.381501
359.004084	2359.380988
359.393095	2359.116327
359.782043	2363.492049
360.170927	2361.609178
360.559748	2360.515247
360.948505	2363.804600
361.337199	2363.159333
361.725830	2362.597244
362.114398	2362.957686
362.502903	2364.142358
362.891344	2365.702595
363.279722	2364.759899
363.668037	2365.969776
364.056289	2365.458099
364.444478	2368.661752
364.832603	2367.721577
365.220665	2366.489015
365.608665	2365.397605
365.996601	2367.633357
366.384474	2368.472709
366.772284	2368.928933
367.160031	2368.157637
367.547715	2368.913810
367.935336	2366.322657
368.322893	2371.028574
368.710388	2367.144365
369.097820	2371.215096
369.485189	2369.246526
369.872495	2371.305837
370.259738	2369.801053
370.646918	2371.580580
371.034035	2370.310209
371.421090	2370.017822
371.808081	2370.469006
372.195010	2370.443800
372.581875	2374.880015
372.968678	2374.040663
373.355418	2371.361290
373.742096	2369.163347
374.128710	2375.056456
374.515262	2373.831455
374.901751	2374.053266
375.288177	2372.934130
375.674540	2372.165354
376.060841	2375.908411
376.447079	2374.922865
376.833254	2374.995962
377.219367	2367.063706
377.605417	2371.683924
377.991404	2371.567977
378.377329	2373.639891
378.763191	2371.673841
379.148991	2376.546117
379.534727	2373.468492
379.920402	2377.997969
380.306013	2376.432691
380.691563	2374.345653
381.077049	2373.866743
381.462474	2374.350694
381.847835	2375.724408
382.233134	2379.222969
382.618371	2377.410674
383.003545	2378.960829
383.388657	2376.364635
383.773706	2376.853627
384.158693	2375.933616
384.543618	2376.112577
384.928480	2379.467465
385.313280	2378.832280
385.698017	2377.718185
386.082692	2378.993597
386.467305	2378.723895
386.851856	2380.410161
387.236344	2378.365973
387.620770	2379.890922
388.005133	2380.936962
388.389435	2378.514687
388.773674	2379.618700
389.157851	2381.662888
389.541965	2378.721374
389.926018	2379.641385
390.310008	2380.475696
390.693936	2380.697507
391.077802	2380.921838
391.461606	2381.052908
391.845348	2381.990563
392.229027	2380.929400
392.612645	2382.633310
392.996200	2380.674822
393.379694	2383.565923
393.763125	2381.531818
394.146494	2382.769421
394.529801	2383.608773
394.913047	2383.434853
395.296230	2384.122971
395.679351	2383.787734
396.062410	2385.859648
396.445408	2383.550800
396.828343	2384.231356
397.211217	2379.298587
397.594028	2385.801675
397.976778	2380.997455
398.359466	2385.506768
398.742092	2385.017776
399.124656	2384.430481
399.507158	2382.323279
399.889598	2387.558517
400.271977	2387.150184
400.654294	2389.262427
401.036549	2383.838146
401.418742	2384.541387
401.800874	2387.863507
402.182944	2386.615821
402.564952	2385.718496
402.946898	2387.407283
403.328783	2386.716644
403.710606	2387.402241
404.092367	2388.052550
404.474067	2387.873589
404.855705	2390.074053
405.237282	2386.457025
405.618797	2390.154711
406.000250	2388.712941
406.381642	2389.821995
406.762972	2392.317366
407.144240	2388.833929
407.525447	2392.087994
407.906593	2387.422406
408.287677	2390.852911
408.668700	2389.590102
409.049661	2387.457694
409.430560	2389.748898
409.811399	2390.033724
410.192176	2391.026831
410.572891	2391.558673
410.953545	2389.731254
411.334138	2391.571276
411.714669	2388.629762
412.095139	2391.498179
412.475547	2392.390463
412.855894	2387.603888
413.236180	2391.745195
413.616405	2393.204609
413.996568	2391.651934
414.376670	2393.983468
414.756711	2391.253683
415.136691	2392.607233
415.516609	2393.302912
415.896466	2392.418189
416.276262	2395.248797
416.655997	2392.806358
417.035670	2389.327962
417.415283	2391.926677
417.794834	2388.750750
418.174324	2392.319887
418.553753	2392.647562
418.933121	2393.045813
419.312428	2392.526574
419.691674	2392.773591
420.070859	2390.994063
420.449983	2394.157387
420.829045	2396.990516
421.208047	2394.822820
421.586988	2390.353837
421.965867	2393.058416
422.344686	2392.975237
422.723444	2393.333159
423.102141	2394.306102
423.480777	2395.624363
423.859352	2395.642007
424.237866	2395.016904
424.616319	2394.739641
424.994712	2397.963459
425.373044	2394.911040
425.751314	2395.798283
426.129524	2393.376009
426.507673	2395.251318
426.885762	2394.391801
427.263789	2395.279044
427.641756	2396.685526
428.019662	2394.341390
428.397508	2396.191493
428.775292	2398.669220
429.153016	2397.887841
429.530679	2395.831051
429.908282	2396.461195
430.285824	2398.853222
430.663305	2397.434138
431.040726	2398.938922
431.418086	2398.381874
431.795385	2400.191649
432.172624	2397.542522
432.549802	2396.010012
432.926920	2398.442368
433.303977	2397.978582
433.680974	2397.703839
434.057910	2397.018242
434.434786	2395.818448
434.811601	2399.531257
435.188355	2397.698798
435.565050	2397.035886
435.941683	2400.015208
436.318257	2397.991185
436.694770	2390.873076
437.071222	2396.209137
437.447614	2394.434651
437.823946	2396.385578
438.200218	2398.606206
438.576429	2398.119734
438.952580	2397.406411
439.328670	2397.267779
439.704700	2397.388767
440.080670	2399.382543
440.456580	2398.994375
440.832429	2401.875394
441.208218	2400.037893
441.583947	2401.230126
441.959616	2399.765671
442.335224	2398.386916
442.710773	2398.694426
443.086261	2402.283727
443.461689	2397.935732
443.837057	2400.937739
444.212365	2401.328429
444.587612	2400.915054
444.962800	2400.237019
445.337927	2401.227606
445.712995	2398.321381
446.088002	2399.380023
446.462949	2400.882287
446.837837	2400.284910
447.212664	2400.045455
447.587431	2400.141237
447.962139	2400.632750
448.336786	2402.019067
448.711374	2401.038562
449.085901	2404.327915
449.460369	2402.235837
449.834776	2403.191135
450.209124	2402.828172
450.583412	2402.263563
450.957640	2401.625857
451.331808	2399.596793
451.705917	2399.112842
452.079965	2402.810528
452.453954	2401.875394
452.827883	2403.208779
453.201752	2404.479150
453.575562	2402.371948
453.949311	2402.752555
454.323001	2405.497463
454.696632	2403.735580
455.070202	2401.598131
455.443713	2402.175343
455.817164	2400.350445
456.190556	2400.219375
456.563888	2399.571587
456.937160	2398.112173
457.310373	2401.625857
457.683526	2403.929664
458.056619	2404.191804
458.429653	2403.438152
458.802628	2403.780950
459.175542	2405.767165
459.548398	2404.343039
459.921194	2403.460837
460.293930	2406.969480
460.666607	2406.878739
461.039224	2401.668707
461.411782	2406.667011
461.784280	2406.417474
462.156719	2406.059552
462.529099	2407.019892
462.901419	2405.313461
463.273680	2406.132648
463.645882	2405.038718
464.018024	2408.232289
464.390106	2407.062741
464.762130	2409.008627
465.134094	2407.962587
465.505999	2409.676580
465.877845	2408.474264
466.249631	2410.281518
466.621358	2409.003586
466.993026	2411.292269
467.364634	2412.960891
467.736184	2412.310582
468.107674	2409.084244
468.479105	2408.464182
468.850477	2410.473082
469.221790	2410.520973
469.593043	2406.092319
469.964238	2407.168606
470.335373	2408.194480
470.706449	2410.543658
471.077467	2408.738925
471.448425	2407.561816
471.819324	2409.928637
472.190164	2410.377300
472.560945	2411.120870
472.931667	2411.438463
473.302330	2410.662125
473.672934	2410.909142
474.043479	2411.335119
474.413965	2411.733370
474.784393	2407.632392
475.154761	2410.241189
475.525070	2405.394119
475.895321	2411.118350
476.265513	2405.134500
476.635645	2408.396127
477.005719	2412.890315
477.375734	2409.868143
477.745691	2412.224883
478.115588	2409.492577
478.485427	2413.863258
478.855207	2412.837383
479.224928	2413.217990
479.594591	2416.590522
479.964194	2413.890984
480.333739	2416.905594
480.703226	2413.351581
481.072653	2415.037847
481.442022	2410.228586
481.811333	2415.342837
482.180584	2412.315624
482.549777	2414.216139
482.918912	2414.763104
483.287988	2414.269071
483.657005	2413.535583
484.025964	2415.662950
484.394864	2414.143042
484.763706	2413.540624
485.132489	2414.574061
485.501213	2414.168248
485.869879	2414.866447
486.238487	2416.008269
486.607036	2412.769328
486.975527	2414.165727
487.343959	2415.115985
487.712333	2411.808988
488.080648	2412.313103
488.448905	2412.436611
488.817104	2411.937537
489.185244	2414.332085
489.553326	2412.855027
489.921350	2417.394586
490.289315	2415.610018
490.657222	2417.883578
491.025070	2418.851480
491.392861	2418.828794
491.760593	2415.851993
492.128267	2418.102868
492.495883	2414.778227
492.863440	2415.635223
493.230939	2415.186561
493.598380	2415.872158
493.965763	2409.792526
494.333088	2415.239493
494.700354	2410.016857
495.067563	2414.863927
495.434713	2409.414440
495.801805	2415.824267
496.168839	2415.355439
496.535815	2414.301838
496.902733	2415.471386
497.269593	2415.249575
497.636395	2415.635223
498.003139	2416.368711
498.369825	2414.387538
498.736453	2416.247724
499.103023	2412.444173
499.469535	2415.657909
499.835989	2416.794689
500.202385	2416.595563
500.568723	2413.394431
500.935003	2414.717733
501.301226	2415.148752
501.667390	2416.774524
502.033497	2414.344688
502.399546	2414.916859
502.765537	2415.204205
503.131470	2415.978022
503.497345	2415.063052
503.863163	2415.312590
504.228923	2416.066242
504.594625	2413.933834
504.960269	2415.988104
505.325856	2415.221849
505.691385	2416.787127
506.056856	2417.697055
506.422270	2416.754360
506.787625	2417.719741
507.152924	2414.639596
507.518164	2415.509195
507.883347	2416.625810
508.248472	2415.083217
508.613540	2416.835018
508.978550	2418.115471
509.343503	2419.118661
509.708398	2418.712848
510.073236	2416.386355
510.438016	2417.273598
510.802738	2416.000707
511.167403	2419.622776
511.532010	2416.774524
511.896561	2418.536407
512.261053	2421.031779
512.625488	2417.666808
512.989866	2415.181520
513.354186	2418.007086
513.718449	2417.092117
514.082655	2421.301480
514.446803	2421.805596
514.810894	2420.484813
515.174927	2425.397418
515.538904	2424.300967
515.902822	2426.352717
516.266684	2426.493869
516.630488	2425.838519
516.994235	2426.718200
517.357925	2428.311205
517.721558	2425.110072
518.085133	2429.342121
518.448651	2431.156936
518.812112	2432.492842
519.175516	2429.342121
519.538863	2430.864549
519.902152	2434.065682
520.265385	2433.962338
520.628560	2433.727925
520.991678	2435.020981
521.354739	2436.278748
521.717743	2438.259922
522.080690	2440.251178
522.443580	2443.858123
522.806413	2442.242433
523.169189	2441.171188
523.531908	2445.912393
523.894569	2446.502208
524.257174	2446.545058
524.619722	2446.396344
524.982213	2449.383228
525.344647	2449.615121
525.707025	2450.583023
526.069345	2452.362550
526.431608	2453.451439
526.793815	2452.977571
527.155964	2453.529577
527.518057	2454.063939
527.880093	2455.772890
528.242072	2457.373457
528.603995	2458.404373
528.965860	2460.962758
529.327669	2461.270269
529.689421	2462.719600
530.051117	2465.076340
530.412755	2463.629529
530.774337	2469.585652
531.135862	2466.220682
531.497331	2465.565332
531.858743	2464.957873
532.220098	2471.546661
532.581396	2467.105404
532.942638	2471.534058
533.303824	2474.440283
533.664953	2476.837352
534.026025	2477.132259
534.387040	2478.246354
534.747999	2476.582773
535.108902	2478.571509
535.469748	2480.189719
535.830537	2482.690131
536.191270	2482.760708
536.551947	2485.601398
536.912567	2483.935296
537.273131	2485.424957
537.633638	2486.271871
537.994089	2485.137612
538.354483	2489.659527
538.714821	2490.304794
539.075103	2492.749754
539.435328	2492.704383
539.795497	2493.279075
540.155609	2494.189003
540.515665	2495.731596
540.875665	2494.128509
541.235609	2496.399549
541.595496	2496.165136
541.955328	2498.579848
542.315102	2501.813748
542.674821	2501.231495
543.034483	2500.883656
543.394090	2502.184273
543.753640	2502.365755
544.113134	2505.760972
544.472571	2504.170488
544.831953	2505.539161
545.191278	2505.163595
545.550548	2505.796260
545.909761	2509.055366
546.268918	2509.894718
546.628019	2512.138032
546.987064	2510.156858
547.346053	2510.363545
547.704986	2511.134842
548.063863	2510.567712
548.422684	2511.480161
548.781449	2512.332116
549.140158	2513.516787
549.498811	2515.187930
549.857408	2511.684328
550.215949	2515.087107
550.574434	2513.872188
550.932864	2514.472086
551.291237	2514.620800
551.649555	2516.896881
552.007817	2517.605163
552.366022	2518.590708
552.724173	2517.080883
553.082267	2520.680267
553.440305	2522.122037
553.798288	2520.045081
554.156215	2521.668333
554.514086	2519.059536
554.871902	2521.295287
555.229661	2520.879392
555.587365	2520.793693
555.945014	2524.461132
556.302606	2520.826460
556.660143	2520.861748
557.017625	2521.746471
557.375050	2522.454753
557.732421	2519.127591
558.089735	2521.360823
558.446994	2520.007273
558.804197	2521.736388
559.161345	2524.037675
559.518437	2518.878054
559.875474	2521.491893
560.232455	2520.287057
560.589381	2522.122037
560.946251	2521.776718
561.303065	2519.601460
561.659825	2518.590708
562.016528	2520.955010
562.373177	2518.915863
562.729770	2520.622293
563.086307	2520.115658
563.442789	2516.130625
563.799216	2521.827129
564.155587	2516.435615
564.511904	2517.186747
564.868164	2519.505678
565.224370	2517.673218
565.580520	2516.901922
565.936615	2517.998373
566.292654	2515.054339
566.648638	2513.748680
567.004567	2516.463342
567.360441	2512.657270
567.716260	2513.330264
568.072023	2512.017044
568.427732	2509.710716
568.783385	2510.915552
569.138982	2509.662825
569.494525	2509.040243
569.850013	2507.913545
570.205445	2510.323216
570.560823	2508.367248
570.916145	2510.038391
571.271412	2508.147958
571.626625	2506.784326
571.981782	2507.792557
572.336884	2504.997237
572.691931	2504.477998
573.046923	2501.004643
573.401860	2500.732421
573.756743	2502.363234
574.111570	2501.821310
574.466342	2501.947339
574.821059	2499.789725
575.175722	2500.258552
575.530330	2499.308295
575.884882	2498.521875
576.239380	2496.840650
576.593823	2497.846360
576.948211	2495.708911
577.302544	2495.562718
577.656823	2494.834271
578.011047	2495.920640
578.365216	2491.335710
578.719330	2493.483242
579.073389	2490.110710
579.427394	2492.064157
579.781344	2489.863693
580.135239	2490.773622
580.489080	2489.929228
580.842866	2487.690956
581.196597	2490.440905
581.550273	2486.274392
581.903895	2487.537201
582.257463	2488.016110
582.610975	2484.777169
582.964434	2487.562407
583.317837	2486.385297
583.671186	2485.619042
584.024481	2484.588126
584.377721	2484.477220
584.730906	2487.169197
585.084037	2485.477889
585.437113	2482.836325
585.790135	2484.431850
586.143103	2481.591160
586.496016	2482.511170
586.848874	2479.609986
587.201679	2481.923876
587.554428	2478.881540
587.907124	2479.862044
588.259765	2475.148565
588.612352	2482.037302
588.964884	2481.815491
589.317362	2486.680205
589.669786	2485.997128
590.022155	2483.489154
590.374470	2482.339771
590.726731	2482.838845
591.078937	2479.428505
591.431090	2485.898826
591.783188	2478.548823
592.135232	2482.619555
592.487222	2482.473362
592.839157	2482.236428
593.191038	2482.216263
593.542866	2483.070738
593.894639	2481.825573
594.246358	2486.662561
594.598022	2483.426140
594.949633	2482.511170
595.301190	2483.700883
595.652692	2481.780203
596.004141	2486.775987
596.355535	2483.040492
596.706876	2483.829432
597.058162	2483.476551
597.409395	2483.360605
597.760573	2488.086687
598.111698	2486.468476
598.462768	2488.865545
598.813785	2487.958137
599.164748	2486.241624
599.515657	2488.182468
599.866511	2487.562407
600.217312	2490.297233
600.568060	2491.844867
600.918753	2491.973416
601.269392	2493.130361
601.619978	2492.374188
601.970510	2497.932060
602.320988	2496.029024
602.671412	2497.165805
603.021783	2497.410301
603.372100	2497.667399
603.722363	2500.775271
604.072572	2499.832575
604.422728	2503.358862
604.772830	2498.751247
605.122878	2499.935919
605.472872	2503.116887
605.822813	2503.636126
606.172701	2509.370438
606.522534	2509.841786
606.872314	2514.235152
607.222041	2515.518125
607.571714	2514.918228
607.921333	2516.183557
608.270899	2520.760925
608.620411	2519.246058
608.969870	2524.105731
609.319276	2526.414579
609.668627	2530.507996
610.017926	2530.775177
610.367171	2537.351362
610.716362	2536.030580
611.065500	2541.190201
611.414585	2541.633823
611.763616	2544.545089
612.112594	2549.034237
612.461518	2555.202088
612.810389	2557.435319
613.159207	2559.963458
613.507971	2565.942267
613.856682	2565.748182
614.205340	2574.572722
614.553945	2578.729153
614.902496	2582.177302
615.250994	2584.110585
615.599439	2591.059816
615.947830	2595.795980
616.296169	2602.427617
616.644454	2611.249637
616.992686	2611.562188
617.340864	2621.520988
617.688990	2625.246400
618.037063	2637.640077
618.385082	2645.307672
618.733048	2651.566265
619.080961	2659.019611
619.428821	2666.896413
619.776628	2669.986641
620.124382	2671.924964
620.472083	2678.163392
620.819731	2682.241686
621.167326	2680.494926
621.514868	2685.120185
621.862357	2686.113292
622.209793	2692.497913
622.557176	2687.519774
622.904506	2689.314425
623.251783	2686.249403
623.599007	2693.198634
623.946179	2694.428675
624.293297	2698.877493
624.640363	2700.341949
624.987376	2707.066848
625.334336	2709.809236
625.681243	2711.939123
626.028097	2717.169320
626.374899	2721.260217
626.721647	2730.898903
627.068343	2734.067268
627.414987	2739.897362
627.761577	2745.336767
628.108115	2755.590474
628.454600	2756.150042
628.801032	2765.818975
629.147412	2773.405912
629.493739	2781.814557
629.840014	2787.662295
630.186236	2800.905406
630.532405	2806.561581
630.878521	2820.250834
631.224585	2826.673264
631.570597	2833.277176
631.916556	2846.779906
632.262462	2855.985053
632.608316	2866.717670
632.954117	2872.179760
633.299866	2881.818446
633.645562	2887.411606
633.991206	2886.829353
634.336797	2887.925804
634.682336	2894.625497
635.027823	2894.101217
635.373257	2898.476939
635.718639	2902.361148
636.063968	2904.985068
636.409245	2903.482805
636.754470	2908.619740
637.099642	2914.825401
637.444762	2912.561923
637.789829	2922.966864
638.134845	2927.297215
638.479808	2934.992537
638.824719	2939.615275
639.169577	2946.214145
639.514383	2953.377625
639.859137	2955.389045
640.203839	2972.019812
640.548489	2972.317240
640.893086	2980.534321
641.237632	2985.008345
641.582125	2997.631394
641.926566	3004.101715
642.270955	3016.571009
642.615292	3025.637524
642.959576	3039.624205
643.303809	3048.146276
643.647990	3056.128943
643.992118	3070.783577
644.336195	3081.170875
644.680219	3092.526074
645.024192	3114.016513
645.368112	3135.123824
645.711981	3150.695948
646.055797	3190.669777
646.399562	3209.024619
646.743274	3248.113726
647.086935	3279.986421
647.430544	3297.408648
647.774101	3315.592090
648.117606	3331.683453
648.461059	3351.333871
648.804460	3353.947709
649.147810	3343.164681
649.491108	3345.753314
649.834354	3346.040660
650.177548	3337.881552
650.520690	3330.264369
650.863781	3341.516224
651.206820	3349.350177
651.549807	3347.512677
651.892742	3342.169053
652.235626	3351.429653
652.578458	3358.890561
652.921238	3352.843697
653.263967	3375.047459
653.606644	3381.220352
653.949269	3392.870458
654.291843	3393.893813
654.634365	3419.916249
654.976836	3423.838266
655.319255	3434.051644
655.661622	3445.759724
656.003938	3450.871454
656.346203	3459.786734
656.688416	3479.941267
657.030577	3483.870847
657.372687	3491.873679
657.714746	3510.846061
658.056753	3530.332641
658.398708	3518.853934
658.740612	3538.890000
659.082465	3559.863721
659.424266	3565.298084
659.766016	3588.063935
660.107715	3602.963065
660.449362	3621.375880
660.790958	3636.083446
661.132503	3649.334119
661.473996	3666.637880
661.815438	3685.474151
662.156829	3707.249415
662.498168	3710.843758
662.839456	3728.497878
663.180693	3746.678800
663.521879	3771.400618
663.863013	3786.007362
664.204097	3800.251142
664.545129	3836.716328
664.886110	3856.850697
665.227040	3875.863408
665.567918	3899.773601
665.908746	3922.718413
666.249522	3945.237247
666.590248	3968.522337
666.930922	3990.043022
667.271545	4007.230836
667.612118	4031.282181
667.952639	4031.486348
668.293109	4052.177764
668.633528	4056.316551
668.973896	4073.683326
669.314213	4086.820573
669.654480	4090.878702
669.994695	4107.733800
670.334859	4114.844348
670.674973	4128.687356
671.015035	4152.910100
671.355047	4168.474663
671.695008	4183.824976
672.034918	4199.873489
672.374777	4225.026327
672.714585	4234.332297
673.054342	4266.986371
673.394049	4273.774284
673.733705	4305.707473
674.073310	4310.476405
674.412864	4329.262265
674.752368	4320.074762
675.091820	4349.883104
675.431223	4340.660313
675.770574	4339.732741
676.109875	4340.236857
676.449125	4343.042259
676.788324	4350.122559
677.127473	4331.374508
677.466571	4340.652752
677.805619	4343.649718
678.144616	4351.524000
678.483562	4361.124878
678.822458	4357.827963
679.161303	4372.825396
679.500098	4380.137589
679.838842	4387.865678
680.177535	4417.835338
680.516179	4457.973005
680.854771	4496.724354
681.193314	4585.355401
681.531805	4702.332855
681.870247	4794.147390
682.208638	4874.281572
682.546978	4913.194238
682.885268	4939.393115
683.223508	4918.212707
683.561697	4911.654166
683.899836	4920.637502
684.237925	4904.205861
684.575963	4917.625412
684.913951	4904.543618
685.251889	4942.190955
685.589776	4972.180779
685.927614	4999.387887
686.265401	5039.654103
686.603137	5080.961317
686.940824	5155.802287
687.278460	5227.255602
687.616046	5274.713024
687.953582	5366.676273
688.291068	5383.402822
688.628504	5434.144556
688.965889	5455.082988
689.303224	5438.870638
689.640510	5420.609058
689.977745	5369.519484
690.314930	5305.138908
690.652065	5264.272795
690.989150	5208.840267
691.326185	5130.873782
691.663170	5073.273558
692.000105	5019.434035
692.336990	4964.288853
692.673825	4935.264410
693.010610	4901.796189
693.347345	4857.499570
693.684030	4811.153722
694.020665	4793.066062
694.357251	4743.496397
694.693786	4759.302935
695.030272	4753.772789
695.366707	4717.363055
695.703093	4700.676836
696.039429	4719.689548
696.375716	4710.544895
696.711952	4725.658274
697.048139	4727.962081
697.384276	4735.377618
697.720363	4767.348616
698.056400	4761.974746
698.392388	4755.292697
698.728326	4767.008338
699.064214	4760.437194
699.400053	4766.310138
699.735842	4740.907764
700.071581	4726.633737
700.407270	4704.382084
700.742910	4697.712637
701.078501	4678.783105
701.414042	4655.472809
701.749533	4643.061489
702.084974	4609.890696
702.420366	4646.812107
702.755709	4612.686016
703.091002	4591.566102
703.426246	4606.601343
703.761440	4608.080922
704.096584	4587.896142
704.431679	4599.891568
704.766725	4603.879120
705.101721	4606.651755
705.436668	4635.895488
705.771565	4613.913537
706.106413	4668.141229
706.441212	4684.618240
706.775961	4716.727870
707.110661	4744.907920
707.445311	4810.962159
707.779913	4807.992919
708.114465	4858.837997
708.448967	4920.589611
708.783421	5027.361249
709.117825	5092.402216
709.452180	5147.693592
709.786485	5219.691351
710.120742	5353.576835
710.454949	5382.429879
710.789107	5472.376667
711.123216	5590.304379
711.457275	5635.742819
711.791286	5733.662191
712.125247	5763.528507
712.459159	5742.733747
712.793023	5857.034349
713.126837	5719.045366
713.460602	5764.602273
713.794318	5728.857972
714.127985	5678.607750
714.461602	5569.870062
714.795171	5567.967026
715.128691	5432.039874
715.462162	5364.296849
715.795584	5317.144416
716.128957	5283.671155
716.462281	5236.727930
716.795556	5209.447726
717.128782	5150.572090
717.461960	5078.965021
717.795088	5074.349844
718.128167	5029.082803
718.461198	4971.817816
718.794180	4965.687773
719.127113	4919.225979
719.459997	4899.573040
719.792833	4856.579560
720.125619	4866.341754
720.458357	4827.948327
720.791046	4811.312519
721.123686	4798.543276
721.456278	4771.373977
721.788821	4777.342704
722.121315	4745.769957
722.453761	4768.402217
722.786158	4771.396663
723.118506	4785.264877
723.450805	4779.102066
723.783056	4817.530782
724.115259	4813.003826
724.447412	4815.035411
724.779518	4876.565214
725.111574	4890.761103
725.443582	4938.674750
725.775542	4950.314774
726.107453	5045.201893
726.439315	5037.791397
726.771129	5134.142970
727.102895	5208.416810
727.434612	5260.103761
727.766281	5294.865037
728.097901	5358.088668
728.429473	5381.204879
728.760996	5393.452362
729.092471	5421.219037
729.423897	5413.470784
729.755276	5408.611112
730.086606	5446.757523
730.417887	5556.226179
730.749120	5674.607594
731.080305	5726.395368
731.411442	5806.559796
731.742530	5838.049364
732.073570	5874.499427
732.404562	5945.897289
732.735506	5929.798364
733.066401	5881.526795
733.397249	5791.937930
733.728048	5685.244429
734.058798	5535.990987
734.389501	5408.348972
734.720156	5330.019523
735.050762	5230.923042
735.381320	5170.136808
735.711831	5129.074090
736.042293	5068.716355
736.372707	5079.451492
736.703073	5053.113984
737.033391	5101.002425
737.363661	5108.387715
737.693883	5143.746368
738.024056	5194.656981
738.354182	5242.316049
738.684260	5313.562677
739.014290	5372.047623
739.344272	5424.558802
739.674207	5499.984546
740.004093	5533.775400
740.333931	5547.275610
740.663722	5571.757974
740.993464	5582.838430
741.323159	5559.994441
741.652806	5510.891082
741.982405	5476.613757
742.311956	5416.525723
742.641460	5399.809257
742.970915	5347.227502
743.300323	5284.533192
743.629683	5240.571810
743.958996	5190.311506
744.288260	5140.068846
744.617477	5081.140278
744.946647	5075.128703
745.275768	5025.783368
745.604842	4990.394468
745.933869	4962.557217
746.262847	4956.268377
746.591778	4956.205363
746.920662	4940.209782
747.249498	4949.351914
747.578286	4985.388602
747.907027	5033.740829
748.235720	5094.154017
748.564365	5108.796048
748.892963	5096.752732
749.221514	5122.702071
749.550017	5093.891877
749.878473	5098.275160
750.206881	5056.877205
750.535242	5039.510430
750.863555	5030.590108
751.191821	5013.281307
751.520039	5029.412999
751.848210	5017.546123
752.176334	5034.285274
752.504411	5018.879508
752.832440	4983.069672
753.160421	5007.884751
753.488356	4981.519517
753.816243	4969.337568
754.144082	4940.340852
754.471875	4932.285088
754.799620	4928.796609
755.127318	4928.148821
755.454969	4924.365435
755.782572	4923.150517
756.110129	4930.699645
756.437638	4915.543416
756.765100	4922.225465
757.092515	4933.056384
757.419882	4943.186583
757.747203	4948.071461
758.074477	4973.272189
758.401703	4969.075428
758.728882	5021.679869
759.056014	5040.853898
759.383099	5080.845371
759.710138	5115.427686
760.037129	5147.607892
760.364073	5160.583822
760.690970	5161.234131
761.017820	5172.939690
761.344623	5233.582250
761.671379	5347.955949
761.998088	5539.633221
762.324751	5989.775492
762.651366	6795.172915
762.977935	7826.698857
763.304456	8470.852454
763.630931	8651.189650
763.957359	8369.396712
764.283740	7846.059408
764.610074	7319.102555
764.936362	6730.953657
765.262602	6294.044414
765.588796	5865.894177
765.914943	5575.049847
766.241044	5327.597249
766.567097	5138.838805
766.893104	4979.477849
767.219064	4875.292323
767.544978	4766.095889
767.870845	4676.509544
768.196665	4630.420795
768.522438	4575.142023
768.848165	4530.295918
769.173846	4484.383610
769.499479	4454.292962
769.825066	4410.266045
770.150607	4358.813508
770.476101	4345.653576
770.801548	4316.830779
771.126949	4277.991209
771.452303	4251.802415
771.777611	4206.976475
772.102872	4209.360941
772.428087	4174.987833
772.753256	4142.316115
773.078378	4115.933237
773.403453	4071.429931
773.728482	4046.725756
774.053465	4027.130791
774.378401	4005.778984
774.703291	3977.646825
775.028135	3950.202783
775.352932	3939.039148
775.677683	3914.607196
776.002388	3893.565420
776.327046	3896.766553
776.651658	3870.257645
776.976224	3852.167465
777.300743	3847.000282
777.625216	3827.997652
777.949643	3815.535920
778.274024	3824.025223
778.598359	3800.152839
778.922647	3798.708549
779.246889	3794.874751
779.571086	3797.861635
779.895236	3805.710711
780.219339	3802.814568
780.543397	3809.158861
780.867409	3829.547807
781.191374	3833.633662
781.515294	3825.610666
781.839167	3844.353676
782.162995	3840.028366
782.486776	3829.971264
782.810511	3817.297803
783.134201	3797.360040
783.457844	3793.889206
783.781441	3785.949388
784.104993	3772.144188
784.428498	3766.286368
784.751958	3759.843773
785.075372	3759.599277
785.398739	3745.418511
785.722061	3759.322014
786.045337	3767.007253
786.368568	3810.262873
786.691752	3814.300838
787.014891	3907.927667
787.337983	4005.388295
787.661030	4163.468797
787.984031	4318.053259
788.306987	4425.364301
788.629897	4470.306188
788.952760	4459.036688
789.275579	4404.766146
789.598351	4307.086229
789.921078	4211.158112
790.243759	4110.466105
790.566395	4035.375598
790.888984	3967.143581
791.211529	3914.324892
791.534027	3859.091489
791.856480	3803.608550
792.178888	3787.602887
792.501249	3761.010800
792.823566	3725.460583
793.145836	3724.028896
793.468062	3719.554872
793.790241	3704.184393
794.112375	3730.479052
794.434464	3766.389711
794.756507	3780.832617
795.078505	3825.603104
795.400457	3904.633273
795.722364	3989.359946
796.044226	4066.792069
796.366042	4134.189775
796.687812	4120.520687
797.009538	4143.168070
797.331218	4117.319554
797.652852	4094.503292
797.974442	4051.724060
798.295986	4028.537273
798.617484	3984.386848
798.938938	3946.910910
799.260346	3920.028957
799.581709	3865.511399
799.903026	3847.282587
800.224299	3818.583298
800.545526	3774.006895
800.866708	3745.983121
801.187845	3733.526429
801.508936	3697.225081
801.829983	3688.156045
802.150984	3644.781957
802.471940	3634.409783
802.792851	3633.341058
803.113717	3623.162969
803.434538	3613.955301
803.755314	3597.246397
804.076045	3595.252621
804.396731	3578.929364
804.717372	3593.894030
805.037967	3588.804985
805.358518	3598.312601
805.679024	3624.531642
805.999485	3625.454173
806.319901	3638.152840
806.640272	3645.308758
806.960598	3667.600740
807.280879	3668.233405
807.601115	3684.400385
807.921306	3669.639887
808.241453	3669.498734
808.561554	3680.158254
808.881611	3669.647448
809.201623	3672.657017
809.521590	3652.353770
809.841513	3648.673728
810.161390	3660.585974
810.481223	3625.136581
810.801011	3624.246817
811.120755	3616.622072
811.440453	3592.578288
811.760107	3586.100406
812.079716	3577.328798
812.399281	3555.576219
812.718801	3560.418247
813.038276	3545.584652
813.357707	3536.797921
813.677093	3549.887277
813.996434	3524.021117
814.315731	3534.559649
814.634983	3535.711553
814.954191	3543.232954
815.273354	3570.377047
815.592473	3588.260540
815.911547	3625.716313
816.230577	3650.927124
816.549562	3689.759132
816.868502	3719.990931
817.187399	3748.150817
817.506250	3787.968370
817.825058	3811.034170
818.143821	3886.114595
818.462539	3966.226091
818.781213	4077.517124
819.099843	4234.047471
819.418429	4520.034650
819.736970	4803.460922
820.055466	5135.741016
820.373919	5569.134053
820.692327	6237.475107
821.010691	7362.990841
821.329011	9656.390686
821.647286	12873.881923
821.965517	16376.510903
822.283704	18434.345191
822.601847	19391.685512
822.919945	18079.029545
823.237999	16431.855211
823.556010	14586.971864
823.873976	12815.681802
824.191897	11156.905252
824.509775	9952.298855
824.827609	8853.813788
825.145398	8236.148934
825.463144	7945.198739
825.780845	8071.182215
826.098502	8575.116118
826.416116	9554.188854
826.733685	10494.666515
827.051210	10767.287074
827.368692	10244.577393
827.686129	9218.463131
828.003522	8155.369484
828.320872	7171.495050
828.638177	6433.102123
828.955439	5855.690882
829.272656	5369.453949
829.589830	4986.280887
829.906960	4653.393333
830.224046	4405.759254
830.541088	4215.533834
830.858086	4095.146039
831.175041	4004.347296
831.491952	3979.191939
831.808819	4003.215557
832.125642	4131.762460
832.442421	4403.725148
832.759157	4919.296555
833.075849	5724.371345
833.392497	6563.471402
833.709101	7075.824032
834.025662	6992.987792
834.342179	6536.216404
834.658653	5944.679850
834.975083	5422.602834
835.291469	4994.558461
835.607811	4635.630828
835.924110	4381.508783
836.240366	4149.877846
836.556578	3926.327879
836.872746	3753.479316
837.188871	3617.831949
837.504952	3508.995958
837.820990	3426.366405
838.136984	3370.913713
838.452935	3345.559229
838.768842	3362.500027
839.084706	3496.524143
839.400526	3851.474306
839.716303	4282.911376
840.032037	4562.755908
840.347727	4508.344214
840.663373	4231.814240
840.978977	3948.423256
841.294537	3729.488465
841.610054	3562.250707
841.925527	3438.903755
842.240957	3338.481449
842.556344	3243.778333
842.871687	3163.243380
843.186987	3089.435847
843.502244	3028.354706
843.817458	2986.150166
844.132629	2949.591718
844.447756	2923.218922
844.762840	2902.346024
845.077881	2878.980276
845.392879	2862.193234
845.707833	2848.009948
846.022745	2833.022597
846.337613	2828.541012
846.652438	2815.658343
846.967221	2813.732622
847.281960	2804.759368
847.596656	2797.210240
847.911309	2792.741257
848.225919	2786.732202
848.540485	2780.279525
848.855009	2779.954371
849.169490	2773.083278
849.483928	2765.846702
849.798323	2764.866197
850.112675	2760.427461
850.426984	2761.775970
850.741251	2755.361102
851.055474	2756.223139
851.369654	2755.330855
851.683792	2757.042327
851.997887	2757.324631
852.311938	2757.669950
852.625947	2756.041657
852.939914	2756.752460
853.253837	2758.960486
853.567718	2760.714807
853.881555	2751.872623
854.195350	2759.822523
854.509103	2756.601226
854.822812	2753.190885
855.136479	2752.873292
855.450103	2757.765732
855.763685	2753.460587
856.077224	2756.928901
856.390720	2758.942842
856.704173	2766.625560
857.017584	2766.249994
857.330953	2770.182094
857.644278	2776.065121
857.957561	2778.981428
858.270802	2776.317178
858.584000	2773.847013
858.897155	2775.394647
859.210268	2767.311157
859.523339	2762.872421
859.836367	2761.077770
860.149352	2756.775145
860.462295	2758.111051
860.775195	2751.744074
861.088054	2748.734505
861.400869	2748.507653
861.713642	2747.688466
862.026373	2755.905546
862.339062	2755.489651
862.651708	2762.847215
862.964312	2768.957094
863.276873	2774.643515
863.589392	2789.963582
863.901869	2806.738021
864.214303	2813.662046
864.526696	2825.372646
864.839045	2834.507217
865.151353	2844.657580
865.463619	2842.570543
865.775842	2846.031295
866.088023	2848.440966
866.400162	2845.882581
866.712258	2848.141018
867.024313	2849.275277
867.336325	2848.672859
867.648296	2848.788806
867.960224	2850.424660
868.272110	2851.034640
868.583954	2851.894157
868.895755	2855.009590
869.207515	2852.914990
869.519233	2866.601723
869.830909	2868.436703
870.142542	2871.272352
870.454134	2879.577653
870.765684	2886.133674
871.077191	2898.844943
871.388657	2902.237640
871.700081	2914.964033
872.011463	2922.092224
872.322803	2932.270314
872.634101	2942.128290
872.945357	2954.285033
873.256571	2967.520582
873.567744	2977.126501
873.878874	2978.941316
874.189963	2990.667040
874.501010	2992.663337
874.812015	2990.382215
875.122979	2999.020232
875.433900	3003.776560
875.744780	2999.846981
876.055618	3010.824093
876.366415	3011.774351
876.677169	3015.146883
876.987882	3023.852956
877.298554	3037.930378
877.609183	3061.696898
877.919771	3090.517174
878.230317	3126.503451
878.540822	3192.779500
878.851285	3276.419804
879.161707	3406.340421
879.472087	3618.240282
879.782425	3960.562355
880.092722	4555.320206
880.402977	5412.255866
880.713191	6334.471948
881.023363	7216.197482
881.333494	7729.349135
881.643583	8026.421810
881.953631	8011.683997
882.263637	7775.377390
882.573602	7387.374902
882.883526	7002.694534
883.193408	6574.509009
883.503248	6149.471684
883.813048	5748.994861
884.122806	5378.777563
884.432522	5009.928939
884.742197	4688.515052
885.051831	4416.620420
885.361424	4162.125329
885.670975	3965.795072
885.980485	3797.453301
886.289954	3655.106240
886.599382	3540.551060
886.908768	3443.586987
887.218113	3354.197247
887.527417	3282.915331
887.836680	3215.837738
888.145901	3161.047957
888.455082	3119.307204
888.764221	3080.197932
889.073319	3048.826832
889.382376	3028.921836
889.691392	3013.160668
890.000366	3011.933147
890.309300	3006.400481
890.618193	3007.275121
890.927044	3006.206397
891.235855	3006.634895
891.544625	3016.160155
891.853353	3034.751930
892.162041	3067.312743
892.470687	3117.142028
892.779293	3183.965043
893.087858	3282.522121
893.396381	3430.658947
893.704864	3651.466527
894.013306	3952.534317
894.321707	4254.660749
894.630068	4457.045432
894.938387	4492.880474
895.246665	4411.969955
895.554903	4247.230089
895.863100	4063.658992
896.171256	3916.621137
896.479371	3785.422588
896.787446	3656.623627
897.095480	3548.349725
897.403473	3465.614308
897.711425	3380.522152
898.019336	3315.851710
898.327207	3249.283273
898.635038	3188.134077
898.942827	3128.673668
899.250576	3079.371183
899.558284	3030.731610
899.865952	2998.995026
900.173579	2965.209213
900.481165	2939.224585
900.788711	2917.121646
901.096216	2895.180024
901.403681	2880.437170
901.711105	2873.755120
902.018489	2870.644728
902.325832	2893.312277
902.633135	2927.551794
902.940397	3026.199613
903.247619	3243.007037
903.554800	3635.511275
903.861941	4132.677429
904.169041	4495.839632
904.476101	4622.730515
904.783121	4506.055530
905.090100	4303.759067
905.397039	4081.764296
905.703938	3892.925193
906.010796	3715.471537
906.317614	3575.042635
906.624391	3441.459620
906.931129	3333.120182
907.237826	3228.959862
907.544483	3139.766727
907.851099	3040.947508
908.157675	2953.538942
908.464211	2873.314019
908.770707	2815.544917
909.077163	2775.775254
909.383578	2736.991137
909.689954	2713.612786
909.996289	2693.584282
910.302584	2686.279650
910.608839	2680.809998
910.915054	2671.241888
911.221229	2667.314829
911.527363	2669.916065
911.833458	2675.095850
912.139513	2683.234793
912.445527	2689.889116
912.751502	2712.120605
913.057436	2738.349728
913.363331	2772.604368
913.669186	2819.693787
913.975000	2887.157028
914.280775	2993.401866
914.586510	3147.693941
914.892205	3351.815301
915.197859	3619.021661
915.503475	3929.269392
915.809050	4198.784600
916.114585	4361.308880
916.420081	4405.121548
916.725536	4381.347466
917.030952	4258.108899
917.336328	4152.015295
917.641665	4035.060526
917.946961	3912.585693
918.252218	3799.527736
918.557435	3670.829599
918.862612	3562.774987
919.167750	3469.231336
919.472848	3359.498020
919.777906	3263.809358
920.082925	3174.096984
920.387904	3086.375866
920.692843	3026.358409
920.997743	2968.745582
921.302603	2911.934299
921.607423	2877.016747
921.912204	2840.571725
922.216946	2811.854792
922.521647	2784.677932
922.826310	2758.042996
923.130932	2737.510376
923.435516	2713.932899
923.740059	2697.135775
924.044564	2680.477282
924.349028	2665.973882
924.653454	2641.395737
924.957840	2629.163377
925.262186	2616.235338
925.566493	2604.113883
925.870761	2589.484455
926.174989	2586.217787
926.479178	2575.535582
926.783328	2562.373130
927.087438	2556.885834
927.391509	2547.373176
927.695541	2539.975283
927.999533	2534.729962
928.303486	2528.993129
928.607400	2526.306194
928.911275	2519.137674
929.215110	2517.421161
929.518906	2517.527025
929.822663	2517.085924
930.126381	2517.665657
930.430060	2518.560462
930.733699	2519.198168
931.037299	2519.994670
931.340861	2519.296470
931.644383	2525.048427
931.947866	2522.485000
932.251309	2523.190761
932.554714	2518.661285
932.858080	2520.256810
933.161407	2516.574247
933.464694	2515.051818
933.767943	2512.669873
934.071153	2509.907321
934.374323	2506.199552
934.677455	2505.730725
934.980548	2504.420025
935.283602	2504.609068
935.586617	2501.425580
935.889593	2506.655777
936.192530	2506.091167
936.495428	2509.894718
936.798287	2515.775224
937.101108	2524.241842
937.403890	2535.982689
937.706632	2551.711089
938.009336	2575.041549
938.312002	2594.326483
938.614628	2609.124790
938.917216	2619.093672
939.219765	2625.059878
939.522275	2633.836527
939.824747	2633.662607
940.127179	2628.024076
940.429573	2624.424692
940.731929	2627.598099
941.034246	2615.975718
941.336524	2622.042747
941.638763	2614.874226
941.940964	2612.020933
942.243126	2598.553491
942.545250	2592.224322
942.847335	2588.158632
943.149381	2576.574060
943.451389	2570.065930
943.753359	2560.586041
944.055290	2554.816440
944.357182	2549.097251
944.659036	2544.981149
944.960851	2543.128525
945.262628	2540.575180
945.564367	2541.908566
945.866067	2537.326157
946.167729	2539.904707
946.469352	2539.743390
946.770937	2538.155427
947.072484	2533.215096
947.373992	2535.236598
947.675462	2530.760054
947.976893	2530.223171
948.278286	2529.298119
948.579641	2523.614218
948.880958	2521.789321
949.182236	2523.294105
949.483476	2521.910308
949.784678	2519.568692
950.085841	2521.738909
950.386967	2522.963909
950.688054	2526.868283
950.989103	2533.817514
951.290114	2537.467309
951.591087	2543.229348
951.892021	2550.115564
952.192917	2561.906823
952.493776	2565.508727
952.794596	2568.851012
953.095378	2570.945612
953.396122	2569.871846
953.696828	2565.654921
953.997496	2561.062430
954.298126	2554.534135
954.598718	2553.861141
954.899272	2541.527958
955.199788	2538.798174
955.500266	2528.738551
955.800706	2518.308404
956.101108	2507.187618
956.401472	2503.187463
956.701798	2492.293529
957.002087	2484.250368
957.302337	2479.793988
957.602550	2476.421457
957.902724	2468.335446
958.202861	2461.285392
958.502960	2455.828343
958.803022	2452.526387
959.103045	2445.441046
959.403031	2443.434666
959.702979	2440.377207
960.002889	2438.080961
960.302762	2434.126176
960.602596	2431.290527
960.902393	2431.688778
961.202153	2429.894127
961.501875	2430.098294
961.801559	2425.473035
962.101205	2423.330545
962.400814	2421.795513
962.700385	2419.751326
962.999918	2418.571696
963.299414	2419.776531
963.598873	2420.888106
963.898293	2418.047416
964.197677	2416.141859
964.497022	2417.036664
964.796331	2415.501633
965.095601	2415.070614
965.394835	2414.768145
965.694030	2415.473907
965.993189	2414.765624
966.292309	2414.823598
966.591393	2415.700758
966.890439	2413.263361
967.189447	2413.258319
967.488419	2415.166396
967.787353	2416.252765
968.086249	2413.550706
968.385108	2412.781930
968.683930	2417.349216
968.982714	2416.633372
969.281462	2418.181006
969.580172	2418.337282
969.878844	2422.902047
970.177480	2421.460277
970.476078	2424.512695
970.774639	2424.719383
971.073162	2428.066709
971.371649	2426.640062
971.670098	2424.716862
971.968510	2428.202820
972.266885	2424.071594
972.565223	2430.408325
972.863524	2431.499735
973.161788	2430.990578
973.460014	2433.092739
973.758204	2433.922009
974.056356	2435.588110
974.354471	2434.282452
974.652550	2435.144489
974.950591	2434.126176
975.248595	2434.990734
975.546563	2434.219437
975.844493	2434.428645
976.142386	2430.153747
976.440243	2426.526636
976.738062	2430.332708
977.035845	2429.770619
977.333590	2425.553694
977.631299	2424.510175
977.928971	2422.954979
978.226606	2423.204516
978.524204	2423.373395
978.821765	2423.249886
979.119290	2418.115471
979.416777	2419.945410
979.714228	2422.302149
980.011642	2423.436409
980.309020	2425.594023
980.606360	2427.456729
980.903664	2432.013932
981.200931	2440.808225
981.498162	2451.412292
981.795356	2467.118007
982.092513	2492.006184
982.389633	2518.131963
982.686717	2542.639533
982.983764	2563.341031
983.280775	2571.157340
983.577749	2573.433421
983.874686	2569.244222
984.171587	2557.145453
984.468451	2546.387631
984.765279	2538.377237
985.062070	2525.066071
985.358824	2512.942096
985.655543	2497.884169
985.952224	2486.982674
986.248869	2471.954994
986.545478	2453.461521
986.842050	2446.177054
987.138586	2431.598037
987.435086	2426.022521
987.731549	2418.705286
988.027975	2419.078332
988.324366	2414.367373
988.620719	2412.706313
988.917037	2410.609193
989.213318	2405.704150
989.509563	2403.049983
989.805772	2406.609037
990.101944	2405.404202
990.398080	2403.566701
990.694180	2402.908831
990.990244	2403.365055
991.286271	2404.655590
991.582262	2403.448234
991.878217	2406.901424
992.174136	2402.198028
992.470019	2406.200704
992.765865	2409.653894
993.061676	2405.578122
993.357450	2409.033832
993.653188	2411.514080
993.948890	2418.039854
994.244556	2419.136305
994.540186	2425.089907
994.835780	2428.349013
995.131337	2439.363935
995.426859	2448.967333
995.722345	2460.690536
996.017795	2471.004737
996.313208	2481.253403
996.608586	2490.735813
996.903928	2487.549804
997.199234	2489.145329
997.494504	2489.117602
997.789738	2481.734833
998.084936	2478.876498
998.380099	2469.522637
998.675225	2461.940742
998.970316	2454.482355
999.265371	2448.140583
999.560390	2437.425611
999.855373	2432.205496
1000.150320	2426.251893
1000.445232	2423.333065
1000.740108	2414.818557
1001.034948	2412.595408
1001.329752	2409.661456
1001.624521	2405.852864
1001.919254	2403.176012
1002.213951	2403.690209
1002.508613	2396.980434
1002.803239	2402.944119
1003.097829	2397.436658
1003.392384	2400.078223
1003.686903	2399.087636
1003.981386	2398.500342
1004.275834	2396.037738
1004.570246	2397.991185
1004.864623	2397.229971
1005.158964	2395.760474
1005.453270	2396.342728
1005.747540	2395.140413
1006.041775	2395.642007
1006.335974	2394.749723
1006.630138	2396.191493
1006.924266	2393.305433
1007.218359	2395.213509
1007.512416	2395.576472
1007.806438	2393.101266
1008.100425	2393.527243
1008.394376	2393.234856
1008.688292	2392.851729
1008.982172	2392.617315
1009.276017	2391.099928
1009.569827	2393.794424
1009.863602	2395.478170
1010.157341	2393.781822
1010.451045	2392.390463
1010.744714	2395.165618
1011.038347	2391.162942
1011.331945	2392.647562
1011.625508	2393.166801
1011.919036	2393.237377
1012.212528	2392.135885
1012.505986	2392.589589
1012.799408	2393.701163
1013.092795	2393.799466
1013.386147	2391.838457
1013.679464	2390.933570
1013.972745	2392.224105
1014.265992	2392.897099
1014.559204	2394.938766
1014.852380	2392.352654
1015.145521	2389.585061
1015.438628	2392.423231
1015.731699	2390.331152
1016.024736	2393.761657
1016.317737	2394.646379
1016.610703	2393.887686
1016.903635	2391.299053
1017.196531	2388.987684
1017.489393	2391.641852
1017.782219	2387.268651
1018.075011	2393.844836
1018.367768	2392.796276
1018.660490	2395.538664
1018.953177	2395.538664
1019.245829	2395.538664
