Dividing Wavelength (nm)	Counts (n)	Blue Motor Position (mm): 33.000000	Red Motor Position (mm): 0.000000	
326.493990	1969.563684
326.888308	1969.563684
327.282561	1969.563684
327.676750	1946.099634
328.070874	1949.048709
328.464933	1954.145315
328.858929	1964.734259
329.252859	1978.191619
329.646726	1988.581437
330.040528	2004.456031
330.434265	2024.482014
330.827938	2044.639068
331.221547	2062.893086
331.615091	2085.527867
332.008571	2105.533686
332.401986	2127.009001
332.795338	2144.683287
333.188625	2166.594662
333.581847	2183.905984
333.975006	2203.314426
334.368100	2221.202961
334.761129	2238.763820
335.154095	2253.385687
335.546996	2294.987809
335.939833	2370.416073
336.332606	2383.893598
336.725315	2395.654610
337.117960	2407.783626
337.510540	2413.580953
337.903056	2424.265679
338.295508	2428.167532
338.687896	2438.998451
339.080220	2444.135387
339.472480	2447.959102
339.864676	2453.106120
340.256807	2457.191975
340.648875	2457.060905
341.040879	2458.669033
341.432818	2459.344548
341.824694	2461.542491
342.216506	2461.986113
342.608253	2463.574076
342.999937	2459.672223
343.391557	2459.760443
343.783113	2455.472942
344.174605	2456.113168
344.566033	2453.138888
344.957397	2454.545369
345.348697	2449.511777
345.739934	2449.030347
346.131106	2446.290480
346.522215	2448.974894
346.913260	2444.427774
347.304241	2440.296548
347.695159	2438.620364
348.086012	2440.508277
348.476802	2438.302772
348.867528	2437.967535
349.258191	2436.004006
349.648789	2434.531989
350.039324	2431.141813
350.429796	2433.687595
350.820203	2430.607450
351.210548	2430.073088
351.600828	2429.180804
351.991045	2427.393715
352.381198	2429.533685
352.771288	2428.318767
353.161314	2428.044024
353.551276	2428.323808
353.941175	2423.527150
354.331010	2430.229364
354.720782	2431.058634
355.110490	2430.176432
355.500135	2431.086360
355.889717	2431.736669
356.279235	2430.400763
356.668689	2433.564087
357.058080	2428.991761
357.447408	2427.917995
357.836672	2429.042172
358.225873	2429.624425
358.615010	2427.149219
359.004084	2435.338573
359.393095	2435.777154
359.782043	2433.077616
360.170927	2435.734304
360.559748	2435.852771
360.948505	2437.660025
361.337199	2437.811259
361.725830	2437.186156
362.114398	2438.935437
362.502903	2440.152875
362.891344	2439.825200
363.279722	2438.595159
363.668037	2440.936775
364.056289	2439.812597
364.444478	2439.799994
364.832603	2442.865016
365.220665	2442.577670
365.608665	2444.634461
365.996601	2443.333843
366.384474	2444.636982
366.772284	2443.948864
367.160031	2445.451128
367.547715	2446.633278
367.935336	2445.647733
368.322893	2445.801488
368.710388	2447.397013
369.097820	2445.216714
369.485189	2446.295521
369.872495	2448.695110
370.259738	2447.235696
370.646918	2449.542024
371.034035	2451.364401
371.421090	2447.941458
371.808081	2449.216870
372.195010	2450.865327
372.581875	2450.507405
372.968678	2452.440688
373.355418	2452.886830
373.742096	2454.505040
374.128710	2451.669391
374.515262	2455.833384
374.901751	2452.927159
375.288177	2454.315997
375.674540	2455.046964
376.060841	2456.927315
376.447079	2453.897581
376.833254	2456.541666
377.219367	2453.643003
377.605417	2457.988477
377.991404	2453.474124
378.377329	2458.467387
378.763191	2454.000925
379.148991	2457.451595
379.534727	2458.406893
379.920402	2462.049127
380.306013	2458.981585
380.691563	2462.573407
381.077049	2460.798921
381.462474	2461.139199
381.847835	2464.947790
382.233134	2467.307050
382.618371	2462.306226
383.003545	2463.695064
383.388657	2465.900568
383.773706	2464.226905
384.158693	2464.247070
384.543618	2467.949797
384.928480	2468.123717
385.313280	2466.956690
385.698017	2471.100519
386.082692	2469.452061
386.467305	2470.218317
386.851856	2468.592545
387.236344	2468.164047
387.620770	2471.934830
388.005133	2472.499439
388.389435	2471.508852
388.773674	2472.436424
389.157851	2476.514718
389.541965	2474.536065
389.926018	2476.875160
390.310008	2475.428349
390.693936	2474.692341
391.077802	2477.759883
391.461606	2478.258957
391.845348	2478.664770
392.229027	2481.069400
392.612645	2478.848772
392.996200	2480.159472
393.379694	2480.560244
393.763125	2483.053094
394.146494	2484.184833
394.529801	2486.833960
394.913047	2485.203147
395.296230	2485.745071
395.679351	2484.641058
396.062410	2487.620380
396.445408	2487.496872
396.828343	2490.579537
397.211217	2486.833960
397.594028	2489.440236
397.976778	2487.358240
398.359466	2490.196409
398.742092	2483.395893
399.124656	2491.136585
399.507158	2491.194558
399.889598	2494.042810
400.271977	2492.689260
400.654294	2497.082626
401.036549	2499.323418
401.418742	2497.591782
401.800874	2498.471463
402.182944	2500.503048
402.564952	2500.440034
402.946898	2501.286948
403.328783	2501.579335
403.710606	2503.726866
404.092367	2500.911382
404.474067	2502.643018
404.855705	2504.987155
405.237282	2507.661487
405.618797	2510.509739
406.000250	2511.313803
406.381642	2513.877230
406.762972	2514.784637
407.144240	2515.182888
407.525447	2514.096520
407.906593	2518.605832
408.287677	2518.353774
408.668700	2520.017355
409.049661	2520.773528
409.430560	2522.127078
409.811399	2524.350227
410.192176	2527.591689
410.572891	2529.172090
410.953545	2534.485467
411.334138	2531.508665
411.714669	2538.243647
412.095139	2538.639377
412.475547	2543.143648
412.855894	2546.367466
413.236180	2552.638662
413.616405	2555.481872
413.996568	2555.237376
414.376670	2566.466547
414.756711	2571.573235
415.136691	2584.307190
415.516609	2594.694487
415.896466	2602.246136
416.276262	2620.094341
416.655997	2634.088584
417.035670	2650.313538
417.415283	2676.812363
417.794834	2693.727955
418.174324	2714.331151
418.553753	2734.783112
418.933121	2768.095056
419.312428	2795.967596
419.691674	2825.082780
420.070859	2871.559698
420.449983	2898.860067
420.829045	2955.441977
421.208047	2993.787514
421.586988	3060.766805
421.965867	3126.470683
422.344686	3182.724919
422.723444	3276.387037
423.102141	3269.410080
423.480777	3410.867378
423.859352	3449.931279
424.237866	3610.028242
424.616319	3674.975948
424.994712	3820.682938
425.373044	3898.914084
425.751314	4066.103952
426.129524	4079.662135
426.507673	4309.349707
426.885762	4390.736615
427.263789	4536.499058
427.641756	4680.207231
428.019662	4813.951563
428.397508	4950.826452
428.775292	5132.421416
429.153016	5270.218836
429.530679	5424.952012
429.908282	5573.166976
430.285824	5666.133415
430.663305	5959.873888
431.040726	6039.196443
431.418086	6159.047356
431.795385	6461.937523
432.172624	6740.841880
432.549802	6795.467823
432.926920	7014.208529
433.303977	7162.133627
433.680974	7406.949702
434.057910	7680.434819
434.434786	7885.130871
434.811601	8043.029892
435.188355	8572.882887
435.565050	8659.908326
435.941683	8837.571190
436.318257	9357.167958
436.694770	9490.410696
437.071222	9921.315924
437.447614	9779.246126
437.823946	9976.831630
438.200218	10246.692157
438.576429	10353.206697
438.952580	10679.487818
439.328670	10869.740964
439.704700	11263.006417
440.080670	11265.945410
440.456580	11748.885428
440.832429	12050.001108
441.208218	11739.791186
441.583947	12159.356338
441.959616	12422.638160
442.335224	12757.665683
442.710773	13044.146894
443.086261	13553.295871
443.461689	13368.467006
443.837057	13644.576043
444.212365	14226.121030
444.587612	14425.228963
444.962800	14351.779352
445.337927	14800.099246
445.712995	14164.560980
446.088002	15558.250975
446.462949	15881.893052
446.837837	16187.679362
447.212664	16354.022316
447.587431	18561.006702
447.962139	20884.988707
448.336786	22837.878775
448.711374	21927.030496
449.085901	19403.098685
449.460369	19530.284476
449.834776	19648.194543
450.209124	21752.437694
450.583412	21587.062642
450.957640	22186.977594
451.331808	21303.323818
451.705917	20369.825634
452.079965	20543.379958
452.453954	20991.583906
452.827883	21061.391283
453.201752	21032.369361
453.575562	21310.522586
453.949311	22369.137167
454.323001	22563.566909
454.696632	22512.429445
455.070202	23973.260047
455.443713	24225.874787
455.817164	24853.601785
456.190556	25439.973677
456.563888	25074.946247
456.937160	25566.650311
457.310373	24224.506114
457.683526	24703.612334
458.056619	24789.236332
458.429653	24838.909342
458.802628	25449.995491
459.175542	25639.754604
459.548398	26909.943891
459.921194	28443.903992
460.293930	29163.296811
460.666607	31116.920367
461.039224	32833.503827
461.411782	33271.552370
461.784280	32213.018447
462.156719	31819.904229
462.529099	31357.239732
462.901419	30202.565964
463.273680	29260.981769
463.645882	29408.349820
464.018024	29453.349680
464.390106	30283.456319
464.762130	32903.071750
465.134094	36855.631273
465.505999	42036.830894
465.877845	46554.423104
466.249631	47712.295484
466.621358	45992.374780
466.993026	43918.673460
467.364634	41904.430029
467.736184	40047.407584
468.107674	38853.193526
468.479105	38140.223137
468.850477	37491.290526
469.221790	36138.454042
469.593043	34502.597098
469.964238	33675.673948
470.335373	33602.960345
470.706449	35231.953757
471.077467	37723.886844
471.448425	42219.751682
471.819324	45069.306743
472.190164	43288.519147
472.560945	39835.306077
472.931667	36821.553073
473.302330	35746.461481
473.672934	34946.911795
474.043479	35465.936393
474.413965	34696.089186
474.784393	34352.123697
475.154761	35226.153910
475.525070	35272.774501
475.895321	34811.309798
476.265513	35395.904683
476.635645	36349.993460
477.005719	36192.384306
477.375734	36642.516494
477.745691	37325.091246
478.115588	38619.843556
478.485427	40551.172608
478.855207	43847.832646
479.224928	46458.255533
479.594591	48071.114733
479.964194	47042.263124
480.333739	47141.745254
480.703226	47168.140735
481.072653	47817.963110
481.442022	48320.001539
481.811333	48585.292261
482.180584	47296.559088
482.549777	46799.811350
482.918912	46282.649459
483.287988	45997.373084
483.657005	45166.986661
484.025964	44543.718564
484.394864	44547.522114
484.763706	44105.901914
485.132489	43257.415228
485.501213	43093.421452
485.869879	43251.317952
486.238487	42847.960109
486.607036	43067.184767
486.975527	42518.273689
487.343959	42733.964498
487.712333	42824.574197
488.080648	42730.808735
488.448905	43157.645752
488.817104	42987.882376
489.185244	43927.215695
489.553326	45560.625159
489.921350	48253.564173
490.289315	51201.933411
490.657222	51839.228519
491.025070	52150.262670
491.392861	51223.900239
491.760593	49920.575447
492.128267	48222.498062
492.495883	46678.054882
492.863440	45319.506770
493.230939	43968.023836
493.598380	42912.822115
493.965763	42588.204575
494.333088	41807.208857
494.700354	41354.331760
495.067563	41069.136043
495.434713	40939.467483
495.801805	41010.139419
496.168839	40651.521817
496.535815	40337.253766
496.902733	40363.918949
497.269593	39963.565634
497.636395	39892.508050
498.003139	40286.537237
498.369825	39748.867933
498.736453	40054.823121
499.103023	39599.133061
499.469535	39471.118000
499.835989	39561.200898
500.202385	39236.232998
500.568723	39239.640818
500.935003	39441.460892
501.301226	39249.574412
501.667390	39848.768478
502.033497	40100.206109
502.399546	39539.155933
502.765537	38884.857013
503.131470	39229.959282
503.497345	39590.633675
503.863163	38288.644789
504.228923	38881.476920
504.594625	39276.650449
504.960269	38570.992254
505.325856	39246.900080
505.691385	38617.688462
506.056856	38754.933876
506.422270	39200.687822
506.787625	38775.869788
507.152924	38956.133888
507.518164	39069.554808
507.883347	38292.471025
508.248472	38547.170282
508.613540	39002.325980
508.978550	39279.413001
509.343503	39040.154799
509.708398	39238.496476
510.073236	39746.869115
510.438016	39763.212536
510.802738	39228.946010
511.167403	39818.342594
511.532010	40052.973018
511.896561	40342.887255
512.261053	41157.207521
512.625488	40723.943033
512.989866	40588.399009
513.354186	40438.724631
513.718449	40428.937231
514.082655	41089.643457
514.446803	40768.612697
514.810894	41279.422734
515.174927	41206.262989
515.538904	41112.638680
515.902822	41748.257604
516.266684	41216.650287
516.630488	41633.911632
516.994235	41484.133910
517.357925	42040.158055
517.721558	42196.406098
518.085133	42507.074766
518.448651	42633.310299
518.812112	42402.206163
519.175516	42511.722710
519.538863	42848.940614
519.902152	42806.970488
520.265385	43262.048048
520.628560	43285.557469
520.991678	43087.510699
521.354739	43318.879496
521.717743	43617.910660
522.080690	43518.418448
522.443580	44060.274430
522.806413	44116.395076
523.169189	44053.572216
523.531908	44237.221451
523.894569	44100.404536
524.257174	44263.974854
524.619722	44564.901492
524.982213	44548.588318
525.344647	44476.865302
525.707025	44519.087486
526.069345	44899.833233
526.431608	44826.418910
526.793815	45144.636705
527.155964	44666.079970
527.518057	44836.985168
527.880093	44621.904339
528.242072	45159.770249
528.603995	44866.352410
528.965860	44856.494433
529.327669	44954.733919
529.689421	44854.548548
530.051117	44810.594728
530.412755	44964.891844
530.774337	45018.597777
531.135862	44838.230333
531.497331	45030.194951
531.858743	44940.222958
532.220098	45284.584177
532.581396	44985.321120
532.942638	44657.973795
533.303824	44938.960149
533.664953	44925.543118
534.026025	44645.156661
534.387040	45106.581035
534.747999	45066.950004
535.108902	45230.180045
535.469748	44726.916615
535.830537	44854.266243
536.191270	45054.410133
536.551947	44711.220982
536.912567	45008.505387
537.273131	45121.777593
537.633638	44640.135672
537.994089	44985.079145
538.354483	44574.981279
538.714821	45139.288041
539.075103	45473.662734
539.435328	45250.027067
539.795497	45140.235778
540.155609	45125.757584
540.515665	45574.624443
540.875665	45043.213731
541.235609	45376.028187
541.595496	45348.148086
541.955328	45997.239493
542.315102	45384.104116
542.674821	45173.550243
543.034483	45216.818466
543.394090	45184.754207
543.753640	45140.792825
544.113134	46139.155536
544.472571	45179.024936
544.831953	46386.792136
545.191278	45614.787316
545.550548	45344.266397
545.909761	45790.650488
546.268918	45995.228073
546.628019	46312.004098
546.987064	45862.421395
547.346053	45174.072002
547.704986	46049.725467
548.063863	45601.854235
548.422684	45814.366596
548.781449	45669.919895
549.140158	46053.347536
549.498811	45913.541216
549.857408	45358.202667
550.215949	46174.877152
550.574434	46119.522762
550.932864	45903.037972
551.291237	46596.617562
551.649555	46218.962042
552.007817	46453.529451
552.366022	46117.138296
552.724173	46286.657177
553.082267	46685.563681
553.440305	46995.216556
553.798288	46328.985225
554.156215	46633.375135
554.514086	46840.866507
554.871902	46589.320492
555.229661	46603.050074
555.587365	46452.884184
555.945014	46542.190745
556.302606	46478.447875
556.660143	46709.693163
557.017625	46782.348793
557.375050	46579.127279
557.732421	46935.882175
558.089735	46911.069616
558.446994	46849.403701
558.804197	47298.119326
559.161345	47229.191629
559.518437	46499.822367
559.875474	46808.391394
560.232455	46982.873290
560.589381	47151.210020
560.946251	46862.757718
561.303065	47532.646405
561.659825	47338.897219
562.016528	47040.788586
562.373177	46744.335973
562.729770	47233.958040
563.086307	46751.819566
563.442789	47208.434678
563.799216	47253.744569
564.155587	47052.053045
564.511904	47081.193434
564.868164	47163.031526
565.224370	47407.986232
565.580520	47131.867113
565.936615	47364.720530
566.292654	47075.499451
566.648638	47322.798294
567.004567	47274.211653
567.360441	47326.843820
567.716260	47160.992379
568.072023	47476.349320
568.427732	47446.024259
568.783385	47016.651542
569.138982	47412.379598
569.494525	47376.708393
569.850013	47149.259094
570.205445	47108.584544
570.560823	47056.683344
570.916145	46943.275027
571.271412	46957.859085
571.626625	46715.324132
571.981782	46792.577294
572.336884	46467.937069
572.691931	46791.024619
573.046923	46391.291366
573.401860	46254.819770
573.756743	46227.791623
574.111570	46345.663883
574.466342	46195.432457
574.821059	46309.884293
575.175722	45849.009406
575.530330	45851.068717
575.884882	45589.374859
576.239380	45538.539864
576.593823	45510.279155
576.948211	45434.858452
577.302544	44973.650849
577.656823	45006.892217
578.011047	45216.528600
578.365216	44942.549450
578.719330	44747.119039
579.073389	44607.955467
579.427394	44686.443711
579.781344	44659.458415
580.135239	44324.040202
580.489080	44401.381585
580.842866	43895.343000
581.196597	44345.918810
581.550273	44297.007015
581.903895	44139.168488
582.257463	44549.888936
582.610975	43973.347294
582.964434	44238.146503
583.317837	43896.459616
583.671186	43737.108742
584.024481	43951.824088
584.377721	43486.518026
584.730906	43774.415802
585.084037	43792.939521
585.437113	43509.278836
585.790135	43539.636664
586.143103	43157.174404
586.496016	43281.060760
586.848874	43310.004545
587.201679	43321.231194
587.554428	42799.960763
587.907124	43002.410981
588.259765	42747.840273
588.612352	42996.774971
588.964884	42388.007753
589.317362	42684.742671
589.669786	42631.319043
590.022155	42399.814135
590.374470	42800.230465
590.726731	42340.298273
591.078937	41855.994623
591.431090	41959.918010
591.783188	41621.903603
592.135232	41303.826960
592.487222	41543.465770
592.839157	41639.424133
593.191038	41318.279948
593.542866	41085.481984
593.894639	40486.429070
594.246358	40745.146126
594.598022	40734.244631
594.949633	40349.891938
595.301190	40314.745014
595.652692	40136.973764
596.004141	40467.706224
596.355535	39502.862146
596.706876	39457.884971
597.058162	39282.175554
597.409395	39749.389692
597.760573	39819.686062
598.111698	39405.343545
598.462768	39405.343545
598.813785	39466.981733
599.164748	38919.787168
599.515657	39298.183738
599.866511	38783.451683
600.217312	39401.635776
600.568060	38381.598625
600.918753	39121.672777
601.269392	39071.906506
601.619978	38735.477542
601.970510	38940.211403
602.320988	39119.777303
602.671412	39403.349769
603.021783	39157.381790
603.372100	38819.848814
603.722363	38920.674411
604.072572	38993.718210
604.422728	39008.660190
604.772830	38844.699182
605.122878	38931.253273
605.472872	38872.627174
605.822813	39148.821911
606.172701	38986.607663
606.522534	39196.725475
606.872314	39463.485693
607.222041	39224.179599
607.571714	39612.348445
607.921333	39067.843336
608.270899	39349.132159
608.620411	39698.279954
608.969870	39502.640335
609.319276	39480.809618
609.668627	39532.209223
610.017926	40022.048060
610.367171	40173.287716
610.716362	40272.348910
611.065500	40212.160053
611.414585	40418.287793
611.763616	40680.334532
612.112594	40619.863371
612.461518	40831.022182
612.810389	41121.407767
613.159207	40996.475372
613.507971	41065.551782
613.856682	41535.828422
614.205340	41421.474888
614.553945	42117.892648
614.902496	41570.491396
615.250994	42029.470809
615.599439	42116.660086
615.947830	42316.415807
616.296169	42362.796943
616.644454	42504.314734
616.992686	42668.132069
617.340864	43178.193495
617.688990	42909.462186
618.037063	43497.676620
618.385082	43469.862054
618.733048	43776.573415
619.080961	43805.923013
619.428821	43800.029904
619.776628	43886.415117
620.124382	43713.795927
620.472083	43847.852810
620.819731	43971.829907
621.167326	43666.595603
621.514868	43623.602122
621.862357	43174.538658
622.209793	43210.971077
622.557176	42875.078997
622.904506	42632.934733
623.251783	42290.443782
623.599007	42053.607854
623.946179	41843.467356
624.293297	41799.387507
624.640363	41218.414690
624.987376	41198.245034
625.334336	40963.438170
625.681243	40617.849430
626.028097	40582.883987
626.374899	40427.152662
626.721647	40400.774825
627.068343	40293.793978
627.414987	40065.401983
627.761577	39844.402839
628.108115	40179.964724
628.454600	39635.993978
628.801032	39821.768058
629.147412	39785.381010
629.493739	39793.867793
629.840014	39448.964649
630.186236	39782.681472
630.532405	39422.551524
630.878521	39628.417123
631.224585	39504.860963
631.570597	39208.357938
631.916556	39365.788131
632.262462	39334.822844
632.608316	39345.434473
632.954117	39227.315197
633.299866	39221.964012
633.645562	39129.514292
633.991206	38642.957246
634.336797	38222.444357
634.682336	38217.894715
635.027823	37975.024526
635.373257	37792.078532
635.718639	37550.708086
636.063968	37410.097702
636.409245	36851.379060
636.754470	36903.829745
637.099642	36648.709552
637.444762	36196.286159
637.789829	36328.760120
638.134845	35998.753587
638.479808	35938.020286
638.824719	35849.265731
639.169577	35465.384386
639.514383	35515.896748
639.859137	35226.534517
640.203839	35472.555427
640.548489	35109.299964
640.893086	35166.138973
641.237632	34915.326446
641.582125	35041.133481
641.926566	34977.314994
642.270955	34937.275630
642.615292	34965.009538
642.959576	34938.480466
643.303809	34937.520126
643.647990	35075.693112
643.992118	35039.749685
644.336195	35037.100558
644.680219	35139.173841
645.024192	35440.365140
645.368112	35945.403055
645.711981	35963.248740
646.055797	36824.154309
646.399562	36756.928002
646.743274	37677.966974
647.086935	38137.596696
647.430544	38011.724126
647.774101	38142.537027
648.117606	38369.051193
648.461059	38660.485338
648.804460	38276.160372
649.147810	37675.411109
649.491108	37427.645959
649.834354	37063.747748
650.177548	36249.861021
650.520690	35793.394623
650.863781	35821.937636
651.206820	35657.235578
651.549807	35228.145166
651.892742	34753.172691
652.235626	34565.808126
652.578458	34435.370791
652.921238	33838.712425
653.263967	34178.128272
653.606644	33845.286089
653.949269	33800.946621
654.291843	33400.331166
654.634365	33806.451561
654.976836	33405.006836
655.319255	33411.817435
655.661622	33401.924170
656.003938	33177.255067
656.346203	33044.962587
656.688416	33263.108438
657.030577	33067.897317
657.372687	32884.454769
657.714746	33170.653676
658.056753	33278.012609
658.398708	32742.130393
658.740612	32812.822494
659.082465	33082.950202
659.424266	32891.835018
659.766016	33010.355066
660.107715	32882.042577
660.449362	33021.977446
660.790958	33006.576721
661.132503	33020.185316
661.473996	33071.988213
661.815438	33160.899043
662.156829	33372.551887
662.498168	33133.772594
662.839456	33160.747809
663.180693	33309.136693
663.521879	33481.103053
663.863013	33412.656787
664.204097	33419.626182
664.545129	33882.179774
664.886110	33846.702654
665.227040	33905.313629
665.567918	34034.594019
665.908746	34090.800364
666.249522	34259.822691
666.590248	34249.347173
666.930922	34365.502919
667.271545	34335.031665
667.612118	34416.907565
667.952639	34199.132240
668.293109	34255.661218
668.633528	34149.784385
668.973896	34064.052002
669.314213	34090.311372
669.654480	33835.100438
669.994695	33874.492014
670.334859	33762.477576
670.674973	33652.779547
671.015035	33827.795806
671.355047	33768.141312
671.695008	33707.541602
672.034918	33602.690643
672.374777	33710.173084
672.714585	33541.223854
673.054342	33761.338275
673.394049	33514.024308
673.733705	33807.631191
674.073310	33470.297340
674.412864	33534.980385
674.752368	33133.749909
675.091820	33436.498924
675.431223	33007.784077
675.770574	32746.294386
676.109875	32607.975207
676.449125	32337.411439
676.788324	32255.333893
677.127473	31722.362943
677.466571	31649.470379
677.805619	31300.244447
678.144616	31296.781174
678.483562	31210.832022
678.822458	30889.067774
679.161303	30841.673367
679.500098	30735.478940
679.838842	30622.731014
680.177535	30783.301846
680.516179	31049.462166
680.854771	31294.013581
681.193314	32153.389159
681.531805	33268.257976
681.870247	34049.646905
682.208638	34797.048374
682.546978	35019.128845
682.885268	35102.388542
683.223508	34558.342177
683.561697	34226.626693
683.899836	34037.759864
684.237925	33531.000394
684.575963	33384.186871
684.913951	32942.140693
685.251889	33093.927314
685.589776	33067.194076
685.927614	33068.484611
686.265401	33214.857033
686.603137	33313.862774
686.940824	33813.738549
687.278460	34192.712330
687.616046	34340.556770
687.953582	34967.494827
688.291068	34821.908824
688.628504	35102.837204
688.965889	35019.456520
689.303224	34639.489631
689.640510	34270.230153
689.977745	33551.119639
690.314930	32762.733589
690.652065	32223.239387
690.989150	31485.441316
691.326185	30584.511506
691.663170	29882.820699
692.000105	29138.315373
692.336990	28467.330234
692.673825	28001.860335
693.010610	27482.132497
693.347345	26915.796671
693.684030	26274.047704
694.020665	25988.292419
694.357251	25328.894372
694.693786	25278.248420
695.030272	25043.567585
695.366707	24499.349822
695.703093	24221.317584
696.039429	24204.528021
696.375716	23953.554177
696.711952	23915.924484
697.048139	23763.353963
697.384276	23579.558535
697.720363	23712.352610
698.056400	23500.931658
698.392388	23304.684580
698.728326	23257.030553
699.064214	23044.926526
699.400053	23005.008149
699.735842	22638.241521
700.071581	22360.360518
700.407270	22069.054923
700.742910	21877.032332
701.078501	21604.447061
701.414042	21335.191472
701.749533	21026.478772
702.084974	20694.102897
702.420366	20894.914739
702.755709	20455.568099
703.091002	20158.815537
703.426246	20171.577218
703.761440	20069.519058
704.096584	19802.600045
704.431679	19764.718294
704.766725	19669.253964
705.101721	19606.660477
705.436668	19704.867195
705.771565	19378.946517
706.106413	19725.132633
706.441212	19701.345949
706.775961	19830.507872
707.110661	19901.101670
707.445311	20260.425034
707.779913	20109.835686
708.114465	20339.140131
708.448967	20632.119389
708.783421	21327.823826
709.117825	21599.610074
709.452180	21814.713588
709.786485	22211.901058
710.120742	23018.528523
710.454949	23032.999156
710.789107	23498.443849
711.123216	24202.254461
711.457275	24335.114071
711.791286	24868.916810
712.125247	24926.577528
712.459159	24630.896211
712.793023	25287.947600
713.126837	24181.016080
713.460602	24430.656539
713.794318	24049.215113
714.127985	23664.854858
714.461602	22766.599381
714.795171	22715.686247
715.128691	21712.912527
715.462162	21163.865338
715.795584	20742.543344
716.128957	20486.971967
716.462281	20074.222455
716.795556	19852.457056
717.128782	19357.899699
717.461960	18816.958686
717.795088	18735.987673
718.128167	18344.078290
718.461198	17874.784676
718.794180	17743.102176
719.127113	17383.783853
719.459997	17182.268769
719.792833	16834.144329
720.125619	16807.544680
720.458357	16491.146742
720.791046	16323.276318
721.123686	16175.000860
721.456278	15929.927687
721.788821	15883.407919
722.121315	15632.222346
722.453761	15704.835126
722.786158	15630.873838
723.118506	15635.088242
723.450805	15507.277348
723.783056	15664.147974
724.115259	15565.721965
724.447412	15499.672768
724.779518	15740.282000
725.111574	15761.016265
725.443582	15959.073118
725.775542	15934.530260
726.107453	16407.952580
726.439315	16300.702032
726.771129	16691.504881
727.102895	17054.901497
727.434612	17264.802540
727.766281	17384.247639
728.097901	17642.241290
728.429473	17685.315429
728.760996	17665.097882
729.092471	17747.818175
729.423897	17623.029453
729.755276	17484.717835
730.086606	17599.572964
730.417887	18123.253067
730.749120	18643.346388
731.080305	18810.397624
731.411442	19140.459610
731.742530	19204.515032
732.073570	19304.657553
732.404562	19598.997923
732.735506	19414.259799
733.066401	19121.235170
733.397249	18596.856868
733.728048	17961.495043
734.058798	17142.342831
734.389501	16456.551823
734.720156	16000.022410
735.050762	15479.374562
735.381320	15122.725530
735.711831	14883.497574
736.042293	14544.648857
736.372707	14548.230597
736.703073	14351.648282
737.033391	14536.522517
737.363661	14497.259490
737.693883	14601.349235
738.024056	14783.274395
738.354182	14955.455004
738.684260	15236.915226
739.014290	15469.307378
739.344272	15669.448747
739.674207	15937.653255
740.004093	16046.625357
740.333931	16038.930036
740.663722	16069.192082
740.993464	16066.570682
741.323159	15886.321706
741.652806	15609.839623
741.982405	15399.363888
742.311956	15054.062494
742.641460	14940.142499
742.970915	14637.892559
743.300323	14310.106653
743.629683	14092.606071
743.958996	13816.655830
744.288260	13543.110219
744.617477	13246.090476
744.946647	13178.223942
745.275768	12903.627251
745.604842	12718.548849
745.933869	12552.233622
746.262847	12496.730518
746.591778	12426.237543
746.920662	12334.380159
747.249498	12330.843789
747.578286	12445.469545
747.907027	12588.870208
748.235720	12802.637816
748.564365	12837.290708
748.892963	12737.430491
749.221514	12801.445583
749.550017	12662.213955
749.878473	12619.162501
750.206881	12392.436607
750.535242	12306.623566
750.863555	12222.159033
751.191821	12122.934002
751.520039	12143.403607
751.848210	12046.094214
752.176334	12087.235071
752.504411	11984.498876
752.832440	11834.779127
753.160421	11900.702296
753.488356	11776.004315
753.816243	11676.920436
754.144082	11538.087059
754.471875	11491.791623
754.799620	11437.435381
755.127318	11403.097562
755.454969	11363.766479
755.782572	11316.455251
756.110129	11335.914104
756.437638	11249.155847
756.765100	11246.433624
757.092515	11236.769732
757.419882	11268.637386
757.747203	11254.101219
758.074477	11332.692807
758.401703	11299.330451
758.728882	11456.311982
759.056014	11487.864564
759.383099	11609.255548
759.710138	11708.283974
760.037129	11787.760285
760.364073	11811.085704
760.690970	11795.793364
761.017820	11794.117180
761.344623	11981.325470
761.671379	12297.181484
761.998088	12918.425558
762.324751	14471.017764
762.651366	17329.868713
762.977935	20972.165381
763.304456	23173.821268
763.630931	23652.942612
763.957359	22467.832877
764.283740	20561.026517
764.610074	18699.633392
764.936362	16570.610450
765.262602	15062.796293
765.588796	13610.094551
765.914943	12574.155080
766.241044	11730.155020
766.567097	11109.689805
766.893104	10567.095293
767.219064	10200.989057
767.544978	9825.851593
767.870845	9514.078913
768.196665	9330.470008
768.522438	9132.145974
768.848165	8969.140265
769.173846	8806.754617
769.499479	8687.458232
769.825066	8526.605095
770.150607	8341.413267
770.476101	8281.826829
770.801548	8171.725508
771.126949	8030.984054
771.452303	7953.972868
771.777611	7779.223790
772.102872	7762.187211
772.428087	7644.022565
772.753256	7518.220570
773.078378	7428.190604
773.403453	7289.901672
773.728482	7186.247987
774.053465	7124.582072
774.378401	7038.022940
774.703291	6946.173117
775.028135	6850.776842
775.352932	6816.015566
775.677683	6733.743935
776.002388	6649.115565
776.327046	6645.596840
776.651658	6557.873201
776.976224	6479.871427
777.300743	6464.264015
777.625216	6400.420322
777.949643	6360.033118
778.274024	6362.541092
778.598359	6297.608510
778.922647	6292.632891
779.246889	6260.581235
779.571086	6267.112050
779.895236	6274.530108
780.219339	6270.262771
780.543397	6268.447956
780.867409	6320.011398
781.191374	6317.669782
781.515294	6287.541326
781.839167	6338.328430
782.162995	6303.625127
782.486776	6257.362458
782.810511	6217.859977
783.134201	6141.375591
783.457844	6131.144569
783.781441	6079.591209
784.104993	6038.215939
784.428498	6016.649883
784.751958	5994.065514
785.075372	5968.650537
785.398739	5930.783909
785.722061	5953.096056
786.045337	5953.723680
786.368568	6060.790226
786.691752	6083.157826
787.014891	6331.351473
787.337983	6613.497293
787.661030	7047.008797
787.984031	7470.133004
788.306987	7732.661173
788.629897	7818.423802
788.952760	7730.778302
789.275579	7553.039820
789.598351	7254.727021
789.921078	6993.965776
790.243759	6714.968158
790.566395	6508.111971
790.888984	6317.705070
791.211529	6181.651889
791.534027	6019.949318
791.856480	5882.635849
792.178888	5819.757537
792.501249	5750.867649
792.823566	5657.646632
793.145836	5647.897041
793.468062	5623.079440
793.790241	5587.347742
794.112375	5631.785513
794.434464	5723.468978
794.756507	5754.167084
795.078505	5876.896495
795.400457	6090.719556
795.722364	6331.948850
796.044226	6528.085023
796.366042	6683.067736
796.687812	6626.616895
797.009538	6656.977244
797.331218	6563.965435
797.652852	6497.573439
797.974442	6370.586774
798.295986	6307.106044
798.617484	6174.856414
798.938938	6070.726340
799.260346	6000.742522
799.581709	5864.520463
799.903026	5813.577083
800.224299	5736.462552
800.545526	5621.909893
800.866708	5563.054422
801.187845	5510.218088
801.508936	5436.103044
801.829983	5406.977778
802.150984	5304.075225
802.471940	5273.558600
802.792851	5257.187453
803.113717	5235.931428
803.434538	5210.665165
803.755314	5181.446637
804.076045	5168.750491
804.396731	5134.465604
804.717372	5150.798942
805.037967	5148.976565
805.358518	5177.338097
805.679024	5239.682046
805.999485	5249.618161
806.319901	5267.206746
806.640272	5285.884221
806.960598	5332.396427
807.280879	5321.807484
807.601115	5362.774420
807.921306	5324.035674
808.241453	5318.490404
808.561554	5331.262168
808.881611	5292.604079
809.201623	5291.200118
809.521590	5239.833281
809.841513	5227.517742
810.161390	5242.973920
810.481223	5152.598634
810.801011	5140.648579
811.120755	5118.149909
811.440453	5057.424170
811.760107	5031.063977
812.079716	5003.529194
812.399281	4951.499446
812.718801	4944.870328
813.038276	4912.155760
813.357707	4880.038569
813.677093	4895.973657
813.996434	4839.631201
814.315731	4863.075087
814.634983	4859.725240
814.954191	4865.779666
815.273354	4923.251340
815.592473	4961.231393
815.911547	5039.414648
816.230577	5089.536320
816.549562	5177.796842
816.868502	5230.676025
817.187399	5286.751300
817.506250	5364.052353
817.825058	5390.707454
818.143821	5544.094642
818.462539	5710.409869
818.781213	5934.249703
819.099843	6297.278315
819.418429	6926.278203
819.736970	7536.756893
820.055466	8245.953978
820.373919	9158.181013
820.692327	10598.942783
821.010691	13278.406793
821.329011	19473.921855
821.647286	29054.576766
821.965517	39393.804344
822.283704	44877.173247
822.601847	46366.438478
822.919945	41753.218099
823.237999	36624.080995
823.556010	31426.238005
823.873976	26719.789048
824.191897	22521.430425
824.509775	19446.008986
824.827609	16687.005651
825.145398	15135.209948
825.463144	14381.489392
825.780845	14669.485470
826.098502	15931.533294
826.416116	18376.535759
826.733685	20659.888585
827.051210	21192.282323
827.368692	19761.325597
827.686129	17204.099486
828.003522	14743.267798
828.320872	12520.388653
828.638177	10879.833354
828.955439	9645.101022
829.272656	8584.182633
829.589830	7746.786486
829.906960	7018.090218
830.224046	6489.505072
830.541088	6077.604995
830.858086	5822.021015
831.175041	5619.240602
831.491952	5565.189350
831.808819	5596.416778
832.125642	5841.489951
832.442421	6386.415997
832.759157	7483.411403
833.075849	9250.010672
833.392497	11098.551376
833.709101	12214.887168
834.025662	11957.579114
834.342179	10909.480380
834.658653	9609.308830
834.975083	8507.902414
835.291469	7607.680887
835.607811	6873.086469
835.924110	6352.753692
836.240366	5870.612697
836.556578	5416.331639
836.872746	5068.708793
837.188871	4793.040857
837.504952	4574.605140
837.820990	4407.924429
838.136984	4294.916883
838.452935	4248.364348
838.768842	4276.090694
839.084706	4553.734763
839.400526	5293.350170
839.716303	6195.663777
840.032037	6757.762513
840.347727	6610.689370
840.663373	6015.457650
840.978977	5437.680925
841.294537	4996.733719
841.610054	4668.312628
841.925527	4429.737502
842.240957	4225.716965
842.556344	4044.447155
842.871687	3885.479409
843.186987	3734.035586
843.502244	3618.240282
843.817458	3530.322559
844.132629	3461.906540
844.447756	3414.570105
844.762840	3370.631408
845.077881	3328.207578
845.392879	3294.386477
845.707833	3271.429062
846.022745	3249.114395
846.337613	3231.792990
846.652438	3210.244578
846.967221	3200.195038
847.281960	3181.905732
847.596656	3169.736386
847.911309	3159.013852
848.225919	3148.417347
848.540485	3138.705564
848.855009	3129.139974
849.169490	3118.677059
849.483928	3113.565329
849.798323	3104.241715
850.112675	3096.329624
850.426984	3099.868514
850.741251	3089.211515
851.055474	3085.193716
851.369654	3088.777976
851.683792	3082.547110
851.997887	3087.608428
852.311938	3087.971391
852.625947	3089.962647
852.939914	3078.473857
853.253837	3087.865527
853.567718	3084.051894
853.881555	3078.194073
854.195350	3081.712799
854.509103	3077.737849
854.822812	3079.035946
855.136479	3073.188208
855.450103	3076.351532
855.763685	3072.598393
856.077224	3073.236099
856.390720	3084.107347
856.704173	3092.319387
857.017584	3099.719800
857.330953	3102.053855
857.644278	3112.834362
857.957561	3111.601800
858.270802	3109.681120
858.584000	3111.763117
858.897155	3103.404884
859.210268	3094.512288
859.523339	3083.880495
859.836367	3081.581729
860.149352	3074.584607
860.462295	3069.823237
860.775195	3062.508523
861.088054	3055.713048
861.400869	3061.641445
861.713642	3056.900240
862.026373	3063.045406
862.339062	3068.726787
862.651708	3074.030080
862.964312	3094.388780
863.276873	3098.487238
863.589392	3133.142650
863.901869	3158.981084
864.214303	3178.190401
864.526696	3196.971220
864.839045	3216.543500
865.151353	3230.724265
865.463619	3232.546642
865.775842	3230.578072
866.088023	3234.530337
866.400162	3227.170252
866.712258	3228.748133
867.024313	3227.563462
867.336325	3226.618246
867.648296	3227.409707
867.960224	3223.850652
868.272110	3229.453895
868.583954	3229.027917
868.895755	3234.260635
869.207515	3235.132754
869.519233	3253.122112
869.830909	3259.718462
870.142542	3269.019391
870.454134	3274.768827
870.765684	3291.263482
871.077191	3306.011378
871.388657	3320.212308
871.700081	3335.860049
872.011463	3357.831918
872.322803	3379.710526
872.634101	3393.467835
872.945357	3414.141607
873.256571	3445.424487
873.567744	3458.468473
873.878874	3461.205819
874.189963	3479.215341
874.501010	3481.141062
874.812015	3479.472440
875.122979	3493.612877
875.433900	3490.368894
875.744780	3495.979698
876.055618	3499.702591
876.366415	3499.687467
876.677169	3508.764065
876.987882	3521.790406
877.298554	3541.879404
877.609183	3579.735949
877.919771	3625.189513
878.230317	3695.440512
878.540822	3798.113692
878.851285	3952.403247
879.161707	4170.317204
879.472087	4546.977096
879.782425	5170.993805
880.092722	6357.588159
880.402977	8291.019373
880.713191	10680.521255
881.023363	13082.540322
881.333494	14439.258494
881.643583	14902.848043
881.953631	14491.260517
882.263637	13637.830979
882.573602	12597.049480
882.883526	11627.920420
883.193408	10673.597230
883.503248	9752.550696
883.813048	8922.194519
884.122806	8147.343967
884.432522	7376.334775
884.742197	6721.713222
885.051831	6151.772971
885.361424	5653.437269
885.670975	5265.215491
885.980485	4936.504533
886.289954	4664.292308
886.599382	4449.183753
886.908768	4265.320269
887.218113	4104.504941
887.527417	3970.664827
887.836680	3850.138400
888.145901	3753.403699
888.455082	3674.287831
888.764221	3605.181173
889.073319	3546.653377
889.382376	3515.927544
889.691392	3487.772700
890.000366	3482.182060
890.309300	3478.872543
890.618193	3481.151144
890.927044	3472.886173
891.235855	3478.771720
891.544625	3494.106910
891.853353	3524.109337
892.162041	3580.038418
892.470687	3674.045855
892.779293	3795.940955
893.087858	3966.894044
893.396381	4245.609358
893.704864	4657.108664
894.013306	5228.193257
894.321707	5806.771525
894.630068	6165.600856
894.938387	6205.126022
895.246665	6027.891656
895.554903	5711.161001
895.863100	5368.125605
896.171256	5092.752576
896.479371	4855.125187
896.787446	4632.810302
897.095480	4429.896298
897.403473	4284.045635
897.711425	4138.278151
898.019336	4014.255684
898.327207	3896.141450
898.635038	3790.831746
898.942827	3683.278728
899.250576	3600.623970
899.558284	3514.548789
899.865952	3464.419555
900.173579	3397.795666
900.481165	3350.242461
900.788711	3306.752427
901.096216	3277.412912
901.403681	3251.208994
901.711105	3238.696850
902.018489	3233.733834
902.325832	3264.590737
902.633135	3325.500478
902.940397	3492.990294
903.247619	3900.681009
903.554800	4655.220752
903.861941	5626.058762
904.169041	6338.008317
904.476101	6552.290123
904.783121	6273.985663
905.090100	5864.281008
905.397039	5453.429490
905.703938	5091.182257
906.010796	4765.266620
906.317614	4512.898896
906.624391	4270.550466
906.931129	4075.921599
907.237826	3890.429822
907.544483	3720.598390
907.851099	3549.763769
908.157675	3389.167731
908.464211	3246.417377
908.770707	3147.698982
909.077163	3069.934143
909.383578	3008.031294
909.689954	2964.027062
909.996289	2932.860129
910.302584	2912.365318
910.608839	2900.105232
910.915054	2885.959754
911.221229	2884.228117
911.527363	2890.317831
911.833458	2893.017369
912.139513	2908.312230
912.445527	2920.468973
912.751502	2957.032461
913.057436	2998.894203
913.363331	3055.919735
913.669186	3142.919968
913.975000	3260.424223
914.280775	3449.527986
914.586510	3718.660067
914.892205	4094.475565
915.197859	4595.203295
915.503475	5183.584086
915.809050	5687.719636
916.114585	5974.926773
916.420081	6038.916659
916.725536	5974.457946
917.030952	5739.111678
917.336328	5526.758114
917.641665	5317.396474
917.946961	5079.655659
918.252218	4879.678127
918.557435	4656.624713
918.862612	4456.231286
919.167750	4283.165954
919.472848	4089.331068
919.777906	3923.945934
920.082925	3766.150257
920.387904	3611.381792
920.692843	3497.446674
920.997743	3400.323804
921.302603	3306.694454
921.607423	3236.539236
921.912204	3171.473064
922.216946	3123.398100
922.521647	3075.429001
922.826310	3030.847557
923.130932	2998.160715
923.435516	2954.693366
923.740059	2927.917277
924.044564	2897.370406
924.349028	2868.207331
924.653454	2842.799915
924.957840	2818.012562
925.262186	2797.580765
925.566493	2775.321550
925.870761	2749.750297
926.174989	2740.691344
926.479178	2722.913715
926.783328	2707.674307
927.087438	2696.364478
927.391509	2683.509536
927.695541	2671.473781
927.999533	2661.673778
928.303486	2652.824032
928.607400	2646.467137
928.911275	2643.928917
929.215110	2635.726959
929.518906	2631.182359
929.822663	2630.963069
930.126381	2628.704632
930.430060	2636.311733
930.733699	2635.215282
931.037299	2637.909779
931.340861	2639.202835
931.644383	2642.507311
931.947866	2641.322640
932.251309	2638.048411
932.554714	2637.491363
932.858080	2637.355252
933.161407	2631.961217
933.464694	2629.206227
933.767943	2626.597430
934.071153	2620.752212
934.374323	2617.316665
934.677455	2614.425564
934.980548	2610.006992
935.283602	2610.352311
935.586617	2606.195880
935.889593	2611.950357
936.192530	2612.991355
936.495428	2620.265740
936.798287	2629.203706
937.101108	2645.035450
937.403890	2664.993378
937.706632	2688.744774
938.009336	2721.509754
938.312002	2751.882706
938.614628	2775.518155
938.917216	2797.149747
939.219765	2803.073102
939.522275	2816.084320
939.824747	2813.823363
940.127179	2810.425625
940.429573	2802.911785
940.731929	2802.253915
941.034246	2789.847635
941.336524	2789.494754
941.638763	2782.875719
941.940964	2777.184257
942.243126	2761.375198
942.545250	2751.968405
942.847335	2734.606671
943.149381	2725.620815
943.451389	2709.552137
943.753359	2698.597709
944.055290	2687.870134
944.357182	2677.296314
944.659036	2673.525531
944.960851	2668.081085
945.262628	2666.725014
945.564367	2668.617967
945.866067	2666.475477
946.167729	2664.673265
946.469352	2663.551608
946.770937	2659.559014
947.072484	2652.967705
947.373992	2654.096924
947.675462	2649.559885
947.976893	2647.132570
948.278286	2641.010088
948.579641	2638.696199
948.880958	2634.940539
949.182236	2636.004223
949.483476	2631.573048
949.784678	2630.305198
950.085841	2629.203706
950.386967	2636.926754
950.688054	2642.756848
950.989103	2649.451501
951.290114	2657.613129
951.591087	2670.659635
951.892021	2680.169772
952.192917	2694.564786
952.493776	2704.445448
952.794596	2707.734801
953.095378	2710.688917
953.396122	2709.443752
953.696828	2706.575335
953.997496	2697.997812
954.298126	2689.664785
954.598718	2684.845442
954.899272	2673.076868
955.199788	2662.389622
955.500266	2649.683394
955.800706	2633.135806
956.101108	2614.770883
956.401472	2603.723194
956.701798	2587.397417
957.002087	2576.659760
957.302337	2567.817576
957.602550	2553.578837
957.902724	2542.700027
958.202861	2534.107380
958.502960	2524.168745
958.803022	2519.215812
959.103045	2512.778258
959.403031	2504.818276
959.702979	2503.000940
960.002889	2495.489621
960.302762	2490.839157
960.602596	2490.599702
960.902393	2483.012765
961.202153	2481.066880
961.501875	2477.643936
961.801559	2478.228710
962.101205	2473.689151
962.400814	2473.452217
962.700385	2470.750158
962.999918	2467.740590
963.299414	2465.598099
963.598873	2464.231947
963.898293	2462.666668
964.197677	2460.892182
964.497022	2458.321194
964.796331	2459.493262
965.095601	2460.083077
965.394835	2458.648869
965.694030	2458.520319
965.993189	2458.169959
966.292309	2457.166769
966.591393	2455.654423
966.890439	2452.909515
967.189447	2455.858590
967.488419	2457.592747
967.787353	2459.037037
968.086249	2453.968157
968.385108	2459.251287
968.683930	2456.329938
968.982714	2458.885803
969.281462	2459.687346
969.580172	2463.269086
969.878844	2465.971145
970.177480	2469.288224
970.476078	2468.015332
970.774639	2473.802577
971.073162	2474.276446
971.371649	2474.745273
971.670098	2475.037660
971.968510	2481.013948
972.266885	2478.972280
972.565223	2483.577374
972.863524	2482.117960
973.161788	2483.985708
973.460014	2486.375215
973.758204	2487.035606
974.056356	2485.881182
974.354471	2487.701038
974.652550	2489.488127
974.950591	2486.821357
975.248595	2486.534011
975.546563	2486.203816
975.844493	2485.982005
976.142386	2484.116778
976.440243	2478.531179
976.738062	2479.801550
977.035845	2474.704944
977.333590	2472.532206
977.631299	2471.907103
977.928971	2470.488018
978.226606	2468.642956
978.524204	2469.694037
978.821765	2462.691874
979.119290	2462.754888
979.416777	2465.542647
979.714228	2464.763788
980.011642	2465.456947
980.309020	2469.608337
980.606360	2471.551702
980.903664	2483.015286
981.200931	2498.388284
981.498162	2514.731705
981.795356	2545.361756
982.092513	2585.428847
982.389633	2626.478962
982.686717	2671.183915
982.983764	2704.775643
983.280775	2718.265771
983.577749	2721.804661
983.874686	2714.505070
984.171587	2697.541588
984.468451	2681.039371
984.765279	2662.059426
985.062070	2643.621406
985.358824	2624.361678
985.655543	2601.830241
985.952224	2579.041705
986.248869	2549.956768
986.545478	2526.580937
986.842050	2504.493122
987.138586	2488.452170
987.435086	2476.189563
987.731549	2461.635752
988.027975	2457.101234
988.324366	2448.657302
988.620719	2447.575974
988.917037	2440.291507
989.213318	2440.795622
989.509563	2436.175405
989.805772	2438.020467
990.101944	2432.550815
990.398080	2434.040476
990.694180	2431.257759
990.990244	2433.957297
991.286271	2432.757502
991.582262	2435.487287
991.878217	2436.510642
992.174136	2433.680034
992.470019	2438.146496
992.765865	2435.494849
993.061676	2442.101281
993.357450	2440.543565
993.653188	2444.871395
993.948890	2451.286263
994.244556	2457.701132
994.540186	2467.372585
994.835780	2478.011941
995.131337	2491.464260
995.426859	2505.849192
995.722345	2528.357944
996.017795	2545.916283
996.313208	2561.135526
996.608586	2569.050138
996.903928	2574.297979
997.199234	2573.269584
997.494504	2570.328070
997.789738	2564.684499
998.084936	2552.230328
998.380099	2538.616692
998.675225	2530.054292
998.970316	2518.094155
999.265371	2503.439521
999.560390	2486.173569
999.855373	2481.046715
1000.150320	2464.887297
1000.445232	2459.936883
1000.740108	2451.863476
1001.034948	2448.697631
1001.329752	2440.712443
1001.624521	2439.013574
1001.919254	2427.187027
1002.213951	2430.042841
1002.508613	2424.343817
1002.803239	2427.023190
1003.097829	2418.256623
1003.392384	2427.325659
1003.686903	2421.840884
1003.981386	2420.850297
1004.275834	2418.896850
1004.570246	2419.514391
1004.864623	2415.521798
1005.158964	2418.072621
1005.453270	2416.777045
1005.747540	2417.399627
1006.041775	2414.251427
1006.335974	2413.704462
1006.630138	2414.256468
1006.924266	2411.751014
1007.218359	2415.045408
1007.512416	2411.554409
1007.806438	2412.471899
1008.100425	2410.815880
1008.394376	2413.729667
1008.688292	2414.397620
1008.982172	2412.040881
1009.276017	2412.945768
1009.569827	2409.232958
1009.863602	2411.609862
1010.157341	2409.520304
1010.451045	2411.609862
1010.744714	2408.048287
1011.038347	2410.102557
1011.331945	2410.382341
1011.625508	2411.100706
1011.919036	2409.817732
1012.212528	2409.245561
1012.505986	2409.268246
1012.799408	2407.092988
1013.092795	2406.896383
1013.386147	2407.513925
1013.679464	2408.199522
1013.972745	2406.939233
1014.265992	2404.136352
1014.559204	2406.767834
1014.852380	2405.505025
1015.145521	2406.863616
1015.438628	2407.261867
1015.731699	2408.282701
1016.024736	2406.099881
1016.317737	2406.160375
1016.610703	2408.872516
1016.903635	2406.619120
1017.196531	2403.160888
1017.489393	2407.087947
1017.782219	2402.571073
1018.075011	2409.779923
1018.367768	2412.608011
1018.660490	2410.147927
1018.953177	2410.147927
1019.245829	2410.147927
