Dividing Wavelength (nm)	Counts (n)	Blue Motor Position (mm): 12.600000	Red Motor Position (mm): 0.000000	
326.493990	1976.301186
326.888308	1976.301186
327.282561	1976.301186
327.676750	1951.067691
328.070874	1950.959306
328.464933	1958.836109
328.858929	1966.123097
329.252859	1979.315796
329.646726	1994.560246
330.040528	2010.575991
330.434265	2029.208096
330.827938	2046.247196
331.221547	2066.033725
331.615091	2087.922415
332.008571	2108.477720
332.401986	2130.414301
332.795338	2150.067239
333.188625	2167.764209
333.581847	2187.991839
333.975006	2207.932123
334.368100	2221.860831
334.761129	2240.659294
335.154095	2254.991294
335.546996	2287.123609
335.939833	2336.617658
336.332606	2350.919411
336.725315	2361.490711
337.117960	2370.748790
337.510540	2376.014275
337.903056	2389.698487
338.295508	2394.737120
338.687896	2400.693243
339.080220	2408.829666
339.472480	2415.282343
339.864676	2414.349729
340.256807	2421.523291
340.648875	2421.304001
341.040879	2422.385328
341.432818	2424.091759
341.824694	2429.455547
342.216506	2425.326842
342.608253	2425.921698
342.999937	2424.628642
343.391557	2423.537232
343.783113	2421.770308
344.174605	2420.247879
344.566033	2418.216294
344.957397	2417.792837
345.348697	2414.778227
345.739934	2415.410892
346.131106	2410.624317
346.522215	2411.433422
346.913260	2409.840417
347.304241	2406.024264
347.695159	2402.805487
348.086012	2404.925292
348.476802	2400.189128
348.867528	2401.242729
349.258191	2401.512431
349.648789	2397.739127
350.039324	2396.315001
350.429796	2396.872049
350.820203	2393.517161
351.210548	2394.961452
351.600828	2394.898437
351.991045	2395.057233
352.381198	2393.628066
352.771288	2393.630587
353.161314	2390.895761
353.551276	2392.203940
353.941175	2389.315359
354.331010	2392.619836
354.720782	2392.435833
355.110490	2395.180742
355.500135	2392.995402
355.889717	2392.821482
356.279235	2393.123951
356.668689	2393.625546
357.058080	2393.612943
357.447408	2394.240567
357.836672	2391.059598
358.225873	2393.560011
358.615010	2393.769219
359.004084	2396.078067
359.393095	2394.646379
359.782043	2398.079405
360.170927	2399.198541
360.559748	2401.814900
360.948505	2401.088974
361.337199	2401.945970
361.725830	2400.055538
362.114398	2402.122411
362.502903	2398.460012
362.891344	2399.150650
363.279722	2399.695095
363.668037	2401.870353
364.056289	2404.280024
364.444478	2402.777761
364.832603	2404.428738
365.220665	2403.304561
365.608665	2405.305899
365.996601	2405.938564
366.384474	2403.067627
366.772284	2403.120559
367.160031	2406.785478
367.547715	2407.188770
367.935336	2406.140210
368.322893	2406.515776
368.710388	2407.075344
369.097820	2408.900242
369.485189	2407.927299
369.872495	2407.962587
370.259738	2408.048287
370.646918	2407.029974
371.034035	2407.269429
371.421090	2406.911507
371.808081	2407.808832
372.195010	2408.025602
372.581875	2407.859244
372.968678	2408.696075
373.355418	2409.961405
373.742096	2409.159861
374.128710	2411.297311
374.515262	2409.215314
374.901751	2410.962074
375.288177	2411.740932
375.674540	2410.684810
376.060841	2410.112639
376.447079	2410.200860
376.833254	2410.082392
377.219367	2406.810684
377.605417	2412.698751
377.991404	2404.832031
378.377329	2411.153638
378.763191	2408.456620
379.148991	2415.529359
379.534727	2414.080027
379.920402	2415.279822
380.306013	2413.041550
380.691563	2413.129770
381.077049	2411.889646
381.462474	2417.349216
381.847835	2413.396951
382.233134	2415.932652
382.618371	2414.742939
383.003545	2416.366191
383.388657	2416.288053
383.773706	2418.876685
384.158693	2414.926941
384.543618	2416.656057
384.928480	2418.773342
385.313280	2416.530028
385.698017	2417.470203
386.082692	2419.353074
386.467305	2418.238979
386.851856	2419.579926
387.236344	2420.552869
387.620770	2420.368867
388.005133	2416.020872
388.389435	2415.587333
388.773674	2418.990111
389.157851	2421.339289
389.541965	2416.277971
389.926018	2421.414906
390.310008	2418.357447
390.693936	2420.424320
391.077802	2417.858372
391.461606	2421.044382
391.845348	2420.799886
392.229027	2419.920204
392.612645	2420.915832
392.996200	2423.267530
393.379694	2424.001018
393.763125	2417.908784
394.146494	2425.231060
394.529801	2423.227201
394.913047	2426.256935
395.296230	2420.240318
395.679351	2424.532860
396.062410	2421.621594
396.445408	2423.943045
396.828343	2423.822057
397.211217	2418.803589
397.594028	2421.266192
397.976778	2418.659916
398.359466	2424.870617
398.742092	2418.904412
399.124656	2425.730134
399.507158	2423.123857
399.889598	2426.453540
400.271977	2425.725093
400.654294	2425.752819
401.036549	2427.333221
401.418742	2424.006059
401.800874	2427.161822
402.182944	2427.000505
402.564952	2427.429003
402.946898	2423.638055
403.328783	2426.372881
403.710606	2425.954465
404.092367	2428.273396
404.474067	2425.538570
404.855705	2428.291040
405.237282	2427.340783
405.618797	2428.202820
406.000250	2427.996133
406.381642	2427.426482
406.762972	2429.621905
407.144240	2429.526123
407.525447	2431.724066
407.906593	2429.863880
408.287677	2430.972934
408.668700	2429.422779
409.049661	2429.233736
409.430560	2431.930753
409.811399	2432.623912
410.192176	2430.988058
410.572891	2433.259097
410.953545	2432.835640
411.334138	2432.407142
411.714669	2433.710281
412.095139	2431.648449
412.475547	2430.715835
412.855894	2430.851946
413.236180	2431.406473
413.616405	2432.835640
413.996568	2434.647935
414.376670	2434.012750
414.756711	2432.245825
415.136691	2433.478387
415.516609	2431.003181
415.896466	2435.661207
416.276262	2433.843871
416.655997	2433.349838
417.035670	2428.154929
417.415283	2433.712801
417.794834	2428.409507
418.174324	2435.517534
418.553753	2434.025353
418.933121	2432.903696
419.312428	2431.832451
419.691674	2431.648449
420.070859	2436.669438
420.449983	2435.348656
420.829045	2436.372010
421.208047	2434.973090
421.586988	2433.329673
421.965867	2436.538368
422.344686	2437.755807
422.723444	2437.569284
423.102141	2433.818665
423.480777	2436.742535
423.859352	2435.028542
424.237866	2438.035591
424.616319	2436.397216
424.994712	2435.227668
425.373044	2435.436876
425.751314	2434.448810
426.129524	2436.742535
426.507673	2436.210693
426.885762	2436.147678
427.263789	2437.138265
427.641756	2437.246650
428.019662	2438.403595
428.397508	2435.204983
428.775292	2436.351845
429.153016	2442.449121
429.530679	2440.450303
429.908282	2436.291351
430.285824	2438.164140
430.663305	2437.997782
431.040726	2434.337904
431.418086	2436.548450
431.795385	2437.942329
432.172624	2435.714139
432.549802	2436.911413
432.926920	2438.398554
433.303977	2436.508121
433.680974	2440.621703
434.057910	2438.343101
434.434786	2438.655653
434.811601	2437.289500
435.188355	2441.859306
435.565050	2440.031888
435.941683	2440.031887
436.318257	2440.596497
436.694770	2436.780343
437.071222	2436.619026
437.447614	2435.963676
437.823946	2439.099274
438.200218	2438.814449
438.576429	2439.535334
438.952580	2441.045159
439.328670	2439.063986
439.704700	2442.340736
440.080670	2442.877619
440.456580	2440.654470
440.832429	2441.839141
441.208218	2441.745880
441.583947	2442.749069
441.959616	2445.040274
442.335224	2441.758483
442.710773	2440.755293
443.086261	2444.016920
443.461689	2442.965839
443.837057	2444.339553
444.212365	2441.198915
444.587612	2444.629420
444.962800	2443.941302
445.337927	2443.512804
445.712995	2442.645726
446.088002	2446.144287
446.462949	2443.243103
446.837837	2442.875098
447.212664	2444.929368
447.587431	2446.575305
447.962139	2448.869030
448.336786	2448.773248
448.711374	2449.050512
449.085901	2446.625717
449.460369	2448.929524
449.834776	2447.598659
450.209124	2445.660336
450.583412	2450.996397
450.957640	2448.722837
451.331808	2449.945317
451.705917	2444.901642
452.079965	2450.540173
452.453954	2451.195523
452.827883	2450.197374
453.201752	2448.342230
453.575562	2449.370625
453.949311	2450.295677
454.323001	2450.272992
454.696632	2451.137549
455.070202	2451.848352
455.443713	2454.583178
455.817164	2448.100254
456.190556	2449.552107
456.563888	2451.913887
456.937160	2449.143773
457.310373	2453.277519
457.683526	2453.711058
458.056619	2453.464042
458.429653	2454.505040
458.802628	2456.125771
459.175542	2454.260544
459.548398	2460.677933
459.921194	2458.666513
460.293930	2459.314301
460.666607	2464.000053
461.039224	2462.706997
461.411782	2463.001905
461.784280	2462.452419
462.156719	2463.594241
462.529099	2461.993674
462.901419	2461.234981
463.273680	2462.664148
463.645882	2459.296657
464.018024	2462.752368
464.390106	2463.130454
464.762130	2466.966772
465.134094	2465.961062
465.505999	2471.506332
465.877845	2478.495891
466.249631	2476.875160
466.621358	2477.356591
466.993026	2475.312403
467.364634	2478.034626
467.736184	2472.406178
468.107674	2470.326702
468.479105	2475.098154
468.850477	2469.872998
469.221790	2468.726135
469.593043	2468.196814
469.964238	2467.705302
470.335373	2466.732359
470.706449	2470.281331
471.077467	2472.355766
471.448425	2474.659573
471.819324	2480.025882
472.190164	2479.229379
472.560945	2473.626137
472.931667	2476.640747
473.302330	2471.327371
473.672934	2470.883749
474.043479	2470.326702
474.413965	2468.970631
474.784393	2469.588173
475.154761	2472.784264
475.525070	2465.814869
475.895321	2470.024232
476.265513	2468.698409
476.635645	2473.152268
477.005719	2470.419963
477.375734	2474.800726
477.745691	2476.849955
478.115588	2475.811477
478.485427	2479.549492
478.855207	2481.807929
479.224928	2482.362456
479.594591	2486.118116
479.964194	2484.028558
480.333739	2485.195585
480.703226	2482.022178
481.072653	2487.625421
481.442022	2486.707931
481.811333	2487.451501
482.180584	2487.953096
482.549777	2485.069556
482.918912	2484.552838
483.287988	2486.380256
483.657005	2483.872282
484.025964	2486.919659
484.394864	2485.538383
484.763706	2487.842191
485.132489	2486.899495
485.501213	2488.326141
485.869879	2486.274392
486.238487	2490.992912
486.607036	2486.221460
486.975527	2489.601553
487.343959	2489.324290
487.712333	2491.469301
488.080648	2491.683550
488.448905	2492.351503
488.817104	2491.774291
489.185244	2494.582213
489.553326	2498.451299
489.921350	2503.996568
490.289315	2511.402023
490.657222	2512.531242
491.025070	2514.996366
491.392861	2515.399658
491.760593	2517.262364
492.128267	2512.821108
492.495883	2510.963443
492.863440	2512.957219
493.230939	2512.198525
493.598380	2511.669204
493.965763	2509.067969
494.333088	2512.783299
494.700354	2510.829852
495.067563	2514.214987
495.434713	2514.462003
495.801805	2520.823940
496.168839	2520.571882
496.535815	2521.607839
496.902733	2526.487676
497.269593	2529.051103
497.636395	2530.538243
498.003139	2531.261649
498.369825	2534.724921
498.736453	2537.263142
499.103023	2534.445137
499.469535	2537.535365
499.835989	2542.447969
500.202385	2544.479554
500.568723	2546.700182
500.935003	2552.366439
501.301226	2551.426264
501.667390	2556.258210
502.033497	2562.350444
502.399546	2561.178376
502.765537	2560.913716
503.131470	2565.836402
503.497345	2570.464182
503.863163	2570.320509
504.228923	2569.597103
504.594625	2579.833166
504.960269	2578.169585
505.325856	2584.413054
505.691385	2582.812488
506.056856	2590.906060
506.422270	2591.755495
506.787625	2593.572831
507.152924	2600.290168
507.518164	2602.946856
507.883347	2602.316712
508.248472	2603.592124
508.613540	2609.780140
508.978550	2615.585029
509.343503	2615.617797
509.708398	2623.144239
510.073236	2625.732872
510.438016	2629.044910
510.802738	2626.534415
511.167403	2634.358286
511.532010	2638.302989
511.896561	2644.548978
512.261053	2650.719351
512.625488	2646.956129
512.989866	2650.064001
513.354186	2653.275216
513.718449	2653.068528
514.082655	2663.007163
514.446803	2667.030004
514.810894	2672.469409
515.174927	2676.063752
515.538904	2678.249092
515.902822	2681.941737
516.266684	2683.451563
516.630488	2686.382994
516.994235	2689.258972
517.357925	2694.312729
517.721558	2700.399922
518.085133	2706.449307
518.448651	2706.381251
518.812112	2706.880325
519.175516	2710.593135
519.538863	2716.221583
519.902152	2717.376007
520.265385	2719.866337
520.628560	2726.802965
520.991678	2727.198696
521.354739	2731.004767
521.717743	2738.221179
522.080690	2735.327556
522.443580	2743.650501
522.806413	2746.397930
523.169189	2749.651995
523.531908	2753.168200
523.894569	2751.678539
524.257174	2758.889909
524.619722	2762.383429
524.982213	2764.117586
525.344647	2763.684047
525.707025	2770.373658
526.069345	2773.829369
526.431608	2773.047990
526.793815	2782.381686
527.155964	2776.314658
527.518057	2783.609207
527.880093	2785.257665
528.242072	2789.716565
528.603995	2790.455094
528.965860	2793.245373
529.327669	2793.941052
529.689421	2795.823923
530.051117	2800.665951
530.412755	2801.220478
530.774337	2806.243988
531.135862	2802.682413
531.497331	2805.966725
531.858743	2807.849596
532.220098	2813.122642
532.581396	2812.797488
532.942638	2813.525935
533.303824	2818.312510
533.664953	2821.710248
534.026025	2822.710917
534.387040	2829.113182
534.747999	2831.167453
535.108902	2834.030828
535.469748	2829.251814
535.830537	2836.770695
536.191270	2841.826972
536.551947	2840.710357
536.912567	2844.034998
537.273131	2850.470031
537.633638	2849.431553
537.994089	2854.578571
538.354483	2851.674867
538.714821	2861.187524
539.075103	2867.398225
539.435328	2869.986858
539.795497	2870.138092
540.155609	2877.455327
540.515665	2883.383724
540.875665	2880.142262
541.235609	2888.634086
541.595496	2894.136505
541.955328	2901.582290
542.315102	2901.231929
542.674821	2903.089595
543.034483	2907.805594
543.394090	2910.820204
543.753640	2914.858168
544.113134	2929.164963
544.472571	2926.243614
544.831953	2944.931172
545.191278	2942.261881
545.550548	2945.359670
545.909761	2956.790486
546.268918	2966.688792
546.628019	2977.063486
546.987064	2977.093733
547.346053	2976.108188
547.704986	2991.529077
548.063863	2994.788183
548.422684	3004.953670
548.781449	3011.970956
549.140158	3024.775487
549.498811	3036.216385
549.857408	3036.120603
550.215949	3054.278840
550.574434	3059.284705
550.932864	3072.258115
551.291237	3089.365270
551.649555	3099.298864
552.007817	3113.996348
552.366022	3120.622945
552.724173	3136.154740
553.082267	3153.287101
553.440305	3175.679907
553.798288	3176.942716
554.156215	3199.436344
554.514086	3218.963253
554.871902	3229.748802
555.229661	3247.786051
555.587365	3261.674429
555.945014	3283.948768
556.302606	3300.246818
556.660143	3325.150118
557.017625	3347.943695
557.375050	3365.224771
557.732421	3394.675191
558.089735	3414.592790
558.446994	3435.294288
558.804197	3471.951039
559.161345	3495.334431
559.518437	3501.719052
559.875474	3530.761139
560.232455	3565.454360
560.589381	3595.033330
560.946251	3620.042495
561.303065	3662.471366
561.659825	3686.464738
562.016528	3708.366031
562.373177	3736.961976
562.729770	3777.729787
563.086307	3800.228457
563.442789	3849.795602
563.799216	3888.360429
564.155587	3916.752207
564.511904	3960.504381
564.868164	4000.158097
565.224370	4049.561405
565.580520	4085.167075
565.936615	4134.658603
566.292654	4168.729241
566.648638	4223.660174
567.004567	4270.288326
567.360441	4322.691121
567.716260	4364.590671
568.072023	4428.756998
568.427732	4481.366479
568.783385	4517.173795
569.138982	4582.116459
569.494525	4646.204648
569.850013	4689.006565
570.205445	4748.517386
570.560823	4809.603568
570.916145	4867.544069
571.271412	4928.910035
571.626625	4978.141944
571.981782	5049.368406
572.336884	5094.146455
572.691931	5178.283313
573.046923	5228.034460
573.401860	5283.603099
573.756743	5355.568091
574.111570	5426.408905
574.466342	5496.332230
574.821059	5566.958795
575.175722	5605.697542
575.530330	5681.955076
575.884882	5738.753757
576.239380	5807.595753
576.593823	5884.279265
576.948211	5952.647394
577.302544	6001.632286
577.656823	6077.872176
578.011047	6181.838412
578.365216	6242.622125
578.719330	6305.097144
579.073389	6379.832250
579.427394	6480.652806
579.781344	6558.969652
580.135239	6614.026614
580.489080	6716.271296
580.842866	6752.063488
581.196597	6893.243522
581.550273	6984.632080
581.903895	7070.475368
582.257463	7219.610343
582.610975	7252.118223
582.964434	7384.463635
583.317837	7440.669980
583.671186	7524.287599
584.024481	7658.374730
584.377721	7690.403701
584.730906	7828.511151
585.084037	7929.959331
585.437113	7991.103486
585.790135	8094.958817
586.143103	8150.998804
586.496016	8266.479036
586.848874	8374.266467
587.201679	8489.804672
587.554428	8523.129219
587.907124	8659.499993
588.259765	8738.275583
588.612352	8887.798727
588.964884	8913.206142
589.317362	9062.769615
589.669786	9164.623608
590.022155	9241.521369
590.374470	9419.075848
590.726731	9444.994941
591.078937	9468.920257
591.431090	9596.655534
591.783188	9642.703953
592.135232	9693.443167
592.487222	9850.490233
592.839157	9981.280449
593.191038	10024.047077
593.542866	10092.997459
593.894639	10092.591646
594.246358	10255.751111
594.598022	10363.677174
594.949633	10400.505323
595.301190	10493.817081
595.652692	10578.735317
596.004141	10757.502194
596.355535	10651.577470
596.706876	10759.485888
597.058162	10830.873668
597.409395	11051.313243
597.760573	11181.390136
598.111698	11210.459950
598.462768	11310.047944
598.813785	11444.556011
599.164748	11433.341964
599.515657	11646.749130
599.866511	11646.098821
600.217312	11902.358315
600.568060	11774.857452
600.918753	12077.167887
601.269392	12195.279601
601.619978	12224.024260
601.970510	12407.033268
602.320988	12574.749936
602.671412	12785.202985
603.021783	12850.059950
603.372100	12877.675391
603.722363	13036.159186
604.072572	13185.140405
604.422728	13325.972600
604.772830	13387.527609
605.122878	13548.703379
605.472872	13648.863545
605.822813	13857.761398
606.172701	13955.736223
606.522534	14149.709741
606.872314	14365.264438
607.222041	14426.832050
607.571714	14677.639536
607.921333	14629.970386
608.270899	14864.752044
608.620411	15115.693120
608.969870	15183.294993
609.319276	15314.914479
609.668627	15469.478777
610.017926	15774.423214
610.367171	15979.325953
610.716362	16146.472971
611.065500	16279.319977
611.414585	16480.734238
611.763616	16756.286228
612.112594	16859.057711
612.461518	17088.135303
612.810389	17349.851847
613.159207	17446.702494
613.507971	17624.685472
613.856682	17976.966344
614.205340	18077.045851
614.553945	18514.600360
614.902496	18438.806612
615.250994	18781.111041
615.599439	18971.908632
615.947830	19213.889057
616.296169	19390.301716
616.644454	19611.462176
616.992686	19831.599282
617.340864	20236.696323
617.688990	20258.771536
618.037063	20688.963440
618.385082	20834.652786
618.733048	21121.708689
619.080961	21287.991149
619.428821	21437.295002
619.776628	21641.572638
620.124382	21693.902336
620.472083	21903.712638
620.819731	22102.074481
621.167326	22080.561357
621.514868	22210.880225
621.862357	22129.019448
622.209793	22276.364813
622.557176	22250.140731
622.904506	22252.673911
623.251783	22204.689688
623.599007	22232.143812
623.946179	22251.645515
624.293297	22356.667873
624.640363	22176.275224
624.987376	22307.372950
625.334336	22319.123880
625.681243	22259.623141
626.028097	22370.392415
626.374899	22424.935179
626.721647	22536.909288
627.068343	22619.679993
627.414987	22616.476340
627.761577	22624.065797
628.108115	22935.248662
628.454600	22751.596907
628.801032	22980.238439
629.147412	23090.929575
629.493739	23218.314492
629.840014	23138.336586
630.186236	23459.155617
630.532405	23372.946845
630.878521	23614.241673
631.224585	23669.931300
631.570597	23610.995170
631.916556	23822.685823
632.262462	23915.105297
632.608316	24035.150293
632.954117	24087.608540
633.299866	24191.032853
633.645562	24258.521300
633.991206	24070.579523
634.336797	23924.607872
634.682336	24023.671586
635.027823	23993.636391
635.373257	23994.430373
635.718639	23946.783908
636.063968	23972.050171
636.409245	23706.756929
636.754470	23846.069215
637.099642	23798.594149
637.444762	23597.048818
637.789829	23788.211893
638.134845	23676.792310
638.479808	23732.613007
638.824719	23767.528038
639.169577	23613.455253
639.514383	23751.439196
639.859137	23641.421054
640.203839	23907.886364
640.548489	23748.074226
640.893086	23888.530854
641.237632	23822.469054
641.582125	23991.274611
641.926566	24042.578433
642.270955	24103.296611
642.615292	24204.918711
642.959576	24289.153871
643.303809	24358.931002
643.647990	24549.743716
643.992118	24610.746719
644.336195	24699.413053
644.680219	24840.467058
645.024192	25135.361956
645.368112	25577.297228
645.711981	25659.072305
646.055797	26356.631886
646.399562	26382.868572
646.743274	27113.477957
647.086935	27522.544907
647.430544	27520.084824
647.774101	27699.887658
648.117606	27969.291961
648.461059	28267.748433
648.804460	28061.880313
649.147810	27708.389564
649.491108	27630.599519
649.834354	27454.920348
650.177548	26936.064630
650.520690	26672.455134
650.863781	26773.147141
651.206820	26743.084220
651.549807	26513.038726
651.892742	26236.929688
652.235626	26159.454715
652.578458	26134.886652
652.921238	25770.416270
653.263967	26078.939927
653.606644	25915.407417
653.949269	25942.407837
654.291843	25726.230557
654.634365	26096.480622
654.976836	25846.462076
655.319255	25926.439982
655.661622	25983.594063
656.003938	25882.110595
656.346203	25842.610634
656.688416	26081.904125
657.030577	25982.558106
657.372687	25927.491062
657.714746	26192.312956
658.056753	26338.634967
658.398708	25981.716234
658.740612	26100.543792
659.082465	26362.275458
659.424266	26275.461748
659.766016	26455.985467
660.107715	26406.985452
660.449362	26561.269965
660.790958	26614.461700
661.132503	26680.939396
661.473996	26752.669974
661.815438	26894.616263
662.156829	27111.300179
662.498168	26995.507396
662.839456	27062.007777
663.180693	27237.908758
663.521879	27431.022759
663.863013	27450.862220
664.204097	27502.501279
664.545129	27923.881247
664.886110	27957.041957
665.227040	28068.537156
665.567918	28214.435710
665.908746	28311.692171
666.249522	28496.730243
666.590248	28540.540391
666.930922	28686.461630
667.271545	28701.451501
667.612118	28824.904318
667.952639	28700.024855
668.293109	28804.666606
668.633528	28753.105684
668.973896	28742.715866
669.314213	28832.241717
669.654480	28666.675101
669.994695	28725.744822
670.334859	28701.335555
670.674973	28668.245421
671.015035	28847.927267
671.355047	28857.530665
671.695008	28842.122379
672.034918	28792.333423
672.374777	28924.540203
672.714585	28824.374997
673.054342	29071.963706
673.394049	28893.932837
673.733705	29173.406845
674.073310	28928.890719
674.412864	29020.395223
674.752368	28723.965294
675.091820	29029.668425
675.431223	28710.291164
675.770574	28509.154167
676.109875	28447.546226
676.449125	28240.465708
676.788324	28231.807527
677.127473	27806.198031
677.466571	27771.124203
677.805619	27509.841199
678.144616	27546.097177
678.483562	27514.859668
678.822458	27264.793231
679.161303	27243.456547
679.500098	27188.465121
679.838842	27131.623591
680.177535	27312.207804
680.516179	27588.720133
680.854771	27832.510333
681.193314	28604.593292
681.531805	29626.437697
681.870247	30323.820838
682.208638	30987.950007
682.546978	31224.992623
682.885268	31335.577894
683.223508	30904.584446
683.561697	30626.940377
683.899836	30503.805153
684.237925	30068.998073
684.575963	29976.250924
684.913951	29579.166797
685.251889	29747.740461
685.589776	29762.773182
685.927614	29775.779359
686.265401	29916.619115
686.603137	30028.076506
686.940824	30492.588586
687.278460	30860.398733
687.616046	30987.387918
687.953582	31534.869829
688.291068	31438.747628
688.628504	31705.540613
688.965889	31685.917922
689.303224	31349.688084
689.640510	31080.261096
689.977745	30446.900609
690.314930	29772.058988
690.652065	29325.768158
690.989150	28672.606019
691.326185	27888.895639
691.663170	27286.122353
692.000105	26639.768292
692.336990	26053.812295
692.673825	25674.278946
693.010610	25247.530149
693.347345	24739.712037
693.684030	24169.141642
694.020665	23945.044709
694.357251	23346.795859
694.693786	23322.177384
695.030272	23120.092650
695.366707	22644.951297
695.703093	22400.319224
696.039429	22396.500550
696.375716	22171.942352
696.711952	22157.214621
697.048139	22035.266589
697.384276	21881.851675
697.720363	22007.686437
698.056400	21828.241524
698.392388	21655.834063
698.728326	21621.055142
699.064214	21461.694187
699.400053	21420.409658
699.735842	21104.984661
700.071581	20860.587002
700.407270	20615.322265
700.742910	20462.313163
701.078501	20217.718899
701.414042	19971.783688
701.749533	19720.318332
702.084974	19407.101361
702.420366	19608.220714
702.755709	19218.784018
703.091002	18953.198389
703.426246	18986.028903
703.761440	18889.750427
704.096584	18655.742586
704.431679	18631.902969
704.766725	18558.213903
705.101721	18504.273557
705.436668	18611.733313
705.771565	18306.186458
706.106413	18651.437440
706.441212	18641.839083
706.775961	18765.566643
707.110661	18847.198047
707.445311	19182.835550
707.779913	19045.459066
708.114465	19277.306773
708.448967	19554.348423
708.783421	20216.856862
709.117825	20473.393619
709.452180	20684.368428
709.786485	21061.870193
710.120742	21808.510448
710.454949	21811.724184
710.789107	22265.165890
711.123216	22932.831429
711.457275	23037.142984
711.791286	23552.699267
712.125247	23617.382312
712.459159	23343.241846
712.793023	23967.838287
713.126837	22929.698352
713.460602	23180.377288
713.794318	22837.939269
714.127985	22485.623109
714.461602	21680.573525
714.795171	21640.947535
715.128691	20710.025381
715.462162	20210.356294
715.795584	19828.269600
716.128957	19595.398539
716.462281	19230.300534
716.795556	19014.894550
717.128782	18560.837823
717.461960	18028.076082
717.795088	17972.245303
718.128167	17593.422756
718.461198	17168.357705
718.794180	17039.437757
719.127113	16708.312087
719.459997	16533.338679
719.792833	16207.596961
720.125619	16185.914958
720.458357	15887.115688
720.791046	15731.490227
721.123686	15588.412199
721.456278	15376.507297
721.788821	15337.720659
722.121315	15090.436940
722.453761	15165.224978
722.786158	15100.252066
723.118506	15123.330468
723.450805	14987.821732
723.783056	15144.125228
724.115259	15054.916970
724.447412	14996.696684
724.779518	15232.234515
725.111574	15254.997845
725.443582	15451.930520
725.775542	15426.591160
726.107453	15884.027981
726.439315	15777.500838
726.771129	16153.197870
727.102895	16513.287489
727.434612	16702.978547
727.766281	16821.496074
728.097901	17073.117706
728.429473	17098.656192
728.760996	17095.374400
729.092471	17181.129468
729.423897	17077.014518
729.755276	16949.551464
730.086606	17068.883137
730.417887	17582.183504
730.749120	18077.381087
731.080305	18256.619312
731.411442	18588.720445
731.742530	18663.357249
732.073570	18764.177805
732.404562	19044.705414
732.735506	18878.347337
733.066401	18594.053986
733.397249	18095.075537
733.728048	17477.400601
734.058798	16701.085593
734.389501	16048.082251
734.720156	15611.054541
735.050762	15111.466113
735.381320	14775.939516
735.711831	14550.123550
736.042293	14211.448752
736.372707	14225.964755
736.703073	14033.312019
737.033391	14205.555643
737.363661	14177.867106
737.693883	14280.736891
738.024056	14456.534529
738.354182	14627.981650
738.684260	14901.917950
739.014290	15117.651609
739.344272	15296.695749
739.674207	15569.591051
740.004093	15678.089285
740.333931	15676.460992
740.663722	15708.883173
740.993464	15705.997112
741.323159	15540.233892
741.652806	15273.675320
741.982405	15080.742801
742.311956	14760.853863
742.641460	14638.736952
742.970915	14345.324154
743.300323	14025.936811
743.629683	13824.073888
743.958996	13554.641859
744.288260	13295.463537
744.617477	12996.644101
744.946647	12933.780913
745.275768	12668.505315
745.604842	12498.633554
745.933869	12335.169099
746.262847	12286.315277
746.591778	12214.095707
746.920662	12126.911472
747.249498	12130.505815
747.578286	12239.442629
747.907027	12383.392777
748.235720	12601.659615
748.564365	12616.657048
748.892963	12529.354345
749.221514	12588.799632
749.550017	12451.329887
749.878473	12409.682394
750.206881	12203.695807
750.535242	12116.824123
750.863555	12036.332020
751.191821	11943.327772
751.520039	11970.013120
751.848210	11875.874613
752.176334	11900.437636
752.504411	11818.818834
752.832440	11668.325268
753.160421	11719.457692
753.488356	11609.414345
753.816243	11512.861125
754.144082	11381.405477
754.471875	11326.028402
754.799620	11272.559403
755.127318	11245.042265
755.454969	11211.725279
755.782572	11166.004535
756.110129	11175.260093
756.437638	11093.704306
756.765100	11088.721126
757.092515	11090.966960
757.419882	11109.810793
757.747203	11114.725918
758.074477	11187.280724
758.401703	11143.195834
758.728882	11302.894547
759.056014	11344.181597
759.383099	11455.089502
759.710138	11562.017416
760.037129	11638.335444
760.364073	11656.143320
760.690970	11648.074953
761.017820	11644.964562
761.344623	11828.959115
761.671379	12152.051706
761.998088	12767.755552
762.324751	14296.319098
762.651366	17114.147657
762.977935	20708.933971
763.304456	22866.847766
763.630931	23326.903466
763.957359	22171.299605
764.283740	20290.634148
764.610074	18445.753322
764.936362	16365.261568
765.262602	14883.681576
765.588796	13441.261267
765.914943	12438.253134
766.241044	11608.854777
766.567097	10976.363889
766.893104	10455.103540
767.219064	10096.949724
767.544978	9720.627589
767.870845	9411.420856
768.196665	9233.553825
768.522438	9037.810862
768.848165	8877.560143
769.173846	8719.109116
769.499479	8593.612112
769.825066	8436.146630
770.150607	8262.219261
770.476101	8200.760034
770.801548	8089.723579
771.126949	7954.071170
771.452303	7869.490691
771.777611	7703.772841
772.102872	7678.478851
772.428087	7567.681851
772.753256	7445.050743
773.078378	7359.348607
773.403453	7223.023204
773.728482	7122.520240
774.053465	7063.357259
774.378401	6974.388455
774.703291	6885.167594
775.028135	6791.712163
775.352932	6754.115238
775.677683	6671.127763
776.002388	6589.577017
776.327046	6581.569145
776.651658	6506.040057
776.976224	6425.656338
777.300743	6409.600263
777.625216	6342.996539
777.949643	6306.478420
778.274024	6307.176620
778.598359	6245.198154
778.922647	6246.821406
779.246889	6206.499737
779.571086	6212.239090
779.895236	6223.027160
780.219339	6216.801335
780.543397	6219.246294
780.867409	6265.279591
781.191374	6264.087358
781.515294	6234.919242
781.839167	6283.838598
782.162995	6254.365492
782.486776	6206.880344
782.810511	6166.256206
783.134201	6093.595535
783.457844	6082.084060
783.781441	6033.807450
784.104993	5992.371686
784.428498	5962.954033
784.751958	5944.873934
785.075372	5919.877373
785.398739	5883.291199
785.722061	5908.842287
786.045337	5909.371608
786.368568	6012.543863
786.691752	6037.674015
787.014891	6283.878928
787.337983	6559.355300
787.661030	6989.721125
787.984031	7406.949702
788.306987	7669.591297
788.629897	7749.387721
788.952760	7667.174064
789.275579	7490.330387
789.598351	7195.652259
789.921078	6936.675583
790.243759	6658.519838
790.566395	6460.604137
790.888984	6271.117247
791.211529	6135.399303
791.534027	5972.232276
791.856480	5837.114230
792.178888	5777.099293
792.501249	5713.898347
792.823566	5610.519406
793.145836	5606.504127
793.468062	5585.485036
793.790241	5548.500610
794.112375	5589.868319
794.434464	5689.131159
794.756507	5718.493359
795.078505	5838.198078
795.400457	6049.286313
795.722364	6285.124093
796.044226	6475.866231
796.366042	6631.917669
796.687812	6577.808444
797.009538	6610.959072
797.331218	6515.898033
797.652852	6442.970181
797.974442	6324.898797
798.295986	6258.043014
798.617484	6129.463344
798.938938	6019.142733
799.260346	5956.813907
799.581709	5814.809645
799.903026	5771.395228
800.224299	5694.847827
800.545526	5583.884469
800.866708	5519.965159
801.187845	5466.339885
801.508936	5393.686776
801.829983	5364.700141
802.150984	5264.514770
802.471940	5238.933435
802.792851	5226.023040
803.113717	5200.582857
803.434538	5176.881872
803.755314	5139.567252
804.076045	5131.113237
804.396731	5096.372125
804.717372	5112.755875
805.037967	5113.983396
805.358518	5142.334845
805.679024	5199.932548
805.999485	5208.802458
806.319901	5227.933637
806.640272	5244.387963
806.960598	5296.442918
807.280879	5283.575373
807.601115	5325.565664
807.921306	5284.729797
808.241453	5283.277945
808.561554	5288.412360
808.881611	5254.266104
809.201623	5251.009519
809.521590	5198.972208
809.841513	5188.905024
810.161390	5198.074883
810.481223	5112.924753
810.801011	5104.017035
811.120755	5075.169032
811.440453	5021.868912
811.760107	4990.170137
812.079716	4971.565758
812.399281	4921.262605
812.718801	4918.220268
813.038276	4881.934043
813.357707	4847.780226
813.677093	4869.268144
813.996434	4806.281447
814.315731	4826.272143
814.634983	4829.339685
814.954191	4831.898071
815.273354	4889.037029
815.592473	4932.653092
815.911547	5005.109596
816.230577	5056.983069
816.549562	5142.516327
816.868502	5197.391807
817.187399	5253.958594
817.506250	5332.104040
817.825058	5354.522052
818.143821	5503.122664
818.462539	5670.191544
818.781213	5900.058077
819.099843	6259.623416
819.418429	6876.300204
819.736970	7489.871642
820.055466	8189.747633
820.373919	9091.904964
820.692327	10529.324448
821.010691	13196.031818
821.329011	19346.352936
821.647286	28796.625965
821.965517	38994.638221
822.283704	44367.333632
822.601847	45826.205746
822.919945	41268.027206
823.237999	36206.640689
823.556010	31066.836503
823.873976	26431.251046
824.191897	22287.548613
824.509775	19263.352859
824.827609	16536.383536
825.145398	14999.751623
825.463144	14275.395789
825.780845	14562.544953
826.098502	15813.545088
826.416116	18231.748780
826.733685	20492.950776
827.051210	21016.643481
827.368692	19594.428117
827.686129	17060.172023
828.003522	14601.596251
828.320872	12415.222622
828.638177	10793.584253
828.955439	9554.945027
829.272656	8512.784772
829.589830	7684.601333
829.906960	6964.772454
830.224046	6438.317196
830.541088	6039.267020
830.858086	5781.447288
831.175041	5584.769192
831.491952	5525.074368
831.808819	5559.742383
832.125642	5802.652902
832.442421	6346.265727
832.759157	7432.894000
833.075849	9194.580665
833.392497	11015.324446
833.709101	12119.425359
834.025662	11861.348529
834.342179	10819.168109
834.658653	9527.095172
834.975083	8436.237371
835.291469	7545.294087
835.607811	6819.582182
835.924110	6297.739580
836.240366	5824.549154
836.556578	5379.992481
836.872746	5027.504922
837.188871	4758.156072
837.504952	4539.778329
837.820990	4378.398391
838.136984	4264.468314
838.452935	4215.377558
838.768842	4248.634050
839.084706	4525.625289
839.400526	5260.426394
839.716303	6152.985368
840.032037	6707.580347
840.347727	6565.802936
840.663373	5963.924455
840.978977	5394.979832
841.294537	4957.909273
841.610054	4632.172596
841.925527	4397.585023
842.240957	4197.882234
842.556344	4019.453114
842.871687	3860.349257
843.186987	3709.706977
843.502244	3597.319494
843.817458	3507.382788
844.132629	3436.143723
844.447756	3389.263513
844.762840	3345.039991
845.077881	3306.752427
845.392879	3274.690689
845.707833	3249.442070
846.022745	3221.211608
846.337613	3211.625854
846.652438	3190.853780
846.967221	3177.870288
847.281960	3159.003770
847.596656	3151.873057
847.911309	3138.839154
848.225919	3126.884058
848.540485	3118.614045
848.855009	3108.831686
849.169490	3096.990016
849.483928	3087.946186
849.798323	3084.334199
850.112675	3072.865574
850.426984	3076.018816
850.741251	3068.212589
851.055474	3065.505489
851.369654	3065.366858
851.683792	3065.855849
851.997887	3066.634708
852.311938	3065.790314
852.625947	3063.355437
852.939914	3060.744119
853.253837	3065.712177
853.567718	3063.136147
853.881555	3056.262534
854.195350	3061.681774
854.509103	3057.210271
854.822812	3060.834860
855.136479	3053.232800
855.450103	3058.147925
855.763685	3050.071997
856.077224	3051.934703
856.390720	3061.081877
856.704173	3073.125193
857.017584	3077.677355
857.330953	3079.635843
857.644278	3089.546752
857.957561	3094.219902
858.270802	3089.466093
858.584000	3089.897112
858.897155	3082.514342
859.210268	3073.026891
859.523339	3059.768656
859.836367	3057.295970
860.149352	3050.238355
860.462295	3049.522511
860.775195	3040.486243
861.088054	3038.926006
861.400869	3039.208310
861.713642	3036.281920
862.026373	3044.599824
862.339062	3045.199722
862.651708	3057.989129
862.964312	3073.886408
863.276873	3080.044177
863.589392	3111.001903
863.901869	3136.724390
864.214303	3157.635096
864.526696	3175.682427
864.839045	3193.855787
865.151353	3210.892366
865.463619	3205.047148
865.775842	3207.545040
866.088023	3213.261708
866.400162	3205.889021
866.712258	3206.761141
867.024313	3205.097560
867.336325	3206.645194
867.648296	3205.858774
867.960224	3200.920964
868.272110	3205.145451
868.583954	3203.008002
868.895755	3214.242213
869.207515	3208.843137
869.519233	3228.501117
869.830909	3232.677712
870.142542	3244.103488
870.454134	3251.498860
870.765684	3266.713063
871.077191	3284.435239
871.388657	3293.836991
871.700081	3314.336843
872.011463	3333.238649
872.322803	3351.550641
872.634101	3368.224257
872.945357	3390.957340
873.256571	3416.208480
873.567744	3429.680964
873.878874	3436.249587
874.189963	3452.605611
874.501010	3456.381435
874.812015	3451.806588
875.122979	3466.693115
875.433900	3463.940645
875.744780	3463.890234
876.055618	3473.942294
876.366415	3471.903148
876.677169	3478.476812
876.987882	3495.599091
877.298554	3512.812111
877.609183	3550.986249
877.919771	3596.472580
878.230317	3668.087211
878.540822	3764.406017
878.851285	3915.902773
879.161707	4138.013491
879.472087	4503.930684
879.782425	5126.684583
880.092722	6300.030785
880.402977	8212.090027
880.713191	10554.913345
881.023363	12912.149322
881.333494	14245.693310
881.643583	14692.599160
881.953631	14290.176452
882.263637	13451.136888
882.573602	12418.781677
882.883526	11473.822430
883.193408	10530.917452
883.503248	9628.868507
883.813048	8804.516345
884.122806	8047.496354
884.432522	7289.344624
884.742197	6638.866899
885.051831	6082.336117
885.361424	5591.720943
885.670975	5202.261561
885.980485	4880.003281
886.289954	4618.677427
886.599382	4408.622629
886.908768	4232.187286
887.218113	4066.247624
887.527417	3934.786935
887.836680	3814.353770
888.145901	3717.389696
888.455082	3642.009323
888.764221	3571.660021
889.073319	3511.753469
889.382376	3484.616938
889.691392	3459.569965
890.000366	3450.775672
890.309300	3443.922223
890.618193	3451.380610
890.927044	3440.806790
891.235855	3450.291721
891.544625	3463.408803
891.853353	3494.500120
892.162041	3551.427350
892.470687	3642.770537
892.779293	3760.032816
893.087858	3931.686625
893.396381	4207.286506
893.704864	4614.190801
894.013306	5176.861708
894.321707	5739.557821
894.630068	6092.589824
894.938387	6130.340505
895.246665	5956.216531
895.554903	5640.978057
895.863100	5305.403569
896.171256	5042.038569
896.479371	4801.210047
896.787446	4578.204524
897.095480	4383.290831
897.403473	4238.196341
897.711425	4096.338272
898.019336	3974.307061
898.327207	3854.803988
898.635038	3757.958382
898.942827	3647.421001
899.250576	3563.745409
899.558284	3479.817759
899.865952	3430.777415
900.173579	3367.170656
900.481165	3324.262875
900.788711	3278.080865
901.096216	3244.322778
901.403681	3218.207080
901.711105	3206.849361
902.018489	3205.009340
902.325832	3237.761716
902.633135	3297.043165
902.940397	3461.800675
903.247619	3865.367726
903.554800	4608.267445
903.861941	5565.096089
904.169041	6260.742552
904.476101	6458.325536
904.783121	6192.316450
905.090100	5791.325429
905.397039	5384.877359
905.703938	5024.727246
906.010796	4709.337538
906.317614	4458.073828
906.624391	4224.270153
906.931129	4032.378632
907.237826	3852.066642
907.544483	3683.056918
907.851099	3513.386803
908.157675	3354.005683
908.464211	3216.871175
908.770707	3115.889301
909.077163	3039.432642
909.383578	2980.010041
909.689954	2935.680654
909.996289	2909.479257
910.302584	2889.518808
910.608839	2878.584546
910.915054	2862.851105
911.221229	2858.853470
911.527363	2865.104500
911.833458	2871.350490
912.139513	2882.007489
912.445527	2895.600961
912.751502	2929.127154
913.057436	2970.840182
913.363331	3030.224974
913.669186	3112.995679
913.975000	3227.442474
914.280775	3411.847882
914.586510	3681.398378
914.892205	4051.131725
915.197859	4542.508113
915.503475	5122.949088
915.809050	5610.647955
916.114585	5893.943157
916.420081	5959.256346
916.725536	5892.108177
917.030952	5656.575387
917.336328	5452.108708
917.641665	5247.843674
917.946961	5019.592831
918.252218	4822.680321
918.557435	4595.052060
918.862612	4401.270106
919.167750	4236.376484
919.472848	4042.254253
919.777906	3879.200652
920.082925	3721.127712
920.387904	3571.690268
920.692843	3460.497537
920.997743	3361.045654
921.302603	3270.617436
921.607423	3205.931871
921.912204	3142.504073
922.216946	3094.378698
922.521647	3044.761141
922.826310	3004.600789
923.130932	2965.347845
923.435516	2928.247473
923.740059	2904.526323
924.044564	2872.290665
924.349028	2847.914166
924.653454	2819.822336
924.957840	2794.165383
925.262186	2774.572939
925.566493	2752.979157
925.870761	2728.305229
926.174989	2717.136553
926.479178	2703.099460
926.783328	2687.366019
927.087438	2674.127949
927.391509	2660.892399
927.695541	2649.789258
927.999533	2642.255253
928.303486	2636.092443
928.607400	2626.569703
928.911275	2618.571913
929.215110	2616.973867
929.518906	2608.930706
929.822663	2611.794081
930.126381	2613.296345
930.430060	2616.769700
930.733699	2617.540997
931.037299	2621.095010
931.340861	2619.189454
931.644383	2623.050978
931.947866	2624.265896
932.251309	2618.549227
932.554714	2618.140894
932.858080	2620.520319
933.161407	2612.570419
933.464694	2610.102774
933.767943	2607.161261
934.071153	2600.532144
934.374323	2599.319746
934.677455	2595.672471
934.980548	2593.308170
935.283602	2588.577047
935.586617	2588.995463
935.889593	2592.410845
936.192530	2590.230546
936.495428	2596.630291
936.798287	2610.367435
937.101108	2624.283540
937.403890	2644.059987
937.706632	2670.591579
938.009336	2700.843543
938.312002	2732.391084
938.614628	2756.124837
938.917216	2769.428442
939.219765	2782.953857
939.522275	2791.251597
939.824747	2791.791000
940.127179	2784.625000
940.429573	2778.331119
940.731929	2776.823814
941.034246	2771.213010
941.336524	2767.825355
941.638763	2762.607760
941.940964	2754.829260
942.243126	2740.857702
942.545250	2729.739437
942.847335	2714.777293
943.149381	2703.709439
943.451389	2686.849300
943.753359	2676.061231
944.055290	2667.584531
944.357182	2659.014569
944.659036	2652.912253
944.960851	2648.773465
945.262628	2645.264822
945.564367	2646.948568
945.866067	2643.213073
946.167729	2646.913280
946.469352	2641.055459
946.770937	2640.558905
947.072484	2638.489512
947.373992	2637.521610
947.675462	2632.906434
947.976893	2627.792183
948.278286	2622.035185
948.579641	2620.764815
948.880958	2619.088631
949.182236	2617.593929
949.483476	2613.016561
949.784678	2614.493619
950.085841	2613.535800
950.386967	2616.681480
950.688054	2620.759773
950.989103	2629.397791
951.290114	2637.400622
951.591087	2651.972077
951.892021	2662.593789
952.192917	2675.184070
952.493776	2684.137160
952.794596	2689.989939
953.095378	2689.339630
953.396122	2687.204702
953.696828	2685.624300
953.997496	2676.928310
954.298126	2670.183246
954.598718	2660.872235
954.899272	2652.035092
955.199788	2642.459420
955.500266	2631.424334
955.800706	2618.400513
956.101108	2594.883531
956.401472	2586.895822
956.701798	2571.739593
957.002087	2558.652758
957.302337	2549.472817
957.602550	2536.247350
957.902724	2530.064375
958.202861	2519.908970
958.502960	2512.697600
958.803022	2504.036897
959.103045	2495.842502
959.403031	2492.117089
959.702979	2488.132057
960.002889	2486.591984
960.302762	2477.495222
960.602596	2474.929275
960.902393	2467.884262
961.202153	2468.098512
961.501875	2462.296143
961.801559	2461.129116
962.101205	2458.482511
962.400814	2458.701801
962.700385	2456.486214
962.999918	2456.856738
963.299414	2452.667540
963.598873	2453.055708
963.898293	2449.655450
964.197677	2449.453804
964.497022	2447.076900
964.796331	2448.869030
965.095601	2447.921293
965.394835	2443.900973
965.694030	2441.960129
965.993189	2444.886519
966.292309	2442.781837
966.591393	2442.504573
966.890439	2443.318720
967.189447	2444.924327
967.488419	2442.302927
967.787353	2443.099430
968.086249	2443.931220
968.385108	2443.210335
968.683930	2443.611107
968.982714	2444.984821
969.281462	2448.327106
969.580172	2447.018927
969.878844	2451.785338
970.177480	2452.528908
970.476078	2457.353292
970.774639	2459.994857
971.073162	2463.551391
971.371649	2462.749847
971.670098	2463.541308
971.968510	2466.460137
972.266885	2463.982409
972.565223	2470.306537
972.863524	2469.515076
973.161788	2473.321147
973.460014	2472.388533
973.758204	2472.413739
974.056356	2474.853658
974.354471	2476.030767
974.652550	2476.734008
974.950591	2477.343988
975.248595	2472.663276
975.546563	2473.210242
975.844493	2469.162195
976.142386	2471.723101
976.440243	2466.455095
976.738062	2466.750003
977.035845	2463.445527
977.333590	2462.853191
977.631299	2459.526029
977.928971	2459.712552
978.226606	2454.368929
978.524204	2451.916408
978.821765	2451.066973
979.119290	2455.213322
979.416777	2455.914043
979.714228	2452.176027
980.011642	2453.590071
980.309020	2459.629373
980.606360	2459.952007
980.903664	2472.809470
981.200931	2483.206850
981.498162	2502.232164
981.795356	2529.938346
982.092513	2567.661300
982.389633	2612.577981
982.686717	2654.573313
982.983764	2684.883250
983.280775	2702.323122
983.577749	2703.167515
983.874686	2692.805424
984.171587	2677.946623
984.468451	2663.062616
984.765279	2645.975625
985.062070	2624.911164
985.358824	2608.020778
985.655543	2587.092428
985.952224	2565.705332
986.248869	2539.728267
986.545478	2510.111488
986.842050	2494.352841
987.138586	2472.869964
987.435086	2459.556276
987.731549	2451.860955
988.027975	2447.202929
988.324366	2442.491971
988.620719	2437.513831
988.917037	2432.770105
989.213318	2429.642069
989.509563	2426.841708
989.805772	2428.079312
990.101944	2425.311718
990.398080	2424.676533
990.694180	2422.680236
990.990244	2424.081677
991.286271	2419.862231
991.582262	2423.915319
991.878217	2423.733837
992.174136	2424.404311
992.470019	2425.160484
992.765865	2429.458067
993.061676	2430.141144
993.357450	2431.217430
993.653188	2437.743204
993.948890	2440.793102
994.244556	2447.470110
994.540186	2455.397324
994.835780	2466.495425
995.131337	2481.392034
995.426859	2495.587923
995.722345	2518.812519
996.017795	2534.152750
996.313208	2550.685214
996.608586	2559.792059
996.903928	2564.190466
997.199234	2560.442368
997.494504	2554.292160
997.789738	2548.454504
998.084936	2539.299768
998.380099	2530.109745
998.675225	2514.593073
998.970316	2506.678462
999.265371	2490.534167
999.560390	2479.602425
999.855373	2469.265539
1000.150320	2458.210288
1000.445232	2449.567230
1000.740108	2443.497681
1001.034948	2436.556012
1001.329752	2431.850095
1001.624521	2429.558890
1001.919254	2421.656882
1002.213951	2420.661254
1002.508613	2417.828125
1002.803239	2416.943403
1003.097829	2409.923596
1003.392384	2416.444329
1003.686903	2413.273443
1003.981386	2413.699420
1004.275834	2415.073135
1004.570246	2411.451066
1004.864623	2410.120201
1005.158964	2410.009296
1005.453270	2410.604152
1005.747540	2410.263874
1006.041775	2407.458472
1006.335974	2408.897721
1006.630138	2408.885118
1006.924266	2408.295303
1007.218359	2407.002248
1007.512416	2409.850499
1007.806438	2408.040725
1008.100425	2407.655077
1008.394376	2406.372103
1008.688292	2407.990314
1008.982172	2407.196332
1009.276017	2408.653225
1009.569827	2407.639953
1009.863602	2407.990314
1010.157341	2403.813718
1010.451045	2406.293965
1010.744714	2406.793040
1011.038347	2406.785478
1011.331945	2405.517628
1011.625508	2407.148441
1011.919036	2404.887483
1012.212528	2404.532082
1012.505986	2403.818759
1012.799408	2402.989489
1013.092795	2405.237844
1013.386147	2402.205590
1013.679464	2401.716598
1013.972745	2400.403377
1014.265992	2403.044942
1014.559204	2401.275497
1014.852380	2403.173491
1015.145521	2404.196845
1015.438628	2403.823800
1015.731699	2401.179715
1016.024736	2402.717267
1016.317737	2404.532082
1016.610703	2404.544685
1016.903635	2400.617626
1017.196531	2397.938253
1017.489393	2405.232802
1017.782219	2399.866494
1018.075011	2404.804304
1018.367768	2406.427556
1018.660490	2405.721794
1018.953177	2405.721794
1019.245829	2405.721794
