Dividing Wavelength (nm)	Counts (n)	Blue Motor Position (mm): 28.800000	Red Motor Position (mm): 0.000000	
326.493990	1969.972018
326.888308	1969.972018
327.282561	1969.972018
327.676750	1945.537545
328.070874	1948.405962
328.464933	1952.264965
328.858929	1963.204269
329.252859	1976.195322
329.646726	1992.206027
330.040528	2006.033912
330.434265	2026.783301
330.827938	2043.562782
331.221547	2063.024156
331.615091	2083.143401
332.008571	2104.664087
332.401986	2126.761985
332.795338	2146.200674
333.188625	2165.281441
333.581847	2186.424040
333.975006	2203.286700
334.368100	2220.383773
334.761129	2238.027812
335.154095	2251.389390
335.546996	2293.924126
335.939833	2368.235774
336.332606	2378.739018
336.725315	2393.552449
337.117960	2401.131824
337.510540	2405.832700
337.903056	2421.379618
338.295508	2423.660740
338.687896	2431.429158
339.080220	2438.668255
339.472480	2443.469954
339.864676	2448.059925
340.256807	2451.669391
340.648875	2455.160390
341.040879	2454.898250
341.432818	2458.164918
341.824694	2457.605350
342.216506	2457.743982
342.608253	2454.401697
342.999937	2455.654423
343.391557	2454.217694
343.783113	2454.426902
344.174605	2451.210646
344.566033	2449.965481
344.957397	2446.411468
345.348697	2448.407765
345.739934	2443.938782
346.131106	2442.991045
346.522215	2442.141610
346.913260	2441.884512
347.304241	2440.878801
347.695159	2434.189190
348.086012	2436.634150
348.476802	2430.400763
348.867528	2431.535023
349.258191	2428.878335
349.648789	2430.604930
350.039324	2429.379929
350.429796	2430.541915
350.820203	2429.440423
351.210548	2422.120668
351.600828	2426.887079
351.991045	2423.043199
352.381198	2426.398087
352.771288	2423.310380
353.161314	2425.992274
353.551276	2427.986050
353.941175	2424.477407
354.331010	2422.942376
354.720782	2427.358427
355.110490	2428.515372
355.500135	2424.459763
355.889717	2422.355082
356.279235	2426.234249
356.668689	2426.042686
357.058080	2423.638055
357.447408	2423.396080
357.836672	2421.707293
358.225873	2423.028076
358.615010	2424.782397
359.004084	2428.515372
359.393095	2432.265990
359.782043	2429.558890
360.170927	2430.869590
360.559748	2429.311874
360.948505	2429.722728
361.337199	2433.785898
361.725830	2436.677000
362.114398	2433.979982
362.502903	2434.844540
362.891344	2434.307657
363.279722	2435.928388
363.668037	2436.934098
364.056289	2434.942843
364.444478	2435.555343
364.832603	2435.867894
365.220665	2439.132042
365.608665	2439.794953
365.996601	2436.717329
366.384474	2438.365786
366.772284	2441.264450
367.160031	2440.291507
367.547715	2439.174891
367.935336	2438.968204
368.322893	2440.888884
368.710388	2440.296548
369.097820	2442.681014
369.485189	2442.461724
369.872495	2446.051025
370.259738	2442.615479
370.646918	2442.174378
371.034035	2442.428956
371.421090	2443.870726
371.808081	2441.196394
372.195010	2446.212342
372.581875	2443.381734
372.968678	2448.392641
373.355418	2445.360387
373.742096	2449.113526
374.128710	2447.873402
374.515262	2448.047322
374.901751	2447.268464
375.288177	2448.979936
375.674540	2449.138732
376.060841	2448.929524
376.447079	2450.935903
376.833254	2447.613783
377.219367	2446.081272
377.605417	2448.586726
377.991404	2445.262085
378.377329	2448.954730
378.763191	2446.295521
379.148991	2454.033692
379.534727	2451.137549
379.920402	2453.700976
380.306013	2452.773404
380.691563	2454.373970
381.077049	2454.840277
381.462474	2455.190637
381.847835	2456.846656
382.233134	2454.300873
382.618371	2456.382870
383.003545	2455.480503
383.388657	2454.573096
383.773706	2456.823971
384.158693	2458.674074
384.543618	2457.580144
384.928480	2459.447892
385.313280	2459.737758
385.698017	2458.222891
386.082692	2460.496452
386.467305	2460.821606
386.851856	2463.884107
387.236344	2459.727676
387.620770	2464.342852
388.005133	2460.229270
388.389435	2461.575258
388.773674	2462.336473
389.157851	2464.519292
389.541965	2465.461988
389.926018	2462.041565
390.310008	2462.979220
390.693936	2465.446865
391.077802	2460.609877
391.461606	2465.663634
391.845348	2463.173304
392.229027	2466.240846
392.612645	2465.464509
392.996200	2467.541464
393.379694	2466.689509
393.763125	2467.296968
394.146494	2467.813686
394.529801	2471.350056
394.913047	2470.417442
395.296230	2470.160343
395.679351	2470.364510
396.062410	2472.441466
396.445408	2471.294603
396.828343	2472.995993
397.211217	2467.680096
397.594028	2471.108080
397.976778	2467.458285
398.359466	2473.414408
398.742092	2470.808132
399.124656	2475.564460
399.507158	2478.029585
399.889598	2476.640747
400.271977	2479.521766
400.654294	2477.248206
401.036549	2476.963381
401.418742	2475.778709
401.800874	2480.560244
402.182944	2478.198463
402.564952	2478.654688
402.946898	2480.537559
403.328783	2483.857158
403.710606	2481.076962
404.092367	2482.014617
404.474067	2485.608959
404.855705	2486.206336
405.237282	2483.176603
405.618797	2485.835811
406.000250	2483.317755
406.381642	2486.254227
406.762972	2488.764722
407.144240	2488.396718
407.525447	2485.873620
407.906593	2489.833446
408.287677	2489.941831
408.668700	2487.320431
409.049661	2489.926708
409.430560	2488.948724
409.811399	2492.031389
410.192176	2492.331338
410.572891	2491.010556
410.953545	2491.013076
411.334138	2493.024497
411.714669	2493.079949
412.095139	2490.524084
412.475547	2493.596668
412.855894	2492.797645
413.236180	2495.323263
413.616405	2496.447440
413.996568	2493.884013
414.376670	2494.231853
414.756711	2495.963489
415.136691	2496.142450
415.516609	2497.995074
415.896466	2498.473984
416.276262	2502.096053
416.655997	2500.530775
417.035670	2498.542040
417.415283	2506.469254
417.794834	2501.486073
418.174324	2505.602176
418.553753	2502.620333
418.933121	2504.677124
419.312428	2506.013030
419.691674	2507.351456
420.070859	2508.243740
420.449983	2510.287928
420.829045	2510.043432
421.208047	2508.604183
421.586988	2513.524349
421.965867	2515.840759
422.344686	2515.840759
422.723444	2519.036851
423.102141	2517.577437
423.480777	2518.227745
423.859352	2518.951151
424.237866	2523.208405
424.616319	2522.432068
424.994712	2527.195958
425.373044	2529.608150
425.751314	2530.933974
426.129524	2525.817203
426.507673	2533.827596
426.885762	2535.027391
427.263789	2537.116949
427.641756	2542.967208
428.019662	2541.898483
428.397508	2543.148689
428.775292	2546.261602
429.153016	2550.289484
429.530679	2553.135215
429.908282	2558.632593
430.285824	2558.753581
430.663305	2564.356824
431.040726	2570.265056
431.418086	2574.333267
431.795385	2580.554051
432.172624	2590.003694
432.549802	2595.624580
432.926920	2604.118925
433.303977	2612.686366
433.680974	2624.034003
434.057910	2637.559419
434.434786	2649.088537
434.811601	2664.390960
435.188355	2688.815350
435.565050	2701.627443
435.941683	2720.307438
436.318257	2747.116295
436.694770	2768.095056
437.071222	2802.500931
437.447614	2816.621203
437.823946	2842.051304
438.200218	2877.243599
438.576429	2908.034967
438.952580	2952.366873
439.328670	2991.266937
439.704700	3042.802653
440.080670	3077.090061
440.456580	3141.599186
440.832429	3202.859287
441.208218	3221.037688
441.583947	3290.328348
441.959616	3355.944006
442.335224	3434.999381
442.710773	3508.698530
443.086261	3611.898511
443.461689	3654.002227
443.837057	3735.837798
444.212365	3862.194320
444.587612	3954.865851
444.962800	4016.493957
445.337927	4141.259994
445.712995	4131.016369
446.088002	4386.537334
446.462949	4519.371738
446.837837	4651.807891
447.212664	4766.708390
447.587431	5215.766812
447.962139	5718.521086
448.336786	6163.924672
448.711374	6121.337004
449.085901	5781.759840
449.460369	5915.221867
449.834776	6070.436474
450.209124	6629.596217
450.583412	6738.636375
450.957640	6987.656772
451.331808	6933.139214
451.705917	6857.935281
452.079965	7024.963831
452.453954	7280.215094
452.827883	7441.083355
453.201752	7575.528407
453.575562	7800.875546
453.949311	8252.179803
454.323001	8480.816294
454.696632	8622.051781
455.070202	9221.142504
455.443713	9482.407864
455.817164	9864.474393
456.190556	10242.359286
456.563888	10316.192025
456.937160	10661.624489
457.310373	10399.454242
457.683526	10750.101781
458.056619	10978.902110
458.429653	11201.146418
458.802628	11624.000923
459.175542	11912.627146
459.548398	12639.700162
459.921194	13518.065767
460.293930	14069.217637
460.666607	15157.990922
461.039224	16178.809452
461.411782	16656.209242
461.784280	16426.085610
462.156719	16499.605798
462.529099	16544.323353
462.901419	16244.258753
463.273680	16043.782146
463.645882	16366.438678
464.018024	16642.220040
464.390106	17345.324890
464.762130	19051.248831
465.134094	21512.703102
465.505999	24772.156903
465.877845	27773.922043
466.249631	28882.633091
466.621358	28213.566111
466.993026	27320.568557
467.364634	26443.949712
467.736184	25641.390458
468.107674	25231.148920
468.479105	25075.379787
468.850477	24967.809125
469.221790	24384.144333
469.593043	23579.465274
469.964238	23299.741729
470.335373	23501.907122
470.706449	24908.943572
471.077467	26915.020333
471.448425	30418.536557
471.819324	32755.776797
472.190164	31760.557246
472.560945	29490.807973
472.931667	27538.923616
473.302330	27014.628492
473.672934	26662.125809
474.043479	27280.839224
474.413965	26938.413808
474.784393	26886.510088
475.154761	27778.902703
475.525070	28048.964877
475.895321	27908.556139
476.265513	28580.582276
476.635645	29552.310050
477.005719	29634.561516
477.375734	30220.396525
477.745691	30967.321606
478.115588	32257.380601
478.485427	34094.518215
478.855207	37073.194870
479.224928	39530.989263
479.594591	41197.836700
479.964194	40535.907995
480.333739	40864.576102
480.703226	41116.180090
481.072653	41892.240519
481.442022	42550.630335
481.811333	43006.738812
482.180584	42050.474777
482.549777	41771.179730
482.918912	41481.953611
483.287988	41397.363049
483.657005	40824.055307
484.025964	40432.375298
484.394864	40597.203384
484.763706	40362.232683
485.132489	39719.659487
485.501213	39714.913241
485.869879	40001.439823
486.238487	39779.550916
486.607036	40096.556313
486.975527	39720.347605
487.343959	40045.191997
487.712333	40236.695349
488.080648	40283.840220
488.448905	40773.744592
488.817104	40718.740562
489.185244	41697.697351
489.553326	43373.296231
489.921350	46072.919815
490.289315	49082.778528
490.657222	49819.775056
491.025070	50223.379915
491.392861	49373.751407
491.760593	48170.798509
492.128267	46570.910198
492.495883	45168.463719
492.863440	43891.519285
493.230939	42651.345027
493.598380	41679.415607
493.965763	41439.955758
494.333088	40721.188043
494.700354	40325.573412
495.067563	40109.191966
495.434713	40043.334332
495.801805	40162.353453
496.168839	39845.095998
496.535815	39558.135877
496.902733	39627.577771
497.269593	39272.257083
497.636395	39240.613761
498.003139	39656.786217
498.369825	39161.565948
498.736453	39483.040329
499.103023	39057.037623
499.469535	38963.917429
499.835989	39076.897248
500.202385	38785.944534
500.568723	38821.499792
500.935003	39032.404025
501.301226	38866.764312
501.667390	39475.607147
502.033497	39737.898382
502.399546	39188.730205
502.765537	38558.606139
503.131470	38941.391033
503.497345	39290.848859
503.863163	38010.695731
504.228923	38613.942885
504.594625	39016.698310
504.960269	38336.598765
505.325856	39007.014253
505.691385	38397.077488
506.056856	38546.870333
506.422270	38978.037701
506.787625	38556.985408
507.152924	38760.325390
507.518164	38868.001915
507.883347	38122.886609
508.248472	38352.427988
508.613540	38837.719704
508.978550	39129.748705
509.343503	38885.151921
509.708398	39080.574770
510.073236	39604.035583
510.438016	39608.378537
510.802738	39071.825848
511.167403	39684.441987
511.532010	39919.601731
511.896561	40218.161547
512.261053	41023.160720
512.625488	40598.451070
512.989866	40463.322941
513.354186	40314.639149
513.718449	40308.478859
514.082655	40972.078708
514.446803	40655.106077
514.810894	41168.403924
515.174927	41088.506676
515.538904	41007.298729
515.902822	41643.540235
516.266684	41121.213683
516.630488	41524.327029
516.994235	41384.750082
517.357925	41936.592591
517.721558	42106.542490
518.085133	42407.375866
518.448651	42537.979559
518.812112	42308.833911
519.175516	42430.852520
519.538863	42743.739295
519.902152	42715.362640
520.265385	43161.189683
520.628560	43206.774317
520.991678	43010.756611
521.354739	43219.271337
521.717743	43540.440728
522.080690	43431.519037
522.443580	43978.464065
522.806413	44021.366805
523.169189	43977.405423
523.531908	44153.240869
523.894569	44021.021486
524.257174	44183.298749
524.619722	44470.954549
524.982213	44465.126975
525.344647	44386.484975
525.707025	44429.264207
526.069345	44838.605899
526.431608	44735.473974
526.793815	45057.288632
527.155964	44609.004027
527.518057	44751.673722
527.880093	44552.603597
528.242072	45078.693372
528.603995	44767.003870
528.965860	44774.406805
529.327669	44877.513524
529.689421	44776.882011
530.051117	44749.538793
530.412755	44882.824380
530.774337	44938.176249
531.135862	44747.993679
531.497331	44951.565554
531.858743	44863.151277
532.220098	45191.128746
532.581396	44913.151962
532.942638	44578.994038
533.303824	44874.498914
533.664953	44852.713568
534.026025	44575.228296
534.387040	45036.766095
534.747999	44972.957690
535.108902	45137.143030
535.469748	44676.215210
535.830537	44789.991532
536.191270	44995.998284
536.551947	44645.254964
536.912567	44938.682885
537.273131	45055.995576
537.633638	44554.632662
537.994089	44899.752575
538.354483	44519.112692
538.714821	45080.268732
539.075103	45401.460808
539.435328	45195.688470
539.795497	45077.244040
540.155609	45051.423250
540.515665	45518.024888
540.875665	44962.769518
541.235609	45302.409697
541.595496	45284.175843
541.955328	45915.635815
542.315102	45314.884032
542.674821	45095.820692
543.034483	45139.411549
543.394090	45121.177696
543.753640	45068.719449
544.113134	46047.736731
544.472571	45097.464108
544.831953	46319.580952
545.191278	45536.795624
545.550548	45271.963648
545.909761	45722.305045
546.268918	45914.804025
546.628019	46228.136942
546.987064	45795.235418
547.346053	45087.170072
547.704986	45942.106914
548.063863	45515.907603
548.422684	45712.452110
548.781449	45571.163691
549.140158	45952.615199
549.498811	45796.341951
549.857408	45249.565802
550.215949	46077.091370
550.574434	45996.458114
550.932864	45796.586447
551.291237	46500.404620
551.649555	46097.248424
552.007817	46350.848709
552.366022	45997.897364
552.724173	46167.446491
553.082267	46564.447439
553.440305	46831.305959
553.798288	46198.646192
554.156215	46490.990266
554.514086	46701.982719
554.871902	46454.026005
555.229661	46455.001468
555.587365	46295.542210
555.945014	46390.288176
556.302606	46334.664085
556.660143	46549.772640
557.017625	46630.050494
557.375050	46424.867971
557.732421	46765.591998
558.089735	46764.540917
558.446994	46680.653597
558.804197	47132.434243
559.161345	47068.807319
559.518437	46338.112234
559.875474	46659.642067
560.232455	46833.952565
560.589381	46984.390678
560.946251	46683.035542
561.303065	47357.935137
561.659825	47169.632917
562.016528	46855.253960
562.373177	46567.837615
562.729770	47060.597800
563.086307	46573.093018
563.442789	47038.106692
563.799216	47080.759895
564.155587	46886.864515
564.511904	46918.941377
564.868164	47017.011984
565.224370	47240.685460
565.580520	46996.305445
565.936615	47203.375880
566.292654	46931.042667
566.648638	47160.727719
567.004567	47125.656411
567.360441	47159.243099
567.716260	47044.483752
568.072023	47334.269440
568.427732	47304.793813
568.783385	46869.172586
569.138982	47260.625744
569.494525	47230.025940
569.850013	46986.404619
570.205445	46983.299268
570.560823	46923.624609
570.916145	46802.054664
571.271412	46842.235180
571.626625	46605.600898
571.981782	46678.140582
572.336884	46361.326748
572.691931	46686.254319
573.046923	46289.641540
573.401860	46134.636141
573.756743	46130.799823
574.111570	46238.551966
574.466342	46113.410363
574.821059	46225.308855
575.175722	45754.961639
575.530330	45767.637621
575.884882	45510.947108
576.239380	45467.101673
576.593823	45459.935672
576.948211	45355.540938
577.302544	44906.041414
577.656823	44955.946317
578.011047	45161.723696
578.365216	44889.282098
578.719330	44705.108583
579.073389	44551.703751
579.427394	44635.593593
579.781344	44614.103154
580.135239	44281.024037
580.489080	44341.908572
580.842866	43843.955998
581.196597	44298.902489
581.550273	44260.040234
581.903895	44113.934993
582.257463	44541.460127
582.610975	43937.681131
582.964434	44219.521960
583.317837	43877.714085
583.671186	43716.639137
584.024481	43942.059373
584.377721	43476.755832
584.730906	43763.640335
585.084037	43796.879183
585.437113	43514.751008
585.790135	43549.686204
586.143103	43173.069162
586.496016	43275.492805
586.848874	43307.524297
587.201679	43324.097090
587.554428	42795.174187
587.907124	43000.744880
588.259765	42756.014504
588.612352	43014.350954
588.964884	42418.383226
589.317362	42701.658263
589.669786	42647.627176
590.022155	42411.134046
590.374470	42825.779033
590.726731	42373.973181
591.078937	41892.716908
591.431090	41977.085659
591.783188	41652.677327
592.135232	41317.644763
592.487222	41560.731722
592.839157	41660.765858
593.191038	41329.642709
593.542866	41113.788063
593.894639	40498.863076
594.246358	40784.809925
594.598022	40749.990675
594.949633	40365.300225
595.301190	40333.699752
595.652692	40165.478969
596.004141	40492.927117
596.355535	39507.101756
596.706876	39474.924071
597.058162	39287.927510
597.409395	39751.983366
597.760573	39849.776709
598.111698	39401.499665
598.462768	39428.331207
598.813785	39475.234102
599.164748	38923.232797
599.515657	39330.792441
599.866511	38803.417173
600.217312	39405.908154
600.568060	38390.345027
600.918753	39112.240778
601.269392	39077.003113
601.619978	38745.867361
601.970510	38946.296076
602.320988	39129.579827
602.671412	39424.300804
603.021783	39170.740848
603.372100	38824.108589
603.722363	38936.349879
604.072572	38996.022017
604.422728	39007.856126
604.772830	38822.583640
605.122878	38924.934186
605.472872	38860.109989
605.822813	39135.702308
606.172701	38967.040424
606.522534	39195.439981
606.872314	39466.142381
607.222041	39210.782733
607.571714	39599.591806
607.921333	39062.151873
608.270899	39352.134166
608.620411	39675.244401
608.969870	39483.345318
609.319276	39474.261159
609.668627	39542.079802
610.017926	40010.889466
610.367171	40158.441518
610.716362	40257.810222
611.065500	40200.330986
611.414585	40394.183516
611.763616	40686.565398
612.112594	40601.506009
612.461518	40826.971615
612.810389	41106.478390
613.159207	40987.479433
613.507971	41048.474874
613.856682	41518.214630
614.205340	41406.790007
614.553945	42096.248454
614.902496	41552.469271
615.250994	42014.092769
615.599439	42085.415014
615.947830	42288.200469
616.296169	42348.081815
616.644454	42478.325065
616.992686	42663.486646
617.340864	43163.440558
617.688990	42887.170204
618.037063	43488.940300
618.385082	43450.987974
618.733048	43732.780912
619.080961	43763.640335
619.428821	43755.955096
619.776628	43863.210685
620.124382	43684.239642
620.472083	43820.038244
620.819731	43932.771047
621.167326	43605.355666
621.514868	43597.078092
621.862357	43147.172755
622.209793	43161.240095
622.557176	42855.786501
622.904506	42596.862757
623.251783	42245.333017
623.599007	42029.309492
623.946179	41817.311329
624.293297	41774.103599
624.640363	41174.700325
624.987376	41170.385097
625.334336	40922.108270
625.681243	40563.074773
626.028097	40543.449561
626.374899	40390.145552
626.721647	40369.234846
627.068343	40253.293348
627.414987	40023.071414
627.761577	39804.857508
628.108115	40144.568263
628.454600	39588.007234
628.801032	39777.158888
629.147412	39742.773178
629.493739	39757.251372
629.840014	39392.448273
630.186236	39739.718238
630.532405	39356.522491
630.878521	39577.231768
631.224585	39457.650557
631.570597	39168.270683
631.916556	39336.191517
632.262462	39291.007655
632.608316	39296.671392
632.954117	39179.520017
633.299866	39183.358856
633.645562	39085.873023
633.991206	38599.348745
634.336797	38178.651853
634.682336	38174.003909
635.027823	37928.882845
635.373257	37737.276149
635.718639	37498.050714
636.063968	37372.273925
636.409245	36797.809239
636.754470	36838.241813
637.099642	36607.561134
637.444762	36145.884703
637.789829	36281.300177
638.134845	35944.104958
638.479808	35889.642853
638.824719	35796.724305
639.169577	35394.299076
639.514383	35464.666022
639.859137	35169.637534
640.203839	35404.701497
640.548489	35052.158485
640.893086	35122.606089
641.237632	34868.116040
641.582125	34984.609544
641.926566	34908.392339
642.270955	34889.311572
642.615292	34912.412659
642.959576	34882.342176
643.303809	34869.812388
643.647990	35019.731263
643.992118	34972.856094
644.336195	34987.808156
644.680219	35084.661324
645.024192	35382.298609
645.368112	35882.333180
645.711981	35887.606227
646.055797	36758.394977
646.399562	36688.403597
646.743274	37623.706514
647.086935	38066.218999
647.430544	37950.040567
647.774101	38078.131246
648.117606	38318.647216
648.461059	38604.936864
648.804460	38213.851710
649.147810	37617.606718
649.491108	37354.143415
649.834354	36997.111256
650.177548	36189.251229
650.520690	35742.836891
650.863781	35756.657214
651.206820	35599.794151
651.549807	35168.707441
651.892742	34686.836148
652.235626	34499.181717
652.578458	34358.921693
652.921238	33776.086171
653.263967	34091.891774
653.606644	33792.913542
653.949269	33735.835078
654.291843	33350.733774
654.634365	33743.343876
654.976836	33348.803012
655.319255	33332.114272
655.661622	33340.550643
656.003938	33108.826445
656.346203	32969.698160
656.688416	33194.815926
657.030577	33009.603934
657.372687	32830.073322
657.714746	33101.607512
658.056753	33223.031264
658.398708	32670.057017
658.740612	32735.024887
659.082465	33000.091277
659.424266	32833.939887
659.766016	32952.154945
660.107715	32842.104036
660.449362	32963.999136
660.790958	32936.615588
661.132503	32971.391988
661.473996	32997.086749
661.815438	33104.488532
662.156829	33304.009839
662.498168	33073.495518
662.839456	33110.038842
663.180693	33248.794081
663.521879	33408.762496
663.863013	33361.627707
664.204097	33362.310783
664.545129	33820.957481
664.886110	33782.012047
665.227040	33838.999771
665.567918	33954.031340
665.908746	34041.853281
666.249522	34199.560738
666.590248	34176.149619
666.930922	34313.505938
667.271545	34267.351654
667.612118	34344.778736
667.952639	34134.925584
668.293109	34188.523131
668.633528	34082.341308
668.973896	34001.042620
669.314213	34040.741706
669.654480	33776.277734
669.994695	33806.819565
670.334859	33699.049778
670.674973	33589.813015
671.015035	33752.173457
671.355047	33708.542271
671.695008	33663.418903
672.034918	33565.181938
672.374777	33626.399189
672.714585	33474.151302
673.054342	33708.096129
673.394049	33467.529747
673.733705	33748.395113
674.073310	33410.000099
674.412864	33477.037363
674.752368	33081.253854
675.091820	33371.221023
675.431223	32948.878195
675.770574	32686.831456
676.109875	32547.640157
676.449125	32259.417227
676.788324	32191.069263
677.127473	31661.128048
677.466571	31588.174990
677.805619	31245.749574
678.144616	31237.900497
678.483562	31166.671514
678.822458	30826.106283
679.161303	30764.014392
679.500098	30694.804390
679.838842	30565.355121
680.177535	30720.214326
680.516179	30997.891163
680.854771	31247.171179
681.193314	32104.482405
681.531805	33219.815008
681.870247	34011.268600
682.208638	34730.696707
682.546978	34958.640040
682.885268	35049.879883
683.223508	34510.027759
683.561697	34183.562636
683.899836	33991.661032
684.237925	33484.432735
684.575963	33325.888447
684.913951	32882.995355
685.251889	33046.081723
685.589776	33021.838814
685.927614	33021.551469
686.265401	33171.762730
686.603137	33276.286014
686.940824	33774.818320
687.278460	34154.142462
687.616046	34292.275119
687.953582	34907.900826
688.291068	34784.637053
688.628504	35043.593564
688.965889	34983.863453
689.303224	34589.889718
689.640510	34234.289247
689.977745	33510.818135
690.314930	32718.179871
690.652065	32182.879909
690.989150	31445.931272
691.326185	30553.510930
691.663170	29841.868886
692.000105	29092.435832
692.336990	28416.959025
692.673825	27957.909035
693.010610	27450.058156
693.347345	26868.064506
693.684030	26229.365437
694.020665	25966.680992
694.357251	25294.818693
694.693786	25242.085703
695.030272	25018.928946
695.366707	24476.841070
695.703093	24187.589744
696.039429	24179.516337
696.375716	23921.961266
696.711952	23891.900866
697.048139	23740.036106
697.384276	23565.982708
697.720363	23689.415360
698.056400	23486.133351
698.392388	23273.384056
698.728326	23224.552919
699.064214	23023.115973
699.400053	22954.720119
699.735842	22608.682716
700.071581	22322.687976
700.407270	22042.908978
700.742910	21851.330009
701.078501	21593.417016
701.414042	21301.554373
701.749533	21016.371259
702.084974	20668.135913
702.420366	20863.223526
702.755709	20432.850140
703.091002	20141.559667
703.426246	20162.538429
703.761440	20062.300126
704.096584	19793.369692
704.431679	19755.931563
704.766725	19664.101904
705.101721	19600.936247
705.436668	19691.190545
705.771565	19374.268326
706.106413	19705.782164
706.441212	19685.163845
706.775961	19822.000925
707.110661	19893.121524
707.445311	20246.524052
707.779913	20086.490103
708.114465	20340.128197
708.448967	20628.686364
708.783421	21321.658495
709.117825	21596.678643
709.452180	21810.968011
709.786485	22214.572870
710.120742	23017.008616
710.454949	23026.581767
710.789107	23499.530218
711.123216	24198.541651
711.457275	24327.774151
711.791286	24861.511355
712.125247	24934.935761
712.459159	24633.126921
712.793023	25285.185048
713.126837	24165.736342
713.460602	24428.141003
713.794318	24042.570872
714.127985	23651.740296
714.461602	22764.051077
714.795171	22710.798849
715.128691	21701.859797
715.462162	21160.765029
715.795584	20748.136504
716.128957	20480.922583
716.462281	20082.195040
716.795556	19837.212607
717.128782	19364.901862
717.461960	18810.848807
717.795088	18734.001458
718.128167	18328.382658
718.461198	17879.120068
718.794180	17735.419457
719.127113	17378.019294
719.459997	17175.475814
719.792833	16838.966192
720.125619	16805.503013
720.458357	16489.533572
720.791046	16322.361349
721.123686	16165.261351
721.456278	15927.177737
721.788821	15894.047274
722.121315	15631.120854
722.453761	15704.935949
722.786158	15628.799403
723.118506	15646.808925
723.450805	15508.096536
723.783056	15661.433312
724.115259	15565.144753
724.447412	15510.541495
724.779518	15736.206227
725.111574	15767.831905
725.443582	15957.190247
725.775542	15951.473578
726.107453	16410.997437
726.439315	16300.641538
726.771129	16696.714913
727.102895	17068.772232
727.434612	17268.711955
727.766281	17399.741626
728.097901	17658.141089
728.429473	17693.729115
728.760996	17669.531577
729.092471	17745.504286
729.423897	17631.370042
729.755276	17491.460379
730.086606	17599.598170
730.417887	18132.652298
730.749120	18648.616915
731.080305	18824.487649
731.411442	19159.200100
731.742530	19227.464885
732.073570	19320.456529
732.404562	19607.353636
732.735506	19415.144522
733.066401	19132.111460
733.397249	18614.294219
733.728048	17976.283267
734.058798	17144.074467
734.389501	16472.418855
734.720156	16011.201169
735.050762	15496.015411
735.381320	15140.402336
735.711831	14898.331169
736.042293	14551.131781
736.372707	14560.263831
736.703073	14358.481566
737.033391	14542.224062
737.363661	14513.199618
737.693883	14619.189878
738.024056	14781.111740
738.354182	14977.767151
738.684260	15255.254944
739.014290	15477.458923
739.344272	15674.857905
739.674207	15954.485668
740.004093	16060.659929
740.333931	16050.693568
740.663722	16094.430619
740.993464	16083.100626
741.323159	15901.949283
741.652806	15626.341840
741.982405	15411.613892
742.311956	15073.251646
742.641460	14947.699189
742.970915	14656.166742
743.300323	14319.130319
743.629683	14100.250981
743.958996	13827.827027
744.288260	13565.407243
744.617477	13265.695523
744.946647	13194.267414
745.275768	12914.188468
745.604842	12727.138975
745.933869	12566.610993
746.262847	12518.815813
746.591778	12446.578599
746.920662	12351.091584
747.249498	12338.042557
747.578286	12466.125673
747.907027	12610.675719
748.235720	12821.199344
748.564365	12856.348790
748.892963	12759.379675
749.221514	12815.167604
749.550017	12672.293742
749.878473	12631.934264
750.206881	12422.738983
750.535242	12320.368272
750.863555	12239.387176
751.191821	12139.443781
751.520039	12163.502687
751.848210	12072.638410
752.176334	12097.612286
752.504411	12005.167607
752.832440	11846.051147
753.160421	11913.650500
753.488356	11789.509566
753.816243	11700.341637
754.144082	11565.158055
754.471875	11504.575989
754.799620	11447.963831
755.127318	11421.127248
755.454969	11384.203317
755.782572	11336.347644
756.110129	11344.557163
756.437638	11261.194122
756.765100	11253.753379
757.092515	11258.373597
757.419882	11276.814137
757.747203	11280.970569
758.074477	11351.647546
758.401703	11318.396095
758.728882	11473.711524
759.056014	11516.100066
759.383099	11631.928138
759.710138	11732.910011
760.037129	11816.633494
760.364073	11836.992194
760.690970	11821.987199
761.017820	11813.177783
761.344623	11994.888694
761.671379	12323.440855
761.998088	12952.612143
762.324751	14502.356097
762.651366	17354.197321
762.977935	21025.765449
763.304456	23236.059353
763.630931	23716.667837
763.957359	22525.957381
764.283740	20613.888057
764.610074	18734.745028
764.936362	16614.735669
765.262602	15096.897178
765.588796	13631.469043
765.914943	12603.169441
766.241044	11759.343301
766.567097	11131.520522
766.893104	10583.259753
767.219064	10221.675432
767.544978	9844.062762
767.870845	9531.763281
768.196665	9342.944343
768.522438	9146.667018
768.848165	8992.495930
769.173846	8819.808685
769.499479	8699.143626
769.825066	8542.610758
770.150607	8358.709466
770.476101	8295.188407
770.801548	8187.947941
771.126949	8047.425778
771.452303	7956.811037
771.777611	7793.051675
772.102872	7774.270857
772.428087	7658.830954
772.753256	7530.984772
773.078378	7448.135929
773.403453	7308.344733
773.728482	7199.609565
774.053465	7139.045143
774.378401	7054.081536
774.703291	6957.737524
775.028135	6867.299224
775.352932	6830.579459
775.677683	6746.689618
776.002388	6657.045300
776.327046	6659.081926
776.651658	6570.660088
776.976224	6492.388612
777.300743	6477.882692
777.625216	6412.748464
777.949643	6367.796495
778.274024	6376.134564
778.598359	6306.952289
778.922647	6309.823226
779.246889	6271.941475
779.571086	6279.288957
779.895236	6290.807994
780.219339	6283.866325
780.543397	6286.661645
780.867409	6335.621331
781.191374	6329.967677
781.515294	6295.516431
781.839167	6349.189596
782.162995	6319.512324
782.486776	6274.091527
782.810511	6231.748356
783.134201	6154.676675
783.457844	6145.501775
783.781441	6095.443117
784.104993	6052.951232
784.428498	6021.189442
784.751958	6002.781669
785.075372	5981.434903
785.398739	5947.666734
785.722061	5964.605011
786.045337	5964.652902
786.368568	6069.672739
786.691752	6099.339929
787.014891	6346.132137
787.337983	6624.083716
787.661030	7064.579739
787.984031	7484.936352
788.306987	7753.763443
788.629897	7837.640681
788.952760	7751.401662
789.275579	7574.610917
789.598351	7274.712675
789.921078	7009.091758
790.243759	6733.136476
790.566395	6525.713160
790.888984	6330.975908
791.211529	6193.682603
791.534027	6032.428694
791.856480	5900.111009
792.178888	5829.723898
792.501249	5771.836329
792.823566	5665.904042
793.145836	5661.392210
793.468062	5643.082739
793.790241	5604.780052
794.112375	5645.714221
794.434464	5742.741309
794.756507	5769.903046
795.078505	5890.636160
795.400457	6112.779646
795.722364	6354.863415
796.044226	6544.567075
796.366042	6701.820828
796.687812	6642.882178
797.009538	6675.042219
797.331218	6580.828095
797.652852	6518.675709
797.974442	6393.004785
798.295986	6317.856305
798.617484	6193.861564
798.938938	6086.550522
799.260346	6018.817579
799.581709	5877.713162
799.903026	5830.845555
800.224299	5753.027784
800.545526	5638.679291
800.866708	5578.162760
801.187845	5525.588566
801.508936	5448.257266
801.829983	5421.040077
802.150984	5313.776926
802.471940	5287.487308
802.792851	5267.703300
803.113717	5248.347790
803.434538	5227.210232
803.755314	5188.736146
804.076045	5181.786915
804.396731	5145.334332
804.717372	5161.816384
805.037967	5164.646992
805.358518	5195.030026
805.679024	5253.303244
805.999485	5259.776086
806.319901	5279.310557
806.640272	5296.863854
806.960598	5347.083829
807.280879	5339.615360
807.601115	5372.728179
807.921306	5337.966902
808.241453	5335.771480
808.561554	5339.370864
808.881611	5308.662675
809.201623	5299.439884
809.521590	5256.156537
809.841513	5240.213888
810.161390	5258.346918
810.481223	5170.000697
810.801011	5153.175846
811.120755	5126.729953
811.440453	5071.126026
811.760107	5040.992529
812.079716	5018.866905
812.399281	4968.989729
812.718801	4961.705262
813.038276	4927.135549
813.357707	4893.793358
813.677093	4912.059978
813.996434	4851.803067
814.315731	4871.208988
814.634983	4867.748236
814.954191	4876.461871
815.273354	4930.755098
815.592473	4979.258559
815.911547	5049.572573
816.230577	5105.680615
816.549562	5192.564902
816.868502	5241.796810
817.187399	5297.544410
817.506250	5379.513572
817.825058	5405.707407
818.143821	5560.183484
818.462539	5731.476851
818.781213	5963.092664
819.099843	6316.396891
819.418429	6947.156142
819.736970	7569.423570
820.055466	8284.090307
820.373919	9195.873721
820.692327	10648.101594
821.010691	13338.346112
821.329011	19556.324556
821.647286	29173.363995
821.965517	39578.660935
822.283704	45090.580412
822.601847	46573.697956
822.919945	41962.844399
823.237999	36816.315314
823.556010	31581.210636
823.873976	26853.314090
824.191897	22632.408906
824.509775	19544.782834
824.827609	16776.080319
825.145398	15213.592328
825.463144	14456.254745
825.780845	14742.047838
826.098502	16007.574059
826.416116	18471.871540
826.733685	20771.850092
827.051210	21310.469654
827.368692	19878.731550
827.686129	17306.180331
828.003522	14817.634899
828.320872	12591.675610
828.638177	10931.106930
828.955439	9685.397485
829.272656	8628.151577
829.589830	7777.850076
829.906960	7046.620628
830.224046	6508.540469
830.541088	6104.242452
830.858086	5842.881310
831.175041	5638.580988
831.491952	5578.598819
831.808819	5612.576196
832.125642	5862.420822
832.442421	6407.782927
832.759157	7518.172679
833.075849	9289.187999
833.392497	11147.604323
833.709101	12274.919749
834.025662	12025.430525
834.342179	10963.471138
834.658653	9657.794647
834.975083	8545.905152
835.291469	7639.407388
835.607811	6898.713174
835.924110	6376.999122
836.240366	5888.039966
836.556578	5434.530204
836.872746	5081.271348
837.188871	4807.922343
837.504952	4589.859672
837.820990	4422.657201
838.136984	4307.411383
838.452935	4256.440277
838.768842	4287.027478
839.084706	4569.843770
839.400526	5309.449095
839.716303	6214.658844
840.032037	6781.004753
840.347727	6636.863041
840.663373	6040.814654
840.978977	5454.210869
841.294537	5012.560422
841.610054	4684.023384
841.925527	4444.911375
842.240957	4240.137185
842.556344	4055.530131
842.871687	3897.936100
843.186987	3746.393975
843.502244	3628.405769
843.817458	3537.987633
844.132629	3466.630101
844.447756	3418.683687
844.762840	3374.218189
845.077881	3336.482632
845.392879	3299.276396
845.707833	3278.002727
846.022745	3250.823346
846.337613	3237.532344
846.652438	3214.486709
846.967221	3204.278372
847.281960	3183.254240
847.596656	3173.910462
847.911309	3161.289933
848.225919	3150.123777
848.540485	3138.763537
848.855009	3133.944194
849.169490	3124.585292
849.483928	3116.998355
849.798323	3110.553240
850.112675	3098.346086
850.426984	3100.538988
850.741251	3091.759818
851.055474	3089.425764
851.369654	3095.616301
851.683792	3087.487441
851.997887	3088.110023
852.311938	3093.153697
852.625947	3092.556321
852.939914	3083.189857
853.253837	3092.974737
853.567718	3090.703697
853.881555	3084.470310
854.195350	3088.513315
854.509103	3089.163624
854.822812	3084.099785
855.136479	3079.020823
855.450103	3083.527614
855.763685	3077.188363
856.077224	3079.958477
856.390720	3087.764704
856.704173	3099.170315
857.017584	3105.310440
857.330953	3108.632560
857.644278	3115.095320
857.957561	3120.885085
858.270802	3112.975514
858.584000	3117.154631
858.897155	3109.287910
859.210268	3098.441868
859.523339	3086.262440
859.836367	3084.172882
860.149352	3078.292376
860.462295	3072.863053
860.775195	3065.792835
861.088054	3064.199830
861.400869	3064.887948
861.713642	3058.591547
862.026373	3069.135120
862.339062	3073.722570
862.651708	3081.622058
862.964312	3098.272989
863.276873	3109.844958
863.589392	3137.218423
863.901869	3165.486693
864.214303	3183.657532
864.526696	3204.480018
864.839045	3220.231104
865.151353	3234.003536
865.463619	3233.423803
865.775842	3238.051582
866.088023	3241.376223
866.400162	3233.128896
866.712258	3234.913464
867.024313	3232.836509
867.336325	3231.520768
867.648296	3235.619226
867.960224	3229.128740
868.272110	3236.526633
868.583954	3237.179463
868.895755	3242.041656
869.207515	3240.320102
869.519233	3260.293153
869.830909	3262.639810
870.142542	3275.850154
870.454134	3282.736370
870.765684	3295.361940
871.077191	3310.712253
871.388657	3327.527022
871.700081	3345.574353
872.011463	3366.774925
872.322803	3381.190105
872.634101	3398.448495
872.945357	3423.026641
873.256571	3447.425825
873.567744	3466.093218
873.878874	3474.620330
874.189963	3484.526197
874.501010	3490.378977
874.812015	3484.901763
875.122979	3500.431037
875.433900	3496.093124
875.744780	3499.783249
876.055618	3507.299609
876.366415	3506.868591
876.677169	3512.086185
876.987882	3527.769215
877.298554	3545.796381
877.609183	3590.178699
877.919771	3634.961789
878.230317	3706.094991
878.540822	3809.431083
878.851285	3961.530256
879.161707	4184.969318
879.472087	4557.160227
879.782425	5190.515673
880.092722	6388.336677
880.402977	8333.019746
880.713191	10731.691487
881.023363	13156.163853
881.333494	14524.121278
881.643583	14987.710827
881.953631	14568.637187
882.263637	13714.849728
882.573602	12660.923420
882.883526	11696.044053
883.193408	10729.226363
883.503248	9803.252101
883.813048	8965.760171
884.122806	8189.127571
884.432522	7421.470746
884.742197	6752.360916
885.051831	6176.441857
885.361424	5678.580024
885.670975	5278.524137
885.980485	4952.666473
886.289954	4677.520296
886.599382	4463.455259
886.908768	4283.498670
887.218113	4115.960963
887.527417	3984.875840
887.836680	3861.017210
888.145901	3757.988628
888.455082	3682.497350
888.764221	3614.071248
889.073319	3553.695869
889.382376	3520.572968
889.691392	3494.369050
890.000366	3485.307576
890.309300	3485.748677
890.618193	3485.599963
890.927044	3478.807008
891.235855	3489.731188
891.544625	3504.504290
891.853353	3529.664688
892.162041	3594.511571
892.470687	3686.177392
892.779293	3806.817245
893.087858	3977.367041
893.396381	4260.919342
893.704864	4674.440151
894.013306	5249.504735
894.321707	5830.570812
894.630068	6193.957346
894.938387	6228.884980
895.246665	6057.752931
895.554903	5733.964660
895.863100	5392.991097
896.171256	5117.176967
896.479371	4876.555132
896.787446	4646.754134
897.095480	4450.214669
897.403473	4298.276813
897.711425	4154.251047
898.019336	4027.685318
898.327207	3905.719642
898.635038	3801.516471
898.942827	3697.792210
899.250576	3607.656380
899.558284	3524.043802
899.865952	3464.331335
900.173579	3402.541912
900.481165	3359.273688
900.788711	3316.123932
901.096216	3284.727626
901.403681	3256.043461
901.711105	3241.719022
902.018489	3239.604258
902.325832	3272.482663
902.633135	3331.290243
902.940397	3507.138293
903.247619	3909.515631
903.554800	4671.783463
903.861941	5649.381661
904.169041	6360.496904
904.476101	6581.012097
904.783121	6305.712165
905.090100	5891.825873
905.397039	5472.464887
905.703938	5114.180001
906.010796	4782.900576
906.317614	4525.723592
906.624391	4283.070172
906.931129	4089.247889
907.237826	3905.049168
907.544483	3730.587437
907.851099	3559.662074
908.157675	3395.622928
908.464211	3255.125971
908.770707	3151.976401
909.077163	3073.253743
909.383578	3013.828621
909.689954	2966.134265
909.996289	2939.217024
910.302584	2916.902356
910.608839	2903.770150
910.915054	2891.961247
911.221229	2887.222563
911.527363	2888.986967
911.833458	2896.011815
912.139513	2910.794998
912.445527	2924.443922
912.751502	2958.040692
913.057436	3003.703464
913.363331	3059.758574
913.669186	3149.123108
913.975000	3266.140892
914.280775	3454.009572
914.586510	3725.611818
914.892205	4105.498048
915.197859	4610.200727
915.503475	5201.333989
915.809050	5708.479107
916.114585	6001.581874
916.420081	6070.839766
916.725536	6006.865003
917.030952	5763.778044
917.336328	5553.526641
917.641665	5336.142005
917.946961	5108.833857
918.252218	4902.494389
918.557435	4674.851005
918.862612	4470.258297
919.167750	4301.079694
919.472848	4106.234057
919.777906	3933.219136
920.082925	3775.345321
920.387904	3616.143162
920.692843	3504.272397
920.997743	3404.807911
921.302603	3311.632264
921.607423	3243.594331
921.912204	3177.729136
922.216946	3128.403966
922.521647	3079.338415
922.826310	3037.534647
923.130932	2999.085767
923.435516	2959.192596
923.740059	2931.771239
924.044564	2899.258318
924.349028	2875.627909
924.653454	2846.787468
924.957840	2818.723364
925.262186	2798.896506
925.566493	2777.012857
925.870761	2752.530494
926.174989	2741.828124
926.479178	2727.677605
926.783328	2711.266129
927.087438	2700.440251
927.391509	2686.133457
927.695541	2671.884635
927.999533	2664.441372
928.303486	2656.289826
928.607400	2646.716675
928.911275	2646.774648
929.215110	2638.716363
929.518906	2634.501959
929.822663	2634.171763
930.126381	2633.045065
930.430060	2638.741569
930.733699	2639.580921
931.037299	2643.765079
931.340861	2640.969759
931.644383	2644.546458
931.947866	2642.955974
932.251309	2640.944553
932.554714	2641.970428
932.858080	2636.767957
933.161407	2635.240488
933.464694	2631.257976
933.767943	2625.705145
934.071153	2624.112141
934.374323	2620.285905
934.677455	2614.957405
934.980548	2613.707199
935.283602	2610.921962
935.586617	2609.233175
935.889593	2613.112343
936.192530	2615.794237
936.495428	2619.060905
936.798287	2630.947945
937.101108	2645.148876
937.403890	2663.443223
937.706632	2692.139991
938.009336	2726.109807
938.312002	2755.474528
938.614628	2778.131994
938.917216	2798.732669
939.219765	2809.293886
939.522275	2818.778817
939.824747	2819.918118
940.127179	2810.327323
940.429573	2804.547640
940.731929	2804.633339
941.034246	2795.937349
941.336524	2795.370219
941.638763	2786.568365
941.940964	2778.358846
942.243126	2764.793101
942.545250	2752.485123
942.847335	2741.437435
943.149381	2724.690722
943.451389	2710.658670
943.753359	2698.711135
944.055290	2691.754343
944.357182	2683.282684
944.659036	2674.518638
944.960851	2673.097033
945.262628	2667.324912
945.564367	2668.912875
945.866067	2667.672751
946.167729	2665.736948
946.469352	2665.643687
946.770937	2664.874911
947.072484	2656.042809
947.373992	2656.597336
947.675462	2654.069197
947.976893	2646.356232
948.278286	2644.859009
948.579641	2639.775006
948.880958	2638.849954
949.182236	2638.101343
949.483476	2635.484984
949.784678	2632.021711
950.085841	2634.305354
950.386967	2636.536064
950.688054	2642.303144
950.989103	2651.281439
951.290114	2661.512461
951.591087	2668.731393
951.892021	2682.914680
952.192917	2698.010415
952.493776	2703.636343
952.794596	2708.430480
953.095378	2713.237220
953.396122	2707.588607
953.696828	2708.228834
953.997496	2704.813452
954.298126	2690.783921
954.598718	2687.103879
954.899272	2669.399346
955.199788	2661.414159
955.500266	2651.052067
955.800706	2636.031949
956.101108	2618.491254
956.401472	2605.417022
956.701798	2591.379929
957.002087	2577.988104
957.302337	2571.137176
957.602550	2555.262582
957.902724	2542.926879
958.202861	2537.411856
958.502960	2529.590506
958.803022	2522.653878
959.103045	2512.445542
959.403031	2508.899090
959.702979	2499.890548
960.002889	2497.735455
960.302762	2491.040803
960.602596	2489.195740
960.902393	2484.636017
961.202153	2481.076962
961.501875	2479.602425
961.801559	2478.342136
962.101205	2474.447845
962.400814	2470.770323
962.700385	2469.159674
962.999918	2467.566670
963.299414	2466.714715
963.598873	2465.938377
963.898293	2464.983078
964.197677	2462.308746
964.497022	2459.916719
964.796331	2460.466205
965.095601	2458.023766
965.394835	2459.883951
965.694030	2457.902778
965.993189	2458.628704
966.292309	2458.043930
966.591393	2456.080401
966.890439	2455.629218
967.189447	2457.474280
967.488419	2453.789196
967.787353	2456.284567
968.086249	2456.917232
968.385108	2457.686008
968.683930	2460.072995
968.982714	2461.272789
969.281462	2457.343210
969.580172	2462.694395
969.878844	2465.812348
970.177480	2467.670013
970.476078	2469.184880
970.774639	2474.188225
971.073162	2476.302989
971.371649	2476.774337
971.670098	2477.591004
971.968510	2479.408340
972.266885	2476.217290
972.565223	2483.025368
972.863524	2483.146356
973.161788	2486.178610
973.460014	2488.343785
973.758204	2485.661892
974.056356	2487.454022
974.354471	2488.404279
974.652550	2487.932931
974.950591	2489.931749
975.248595	2488.820174
975.546563	2486.125678
975.844493	2484.729278
976.142386	2486.967550
976.440243	2476.983545
976.738062	2480.945892
977.035845	2474.341981
977.333590	2473.384161
977.631299	2469.537761
977.928971	2468.655559
978.226606	2467.125569
978.524204	2467.337297
978.821765	2466.291258
979.119290	2464.403346
979.416777	2464.058027
979.714228	2467.785960
980.011642	2467.417956
980.309020	2473.028760
980.606360	2472.554892
980.903664	2485.097282
981.200931	2495.897954
981.498162	2518.976357
981.795356	2546.062476
982.092513	2586.608477
982.389633	2630.801752
982.686717	2674.470747
982.983764	2705.120962
983.280775	2726.434961
983.577749	2724.650392
983.874686	2714.091696
984.171587	2700.173070
984.468451	2683.133970
984.765279	2664.131341
985.062070	2641.481436
985.358824	2627.222533
985.655543	2601.426948
985.952224	2580.448187
986.248869	2552.494989
986.545478	2525.890299
986.842050	2504.639315
987.138586	2484.341109
987.435086	2474.520942
987.731549	2462.338993
988.027975	2454.308435
988.324366	2447.079421
988.620719	2447.313834
988.917037	2440.798143
989.213318	2440.205807
989.509563	2439.237906
989.805772	2433.236412
990.101944	2433.647266
990.398080	2434.521906
990.694180	2431.950918
990.990244	2435.041145
991.286271	2432.858326
991.582262	2432.228181
991.878217	2436.067020
992.174136	2434.506783
992.470019	2437.226485
992.765865	2436.135076
993.061676	2443.290993
993.357450	2442.307968
993.653188	2446.141766
993.948890	2452.223918
994.244556	2459.533591
994.540186	2465.736731
994.835780	2478.717702
995.131337	2494.430979
995.426859	2507.641322
995.722345	2530.359282
996.017795	2548.242775
996.313208	2561.949673
996.608586	2571.921075
996.903928	2573.844275
997.199234	2575.797722
997.494504	2573.254460
997.789738	2567.066444
998.084936	2554.640000
998.380099	2542.110212
998.675225	2531.027235
998.970316	2518.870493
999.265371	2504.709891
999.560390	2488.774804
999.855373	2479.839359
1000.150320	2469.142030
1000.445232	2461.257666
1000.740108	2452.511264
1001.034948	2445.725871
1001.329752	2441.740839
1001.624521	2440.662032
1001.919254	2428.185176
1002.213951	2431.232553
1002.508613	2422.660071
1002.803239	2425.415062
1003.097829	2422.029927
1003.392384	2423.456574
1003.686903	2424.144691
1003.981386	2422.498754
1004.275834	2422.307191
1004.570246	2418.644792
1004.864623	2419.194278
1005.158964	2414.868968
1005.453270	2415.587333
1005.747540	2417.681932
1006.041775	2418.773342
1006.335974	2414.609349
1006.630138	2414.826118
1006.924266	2414.064904
1007.218359	2415.272260
1007.512416	2414.919380
1007.806438	2409.583318
1008.100425	2413.565830
1008.394376	2412.819739
1008.688292	2412.754204
1008.982172	2412.973494
1009.276017	2413.303690
1009.569827	2412.083731
1009.863602	2412.424008
1010.157341	2411.955181
1010.451045	2411.168761
1010.744714	2409.621127
1011.038347	2412.338309
1011.331945	2411.287228
1011.625508	2411.256981
1011.919036	2411.322516
1012.212528	2409.948802
1012.505986	2408.680952
1012.799408	2407.866805
1013.092795	2405.983934
1013.386147	2406.959398
1013.679464	2407.556774
1013.972745	2408.368400
1014.265992	2409.132135
1014.559204	2410.631878
1014.852380	2408.398647
1015.145521	2408.562485
1015.438628	2406.508214
1015.731699	2406.540982
1016.024736	2408.779254
1016.317737	2409.399316
1016.610703	2409.522824
1016.903635	2406.538461
1017.196531	2405.603327
1017.489393	2405.719274
1017.782219	2407.319840
1018.075011	2408.973339
1018.367768	2409.946281
1018.660490	2410.369738
1018.953177	2410.369738
1019.245829	2410.369738
