Dividing Wavelength (nm)	Counts (n)	Blue Motor Position (mm): 15.600000	Red Motor Position (mm): 0.000000	
326.493990	1974.536782
326.888308	1974.536782
327.282561	1974.536782
327.676750	1950.780345
328.070874	1952.292691
328.464933	1959.062961
328.858929	1969.563684
329.252859	1977.944602
329.646726	1993.534371
330.040528	2007.999962
330.434265	2028.013342
330.827938	2049.697866
331.221547	2069.335681
331.615091	2088.204719
332.008571	2108.966712
332.401986	2129.706018
332.795338	2152.789462
333.188625	2171.295538
333.581847	2189.050482
333.975006	2205.572863
334.368100	2225.417365
334.761129	2241.642319
335.154095	2255.092118
335.546996	2289.601336
335.939833	2344.013030
336.332606	2357.120030
336.725315	2367.628315
337.117960	2377.622403
337.510540	2388.211347
337.903056	2395.463046
338.295508	2401.832544
338.687896	2409.149779
339.080220	2418.483475
339.472480	2421.608991
339.864676	2424.220308
340.256807	2427.749116
340.648875	2427.839857
341.040879	2432.565939
341.432818	2431.850095
341.824694	2432.129879
342.216506	2433.067533
342.608253	2430.670465
342.999937	2430.163829
343.391557	2428.633839
343.783113	2429.049734
344.174605	2426.907243
344.566033	2424.674012
344.957397	2424.391708
345.348697	2419.658064
345.739934	2423.010432
346.131106	2417.966757
346.522215	2416.857703
346.913260	2416.333423
347.304241	2412.643299
347.695159	2411.503998
348.086012	2413.638927
348.476802	2406.800601
348.867528	2408.809501
349.258191	2405.396640
349.648789	2405.852864
350.039324	2405.162226
350.429796	2402.765158
350.820203	2401.961094
351.210548	2402.099725
351.600828	2399.437996
351.991045	2400.015208
352.381198	2403.291958
352.771288	2400.380692
353.161314	2400.242060
353.551276	2400.153840
353.941175	2396.867008
354.331010	2401.530075
354.720782	2399.390105
355.110490	2402.692061
355.500135	2400.206772
355.889717	2399.332132
356.279235	2402.256001
356.668689	2402.228275
357.058080	2400.662997
357.447408	2398.659138
357.836672	2398.535630
358.225873	2404.317833
358.615010	2397.877759
359.004084	2403.717936
359.393095	2404.458985
359.782043	2404.315312
360.170927	2406.530900
360.559748	2406.495612
360.948505	2405.560478
361.337199	2406.752710
361.725830	2406.667011
362.114398	2409.321178
362.502903	2408.839748
362.891344	2410.823442
363.279722	2407.939902
363.668037	2412.386200
364.056289	2409.855541
364.444478	2409.648853
364.832603	2406.941754
365.220665	2412.237486
365.608665	2411.839235
365.996601	2410.052146
366.384474	2411.579615
366.772284	2412.368556
367.160031	2414.072466
367.547715	2412.913000
367.935336	2413.079358
368.322893	2413.497774
368.710388	2412.847465
369.097820	2415.267219
369.485189	2410.866292
369.872495	2416.441808
370.259738	2414.884092
370.646918	2415.620100
371.034035	2416.719072
371.421090	2416.419123
371.808081	2415.564647
372.195010	2415.138670
372.581875	2416.814853
372.968678	2419.753846
373.355418	2417.132446
373.742096	2419.645461
374.128710	2418.102868
374.515262	2420.847777
374.901751	2417.306366
375.288177	2419.854669
375.674540	2418.133115
376.060841	2421.631676
376.447079	2419.723599
376.833254	2420.898188
377.219367	2415.796540
377.605417	2418.765780
377.991404	2417.167734
378.377329	2418.649833
378.763191	2415.952816
379.148991	2421.735020
379.534727	2422.637386
379.920402	2421.223343
380.306013	2424.164856
380.691563	2421.803075
381.077049	2422.352561
381.462474	2421.856007
381.847835	2422.649989
382.233134	2426.067891
382.618371	2421.651841
383.003545	2424.603436
383.388657	2425.611667
383.773706	2423.280133
384.158693	2423.895154
384.543618	2423.186872
384.928480	2423.751481
385.313280	2425.795669
385.698017	2424.540422
386.082692	2426.030083
386.467305	2424.270720
386.851856	2427.199630
387.236344	2425.082346
387.620770	2426.781215
388.005133	2426.614857
388.389435	2427.257604
388.773674	2428.575865
389.157851	2428.250711
389.541965	2427.330700
389.926018	2428.480083
390.310008	2427.023190
390.693936	2430.446133
391.077802	2426.430854
391.461606	2427.585279
391.845348	2427.398756
392.229027	2427.305495
392.612645	2431.794642
392.996200	2430.597368
393.379694	2432.137441
393.763125	2431.620722
394.146494	2431.199786
394.529801	2430.491504
394.913047	2431.683737
395.296230	2434.627771
395.679351	2433.773295
396.062410	2432.155085
396.445408	2432.644077
396.828343	2431.623243
397.211217	2426.640062
397.594028	2431.840012
397.976778	2427.716349
398.359466	2431.061154
398.742092	2427.837336
399.124656	2433.924530
399.507158	2433.019642
399.889598	2435.222627
400.271977	2434.784046
400.654294	2437.062648
401.036549	2433.017122
401.418742	2434.567277
401.800874	2431.542584
402.182944	2435.681372
402.564952	2436.931578
402.946898	2439.184974
403.328783	2436.296393
403.710606	2433.566608
404.092367	2437.297062
404.474067	2434.834458
404.855705	2434.854623
405.237282	2438.842175
405.618797	2436.092226
406.000250	2436.442586
406.381642	2439.590787
406.762972	2438.577515
407.144240	2437.211362
407.525447	2439.467278
407.906593	2438.176743
408.287677	2439.580704
408.668700	2437.919644
409.049661	2440.422577
409.430560	2439.401743
409.811399	2440.498194
410.192176	2441.602207
410.572891	2440.888884
410.953545	2437.745724
411.334138	2443.739656
411.714669	2438.915272
412.095139	2440.425097
412.475547	2439.638678
412.855894	2439.222782
413.236180	2441.730756
413.616405	2442.169337
413.996568	2439.825200
414.376670	2445.418360
414.756711	2441.483740
415.136691	2441.456013
415.516609	2441.367793
415.896466	2441.539193
416.276262	2441.024995
416.655997	2439.016095
417.035670	2436.364448
417.415283	2444.447938
417.794834	2440.006682
418.174324	2443.898453
418.553753	2441.244285
418.933121	2443.593463
419.312428	2442.882660
419.691674	2441.899635
420.070859	2444.125304
420.449983	2444.846189
420.829045	2444.357197
421.208047	2443.855603
421.586988	2444.863833
421.965867	2444.757969
422.344686	2443.540531
422.723444	2444.316868
423.102141	2442.691096
423.480777	2447.336519
423.859352	2446.282918
424.237866	2447.112188
424.616319	2444.231169
424.994712	2448.395162
425.373044	2446.035902
425.751314	2447.021447
426.129524	2445.854420
426.507673	2446.726540
426.885762	2444.150510
427.263789	2448.778289
427.641756	2447.109668
428.019662	2445.751077
428.397508	2446.832404
428.775292	2446.499688
429.153016	2447.901129
429.530679	2448.536314
429.908282	2450.951027
430.285824	2446.177054
430.663305	2446.232507
431.040726	2446.020778
431.418086	2450.162086
431.795385	2449.723506
432.172624	2451.593774
432.549802	2447.777620
432.926920	2452.455811
433.303977	2451.230811
433.680974	2450.900615
434.057910	2448.259051
434.434786	2450.595625
434.811601	2452.017231
435.188355	2451.979422
435.565050	2451.835749
435.941683	2450.293156
436.318257	2450.194854
436.694770	2447.344081
437.071222	2450.227621
437.447614	2448.526232
437.823946	2451.422375
438.200218	2451.129988
438.576429	2454.144598
438.952580	2451.956737
439.328670	2454.462190
439.704700	2452.155862
440.080670	2451.283743
440.456580	2452.221397
440.832429	2454.885647
441.208218	2454.487396
441.583947	2454.618466
441.959616	2453.128805
442.335224	2453.068311
442.710773	2456.992850
443.086261	2452.962447
443.461689	2454.507561
443.837057	2454.729372
444.212365	2457.416307
444.587612	2457.391101
444.962800	2458.832871
445.337927	2457.254990
445.712995	2452.223918
446.088002	2459.205916
446.462949	2456.942438
446.837837	2457.701132
447.212664	2456.150977
447.587431	2460.556945
447.962139	2460.766153
448.336786	2466.704632
448.711374	2464.904941
449.085901	2461.214816
449.460369	2460.352779
449.834776	2462.943932
450.209124	2463.629529
450.583412	2462.238170
450.957640	2464.458798
451.331808	2465.809828
451.705917	2465.036011
452.079965	2462.825465
452.453954	2463.528706
452.827883	2463.959724
453.201752	2464.988120
453.575562	2466.379478
453.949311	2466.697071
454.323001	2465.204889
454.696632	2468.804273
455.070202	2468.005250
455.443713	2467.619602
455.817164	2468.214458
456.190556	2466.767647
456.563888	2467.546505
456.937160	2464.788994
457.310373	2470.704788
457.683526	2465.885445
458.056619	2471.677731
458.429653	2467.125569
458.802628	2470.790488
459.175542	2471.050107
459.548398	2473.797536
459.921194	2473.946250
460.293930	2475.670325
460.666607	2480.340954
461.039224	2478.667291
461.411782	2480.509832
461.784280	2480.250213
462.156719	2479.763742
462.529099	2482.188537
462.901419	2477.520428
463.273680	2477.976652
463.645882	2476.703761
464.018024	2479.078145
464.390106	2480.164513
464.762130	2484.293218
465.134094	2488.255565
465.505999	2492.215392
465.877845	2500.490446
466.249631	2500.046824
466.621358	2498.935250
466.993026	2499.444406
467.364634	2496.896103
467.736184	2491.522233
468.107674	2489.674650
468.479105	2491.577686
468.850477	2487.285143
469.221790	2490.171204
469.593043	2486.297077
469.964238	2486.760863
470.335373	2488.164824
470.706449	2491.257572
471.077467	2493.745382
471.448425	2502.516989
471.819324	2505.392968
472.190164	2501.707884
472.560945	2496.197903
472.931667	2492.913591
473.302330	2493.659682
473.672934	2494.667913
474.043479	2493.657162
474.413965	2493.279075
474.784393	2491.373519
475.154761	2497.364930
475.525070	2494.680516
475.895321	2493.155567
476.265513	2493.127840
476.635645	2500.644201
477.005719	2500.480363
477.375734	2502.738800
477.745691	2504.256188
478.115588	2506.451610
478.485427	2510.797085
478.855207	2516.433095
479.224928	2522.540453
479.594591	2528.733510
479.964194	2526.485155
480.333739	2528.599919
480.703226	2525.338293
481.072653	2531.654859
481.442022	2535.239119
481.811333	2538.858667
482.180584	2535.491177
482.549777	2535.798687
482.918912	2535.884387
483.287988	2538.173071
483.657005	2539.445962
484.025964	2538.662063
484.394864	2540.915458
484.763706	2544.925696
485.132489	2541.911086
485.501213	2548.900646
485.869879	2545.518032
486.238487	2549.102292
486.607036	2549.198074
486.975527	2550.886861
487.343959	2555.116389
487.712333	2559.721483
488.080648	2555.814588
488.448905	2560.724672
488.817104	2561.952193
489.185244	2570.572566
489.553326	2575.868298
489.921350	2587.518405
490.289315	2599.022318
490.657222	2605.565736
491.025070	2608.348453
491.392861	2608.978597
491.760593	2608.300562
492.128267	2603.715632
492.495883	2604.486929
492.863440	2602.878801
493.230939	2599.599530
493.598380	2600.181783
493.965763	2601.731938
494.333088	2601.439551
494.700354	2602.152875
495.067563	2604.754110
495.434713	2602.440220
495.801805	2610.201077
496.168839	2616.250461
496.535815	2613.014041
496.902733	2617.152828
497.269593	2619.199536
497.636395	2623.844960
498.003139	2628.092132
498.369825	2627.346041
498.736453	2635.752165
499.103023	2635.545478
499.469535	2634.315436
499.835989	2639.948926
500.202385	2637.834162
500.568723	2644.135604
500.935003	2646.653660
501.301226	2649.068373
501.667390	2652.952582
502.033497	2661.414159
502.399546	2661.053716
502.765537	2661.356185
503.131470	2665.709222
503.497345	2670.362207
503.863163	2668.491939
504.228923	2671.945129
504.594625	2676.865295
504.960269	2676.288083
505.325856	2686.400638
505.691385	2684.699248
506.056856	2691.547656
506.422270	2694.370702
506.787625	2695.953624
507.152924	2700.795652
507.518164	2704.309337
507.883347	2703.412011
508.248472	2708.480892
508.613540	2711.147662
508.978550	2716.329968
509.343503	2719.528580
509.708398	2724.587378
510.073236	2729.164746
510.438016	2733.290930
510.802738	2733.963924
511.167403	2741.197980
511.532010	2744.895666
511.896561	2756.560896
512.261053	2764.271341
512.625488	2761.075250
512.989866	2761.944849
513.354186	2764.873759
513.718449	2765.667741
514.082655	2779.757766
514.446803	2780.861778
514.810894	2789.499796
515.174927	2794.268727
515.538904	2797.858029
515.902822	2809.235913
516.266684	2809.256077
516.630488	2817.211018
516.994235	2819.056081
517.357925	2830.312977
517.721558	2837.867146
518.085133	2844.738239
518.448651	2850.686800
518.812112	2856.716020
519.175516	2863.536702
519.538863	2874.123125
519.902152	2878.818959
520.265385	2890.905126
520.628560	2901.731004
520.991678	2905.363155
521.354739	2916.819177
521.717743	2926.268820
522.080690	2934.120417
522.443580	2952.858386
522.806413	2961.917339
523.169189	2970.139461
523.531908	2982.817963
523.894569	2993.311125
524.257174	3003.776560
524.619722	3019.716689
524.982213	3033.685726
525.344647	3043.979762
525.707025	3060.184551
526.069345	3077.556367
526.431608	3089.544231
526.793815	3109.308075
527.155964	3118.800568
527.518057	3135.759009
527.880093	3151.217707
528.242072	3174.873322
528.603995	3189.233049
528.965860	3205.581511
529.327669	3223.679253
529.689421	3242.013929
530.051117	3263.595109
530.412755	3288.319448
530.774337	3310.578663
531.135862	3329.626663
531.497331	3357.075745
531.858743	3374.626523
532.220098	3409.052562
532.581396	3426.757094
532.942638	3445.623613
533.303824	3481.637616
533.664953	3509.694157
534.026025	3534.965462
534.387040	3576.751586
534.747999	3602.012808
535.108902	3641.908499
535.469748	3661.473217
535.830537	3694.109647
536.191270	3739.906010
536.551947	3762.815533
536.912567	3810.371258
537.273131	3849.699820
537.633638	3873.441134
537.994089	3927.260492
538.354483	3952.841827
538.714821	4012.133358
539.075103	4070.502358
539.435328	4105.823203
539.795497	4148.557064
540.155609	4193.405689
540.515665	4259.056636
540.875665	4284.615286
541.235609	4340.914892
541.595496	4394.358684
541.955328	4475.932115
542.315102	4503.476980
542.674821	4545.119431
543.034483	4601.434161
543.394090	4657.123787
543.753640	4708.336869
544.113134	4819.637984
544.472571	4825.170651
544.831953	4953.899035
545.191278	4980.496162
545.550548	5021.616854
545.909761	5114.679075
546.268918	5191.143297
546.628019	5279.131596
546.987064	5318.576104
547.346053	5338.387839
547.704986	5463.789061
548.063863	5509.668602
548.422684	5590.899235
548.781449	5657.326519
549.140158	5762.381645
549.498811	5826.472354
549.857408	5859.892683
550.215949	6006.963306
550.574434	6075.502833
550.932864	6143.757536
551.291237	6287.284227
551.649555	6343.036868
552.007817	6447.139216
552.366022	6507.459142
552.724173	6610.124761
553.082267	6738.142342
553.440305	6859.646753
553.798288	6889.591206
554.156215	7016.552666
554.514086	7140.207129
554.871902	7212.497275
555.229661	7314.626011
555.587365	7398.543578
555.945014	7514.497678
556.302606	7615.635827
556.660143	7744.172648
557.017625	7860.489711
557.375050	7950.605377
557.732421	8109.570602
558.089735	8219.782828
558.446994	8315.521901
558.804197	8500.733893
559.161345	8610.626006
559.518437	8633.464953
559.875474	8787.683932
560.232455	8937.005429
560.589381	9079.407943
560.946251	9163.005397
561.303065	9389.973267
561.659825	9494.962858
562.016528	9572.105114
562.373177	9661.794803
562.729770	9871.244663
563.086307	9924.595194
563.442789	10145.087702
563.799216	10289.252099
564.155587	10403.708976
564.511904	10540.868690
564.868164	10702.301560
565.224370	10899.140973
565.580520	10997.604790
565.936615	11188.467916
566.292654	11286.722525
566.648638	11484.907927
567.004567	11638.201854
567.360441	11801.903243
567.716260	11925.840010
568.072023	12163.563181
568.427732	12338.342506
568.783385	12395.912483
569.138982	12655.791525
569.494525	12816.803458
569.850013	12938.938013
570.205445	13100.706119
570.560823	13271.810443
570.916145	13420.874841
571.271412	13597.668107
571.626625	13707.109036
571.981782	13905.687648
572.336884	13999.692564
572.691931	14272.623154
573.046923	14340.320809
573.401860	14476.109329
573.756743	14649.812367
574.111570	14862.569224
574.466342	14998.002343
574.821059	15220.047526
575.175722	15263.086377
575.530330	15448.063955
575.884882	15548.735797
576.239380	15720.530759
576.593823	15912.165181
576.948211	16069.146712
577.302544	16103.063595
577.656823	16301.934594
578.011047	16571.535501
578.365216	16670.226170
578.719330	16793.845345
579.073389	16940.212726
579.427394	17155.843041
579.781344	17351.137341
580.135239	17411.593378
580.489080	17653.241088
580.842866	17657.926840
581.196597	18024.300258
581.550273	18208.128453
581.903895	18359.211834
582.257463	18743.773735
582.610975	18703.971305
582.964434	19008.056225
583.317837	19075.022913
583.671186	19201.114773
584.024481	19493.859618
584.377721	19497.068313
584.730906	19817.040430
585.084037	20028.448778
585.437113	20101.704305
585.790135	20305.926489
586.143103	20330.451702
586.496016	20580.369425
586.848874	20797.312960
587.201679	20999.160760
587.554428	20957.530911
587.907124	21243.681927
588.259765	21331.140905
588.612352	21655.234165
588.964884	21546.365407
589.317362	21877.884287
589.669786	22042.248587
590.022155	22125.961988
590.374470	22534.189585
590.726731	22476.430565
591.078937	22415.112490
591.431090	22667.155059
591.783188	22668.750584
592.135232	22688.640457
592.487222	22994.953567
592.839157	23239.547832
593.191038	23242.517071
593.542866	23295.202170
593.894639	23148.935612
594.246358	23483.643021
594.598022	23651.929340
594.949633	23606.453091
595.301190	23758.637964
595.652692	23846.971582
596.004141	24213.402973
596.355535	23816.611233
596.706876	23956.523417
597.058162	24032.208780
597.409395	24479.626307
597.760573	24703.322468
598.111698	24601.952426
598.462768	24777.495485
598.813785	24966.788292
599.164748	24803.379290
599.515657	25208.783841
599.866511	25056.994698
600.217312	25600.277328
600.568060	25102.589414
600.918753	25742.899132
601.269392	25878.629679
601.619978	25813.397148
601.970510	26102.421621
602.320988	26368.329884
602.671412	26728.250624
603.021783	26710.830917
603.372100	26645.290876
603.722363	26866.315225
604.072572	27066.650679
604.422728	27222.520636
604.772830	27245.848575
605.122878	27457.952602
605.472872	27563.700887
605.822813	27921.955526
606.172701	27936.897506
606.522534	28247.384692
606.872314	28564.803464
607.222041	28555.371466
607.571714	28979.652617
607.921333	28715.725528
608.270899	29067.829960
608.620411	29465.488778
608.969870	29442.727968
609.319276	29567.718337
609.668627	29758.841082
610.017926	30232.402033
610.367171	30482.344962
610.716362	30687.819872
611.065500	30783.937032
611.414585	31053.046427
611.763616	31412.689904
612.112594	31464.898614
612.461518	31773.263474
612.810389	32106.632457
613.159207	32138.258136
613.507971	32322.197237
613.856682	32828.744978
614.205340	32845.963039
614.553945	33502.837988
614.902496	33203.605178
615.250994	33688.977553
615.599439	33860.543142
615.947830	34141.118641
616.296169	34307.753982
616.644454	34509.442985
616.992686	34776.805621
617.340864	35302.502185
617.688990	35165.665105
618.037063	35761.501763
618.385082	35834.996745
618.733048	36181.518099
619.080961	36298.876160
619.428821	36411.500578
619.776628	36612.249407
620.124382	36559.080357
620.472083	36773.405013
620.819731	36973.160734
621.167326	36803.036915
621.514868	36891.509165
621.862357	36618.606302
622.209793	36735.767758
622.557176	36539.699641
622.904506	36439.544517
623.251783	36247.035455
623.599007	36141.035113
623.946179	36039.163476
624.293297	36088.251711
624.640363	35645.678733
624.987376	35736.968988
625.334336	35589.220330
625.681243	35373.985746
626.028097	35424.316626
626.374899	35375.586313
626.721647	35413.064771
627.068343	35391.387809
627.414987	35277.848422
627.761577	35138.485724
628.108115	35506.605901
628.454600	35076.655972
628.801032	35300.180733
629.147412	35339.864697
629.493739	35393.547944
629.840014	35141.510416
630.186236	35527.967791
630.532405	35235.729582
630.878521	35481.337117
631.224585	35432.793327
631.570597	35219.015636
631.916556	35401.822998
632.262462	35432.619407
632.608316	35495.220455
632.954117	35448.236901
633.299866	35500.173389
633.645562	35479.897868
633.991206	35094.637768
634.336797	34758.191160
634.682336	34819.279862
635.027823	34656.284235
635.373257	34533.196902
635.718639	34366.133064
636.063968	34292.812002
636.409245	33817.365659
636.754470	33922.967750
637.099642	33741.163577
637.444762	33343.139275
637.789829	33512.645553
638.134845	33251.123094
638.479808	33246.165119
638.824719	33207.544840
639.169577	32877.414798
639.514383	32984.743484
639.859137	32731.901892
640.203839	33002.448016
640.548489	32688.545448
640.893086	32800.199444
641.237632	32603.846502
641.582125	32747.731115
641.926566	32720.203895
642.270955	32719.372104
642.615292	32776.735394
642.959576	32776.223717
643.303809	32806.384940
643.647990	32977.101095
643.992118	32989.414113
644.336195	33003.095804
644.680219	33135.660507
645.024192	33443.881694
645.368112	33948.423056
645.711981	33988.548120
646.055797	34845.269531
646.399562	34781.385509
646.743274	35691.220517
647.086935	36148.765722
647.430544	36061.601652
647.774101	36210.998766
648.117606	36456.218133
648.461059	36767.872347
648.804460	36433.585873
649.147810	35884.367285
649.491108	35684.873704
649.834354	35375.392228
650.177548	34624.542610
650.520690	34209.796801
650.863781	34252.092081
651.206820	34155.662370
651.549807	33752.294445
651.892742	33306.530416
652.235626	33154.464010
652.578458	33049.464338
652.921238	32493.583865
653.263967	32846.993955
653.606644	32537.520041
653.949269	32519.961702
654.291843	32170.801304
654.634365	32571.273087
654.976836	32207.417725
655.319255	32206.958980
655.661622	32243.212438
656.003938	32036.910779
656.346203	31934.741714
656.688416	32162.639676
657.030577	31995.323780
657.372687	31840.149503
657.714746	32120.573768
658.056753	32263.591303
658.398708	31748.617273
658.740612	31823.097800
659.082465	32097.482763
659.424266	31955.145784
659.766016	32088.053285
660.107715	31981.445484
660.449362	32117.176030
660.790958	32111.424074
661.132503	32147.922028
661.473996	32174.425894
661.815438	32305.354742
662.156829	32498.859432
662.498168	32323.013904
662.839456	32335.687364
663.180693	32502.675586
663.521879	32664.060564
663.863013	32648.458193
664.204097	32650.615807
664.545129	33112.574542
664.886110	33097.982923
665.227040	33178.815304
665.567918	33275.882721
665.908746	33356.473127
666.249522	33525.102244
666.590248	33531.983419
666.930922	33661.611649
667.271545	33638.432424
667.612118	33725.495671
667.952639	33531.670868
668.293109	33584.645833
668.633528	33500.284644
668.973896	33437.134109
669.314213	33488.584126
669.654480	33230.804724
669.994695	33272.018677
670.334859	33175.601568
670.674973	33093.284567
671.015035	33256.000411
671.355047	33220.001531
671.695008	33170.305836
672.034918	33080.689244
672.374777	33169.451361
672.714585	33017.584081
673.054342	33261.492748
673.394049	33024.533311
673.733705	33300.869200
674.073310	32980.675273
674.412864	33048.365366
674.752368	32658.273320
675.091820	32981.842300
675.431223	32567.618250
675.770574	32306.070586
676.109875	32165.245953
676.449125	31912.832859
676.788324	31840.908197
677.127473	31320.461994
677.466571	31250.962127
677.805619	30925.706881
678.144616	30922.233526
678.483562	30846.031444
678.822458	30530.510666
679.161303	30465.656222
679.500098	30383.987009
679.838842	30274.117581
680.177535	30428.485274
680.516179	30715.132843
680.854771	30964.571656
681.193314	31800.962094
681.531805	32919.883998
681.870247	33695.352092
682.208638	34427.728402
682.546978	34654.971014
682.885268	34739.334724
683.223508	34216.960280
683.561697	33881.645412
683.899836	33698.444840
684.237925	33224.127715
684.575963	33054.505491
684.913951	32613.651546
685.251889	32784.720582
685.589776	32762.128651
685.927614	32754.992897
686.265401	32910.073913
686.603137	33009.772813
686.940824	33520.353477
687.278460	33895.443050
687.616046	34029.358781
687.953582	34624.446828
688.291068	34501.538456
688.628504	34781.090601
688.965889	34727.971963
689.303224	34338.517623
689.640510	34000.730068
689.977745	33280.157620
690.314930	32479.690445
690.652065	31963.766157
690.989150	31225.085884
691.326185	30334.061942
691.663170	29639.169131
692.000105	28900.594722
692.336990	28237.360357
692.673825	27800.355333
693.010610	27279.049614
693.347345	26710.147841
693.684030	26081.962098
694.020665	25806.021940
694.357251	25152.874924
694.693786	25104.799960
695.030272	24868.498394
695.366707	24325.377082
695.703093	24040.362846
696.039429	24035.051991
696.375716	23776.864255
696.711952	23750.398198
697.048139	23598.951854
697.384276	23424.366614
697.720363	23549.238515
698.056400	23348.325849
698.392388	23133.910453
698.728326	23099.028189
699.064214	22905.556266
699.400053	22834.602025
699.735842	22498.079800
700.071581	22205.574410
700.407270	21927.806833
700.742910	21754.459197
701.078501	21470.122996
701.414042	21193.517405
701.749533	20910.544837
702.084974	20555.909746
702.420366	20769.523599
702.755709	20331.782567
703.091002	20040.086282
703.426246	20062.857174
703.761440	19964.824375
704.096584	19704.889880
704.431679	19656.572941
704.766725	19569.335774
705.101721	19510.528194
705.436668	19597.193190
705.771565	19281.874058
706.106413	19620.322004
706.441212	19602.612430
706.775961	19741.390355
707.110661	19826.280865
707.445311	20161.699077
707.779913	20007.676704
708.114465	20256.248438
708.448967	20533.211951
708.783421	21222.869523
709.117825	21498.182058
709.452180	21712.758772
709.786485	22115.650308
710.120742	22907.686153
710.454949	22918.499428
710.789107	23388.350090
711.123216	24102.963895
711.457275	24216.200813
711.791286	24753.822227
712.125247	24818.598533
712.459159	24512.988663
712.793023	25169.210783
713.126837	24067.164141
713.460602	24324.053779
713.794318	23942.269554
714.127985	23543.877248
714.461602	22671.019104
714.795171	22616.136062
715.128691	21623.069083
715.462162	21087.108730
715.795584	20670.621202
716.128957	20414.926317
716.462281	20008.969760
716.795556	19770.223234
717.128782	19288.021745
717.461960	18739.902129
717.795088	18656.309716
718.128167	18264.544006
718.461198	17812.392835
718.794180	17662.647881
719.127113	17312.103687
719.459997	17122.705016
719.792833	16775.946728
720.125619	16748.061586
720.458357	16435.542815
720.791046	16266.717093
721.123686	16106.315139
721.456278	15873.781836
721.788821	15828.708879
722.121315	15575.847123
722.453761	15653.420398
722.786158	15573.152626
723.118506	15578.070272
723.450805	15452.966477
723.783056	15607.172853
724.115259	15512.721794
724.447412	15455.149297
724.779518	15688.264854
725.111574	15719.003289
725.443582	15906.617391
725.775542	15887.763476
726.107453	16351.209352
726.439315	16235.862711
726.771129	16636.400028
727.102895	17011.114034
727.434612	17204.734671
727.766281	17321.366807
728.097901	17582.644769
728.429473	17624.592211
728.760996	17604.762832
729.092471	17686.169905
729.423897	17566.175320
729.755276	17429.731450
730.086606	17553.645532
730.417887	18074.139625
730.749120	18590.401670
731.080305	18763.187218
731.411442	19094.222147
731.742530	19158.093567
732.073570	19256.542260
732.404562	19551.850532
732.735506	19352.397280
733.066401	19056.907527
733.397249	18552.968582
733.728048	17911.191889
734.058798	17085.014829
734.389501	16422.750887
734.720156	15957.220494
735.050762	15433.689105
735.381320	15084.443008
735.711831	14852.554972
736.042293	14509.209545
736.372707	14516.057953
736.703073	14306.068689
737.033391	14493.476104
737.363661	14454.558396
737.693883	14563.901023
738.024056	14742.244443
738.354182	14927.761426
738.684260	15199.910637
739.014290	15432.446461
739.344272	15613.605365
739.674207	15885.177364
740.004093	16006.180180
740.333931	15986.239896
740.663722	16032.177410
740.993464	16020.993610
741.323159	15853.581932
741.652806	15582.592187
741.982405	15363.964906
742.311956	15026.832702
742.641460	14904.032714
742.970915	14607.451551
743.300323	14272.673566
743.629683	14063.316967
743.958996	13771.156896
744.288260	13512.117205
744.617477	13214.374056
744.946647	13142.285556
745.275768	12870.930327
745.604842	12697.920448
745.933869	12526.206145
746.262847	12466.720529
746.591778	12395.854509
746.920662	12301.239613
747.249498	12306.822691
747.578286	12423.875763
747.907027	12560.831310
748.235720	12787.342955
748.564365	12806.113692
748.892963	12712.459135
749.221514	12766.545675
749.550017	12621.935136
749.878473	12585.185124
750.206881	12367.061959
750.535242	12276.830346
750.863555	12191.231554
751.191821	12097.289652
751.520039	12118.709515
751.848210	12026.461441
752.176334	12057.580483
752.504411	11962.741256
752.832440	11811.022690
753.160421	11864.970598
753.488356	11748.298133
753.816243	11657.290183
754.144082	11517.680468
754.471875	11455.918772
754.799620	11407.967316
755.127318	11374.796524
755.454969	11343.072543
755.782572	11291.930037
756.110129	11303.587705
756.437638	11226.309337
756.765100	11215.221320
757.092515	11222.178112
757.419882	11234.697817
757.747203	11243.877759
758.074477	11312.049282
758.401703	11265.915163
758.728882	11423.597414
759.056014	11469.940741
759.383099	11580.594068
759.710138	11689.543485
760.037129	11770.721185
760.364073	11786.915892
760.690970	11777.272165
761.017820	11765.410330
761.344623	11956.916203
761.671379	12275.580140
761.998088	12899.523752
762.324751	14449.502119
762.651366	17294.217673
762.977935	20938.805545
763.304456	23134.694352
763.630931	23593.204938
763.957359	22422.802771
764.283740	20516.145125
764.610074	18648.997522
764.936362	16548.936009
765.262602	15036.978024
765.588796	13576.752359
765.914943	12549.400494
766.241044	11717.544574
766.567097	11085.885477
766.893104	10545.372961
767.219064	10183.614720
767.544978	9800.671030
767.870845	9493.876489
768.196665	9307.595772
768.522438	9109.654866
768.848165	8948.179147
769.173846	8784.381976
769.499479	8660.588882
769.825066	8504.267742
770.150607	8326.874579
770.476101	8264.865867
770.801548	8154.625914
771.126949	8013.234152
771.452303	7928.688961
771.777611	7760.130420
772.102872	7745.521156
772.428087	7626.123948
772.753256	7499.802715
773.078378	7417.669716
773.403453	7273.119670
773.728482	7171.250554
774.053465	7110.892819
774.378401	7020.499889
774.703291	6926.648728
775.028135	6834.859399
775.352932	6796.995293
775.677683	6713.239042
776.002388	6629.387009
776.327046	6624.229909
776.651658	6541.562548
776.976224	6467.223172
777.300743	6449.584175
777.625216	6377.898967
777.949643	6343.029306
778.274024	6346.419482
778.598359	6281.718793
778.922647	6283.263907
779.246889	6244.434419
779.571086	6250.597230
779.895236	6260.803046
780.219339	6257.337253
780.543397	6253.755513
780.867409	6306.347350
781.191374	6305.800385
781.515294	6268.838645
781.839167	6319.817313
782.162995	6291.717922
782.486776	6242.062557
782.810511	6201.700558
783.134201	6129.997707
783.457844	6116.689060
783.781441	6066.080917
784.104993	6021.481829
784.428498	5999.330999
784.751958	5978.886599
785.075372	5951.087157
785.398739	5917.268576
785.722061	5937.455877
786.045337	5935.068890
786.368568	6049.240943
786.691752	6066.693417
787.014891	6314.098124
787.337983	6592.773109
787.661030	7029.563884
787.984031	7452.728420
788.306987	7712.282308
788.629897	7799.728683
788.952760	7713.353553
789.275579	7529.938733
789.598351	7239.613641
789.921078	6977.337530
790.243759	6697.808070
790.566395	6497.447410
790.888984	6300.360980
791.211529	6166.354508
791.534027	6004.533470
791.856480	5864.049115
792.178888	5807.036185
792.501249	5744.205764
792.823566	5636.118385
793.145836	5635.573940
793.468062	5615.094253
793.790241	5575.947172
794.112375	5617.508965
794.434464	5710.493048
794.756507	5746.985961
795.078505	5864.621286
795.400457	6075.815385
795.722364	6319.759340
796.044226	6513.163208
796.366042	6665.549727
796.687812	6613.497293
797.009538	6638.627444
797.331218	6549.136881
797.652852	6474.008566
797.974442	6360.716195
798.295986	6285.124093
798.617484	6156.231871
798.938938	6055.096243
799.260346	5982.428010
799.581709	5843.425754
799.903026	5794.851717
800.224299	5723.819338
800.545526	5607.993787
800.866708	5544.825609
801.187845	5493.932641
801.508936	5421.045118
801.829983	5391.324995
802.150984	5282.882214
802.471940	5262.188278
802.792851	5244.047686
803.113717	5221.811156
803.434538	5196.315520
803.755314	5165.196478
804.076045	5154.751207
804.396731	5116.496411
804.717372	5134.667250
805.037967	5135.304956
805.358518	5168.410213
805.679024	5221.816197
805.999485	5232.924380
806.319901	5246.475001
806.640272	5265.195326
806.960598	5313.723993
807.280879	5307.919105
807.601115	5340.764743
807.921306	5304.518847
808.241453	5305.038085
808.561554	5310.812727
808.881611	5276.260659
809.201623	5274.471049
809.521590	5221.289397
809.841513	5210.294640
810.161390	5226.161672
810.481223	5136.406448
810.801011	5123.014623
811.120755	5097.093010
811.440453	5044.695257
811.760107	5011.138816
812.079716	4991.894211
812.399281	4944.162046
812.718801	4933.391621
813.038276	4898.138832
813.357707	4866.576168
813.677093	4887.806987
813.996434	4829.531249
814.315731	4848.962376
814.634983	4844.526161
814.954191	4851.011605
815.273354	4910.545112
815.592473	4950.092964
815.911547	5026.446280
816.230577	5075.920164
816.549562	5164.962064
816.868502	5215.660948
817.187399	5267.809164
817.506250	5350.600034
817.825058	5377.522316
818.143821	5524.756776
818.462539	5693.229617
818.781213	5921.528351
819.099843	6281.333145
819.418429	6910.174238
819.736970	7525.865480
820.055466	8227.092501
820.373919	9136.050348
820.692327	10566.417258
821.010691	13242.901946
821.329011	19420.954452
821.647286	28941.256669
821.965517	39219.889577
822.283704	44645.638092
822.601847	46097.324041
822.919945	41530.429346
823.237999	36453.354758
823.556010	31266.788829
823.873976	26595.448988
824.191897	22421.129107
824.509775	19361.698209
824.827609	16621.828573
825.145398	15074.481688
825.463144	14331.861753
825.780845	14634.832578
826.098502	15879.503545
826.416116	18324.165733
826.733685	20591.535580
827.051210	21115.190477
827.368692	19678.980870
827.686129	17138.723282
828.003522	14682.685731
828.320872	12482.418683
828.638177	10842.478404
828.955439	9610.337225
829.272656	8550.714413
829.589830	7725.525419
829.906960	6995.047104
830.224046	6468.556558
830.541088	6056.870729
830.858086	5807.436957
831.175041	5605.921873
831.491952	5544.187903
831.808819	5579.004632
832.125642	5821.239636
832.442421	6365.485126
832.759157	7464.053372
833.075849	9223.784069
833.392497	11058.348174
833.709101	12163.467399
834.025662	11910.310735
834.342179	10865.869358
834.658653	9567.721831
834.975083	8469.609809
835.291469	7570.046153
835.607811	6844.314083
835.924110	6332.556309
836.240366	5839.786041
836.556578	5396.915635
836.872746	5045.857243
837.188871	4776.972179
837.504952	4559.554775
837.820990	4391.707037
838.136984	4277.824851
838.452935	4231.229466
838.768842	4262.227521
839.084706	4541.903175
839.400526	5274.743271
839.716303	6169.530435
840.032037	6734.827783
840.347727	6588.266318
840.663373	5994.173898
840.978977	5420.581332
841.294537	4977.910051
841.610054	4653.181605
841.925527	4416.638064
842.240957	4213.872774
842.556344	4027.665153
842.871687	3873.176473
843.186987	3720.426991
843.502244	3604.971965
843.817458	3517.923841
844.132629	3450.712658
844.447756	3400.096952
844.762840	3355.497864
845.077881	3317.515291
845.392879	3285.314920
845.707833	3258.710231
846.022745	3233.575038
846.337613	3224.931980
846.652438	3200.817620
846.967221	3191.914942
847.281960	3169.670851
847.596656	3157.667864
847.911309	3148.203097
848.225919	3135.819503
848.540485	3124.829788
848.855009	3119.130763
849.169490	3108.874536
849.483928	3098.827516
849.798323	3096.130499
850.112675	3080.535689
850.426984	3087.684046
850.741251	3075.867581
851.055474	3073.009247
851.369654	3075.847416
851.683792	3073.959504
851.997887	3075.849937
852.311938	3073.757858
852.625947	3075.827252
852.939914	3072.013619
853.253837	3075.164340
853.567718	3072.553022
853.881555	3067.370716
854.195350	3074.095615
854.509103	3068.749472
854.822812	3067.602609
855.136479	3062.037175
855.450103	3070.087898
855.763685	3057.086762
856.077224	3062.037175
856.390720	3067.481622
856.704173	3079.562747
857.017584	3085.178592
857.330953	3091.318717
857.644278	3099.843309
857.957561	3104.392950
858.270802	3100.491097
858.584000	3099.656786
858.897155	3096.410283
859.210268	3082.264805
859.523339	3070.140830
859.836367	3069.271231
860.149352	3061.220508
860.462295	3059.327555
860.775195	3052.484189
861.088054	3042.250647
861.400869	3048.151317
861.713642	3042.764844
862.026373	3051.647357
862.339062	3054.472924
862.651708	3067.229564
862.964312	3082.408478
863.276873	3090.625559
863.589392	3119.735702
863.901869	3146.075731
864.214303	3168.917199
864.526696	3186.089889
864.839045	3203.292827
865.151353	3214.771534
865.463619	3217.793706
865.775842	3216.586349
866.088023	3220.609190
866.400162	3213.599466
866.712258	3219.495095
867.024313	3216.727502
867.336325	3213.009651
867.648296	3214.567367
867.960224	3211.235165
868.272110	3215.772203
868.583954	3216.362018
868.895755	3223.359140
869.207515	3221.135991
869.519233	3241.890421
869.830909	3242.076944
870.142542	3255.841814
870.454134	3259.360540
870.765684	3274.332767
871.077191	3295.908905
871.388657	3305.592962
871.700081	3324.701455
872.011463	3344.331708
872.322803	3363.548587
872.634101	3378.914024
872.945357	3400.575862
873.256571	3428.574430
873.567744	3442.704785
873.878874	3447.786268
874.189963	3464.341417
874.501010	3467.625729
874.812015	3461.505768
875.122979	3478.134014
875.433900	3473.445741
875.744780	3478.612923
876.055618	3487.797906
876.366415	3484.858913
876.677169	3488.181033
876.987882	3507.491173
877.298554	3526.082949
877.609183	3563.034606
877.919771	3610.872636
878.230317	3678.529962
878.540822	3779.128707
878.851285	3928.619083
879.161707	4150.853309
879.472087	4518.340822
879.782425	5142.289475
880.092722	6316.475028
880.402977	8234.114828
880.713191	10602.040572
881.023363	12969.658805
881.333494	14308.359894
881.643583	14760.248924
881.953631	14351.353374
882.263637	13507.093696
882.573602	12476.006335
882.883526	11525.317816
883.193408	10573.946221
883.503248	9672.169498
883.813048	8843.754166
884.122806	8084.954647
884.432522	7321.240004
884.742197	6665.325395
885.051831	6101.820177
885.361424	5617.367813
885.670975	5222.577411
885.980485	4898.058174
886.289954	4634.778873
886.599382	4417.611006
886.908768	4243.025766
887.218113	4082.543154
887.527417	3951.901652
887.836680	3827.259123
888.145901	3729.498547
888.455082	3653.220849
888.764221	3585.142587
889.073319	3528.308618
889.382376	3492.743278
889.691392	3469.876604
890.000366	3461.520891
890.309300	3455.476548
890.618193	3460.931076
890.927044	3453.873461
891.235855	3460.144656
891.544625	3474.327943
891.853353	3506.747603
892.162041	3563.992426
892.470687	3656.550531
892.779293	3772.613016
893.087858	3945.133903
893.396381	4221.774782
893.704864	4635.603102
894.013306	5194.432649
894.321707	5760.897025
894.630068	6115.587568
894.938387	6158.301265
895.246665	5978.931970
895.554903	5662.380276
895.863100	5321.908307
896.171256	5059.894336
896.479371	4819.368283
896.787446	4596.864355
897.095480	4401.454108
897.403473	4256.752828
897.711425	4114.720839
898.019336	3992.009072
898.327207	3868.951986
898.635038	3768.340638
898.942827	3661.949607
899.250576	3575.035073
899.558284	3491.402331
899.865952	3441.636060
900.173579	3378.263715
900.481165	3335.645800
900.788711	3290.371198
901.096216	3258.579161
901.403681	3230.338617
901.711105	3220.692369
902.018489	3218.832183
902.325832	3245.729260
902.633135	3306.089515
902.940397	3475.910865
903.247619	3875.306361
903.554800	4621.301348
903.861941	5584.711218
904.169041	6279.909019
904.476101	6489.711760
904.783121	6216.990378
905.090100	5814.053472
905.397039	5397.414709
905.703938	5046.971338
906.010796	4725.655753
906.317614	4474.954131
906.624391	4235.345568
906.931129	4043.393553
907.237826	3865.420658
907.544483	3697.066284
907.851099	3525.573792
908.157675	3368.829196
908.464211	3229.232084
908.770707	3130.730458
909.077163	3052.418654
909.383578	2990.412462
909.689954	2949.332099
909.996289	2918.790268
910.302584	2901.491549
910.608839	2885.077552
910.915054	2872.845192
911.221229	2867.365458
911.527363	2874.458361
911.833458	2882.070504
912.139513	2892.886299
912.445527	2905.229564
912.751502	2940.240378
913.057436	2983.874085
913.363331	3037.940460
913.669186	3127.534367
913.975000	3241.585431
914.280775	3428.070315
914.586510	3695.647199
914.892205	4067.281061
915.197859	4557.515628
915.503475	5140.681347
915.809050	5633.249968
916.114585	5920.663793
916.420081	5984.477239
916.725536	5914.324542
917.030952	5679.212688
917.336328	5472.817768
917.641665	5261.427063
917.946961	5040.087642
918.252218	4837.236653
918.557435	4615.312457
918.862612	4417.817694
919.167750	4247.555243
919.472848	4056.112385
919.777906	3892.249679
920.082925	3735.563056
920.387904	3585.278698
920.692843	3474.970690
920.997743	3375.082747
921.302603	3282.859878
921.607423	3216.044425
921.912204	3154.154180
922.216946	3105.701129
922.521647	3057.928635
922.826310	3014.080679
923.130932	2979.611789
923.435516	2936.320881
923.740059	2910.353897
924.044564	2881.107643
924.349028	2855.201154
924.653454	2829.702997
924.957840	2801.442289
925.262186	2784.294804
925.566493	2761.191196
925.870761	2738.377454
926.174989	2727.097873
926.479178	2712.662529
926.783328	2694.731144
927.087438	2685.866275
927.391509	2671.052845
927.695541	2659.906854
927.999533	2650.769762
928.303486	2644.349853
928.607400	2634.723770
928.911275	2632.059520
929.215110	2625.725310
929.518906	2623.421503
929.822663	2622.967799
930.126381	2622.070473
930.430060	2624.369240
930.733699	2626.123561
931.037299	2630.794190
931.340861	2627.527522
931.644383	2633.912144
931.947866	2632.462812
932.251309	2627.023407
932.554714	2625.831174
932.858080	2626.536936
933.161407	2623.655916
933.464694	2618.345061
933.767943	2615.582508
934.071153	2612.088989
934.374323	2606.750407
934.677455	2604.769233
934.980548	2602.339397
935.283602	2600.421238
935.586617	2596.085846
935.889593	2598.712287
936.192530	2601.048862
936.495428	2606.480705
936.798287	2614.816253
937.101108	2630.055661
937.403890	2650.406799
937.706632	2679.577436
938.009336	2709.693289
938.312002	2737.991806
938.614628	2764.251177
938.917216	2784.446039
939.219765	2790.243366
939.522275	2800.897844
939.824747	2801.671662
940.127179	2796.585137
940.429573	2786.820422
940.731929	2789.338479
941.034246	2779.193157
941.336524	2778.436983
941.638763	2768.279058
941.940964	2765.398039
942.243126	2748.953795
942.545250	2739.330232
942.847335	2723.052347
943.149381	2710.235213
943.451389	2698.723738
943.753359	2684.847962
944.055290	2675.715912
944.357182	2668.401198
944.659036	2663.254180
944.960851	2659.541370
945.262628	2654.790083
945.564367	2654.699342
945.866067	2653.774290
946.167729	2652.929897
946.469352	2651.692293
946.770937	2651.223466
947.072484	2643.472692
947.373992	2646.235244
947.675462	2641.428504
947.976893	2633.332411
948.278286	2628.777729
948.579641	2626.473921
948.880958	2624.144908
949.182236	2625.788324
949.483476	2623.739095
949.784678	2620.364043
950.085841	2619.146604
950.386967	2628.228243
950.688054	2626.927625
950.989103	2637.572022
951.290114	2647.218269
951.591087	2659.826195
951.892021	2671.408246
952.192917	2683.612880
952.493776	2694.637883
952.794596	2696.750127
953.095378	2697.211392
953.396122	2695.585620
953.696828	2693.322142
953.997496	2688.585978
954.298126	2681.021727
954.598718	2672.701302
954.899272	2660.549601
955.199788	2652.652633
955.500266	2635.840385
955.800706	2621.692387
956.101108	2604.116404
956.401472	2594.586103
956.701798	2583.432550
957.002087	2565.440672
957.302337	2554.090514
957.602550	2545.515511
957.902724	2537.893287
958.202861	2525.325690
958.502960	2518.474762
958.803022	2512.014523
959.103045	2502.663183
959.403031	2497.957266
959.702979	2492.535505
960.002889	2489.311687
960.302762	2484.053763
960.602596	2481.689462
960.902393	2475.871971
961.202153	2476.212249
961.501875	2471.962556
961.801559	2469.421814
962.101205	2467.296968
962.400814	2464.514251
962.700385	2460.803962
962.999918	2461.003088
963.299414	2461.799590
963.598873	2458.364043
963.898293	2455.939248
964.197677	2457.449074
964.497022	2455.684670
964.796331	2454.502520
965.095601	2451.034206
965.394835	2449.368104
965.694030	2449.867179
965.993189	2452.279371
966.292309	2452.753239
966.591393	2450.356171
966.890439	2450.177210
967.189447	2450.199895
967.488419	2449.244596
967.787353	2453.138887
968.086249	2450.003290
968.385108	2451.722323
968.683930	2450.653599
968.982714	2453.164093
969.281462	2453.441357
969.580172	2455.820781
969.878844	2457.877572
970.177480	2460.188941
970.476078	2463.448047
970.774639	2466.944087
971.073162	2468.095991
971.371649	2468.254787
971.670098	2468.151444
971.968510	2473.704275
972.266885	2469.699078
972.565223	2479.279791
972.863524	2476.529841
973.161788	2479.788947
973.460014	2479.178968
973.758204	2481.898670
974.056356	2482.034781
974.354471	2482.256592
974.652550	2481.361787
974.950591	2482.987559
975.248595	2480.126705
975.546563	2479.365490
975.844493	2478.432877
976.142386	2475.317444
976.440243	2473.396764
976.738062	2472.063379
977.035845	2468.471557
977.333590	2466.472739
977.631299	2466.387040
977.928971	2462.056689
978.226606	2462.807821
978.524204	2459.682305
978.821765	2460.272120
979.119290	2460.504013
979.416777	2457.580144
979.714228	2459.142902
980.011642	2457.476800
980.309020	2466.394602
980.606360	2467.793522
980.903664	2478.354739
981.200931	2489.122644
981.498162	2510.534945
981.795356	2537.174922
982.092513	2576.639595
982.389633	2618.987808
982.686717	2660.166473
982.983764	2692.359282
983.280775	2710.701520
983.577749	2711.253526
983.874686	2701.214068
984.171587	2684.454752
984.468451	2670.326919
984.765279	2651.954433
985.062070	2632.394757
985.358824	2615.456480
985.655543	2593.461925
985.952224	2570.373441
986.248869	2542.989893
986.545478	2517.811850
986.842050	2500.278717
987.138586	2479.194091
987.435086	2468.786629
987.731549	2456.410596
988.027975	2450.850204
988.324366	2448.367435
988.620719	2442.920469
988.917037	2436.356886
989.213318	2436.220775
989.509563	2434.221958
989.805772	2432.255908
990.101944	2429.745413
990.398080	2429.984868
990.694180	2425.594023
990.990244	2433.130548
991.286271	2428.185176
991.582262	2432.190373
991.878217	2430.695671
992.174136	2431.766916
992.470019	2431.025866
992.765865	2433.617019
993.061676	2434.330343
993.357450	2440.843513
993.653188	2440.881322
993.948890	2448.352312
994.244556	2454.709207
994.540186	2460.907306
994.835780	2472.890128
995.131337	2486.816316
995.426859	2499.751917
995.722345	2525.912984
996.017795	2540.229861
996.313208	2555.091183
996.608586	2562.985630
996.903928	2571.041394
997.199234	2564.543346
997.494504	2560.490259
997.789738	2554.796275
998.084936	2547.045501
998.380099	2533.119314
998.675225	2522.802593
998.970316	2511.301200
999.265371	2495.237563
999.560390	2483.819350
999.855373	2471.080354
1000.150320	2462.966617
1000.445232	2454.247941
1000.740108	2451.611418
1001.034948	2442.865016
1001.329752	2437.077771
1001.624521	2434.857143
1001.919254	2427.716349
1002.213951	2426.720721
1002.508613	2424.858014
1002.803239	2421.586306
1003.097829	2417.313928
1003.392384	2419.184196
1003.686903	2417.989442
1003.981386	2420.434402
1004.275834	2418.233938
1004.570246	2416.996335
1004.864623	2414.195974
1005.158964	2412.557599
1005.453270	2412.557599
1005.747540	2413.394431
1006.041775	2411.995510
1006.335974	2413.848134
1006.630138	2412.275294
1006.924266	2411.647671
1007.218359	2411.446025
1007.512416	2412.330747
1007.806438	2410.397465
1008.100425	2411.756056
1008.394376	2409.202711
1008.688292	2412.209759
1008.982172	2412.809657
1009.276017	2411.652712
1009.569827	2410.972156
1009.863602	2415.012641
1010.157341	2406.145251
1010.451045	2408.285221
1010.744714	2408.202042
1011.038347	2408.945612
1011.331945	2408.307906
1011.625508	2409.948802
1011.919036	2410.354615
1012.212528	2407.856723
1012.505986	2405.071486
1012.799408	2406.636764
1013.092795	2407.266908
1013.386147	2407.967628
1013.679464	2405.721794
1013.972745	2407.246743
1014.265992	2406.898904
1014.559204	2406.871177
1014.852380	2406.578791
1015.145521	2405.913358
1015.438628	2406.283883
1015.731699	2408.002917
1016.024736	2409.825294
1016.317737	2408.280180
1016.610703	2407.617268
1016.903635	2404.322874
1017.196531	2404.388409
1017.489393	2405.918399
1017.782219	2403.589386
1018.075011	2410.147928
1018.367768	2407.778585
1018.660490	2409.754717
1018.953177	2409.754717
1019.245829	2409.754717
