Dividing Wavelength (nm)	Counts (n)	Blue Motor Position (mm): 24.200000	Red Motor Position (mm): 0.000000	
326.493990	1970.466051
326.888308	1970.466051
327.282561	1970.466051
327.676750	1946.205498
328.070874	1948.257247
328.464933	1954.974585
328.858929	1963.433641
329.252859	1976.412092
329.646726	1990.892806
330.040528	2008.821670
330.434265	2025.326407
330.827938	2045.002031
331.221547	2066.424414
331.615091	2087.337641
332.008571	2108.402102
332.401986	2125.352982
332.795338	2146.654378
333.188625	2164.734476
333.581847	2186.902950
333.975006	2206.951619
334.368100	2223.423589
334.761129	2237.823645
335.154095	2252.823598
335.546996	2292.280709
335.939833	2358.254290
336.332606	2372.102339
336.725315	2386.109185
337.117960	2393.691081
337.510540	2399.924468
337.903056	2408.396127
338.295508	2413.165058
338.687896	2423.179310
339.080220	2429.367327
339.472480	2434.915116
339.864676	2438.716146
340.256807	2442.827207
340.648875	2445.688062
341.040879	2446.454318
341.432818	2447.326437
341.824694	2447.603701
342.216506	2449.257199
342.608253	2447.107147
342.999937	2446.013217
343.391557	2445.262085
343.783113	2441.453493
344.174605	2442.766713
344.566033	2440.687238
344.957397	2441.728236
345.348697	2440.072217
345.739934	2434.668100
346.131106	2435.436876
346.522215	2433.496032
346.913260	2430.985537
347.304241	2430.577203
347.695159	2425.657037
348.086012	2424.419434
348.476802	2425.687284
348.867528	2422.143353
349.258191	2420.499937
349.648789	2420.288208
350.039324	2419.494227
350.429796	2419.728640
350.820203	2416.482137
351.210548	2417.437436
351.600828	2418.692683
351.991045	2417.558424
352.381198	2418.914494
352.771288	2416.225038
353.161314	2412.295459
353.551276	2414.301838
353.941175	2418.541449
354.331010	2415.378125
354.720782	2421.054464
355.110490	2419.307704
355.500135	2417.034144
355.889717	2412.610531
356.279235	2419.012797
356.668689	2416.020872
357.058080	2415.670512
357.447408	2414.132960
357.836672	2414.286715
358.225873	2416.759401
358.615010	2413.969122
359.004084	2417.737385
359.393095	2418.417940
359.782043	2420.555390
360.170927	2420.578075
360.559748	2422.105544
360.948505	2420.958682
361.337199	2424.369023
361.725830	2423.927922
362.114398	2424.648807
362.502903	2422.579413
362.891344	2426.410690
363.279722	2421.687129
363.668037	2424.104362
364.056289	2424.822726
364.444478	2425.752819
364.832603	2426.849270
365.220665	2427.078643
365.608665	2428.172573
365.996601	2428.691812
366.384474	2428.283478
366.772284	2429.185845
367.160031	2428.361616
367.547715	2431.078798
367.935336	2427.129054
368.322893	2428.719538
368.710388	2430.090732
369.097820	2433.427976
369.485189	2432.059303
369.872495	2433.480908
370.259738	2431.860177
370.646918	2434.529468
371.034035	2434.080805
371.421090	2433.009560
371.808081	2431.925712
372.195010	2434.022832
372.581875	2432.916299
372.968678	2435.187339
373.355418	2433.236412
373.742096	2434.824376
374.128710	2434.504262
374.515262	2436.674479
374.901751	2437.337391
375.288177	2437.493667
375.674540	2437.002154
376.060841	2439.578184
376.447079	2438.043152
376.833254	2435.855292
377.219367	2434.882349
377.605417	2437.183636
377.991404	2433.518717
378.377329	2435.409149
378.763191	2433.586772
379.148991	2439.736980
379.534727	2437.977617
379.920402	2439.968873
380.306013	2439.215221
380.691563	2441.408122
381.077049	2443.101950
381.462474	2442.141610
381.847835	2439.762186
382.233134	2439.855447
382.618371	2442.370983
383.003545	2442.454162
383.388657	2443.454831
383.773706	2443.895932
384.158693	2442.817125
384.543618	2445.496498
384.928480	2443.613627
385.313280	2443.585901
385.698017	2444.251333
386.082692	2445.713268
386.467305	2445.304934
386.851856	2448.415326
387.236344	2446.353494
387.620770	2447.311314
388.005133	2446.257713
388.389435	2449.269802
388.773674	2447.215532
389.157851	2449.242076
389.541965	2449.292487
389.926018	2447.397013
390.310008	2446.479523
390.693936	2450.091510
391.077802	2449.332816
391.461606	2451.548403
391.845348	2451.472786
392.229027	2450.456994
392.612645	2453.332972
392.996200	2452.168465
393.379694	2449.693259
393.763125	2453.587550
394.146494	2451.886161
394.529801	2452.639813
394.913047	2454.447067
395.296230	2452.929680
395.679351	2453.922787
396.062410	2455.903960
396.445408	2454.376491
396.828343	2454.424382
397.211217	2448.921962
397.594028	2452.435647
397.976778	2452.080245
398.359466	2455.727520
398.742092	2453.252313
399.124656	2458.658951
399.507158	2456.670216
399.889598	2461.320680
400.271977	2459.326904
400.654294	2459.518468
401.036549	2458.732048
401.418742	2460.183900
401.800874	2461.229939
402.182944	2456.501337
402.564952	2459.014352
402.946898	2460.781277
403.328783	2459.641976
403.710606	2461.746658
404.092367	2461.577779
404.474067	2461.509723
404.855705	2460.612398
405.237282	2464.799076
405.618797	2461.030814
406.000250	2466.475260
406.381642	2461.318160
406.762972	2465.971145
407.144240	2463.581638
407.525447	2465.754375
407.906593	2464.988120
408.287677	2465.338480
408.668700	2465.333439
409.049661	2468.038018
409.430560	2463.790846
409.811399	2466.011474
410.192176	2467.470888
410.572891	2466.775209
410.953545	2468.133800
411.334138	2467.231433
411.714669	2465.341000
412.095139	2465.441823
412.475547	2468.164047
412.855894	2469.104222
413.236180	2469.076495
413.616405	2468.214458
413.996568	2469.419294
414.376670	2469.585652
414.756711	2470.152782
415.136691	2469.323512
415.516609	2472.927937
415.896466	2472.660756
416.276262	2474.339460
416.655997	2471.493729
417.035670	2468.746300
417.415283	2471.617237
417.794834	2470.568677
418.174324	2472.280149
418.553753	2474.765437
418.933121	2474.127732
419.312428	2475.972794
419.691674	2474.856178
420.070859	2475.753504
420.449983	2478.155613
420.829045	2472.897690
421.208047	2476.822228
421.586988	2475.367855
421.965867	2478.478247
422.344686	2477.780047
422.723444	2479.279791
423.102141	2479.141159
423.480777	2477.959008
423.859352	2478.553865
424.237866	2482.755666
424.616319	2481.034112
424.994712	2484.051243
425.373044	2482.604432
425.751314	2484.235245
426.129524	2480.275419
426.507673	2484.164669
426.885762	2484.126860
427.263789	2486.997797
427.641756	2484.469659
428.019662	2483.221973
428.397508	2483.698362
428.775292	2485.278764
429.153016	2487.025524
429.530679	2487.486789
429.908282	2487.038127
430.285824	2486.347488
430.663305	2487.325472
431.040726	2488.026193
431.418086	2487.937973
431.795385	2489.888899
432.172624	2489.629280
432.549802	2488.747078
432.926920	2489.120123
433.303977	2489.465442
433.680974	2488.777325
434.057910	2493.389980
434.434786	2492.144815
434.811601	2493.881493
435.188355	2494.758654
435.565050	2492.293529
435.941683	2494.269662
436.318257	2494.617501
436.694770	2491.774291
437.071222	2498.438696
437.447614	2493.185814
437.823946	2492.525422
438.200218	2498.103459
438.576429	2499.386433
438.952580	2498.758809
439.328670	2498.547081
439.704700	2501.992709
440.080670	2497.526247
440.456580	2500.487925
440.832429	2501.004643
441.208218	2501.044973
441.583947	2501.120590
441.959616	2500.079592
442.335224	2507.434635
442.710773	2503.056393
443.086261	2506.842299
443.461689	2506.590242
443.837057	2508.122753
444.212365	2509.602331
444.587612	2513.025275
444.962800	2511.487723
445.337927	2511.023937
445.712995	2509.884636
446.088002	2517.411078
446.462949	2516.914525
446.837837	2518.711696
447.212664	2521.592716
447.587431	2528.592358
447.962139	2534.641742
448.336786	2541.480067
448.711374	2539.592155
449.085901	2534.520755
449.460369	2535.791125
449.834776	2535.617206
450.209124	2545.104657
450.583412	2544.872764
450.957640	2545.490305
451.331808	2550.060111
451.705917	2544.877805
452.079965	2548.464586
452.453954	2548.426777
452.827883	2553.891388
453.201752	2551.834597
453.575562	2557.170659
453.949311	2560.961607
454.323001	2567.005950
454.696632	2570.854871
455.070202	2580.244020
455.443713	2585.040678
455.817164	2590.076791
456.190556	2594.122317
456.563888	2599.929726
456.937160	2606.689913
457.310373	2607.239399
457.683526	2613.094699
458.056619	2621.553755
458.429653	2630.269910
458.802628	2640.543782
459.175542	2648.740698
459.548398	2670.289110
459.921194	2694.809282
460.293930	2711.566078
460.666607	2745.649319
461.039224	2775.119904
461.411782	2794.833336
461.784280	2799.072947
462.156719	2810.743218
462.529099	2819.625731
462.901419	2827.570589
463.273680	2836.531240
463.645882	2852.196626
464.018024	2883.030843
464.390106	2919.180958
464.762130	2996.166939
465.134094	3115.390227
465.505999	3265.397322
465.877845	3398.592168
466.249631	3460.411838
466.621358	3460.386632
466.993026	3459.154070
467.364634	3459.451498
467.736184	3465.775625
468.107674	3492.045078
468.479105	3529.077394
468.850477	3562.795152
469.221790	3580.963470
469.593043	3589.309100
469.964238	3621.128863
470.335373	3678.598017
470.706449	3814.661280
471.077467	4005.947863
471.448425	4291.073004
471.819324	4505.712732
472.190164	4510.131303
472.560945	4420.965894
472.931667	4359.816698
473.302330	4385.675297
473.672934	4432.520219
474.043479	4549.858116
474.413965	4601.177062
474.784393	4668.675591
475.154761	4822.607224
475.525070	4926.838121
475.895321	4999.765973
476.265513	5145.301564
476.635645	5334.289381
477.005719	5432.128094
477.375734	5591.378144
477.745691	5772.121154
478.115588	6024.776223
478.485427	6363.294745
478.855207	6865.817125
479.224928	7328.640418
479.594591	7684.200561
479.964194	7727.060451
480.333739	7899.314157
480.703226	8085.806602
481.072653	8385.213332
481.442022	8662.315477
481.811333	8900.141992
482.180584	8911.121625
482.549777	9037.415132
482.918912	9162.143360
483.287988	9328.637548
483.657005	9405.938601
484.025964	9499.940997
484.394864	9706.555208
484.763706	9851.080048
485.132489	9906.212627
485.501213	10092.551317
485.869879	10345.428197
486.238487	10495.974695
486.607036	10763.559141
486.975527	10888.244519
487.343959	11156.270067
487.712333	11420.403843
488.080648	11639.951134
488.448905	11986.699340
488.817104	12202.478368
489.185244	12702.865820
489.553326	13447.250158
489.921350	14490.375794
490.289315	15678.190108
490.657222	16205.759461
491.025070	16616.921009
491.392861	16622.763707
491.760593	16535.710542
492.128267	16292.308510
492.495883	16105.687516
492.863440	15963.108561
493.230939	15833.543346
493.598380	15782.340346
493.965763	15963.385825
494.333088	15985.385420
494.700354	16122.724095
495.067563	16307.638659
495.434713	16561.128039
495.801805	16879.343314
496.168839	17040.244342
496.535815	17203.204681
496.902733	17528.051594
497.269593	17648.053741
497.636395	17923.270494
498.003139	18394.358759
498.369825	18451.021328
498.736453	18885.790600
499.103023	18989.129213
499.469535	19228.899093
499.835989	19566.278314
500.202385	19713.530418
500.568723	20023.926863
500.935003	20410.863147
501.301226	20614.578695
501.667390	21204.759178
502.033497	21646.926344
502.399546	21649.525059
502.765537	21597.039085
503.131470	22077.145975
503.497345	22558.838307
503.863163	22154.749497
504.228923	22763.113423
504.594625	23284.817393
504.960269	23173.642307
505.325856	23861.316185
505.691385	23774.598257
506.056856	24131.509428
506.422270	24684.884448
506.787625	24703.889598
507.152924	25109.478151
507.518164	25446.441477
507.883347	25238.756021
508.248472	25646.464379
508.613540	26229.448616
508.978550	26701.252725
509.343503	26806.302809
509.708398	27206.363738
510.073236	27837.485952
510.438016	28101.592002
510.802738	27998.036620
511.167403	28679.025928
511.532010	29110.127761
511.896561	29585.561501
512.261053	30438.575143
512.625488	30364.102178
512.989866	30521.413904
513.354186	30645.595167
513.718449	30886.950490
514.082655	31626.472636
514.446803	31613.327827
514.810894	32252.662081
515.174927	32426.339913
515.538904	32584.758173
515.902822	33324.416430
516.266684	33116.995634
516.630488	33668.908719
516.994235	33766.654172
517.357925	34436.631080
517.721558	34775.527688
518.085133	35235.343933
518.448651	35541.016817
518.812112	35554.169188
519.175516	35835.495819
519.538863	36305.717006
519.902152	36458.002702
520.265385	37030.758437
520.628560	37247.313804
520.991678	37252.506192
521.354739	37619.842470
521.717743	38068.157323
522.080690	38152.130343
522.443580	38799.026328
522.806413	38999.628963
523.169189	39129.282399
523.531908	39414.266387
523.894569	39445.844175
524.257174	39753.084858
524.619722	40157.513946
524.982213	40288.369697
525.344647	40361.905008
525.707025	40538.171473
526.069345	41021.713908
526.431608	41089.053642
526.793815	41479.092756
527.155964	41190.453931
527.518057	41457.700619
527.880093	41367.204346
528.242072	41970.086017
528.603995	41787.243367
528.965860	41899.240161
529.327669	42102.406223
529.689421	42114.976340
530.051117	42166.756552
530.412755	42399.403281
530.774337	42537.087275
531.135862	42454.762712
531.497331	42721.059144
531.858743	42708.199160
532.220098	43124.727017
532.581396	42913.149790
532.942638	42656.290399
533.303824	43040.514542
533.664953	43067.560333
534.026025	42875.847773
534.387040	43377.518198
534.747999	43390.189138
535.108902	43616.761277
535.469748	43215.646748
535.830537	43384.855597
536.191270	43616.927635
536.551947	43330.776619
536.912567	43677.703786
537.273131	43832.177342
537.633638	43394.537133
537.994089	43768.116880
538.354483	43418.527984
538.714821	44015.710630
539.075103	44368.772881
539.435328	44206.185587
539.795497	44131.062313
540.155609	44157.150284
540.515665	44624.346778
540.875665	44130.381757
541.235609	44473.200383
541.595496	44471.688037
541.955328	45158.802347
542.315102	44574.484726
542.674821	44404.393674
543.034483	44466.445237
543.394090	44438.088747
543.753640	44440.170743
544.113134	45428.241938
544.472571	44495.699053
544.831953	45718.745990
545.191278	44960.450587
545.550548	44739.645528
545.909761	45189.760073
546.268918	45402.605150
546.628019	45714.032511
546.987064	45316.507284
547.346053	44622.577333
547.704986	45491.392472
548.063863	45074.398308
548.422684	45277.821469
548.781449	45146.874977
549.140158	45542.348455
549.498811	45402.469039
549.857408	44858.263878
550.215949	45701.328804
550.574434	45644.643549
550.932864	45428.352843
551.291237	46137.645710
551.649555	45763.090500
552.007817	46011.453027
552.366022	45675.626481
552.724173	45866.744185
553.082267	46256.581653
553.440305	46564.432315
553.798288	45891.849131
554.156215	46229.079638
554.514086	46417.555778
554.871902	46170.539239
555.229661	46195.419854
555.587365	46030.400203
555.945014	46144.627708
556.302606	46067.616522
556.660143	46294.463403
557.017625	46393.209525
557.375050	46196.367591
557.732421	46549.475212
558.089735	46556.424442
558.446994	46462.054043
558.804197	46905.965447
559.161345	46858.019033
559.518437	46139.760474
559.875474	46432.762418
560.232455	46627.126625
560.589381	46792.380689
560.946251	46479.541805
561.303065	47158.290321
561.659825	46964.382338
562.016528	46665.877975
562.373177	46409.832730
562.729770	46877.039307
563.086307	46409.426917
563.442789	46859.632202
563.799216	46903.192813
564.155587	46709.793987
564.511904	46734.578819
564.868164	46838.991198
565.224370	47068.144408
565.580520	46828.210690
565.936615	47033.942699
566.292654	46764.009076
566.648638	47000.814757
567.004567	46974.704101
567.360441	46991.707912
567.716260	46861.890639
568.072023	47168.818771
568.427732	47161.367945
568.783385	46708.657206
569.138982	47104.942310
569.494525	47069.165241
569.850013	46841.398349
570.205445	46816.805080
570.560823	46776.654810
570.916145	46655.856161
571.271412	46687.948146
571.626625	46447.467464
571.981782	46510.481887
572.336884	46207.228757
572.691931	46524.488733
573.046923	46130.454504
573.401860	45991.447208
573.756743	45980.394478
574.111570	46081.532627
574.466342	45915.277893
574.821059	46054.938020
575.175722	45592.230673
575.530330	45630.130067
575.884882	45348.425349
576.239380	45303.498586
576.593823	45296.347709
576.948211	45211.270677
577.302544	44753.231438
577.656823	44790.099917
578.011047	45002.143450
578.365216	44729.535494
578.719330	44529.915884
579.073389	44383.493050
579.427394	44479.330426
579.781344	44452.599708
580.135239	44119.639058
580.489080	44213.391917
580.842866	43688.685939
581.196597	44150.793389
581.550273	44103.434269
581.903895	43957.502948
582.257463	44386.202671
582.610975	43787.966423
582.964434	44054.666147
583.317837	43718.751381
583.671186	43563.216661
584.024481	43772.479998
584.377721	43338.882794
584.730906	43597.602372
585.084037	43634.710305
585.437113	43363.304664
585.790135	43404.858895
586.143103	42991.985875
586.496016	43124.968993
586.848874	43144.795851
587.201679	43172.696117
587.554428	42665.392202
587.907124	42856.431768
588.259765	42623.442241
588.612352	42863.743962
588.964884	42278.050105
589.317362	42556.120152
589.669786	42520.758978
590.022155	42293.796149
590.374470	42712.761404
590.726731	42244.183634
591.078937	41769.017075
591.431090	41854.935981
591.783188	41520.578931
592.135232	41207.805582
592.487222	41443.189658
592.839157	41533.305324
593.191038	41218.386964
593.542866	40998.408654
593.894639	40394.879195
594.246358	40668.787769
594.598022	40647.745993
594.949633	40272.099373
595.301190	40229.063042
595.652692	40089.271846
596.004141	40392.265357
596.355535	39422.627141
596.706876	39377.188701
597.058162	39226.606915
597.409395	39667.004635
597.760573	39748.109239
598.111698	39331.951907
598.462768	39337.713946
598.813785	39399.833564
599.164748	38850.718319
599.515657	39244.664328
599.866511	38732.203313
600.217312	39326.096607
600.568060	38306.107346
600.918753	39054.645595
601.269392	39029.429744
601.619978	38670.986061
601.970510	38882.210407
602.320988	39051.081500
602.671412	39353.613745
603.021783	39107.179460
603.372100	38766.276472
603.722363	38879.727639
604.072572	38948.239441
604.422728	38961.958941
604.772830	38792.941655
605.122878	38892.151563
605.472872	38810.641146
605.822813	39107.229871
606.172701	38933.665465
606.522534	39157.800206
606.872314	39412.527189
607.222041	39187.026295
607.571714	39583.094630
607.921333	39026.447901
608.270899	39317.647633
608.620411	39648.196090
608.969870	39441.004667
609.319276	39442.930388
609.668627	39502.655458
610.017926	39985.887863
610.367171	40130.266509
610.716362	40223.923586
611.065500	40180.229385
611.414585	40366.931038
611.763616	40654.085244
612.112594	40578.006670
612.461518	40802.123768
612.810389	41095.869282
613.159207	40962.598818
613.507971	41028.975691
613.856682	41502.317352
614.205340	41381.294371
614.553945	42078.057450
614.902496	41529.083358
615.250994	41998.898732
615.599439	42076.860176
615.947830	42298.880153
616.296169	42337.737367
616.644454	42475.973367
616.992686	42622.350831
617.340864	43140.891477
617.688990	42870.153789
618.037063	43462.575066
618.385082	43427.251701
618.733048	43728.344697
619.080961	43737.885080
619.428821	43753.374025
619.776628	43848.465310
620.124382	43667.684492
620.472083	43807.009382
620.819731	43923.828040
621.167326	43603.631592
621.514868	43580.391872
621.862357	43160.229343
622.209793	43170.795602
622.557176	42830.623581
622.904506	42585.058895
623.251783	42250.774943
623.599007	42020.595858
623.946179	41813.873262
624.293297	41769.327106
624.640363	41179.733917
624.987376	41163.266988
625.334336	40923.212283
625.681243	40571.251524
626.028097	40539.918233
626.374899	40398.012272
626.721647	40363.487930
627.068343	40267.385894
627.414987	40023.293225
627.761577	39807.574690
628.108115	40140.230350
628.454600	39596.214233
628.801032	39781.953025
629.147412	39751.295248
629.493739	39749.785423
629.840014	39402.845653
630.186236	39744.550184
630.532405	39364.127071
630.878521	39581.249567
631.224585	39456.143252
631.570597	39163.035444
631.916556	39329.325466
632.262462	39287.559506
632.608316	39304.217999
632.954117	39184.341881
633.299866	39180.049338
633.645562	39093.114640
633.991206	38596.145091
634.336797	38175.975001
634.682336	38160.680140
635.027823	37923.753471
635.373257	37757.970085
635.718639	37512.428084
636.063968	37373.488843
636.409245	36802.008520
636.754470	36856.132868
637.099642	36613.141691
637.444762	36164.932703
637.789829	36298.147713
638.134845	35938.718485
638.479808	35897.978401
638.824719	35803.582795
639.169577	35417.523672
639.514383	35477.410059
639.859137	35184.503897
640.203839	35397.404427
640.548489	35063.559054
640.893086	35122.880832
641.237632	34873.356320
641.582125	34993.824773
641.926566	34927.334474
642.270955	34878.712546
642.615292	34920.730563
642.959576	34880.119027
643.303809	34886.433073
643.647990	35029.558992
643.992118	34996.756204
644.336195	34995.067417
644.680219	35077.543215
645.024192	35393.845372
645.368112	35884.823510
645.711981	35890.088995
646.055797	36757.966479
646.399562	36689.399225
646.743274	37609.387117
647.086935	38062.475942
647.430544	37947.083931
647.774101	38070.214113
648.117606	38311.017430
648.461059	38611.558419
648.804460	38211.290804
649.147810	37608.656150
649.491108	37352.187448
649.834354	37012.743874
650.177548	36194.216765
650.520690	35753.012460
650.863781	35755.449858
651.206820	35603.058298
651.549807	35168.788100
651.892742	34701.400041
652.235626	34504.653889
652.578458	34358.677197
652.921238	33771.110552
653.263967	34087.589149
653.606644	33789.281391
653.949269	33726.980291
654.291843	33334.314736
654.634365	33742.207096
654.976836	33338.821527
655.319255	33337.503265
655.661622	33333.321628
656.003938	33113.434059
656.346203	32968.006853
656.688416	33202.498645
657.030577	32989.784638
657.372687	32836.273941
657.714746	33101.489045
658.056753	33225.660226
658.398708	32671.531554
658.740612	32730.182859
659.082465	32996.756553
659.424266	32835.863087
659.766016	32956.172744
660.107715	32832.845957
660.449362	32956.190388
660.790958	32944.968780
661.132503	32958.234576
661.473996	32984.990500
661.815438	33098.194651
662.156829	33280.800367
662.498168	33072.141968
662.839456	33081.732763
663.180693	33235.871083
663.521879	33392.771956
663.863013	33347.000799
664.204097	33342.352855
664.545129	33802.111127
664.886110	33770.077115
665.227040	33823.788089
665.567918	33947.891214
665.908746	34009.733569
666.249522	34163.753422
666.590248	34168.366078
666.930922	34279.856236
667.271545	34247.860033
667.612118	34339.329249
667.952639	34111.179228
668.293109	34176.948642
668.633528	34054.027667
668.973896	33988.149869
669.314213	34012.206255
669.654480	33762.424644
669.994695	33793.344561
670.334859	33682.623178
670.674973	33579.087961
671.015035	33734.763833
671.355047	33683.076882
671.695008	33640.116169
672.034918	33526.937224
672.374777	33619.281080
672.714585	33463.764005
673.054342	33692.793706
673.394049	33439.354738
673.733705	33718.448138
674.073310	33384.698548
674.412864	33461.366936
674.752368	33047.752866
675.091820	33356.410113
675.431223	32917.469286
675.770574	32669.870494
676.109875	32519.694521
676.449125	32249.939858
676.788324	32163.012722
677.127473	31639.408236
677.466571	31559.236246
677.805619	31222.409031
678.144616	31215.253113
678.483562	31136.079272
678.822458	30827.714412
679.161303	30750.095766
679.500098	30652.191517
679.838842	30537.888395
680.177535	30698.159278
680.516179	30968.244137
680.854771	31218.320656
681.193314	32067.440007
681.531805	33182.608772
681.870247	33951.326761
682.208638	34675.012122
682.546978	34922.989000
682.885268	34996.741081
683.223508	34470.061491
683.561697	34133.148577
683.899836	33937.314873
684.237925	33442.646611
684.575963	33286.945533
684.913951	32840.495908
685.251889	32978.880622
685.589776	32987.876561
685.927614	32958.814309
686.265401	33108.244191
686.603137	33210.435942
686.940824	33708.635532
687.278460	34102.090028
687.616046	34239.101028
687.953582	34857.227148
688.291068	34708.986978
688.628504	34988.347559
688.965889	34929.658446
689.303224	34537.328128
689.640510	34204.919484
689.977745	33452.181954
690.314930	32664.126099
690.652065	32135.054483
690.989150	31397.523593
691.326185	30501.947488
691.663170	29804.171137
692.000105	29046.155519
692.336990	28381.141627
692.673825	27932.085725
693.010610	27403.180466
693.347345	26841.621133
693.684030	26195.995519
694.020665	25920.536791
694.357251	25261.998261
694.693786	25210.394489
695.030272	24973.127542
695.366707	24439.387817
695.703093	24155.039014
696.039429	24145.009638
696.375716	23881.805955
696.711952	23859.662687
697.048139	23697.357698
697.384276	23521.257591
697.720363	23645.017918
698.056400	23443.238173
698.392388	23222.972518
698.728326	23182.514737
699.064214	22972.401966
699.400053	22922.854985
699.735842	22567.574627
700.071581	22299.435654
700.407270	22010.012929
700.742910	21817.430770
701.078501	21544.885828
701.414042	21263.965010
701.749533	20976.253757
702.084974	20634.481170
702.420366	20828.948721
702.755709	20396.311857
703.091002	20110.508680
703.426246	20119.096286
703.761440	20018.956285
704.096584	19746.996118
704.431679	19709.154696
704.766725	19619.465008
705.101721	19548.946827
705.436668	19646.344440
705.771565	19316.234563
706.106413	19664.686678
706.441212	19647.602208
706.775961	19785.225708
707.110661	19849.230718
707.445311	20199.381702
707.779913	20050.624814
708.114465	20283.778179
708.448967	20567.832075
708.783421	21250.971436
709.117825	21521.920852
709.452180	21752.077251
709.786485	22153.164054
710.120742	22944.385753
710.454949	22965.339309
710.789107	23428.427263
711.123216	24136.293483
711.457275	24254.412759
711.791286	24793.569204
712.125247	24856.054306
712.459159	24543.248189
712.793023	25205.958274
713.126837	24114.707263
713.460602	24356.339849
713.794318	23976.037723
714.127985	23584.783691
714.461602	22709.609136
714.795171	22655.767093
715.128691	21650.321561
715.462162	21114.872885
715.795584	20702.322498
716.128957	20437.011612
716.462281	20030.676968
716.795556	19797.747934
717.128782	19308.473706
717.461960	18765.980018
717.795088	18690.241722
718.128167	18285.416904
718.461198	17835.388059
718.794180	17686.812652
719.127113	17326.392837
719.459997	17134.912170
719.792833	16791.743184
720.125619	16763.341323
720.458357	16444.495904
720.791046	16279.335101
721.123686	16120.596728
721.456278	15886.099895
721.788821	15845.412743
722.121315	15582.501446
722.453761	15665.758622
722.786158	15582.995479
723.118506	15590.763897
723.450805	15464.752695
723.783056	15614.444717
724.115259	15517.251271
724.447412	15456.807837
724.779518	15698.468149
725.111574	15721.957405
725.443582	15916.273722
725.775542	15893.865793
726.107453	16360.316196
726.439315	16246.565080
726.771129	16642.620812
727.102895	17013.488418
727.434612	17215.550467
727.766281	17339.598140
728.097901	17589.674658
728.429473	17625.534906
728.760996	17604.200743
729.092471	17700.766566
729.423897	17566.971822
729.755276	17439.869210
730.086606	17548.145633
730.417887	18070.671312
730.749120	18587.238346
731.080305	18759.103884
731.411442	19079.504499
731.742530	19153.380088
732.073570	19253.963710
732.404562	19535.081133
732.735506	19346.642803
733.066401	19063.387930
733.397249	18559.272545
733.728048	17921.594310
734.058798	17090.804594
734.389501	16417.082109
734.720156	15958.523632
735.050762	15441.026504
735.381320	15087.676908
735.711831	14854.841135
736.042293	14505.670655
736.372707	14518.548283
736.703073	14302.872598
737.033391	14491.870497
737.363661	14452.625114
737.693883	14564.616867
738.024056	14731.973093
738.354182	14923.148770
738.684260	15200.548343
739.014290	15425.366160
739.344272	15616.219203
739.674207	15883.725512
740.004093	16010.593710
740.333931	15985.302241
740.663722	16028.154569
740.993464	16012.383320
741.323159	15845.485839
741.652806	15557.840121
741.982405	15364.569845
742.311956	15019.336506
742.641460	14901.733948
742.970915	14597.459984
743.300323	14265.089150
743.629683	14058.953848
743.958996	13783.580819
744.288260	13513.596784
744.617477	13212.299622
744.946647	13144.644816
745.275768	12873.027447
745.604842	12685.788911
745.933869	12516.191893
746.262847	12477.458187
746.591778	12398.206207
746.920662	12296.906742
747.249498	12298.005713
747.578286	12419.517685
747.907027	12559.248388
748.235720	12777.353909
748.564365	12804.918938
748.892963	12699.609234
749.221514	12772.872323
749.550017	12618.880197
749.878473	12586.601688
750.206881	12360.715146
750.535242	12276.762291
750.863555	12190.024198
751.191821	12096.838469
751.520039	12114.918567
751.848210	12020.104546
752.176334	12052.667879
752.504411	11951.290275
752.832440	11800.295114
753.160421	11870.689787
753.488356	11740.423851
753.816243	11657.471664
754.144082	11510.401042
754.471875	11459.765172
754.799620	11401.343240
755.127318	11378.106042
755.454969	11340.524240
755.782572	11294.962291
756.110129	11295.158896
756.437638	11222.278935
756.765100	11210.573376
757.092515	11214.082019
757.419882	11227.927548
757.747203	11240.840463
758.074477	11302.544187
758.401703	11264.874164
758.728882	11420.292938
759.056014	11462.810029
759.383099	11579.137175
759.710138	11686.758248
760.037129	11765.543920
760.364073	11785.660645
760.690970	11763.668611
761.017820	11760.197777
761.344623	11954.322529
761.671379	12263.471289
761.998088	12890.737021
762.324751	14430.761630
762.651366	17270.622552
762.977935	20911.384189
763.304456	23103.270320
763.630931	23582.089194
763.957359	22406.240060
764.283740	20517.375166
764.610074	18646.348396
764.936362	16537.137188
765.262602	15032.438465
765.588796	13578.352926
765.914943	12550.968292
766.241044	11710.728934
766.567097	11088.121228
766.893104	10547.102077
767.219064	10179.453247
767.544978	9800.918046
767.870845	9495.671140
768.196665	9309.617275
768.522438	9114.285166
768.848165	8948.605124
769.173846	8784.008931
769.499479	8657.912029
769.825066	8508.227568
770.150607	8325.672264
770.476101	8265.415352
770.801548	8156.957448
771.126949	8016.697424
771.452303	7931.005371
771.777611	7763.298785
772.102872	7743.182061
772.428087	7627.638815
772.753256	7504.707758
773.078378	7416.059067
773.403453	7279.156452
773.728482	7174.194588
774.053465	7111.154959
774.378401	7025.306630
774.703291	6935.402692
775.028135	6837.616910
775.352932	6796.544109
775.677683	6719.537964
776.002388	6631.819366
776.327046	6632.910776
776.651658	6547.196037
776.976224	6473.766590
777.300743	6451.860256
777.625216	6390.627881
777.949643	6342.636096
778.274024	6351.049782
778.598359	6284.130985
778.922647	6287.765657
779.246889	6245.528350
779.571086	6251.963383
779.895236	6269.516680
780.219339	6260.041832
780.543397	6257.173415
780.867409	6306.569161
781.191374	6306.493544
781.515294	6264.357059
781.839167	6323.469629
782.162995	6295.201359
782.486776	6247.048258
782.810511	6207.775149
783.134201	6129.193642
783.457844	6117.830882
783.781441	6067.794909
784.104993	6028.279825
784.428498	6000.084651
784.751958	5982.201158
785.075372	5960.483867
785.398739	5920.384009
785.722061	5940.810764
786.045337	5941.123316
786.368568	6049.550973
786.691752	6069.574437
787.014891	6317.543753
787.337983	6594.373675
787.661030	7030.199069
787.984031	7449.676002
788.306987	7712.529325
788.629897	7802.778582
788.952760	7716.834470
789.275579	7534.942078
789.598351	7244.261585
789.921078	6979.265772
790.243759	6704.515325
790.566395	6500.610734
790.888984	6302.664788
791.211529	6171.012534
791.534027	6008.828533
791.856480	5868.538262
792.178888	5809.705476
792.501249	5745.735755
792.823566	5644.295136
793.145836	5634.379187
793.468062	5618.207165
793.790241	5579.405404
794.112375	5619.119614
794.434464	5717.248194
794.756507	5744.654427
795.078505	5867.570361
795.400457	6082.270583
795.722364	6318.126006
796.044226	6510.667836
796.366042	6665.456465
796.687812	6613.648527
797.009538	6643.492158
797.331218	6553.855401
797.652852	6480.136088
797.974442	6358.404826
798.295986	6293.973838
798.617484	6164.476678
798.938938	6058.672941
799.260346	5990.365307
799.581709	5852.497311
799.903026	5799.280370
800.224299	5724.678855
800.545526	5617.118276
800.866708	5552.659562
801.187845	5499.394731
801.508936	5424.480664
801.829983	5397.986880
802.150984	5289.191218
802.471940	5266.561479
802.792851	5248.859467
803.113717	5223.615889
803.434538	5204.875400
803.755314	5170.671171
804.076045	5158.637937
804.396731	5119.553871
804.717372	5136.731603
805.037967	5142.808713
805.358518	5169.173948
805.679024	5225.833997
805.999485	5238.520060
806.319901	5252.554633
806.640272	5272.005925
806.960598	5320.035518
807.280879	5310.066636
807.601115	5345.722717
807.921306	5313.378674
808.241453	5307.750226
808.561554	5315.750537
808.881611	5284.344149
809.201623	5278.730824
809.521590	5231.220470
809.841513	5219.141865
810.161390	5230.363473
810.481223	5141.122447
810.801011	5130.442763
811.120755	5105.461325
811.440453	5048.337490
811.760107	5024.328995
812.079716	4995.707844
812.399281	4946.707829
812.718801	4942.236325
813.038276	4906.771808
813.357707	4868.272516
813.677093	4895.464500
813.996434	4829.022092
814.315731	4853.776678
814.634983	4850.567984
814.954191	4858.248182
815.273354	4919.039456
815.592473	4955.350887
815.911547	5028.891239
816.230577	5085.125311
816.549562	5171.694525
816.868502	5220.336618
817.187399	5273.508189
817.506250	5354.827041
817.825058	5383.181011
818.143821	5534.917221
818.462539	5702.686821
818.781213	5922.339977
819.099843	6285.444206
819.418429	6914.945690
819.736970	7526.420007
820.055466	8228.715752
820.373919	9140.463878
820.692327	10576.239946
821.010691	13248.701793
821.329011	19414.660571
821.647286	28954.502301
821.965517	39280.794277
822.283704	44763.369198
822.601847	46257.579801
822.919945	41659.848368
823.237999	36549.998718
823.556010	31360.259383
823.873976	26667.666037
824.191897	22480.864260
824.509775	19414.751312
824.827609	16660.579922
825.145398	15106.316574
825.463144	14358.516854
825.780845	14646.389424
826.098502	15885.426901
826.416116	18332.138318
826.733685	20605.373548
827.051210	21141.633850
827.368692	19720.474607
827.686129	17173.197213
828.003522	14698.477146
828.320872	12500.077844
828.638177	10863.883143
828.955439	9623.151838
829.272656	8570.059841
829.589830	7731.705874
829.906960	7010.402458
830.224046	6477.091231
830.541088	6068.818263
830.858086	5818.083874
831.175041	5610.521926
831.491952	5555.306168
831.808819	5585.580817
832.125642	5832.564588
832.442421	6377.047012
832.759157	7477.843449
833.075849	9234.168846
833.392497	11068.148177
833.709101	12184.002539
834.025662	11937.152359
834.342179	10884.650177
834.658653	9590.545655
834.975083	8481.411151
835.291469	7588.768998
835.607811	6859.727411
835.924110	6343.251117
836.240366	5858.798753
836.556578	5408.651441
836.872746	5058.565992
837.188871	4791.301659
837.504952	4564.691711
837.820990	4402.066608
838.136984	4288.262560
838.452935	4239.524685
838.768842	4267.508130
839.084706	4546.873753
839.400526	5280.626298
839.716303	6180.439492
840.032037	6745.381439
840.347727	6598.310817
840.663373	6008.299212
840.978977	5432.591881
841.294537	4986.573273
841.610054	4664.700642
841.925527	4423.088220
842.240957	4220.206983
842.556344	4038.407852
842.871687	3880.196280
843.186987	3728.525605
843.502244	3612.682410
843.817458	3528.991694
844.132629	3458.551652
844.447756	3411.212697
844.762840	3367.430275
845.077881	3325.807989
845.392879	3293.216929
845.707833	3268.356479
846.022745	3239.979824
846.337613	3232.405490
846.652438	3205.392467
846.967221	3198.939790
847.281960	3177.940864
847.596656	3166.812517
847.911309	3158.063594
848.225919	3144.843168
848.540485	3132.951087
848.855009	3124.978502
849.169490	3113.446862
849.483928	3103.914040
849.798323	3104.513938
850.112675	3091.006166
850.426984	3093.584716
850.741251	3085.425609
851.055474	3082.922676
851.369654	3084.893767
851.683792	3078.519228
851.997887	3083.885536
852.311938	3083.973756
852.625947	3083.119281
852.939914	3076.623754
853.253837	3084.293870
853.567718	3079.857654
853.881555	3076.510328
854.195350	3080.437387
854.509103	3075.648291
854.822812	3078.141141
855.136479	3073.417580
855.450103	3075.602920
855.763685	3066.785942
856.077224	3072.326170
856.390720	3079.978642
856.704173	3089.529108
857.017584	3095.356682
857.330953	3101.736262
857.644278	3107.561315
857.957561	3108.125924
858.270802	3107.306737
858.584000	3106.091819
858.897155	3100.899430
859.210268	3090.466763
859.523339	3078.907397
859.836367	3076.976635
860.149352	3071.789287
860.462295	3069.321643
860.775195	3056.998542
861.088054	3052.484189
861.400869	3056.391083
861.713642	3050.571071
862.026373	3062.947104
862.339062	3065.616395
862.651708	3077.042170
862.964312	3092.377360
863.276873	3098.736775
863.589392	3129.530664
863.901869	3155.159890
864.214303	3178.417253
864.526696	3194.175900
864.839045	3211.416646
865.151353	3223.893502
865.463619	3225.267216
865.775842	3225.519274
866.088023	3229.658061
866.400162	3223.583471
866.712258	3224.435426
867.024313	3223.308728
867.336325	3224.521126
867.648296	3222.865107
867.960224	3222.721434
868.272110	3224.952144
868.583954	3227.220663
868.895755	3232.017321
869.207515	3230.300808
869.519233	3246.644229
869.830909	3253.908532
870.142542	3267.197013
870.454134	3272.137344
870.765684	3287.049077
871.077191	3305.666058
871.388657	3314.798109
871.700081	3335.124041
872.011463	3354.787062
872.322803	3373.078888
872.634101	3386.150600
872.945357	3409.723036
873.256571	3438.223199
873.567744	3454.012093
873.878874	3458.788586
874.189963	3471.152016
874.501010	3474.632932
874.812015	3470.973055
875.122979	3490.043740
875.433900	3486.507370
875.744780	3487.530725
876.055618	3497.880213
876.366415	3496.065398
876.677169	3499.793331
876.987882	3517.611290
877.298554	3534.529402
877.609183	3573.699167
877.919771	3619.971918
878.230317	3688.120757
878.540822	3788.132208
878.851285	3944.415539
879.161707	4164.416534
879.472087	4536.519223
879.782425	5156.014016
880.092722	6339.606363
880.402977	8274.396168
880.713191	10651.332974
881.023363	13049.409858
881.333494	14390.288726
881.643583	14854.163100
881.953631	14444.264360
882.263637	13592.697529
882.573602	12558.207389
882.883526	11597.393713
883.193408	10645.404577
883.503248	9723.279236
883.813048	8898.221312
884.122806	8126.844115
884.432522	7362.239709
884.742197	6700.011054
885.051831	6137.854345
885.361424	5642.031658
885.670975	5245.285289
885.980485	4922.371659
886.289954	4653.985669
886.599382	4440.356693
886.908768	4261.032768
887.218113	4096.000514
887.527417	3969.669199
887.836680	3843.393336
888.145901	3743.404570
888.455082	3666.879855
888.764221	3598.231943
889.073319	3539.918395
889.382376	3505.767099
889.691392	3480.412615
890.000366	3476.674600
890.309300	3470.249649
890.618193	3475.011019
890.927044	3467.497179
891.235855	3475.033704
891.544625	3486.996362
891.853353	3514.866381
892.162041	3577.666555
892.470687	3667.767098
892.779293	3786.340078
893.087858	3957.618321
893.396381	4236.704159
893.704864	4643.290861
894.013306	5217.957194
894.321707	5784.497187
894.630068	6145.272403
894.938387	6184.590882
895.246665	6005.140929
895.554903	5692.163413
895.863100	5351.073902
896.171256	5079.670782
896.479371	4843.971634
896.787446	4621.530721
897.095480	4423.856996
897.403473	4272.824027
897.711425	4131.122233
898.019336	4010.691588
898.327207	3888.486457
898.635038	3784.976446
898.942827	3681.650436
899.250576	3594.730861
899.558284	3510.561236
899.865952	3455.030406
900.173579	3392.210067
900.481165	3344.130062
900.788711	3304.027683
901.096216	3272.386881
901.403681	3245.928385
901.711105	3233.731314
902.018489	3231.971951
902.325832	3263.380860
902.633135	3322.168276
902.940397	3490.570540
903.247619	3894.550966
903.554800	4648.027025
903.861941	5605.460608
904.169041	6319.933260
904.476101	6528.188367
904.783121	6259.421770
905.090100	5856.061407
905.397039	5438.109423
905.703938	5073.513013
906.010796	4750.685082
906.317614	4503.005632
906.624391	4261.625103
906.931129	4067.230649
907.237826	3884.589646
907.544483	3719.822053
907.851099	3544.505845
908.157675	3386.430384
908.464211	3245.814959
908.770707	3141.450472
909.077163	3063.998184
909.383578	3003.892507
909.689954	2959.442133
909.996289	2929.401897
910.302584	2911.709968
910.608839	2895.144736
910.915054	2885.881616
911.221229	2882.403220
911.527363	2884.833056
911.833458	2892.851011
912.139513	2903.785274
912.445527	2918.639034
912.751502	2949.621965
913.057436	2996.441682
913.363331	3053.537790
913.669186	3138.602220
913.975000	3256.623193
914.280775	3439.286882
914.586510	3708.925599
914.892205	4080.302361
915.197859	4584.180812
915.503475	5169.728475
915.809050	5667.597870
916.114585	5956.987827
916.420081	6015.732393
916.725536	5953.181756
917.030952	5716.648297
917.336328	5508.889744
917.641665	5294.744049
917.946961	5065.409358
918.252218	4872.323083
918.557435	4641.992764
918.862612	4441.163277
919.167750	4272.317391
919.472848	4083.468206
919.777906	3915.711209
920.082925	3757.113988
920.387904	3601.760750
920.692843	3489.141373
920.997743	3391.446332
921.302603	3297.199441
921.607423	3235.306674
921.912204	3166.532733
922.216946	3118.818212
922.521647	3068.673854
922.826310	3028.145498
923.130932	2991.665188
923.435516	2951.351081
923.740059	2925.933583
924.044564	2895.099366
924.349028	2868.287989
924.653454	2840.259174
924.957840	2813.765390
925.262186	2794.505661
925.566493	2771.616302
925.870761	2748.086717
926.174989	2734.750344
926.479178	2722.971688
926.783328	2706.250181
927.087438	2695.328521
927.391509	2681.992149
927.695541	2669.858091
927.999533	2661.179745
928.303486	2654.270844
928.607400	2645.710964
928.911275	2639.175108
929.215110	2633.949952
929.518906	2631.202524
929.822663	2630.872328
930.126381	2629.712863
930.430060	2635.845426
930.733699	2634.756537
931.037299	2639.018833
931.340861	2638.136631
931.644383	2642.981180
931.947866	2641.136117
932.251309	2639.414563
932.554714	2637.604789
932.858080	2634.186887
933.161407	2630.642956
933.464694	2624.540639
933.767943	2625.836215
934.071153	2621.762963
934.374323	2619.963271
934.677455	2615.345574
934.980548	2610.198556
935.283602	2608.908021
935.586617	2607.945160
935.889593	2610.541355
936.192530	2610.652260
936.495428	2615.335492
936.798287	2624.195320
937.101108	2638.928092
937.403890	2660.925167
937.706632	2685.457942
938.009336	2722.023951
938.312002	2750.430853
938.614628	2776.460851
938.917216	2790.719755
939.219765	2801.472536
939.522275	2813.344453
939.824747	2811.718681
940.127179	2806.367496
940.429573	2796.754016
940.731929	2797.500107
941.034246	2788.766308
941.336524	2788.181534
941.638763	2781.980915
941.940964	2774.081427
942.243126	2759.497368
942.545250	2749.646954
942.847335	2736.660942
943.149381	2722.883468
943.451389	2709.905017
943.753359	2697.889427
944.055290	2688.258303
944.357182	2678.816222
944.659036	2670.800787
944.960851	2668.534788
945.262628	2665.187462
945.564367	2665.747030
945.866067	2664.653100
946.167729	2661.842657
946.469352	2659.977430
946.770937	2659.052378
947.072484	2653.199598
947.373992	2652.622386
947.675462	2650.560554
947.976893	2644.460758
948.278286	2642.177116
948.579641	2635.147227
948.880958	2631.966258
949.182236	2633.856691
949.483476	2628.588685
949.784678	2628.397122
950.085841	2629.483490
950.386967	2631.673872
950.688054	2640.518576
950.989103	2647.336737
951.290114	2656.554486
951.591087	2667.140909
951.892021	2679.325378
952.192917	2692.775177
952.493776	2703.046528
952.794596	2705.967876
953.095378	2707.202959
953.396122	2705.037783
953.696828	2702.575180
953.997496	2697.435723
954.298126	2687.587829
954.598718	2680.076510
954.899272	2669.235509
955.199788	2658.938952
955.500266	2648.518887
955.800706	2631.908285
956.101108	2615.375821
956.401472	2602.480550
956.701798	2590.590988
957.002087	2574.466858
957.302337	2567.683985
957.602550	2553.780483
957.902724	2542.634492
958.202861	2535.181146
958.502960	2523.271420
958.803022	2519.271264
959.103045	2511.570902
959.403031	2505.529079
959.702979	2499.756958
960.002889	2496.555825
960.302762	2491.514671
960.602596	2487.050729
960.902393	2484.883033
961.202153	2479.234420
961.501875	2478.402630
961.801559	2473.159830
962.101205	2475.640078
962.400814	2471.912144
962.700385	2466.140023
962.999918	2468.272431
963.299414	2464.191617
963.598873	2466.802935
963.898293	2461.608026
964.197677	2462.618777
964.497022	2459.515947
964.796331	2457.449074
965.095601	2461.686164
965.394835	2458.008642
965.694030	2459.420165
965.993189	2459.596606
966.292309	2454.835236
966.591393	2456.632407
966.890439	2454.527725
967.189447	2455.462859
967.488419	2459.445371
967.787353	2457.552418
968.086249	2456.748354
968.385108	2456.748354
968.683930	2456.246759
968.982714	2459.566359
969.281462	2458.669033
969.580172	2461.930660
969.878844	2463.639611
970.177480	2466.069447
970.476078	2468.789150
970.774639	2472.207052
971.073162	2474.498256
971.371649	2474.284007
971.670098	2476.401292
971.968510	2476.915490
972.266885	2476.834831
972.565223	2482.201139
972.863524	2483.557210
973.161788	2484.285657
973.460014	2483.960502
973.758204	2486.128198
974.056356	2486.050060
974.354471	2491.882675
974.652550	2490.450988
974.950591	2485.036788
975.248595	2488.207674
975.546563	2484.300780
975.844493	2482.042343
976.142386	2481.278608
976.440243	2478.876498
976.738062	2478.079996
977.035845	2474.846096
977.333590	2471.932309
977.631299	2471.491208
977.928971	2469.666310
978.226606	2466.374437
978.524204	2465.358644
978.821765	2466.651700
979.119290	2462.928808
979.416777	2466.654221
979.714228	2463.329580
980.011642	2465.451906
980.309020	2471.259315
980.606360	2470.629171
980.903664	2481.550831
981.200931	2494.824189
981.498162	2515.213135
981.795356	2544.663556
982.092513	2582.452045
982.389633	2625.473252
982.686717	2671.743483
982.983764	2700.329346
983.280775	2721.270299
983.577749	2720.877089
983.874686	2708.811087
984.171587	2696.049406
984.468451	2678.700275
984.765279	2662.170332
985.062070	2641.304996
985.358824	2624.243211
985.655543	2602.825869
985.952224	2577.481468
986.248869	2549.291335
986.545478	2524.728313
986.842050	2507.694254
987.138586	2486.352530
987.435086	2471.806280
987.731549	2460.171297
988.027975	2455.374639
988.324366	2447.724688
988.620719	2444.795778
988.917037	2440.861157
989.213318	2440.813266
989.509563	2433.531320
989.805772	2433.707760
990.101944	2432.414704
990.398080	2433.871597
990.694180	2431.419076
990.990244	2432.142482
991.286271	2433.385126
991.582262	2434.421083
991.878217	2434.290013
992.174136	2433.052410
992.470019	2435.933429
992.765865	2436.561053
993.061676	2440.654470
993.357450	2444.069852
993.653188	2444.400047
993.948890	2451.477827
994.244556	2458.878241
994.540186	2465.885445
994.835780	2479.395737
995.131337	2491.045844
995.426859	2508.483195
995.722345	2528.244518
996.017795	2547.408464
996.313208	2560.719631
996.608586	2571.169943
996.903928	2577.317630
997.199234	2570.181877
997.494504	2572.415108
997.789738	2562.577296
998.084936	2553.780483
998.380099	2540.973432
998.675225	2528.320135
998.970316	2515.994514
999.265371	2503.918430
999.560390	2488.837818
999.855373	2479.940182
1000.150320	2467.327215
1000.445232	2461.555094
1000.740108	2452.685184
1001.034948	2446.098916
1001.329752	2441.647577
1001.624521	2438.950560
1001.919254	2429.493355
1002.213951	2431.288006
1002.508613	2421.228384
1002.803239	2426.897161
1003.097829	2421.261151
1003.392384	2426.559404
1003.686903	2422.889444
1003.981386	2419.451377
1004.275834	2419.098496
1004.570246	2420.018507
1004.864623	2418.599422
1005.158964	2418.652354
1005.453270	2416.524987
1005.747540	2416.202353
1006.041775	2413.583474
1006.335974	2411.924934
1006.630138	2413.873340
1006.924266	2414.511046
1007.218359	2415.572209
1007.512416	2415.025244
1007.806438	2415.937693
1008.100425	2410.974677
1008.394376	2414.843762
1008.688292	2412.852507
1008.982172	2412.905439
1009.276017	2409.757238
1009.569827	2413.210428
1009.863602	2414.019534
1010.157341	2414.874009
1010.451045	2411.108267
1010.744714	2412.010634
1011.038347	2412.159348
1011.331945	2411.808988
1011.625508	2410.783113
1011.919036	2406.798081
1012.212528	2408.963256
1012.505986	2409.482495
1012.799408	2410.415109
1013.092795	2406.561147
1013.386147	2410.402506
1013.679464	2408.489388
1013.972745	2407.934861
1014.265992	2408.799419
1014.559204	2409.832855
1014.852380	2408.880077
1015.145521	2407.584501
1015.438628	2407.317320
1015.731699	2410.528535
1016.024736	2408.532238
1016.317737	2408.396127
1016.610703	2408.809501
1016.903635	2406.500653
1017.196531	2405.595766
1017.489393	2410.072310
1017.782219	2407.302196
1018.075011	2410.001734
1018.367768	2410.999882
1018.660490	2410.969636
1018.953177	2410.969636
1019.245829	2410.969636
