Dividing Wavelength (nm)	Counts (n)	Blue Motor Position (mm): 12.200000	Red Motor Position (mm): 0.000000	
326.493990	1974.211628
326.888308	1974.211628
327.282561	1974.211628
327.676750	1951.493668
328.070874	1951.750767
328.464933	1959.055399
328.858929	1966.475977
329.252859	1981.662453
329.646726	1994.146871
330.040528	2006.079282
330.434265	2029.079547
330.827938	2047.424305
331.221547	2067.273849
331.615091	2086.089955
332.008571	2107.887905
332.401986	2129.995885
332.795338	2149.399286
333.188625	2170.592297
333.581847	2190.570389
333.975006	2207.256609
334.368100	2226.599516
334.761129	2240.389592
335.154095	2258.825092
335.546996	2286.317024
335.939833	2336.431135
336.332606	2349.845645
336.725315	2360.961389
337.117960	2371.424304
337.510540	2376.767927
337.903056	2387.608929
338.295508	2394.139743
338.687896	2401.706515
339.080220	2407.579460
339.472480	2412.502146
339.864676	2413.901067
340.256807	2415.993145
340.648875	2421.583785
341.040879	2422.531522
341.432818	2424.953796
341.824694	2425.321801
342.216506	2425.208375
342.608253	2425.475556
342.999937	2420.368867
343.391557	2422.483631
343.783113	2423.234763
344.174605	2419.370718
344.566033	2417.049267
344.957397	2415.657909
345.348697	2409.066600
345.739934	2411.887126
346.131106	2411.756056
346.522215	2407.241702
346.913260	2407.720612
347.304241	2406.122566
347.695159	2401.562842
348.086012	2402.621485
348.476802	2399.211144
348.867528	2398.066802
349.258191	2395.387429
349.648789	2395.954559
350.039324	2392.836605
350.429796	2396.435989
350.820203	2391.760319
351.210548	2392.710576
351.600828	2390.971378
351.991045	2391.052037
352.381198	2390.663868
352.771288	2391.165463
353.161314	2390.515154
353.551276	2392.924825
353.941175	2388.937273
354.331010	2389.199413
354.720782	2393.101266
355.110490	2395.626884
355.500135	2391.117572
355.889717	2392.055226
356.279235	2389.877448
356.668689	2391.828374
357.058080	2393.116389
357.447408	2390.074053
357.836672	2391.719990
358.225873	2390.595812
358.615010	2388.188661
359.004084	2395.294168
359.393095	2390.862993
359.782043	2398.147461
360.170927	2394.280896
360.559748	2397.671072
360.948505	2397.814745
361.337199	2399.672410
361.725830	2399.153171
362.114398	2398.296175
362.502903	2401.676268
362.891344	2400.582338
363.279722	2398.575959
363.668037	2398.162584
364.056289	2398.936401
364.444478	2402.465209
364.832603	2401.129303
365.220665	2399.256515
365.608665	2402.238357
365.996601	2404.731208
366.384474	2403.191135
366.772284	2404.171640
367.160031	2403.884294
367.547715	2401.782133
367.935336	2401.272976
368.322893	2401.462019
368.710388	2404.141393
369.097820	2404.688358
369.485189	2404.731208
369.872495	2401.819941
370.259738	2405.931002
370.646918	2405.968811
371.034035	2408.257495
371.421090	2405.318502
371.808081	2405.414284
372.195010	2409.429563
372.581875	2408.892680
372.968678	2407.274470
373.355418	2405.671383
373.742096	2407.667680
374.128710	2407.992834
374.515262	2409.326219
374.901751	2406.780437
375.288177	2410.379821
375.674540	2410.674728
376.060841	2412.008113
376.447079	2409.076682
376.833254	2409.487536
377.219367	2407.110632
377.605417	2408.146589
377.991404	2405.666342
378.377329	2409.069121
378.763191	2407.259346
379.148991	2409.658936
379.534727	2413.885943
379.920402	2410.011816
380.306013	2411.491395
380.691563	2412.996179
381.077049	2412.781930
381.462474	2413.049112
381.847835	2414.427867
382.233134	2414.354770
382.618371	2411.851838
383.003545	2415.448701
383.388657	2414.082548
383.773706	2413.525501
384.158693	2416.877868
384.543618	2416.169586
384.928480	2414.720254
385.313280	2417.024061
385.698017	2414.937024
386.082692	2418.233938
386.467305	2415.252096
386.851856	2417.991963
387.236344	2419.894998
387.620770	2414.758063
388.005133	2417.497930
388.389435	2416.068763
388.773674	2418.491037
389.157851	2420.280647
389.541965	2418.894329
389.926018	2419.048085
390.310008	2419.607653
390.693936	2418.014648
391.077802	2416.192271
391.461606	2417.452559
391.845348	2418.538928
392.229027	2417.439957
392.612645	2418.531366
392.996200	2420.631007
393.379694	2418.851480
393.763125	2418.332241
394.146494	2423.073446
394.529801	2422.324835
394.913047	2421.475400
395.296230	2420.515060
395.679351	2421.152766
396.062410	2420.867941
396.445408	2419.249731
396.828343	2420.999011
397.211217	2417.326531
397.594028	2422.158477
397.976778	2418.062539
398.359466	2421.586306
398.742092	2419.262334
399.124656	2420.532704
399.507158	2423.532191
399.889598	2421.999680
400.271977	2422.914650
400.654294	2426.244332
401.036549	2426.735844
401.418742	2424.663930
401.800874	2427.774322
402.182944	2424.313570
402.564952	2424.293405
402.946898	2425.480597
403.328783	2425.866245
403.710606	2425.856163
404.092367	2422.609660
404.474067	2424.590833
404.855705	2426.771132
405.237282	2425.462953
405.618797	2426.708118
406.000250	2424.961358
406.381642	2428.331369
406.762972	2427.043355
407.144240	2427.842377
407.525447	2428.303643
407.906593	2427.295412
408.287677	2427.481935
408.668700	2425.220978
409.049661	2428.858170
409.430560	2425.972109
409.811399	2429.916812
410.192176	2427.141657
410.572891	2430.085691
410.953545	2427.923036
411.334138	2429.821030
411.714669	2427.260124
412.095139	2432.271031
412.475547	2429.758016
412.855894	2431.338418
413.236180	2429.379929
413.616405	2432.296237
413.996568	2428.948911
414.376670	2431.978644
414.756711	2427.270207
415.136691	2430.584765
415.516609	2432.334046
415.896466	2431.366144
416.276262	2431.726587
416.655997	2431.310691
417.035670	2427.544949
417.415283	2430.738520
417.794834	2427.791966
418.174324	2433.211206
418.553753	2432.318922
418.933121	2430.259611
419.312428	2435.570466
419.691674	2429.395053
420.070859	2429.581576
420.449983	2431.976124
420.829045	2431.940836
421.208047	2430.229364
421.586988	2432.213058
421.965867	2434.834458
422.344686	2433.929571
422.723444	2433.458223
423.102141	2432.754982
423.480777	2434.395877
423.859352	2434.597524
424.237866	2431.804724
424.616319	2433.488470
424.994712	2435.189859
425.373044	2434.166505
425.751314	2435.048707
426.129524	2436.888728
426.507673	2434.796649
426.885762	2434.451330
427.263789	2434.758841
427.641756	2435.346135
428.019662	2435.250353
428.397508	2434.370672
428.775292	2434.836978
429.153016	2437.428132
429.530679	2433.352359
429.908282	2435.381423
430.285824	2433.934612
430.663305	2435.502411
431.040726	2432.689447
431.418086	2437.370158
431.795385	2437.657504
432.172624	2435.522575
432.549802	2437.612134
432.926920	2436.293872
433.303977	2436.326639
433.680974	2436.679520
434.057910	2438.454006
434.434786	2435.724222
434.811601	2437.649942
435.188355	2438.902669
435.565050	2440.193204
435.941683	2437.962494
436.318257	2435.953594
436.694770	2431.096442
437.071222	2436.092226
437.447614	2432.286155
437.823946	2438.834613
438.200218	2439.137083
438.576429	2439.474840
438.952580	2438.580035
439.328670	2437.236568
439.704700	2439.941147
440.080670	2440.415015
440.456580	2439.404264
440.832429	2441.561878
441.208218	2436.861002
441.583947	2440.208328
441.959616	2437.322267
442.335224	2442.285283
442.710773	2438.247319
443.086261	2439.240426
443.461689	2440.669593
443.837057	2441.932402
444.212365	2440.967022
444.587612	2441.042639
444.962800	2438.564912
445.337927	2441.440890
445.712995	2441.100612
446.088002	2443.028853
446.462949	2439.777309
446.837837	2441.244285
447.212664	2442.396189
447.587431	2443.875767
447.962139	2447.124791
448.336786	2446.003134
448.711374	2444.238730
449.085901	2446.776951
449.460369	2443.739656
449.834776	2445.466251
450.209124	2446.623196
450.583412	2447.434822
450.957640	2447.908690
451.331808	2446.630758
451.705917	2445.209152
452.079965	2448.317024
452.453954	2449.136211
452.827883	2445.246961
453.201752	2448.589246
453.575562	2445.922476
453.949311	2448.546396
454.323001	2449.025306
454.696632	2451.145111
455.070202	2450.446911
455.443713	2449.146294
455.817164	2448.478341
456.190556	2446.277877
456.563888	2448.163269
456.937160	2448.453135
457.310373	2452.193671
457.683526	2450.862807
458.056619	2453.653085
458.429653	2452.428085
458.802628	2453.605194
459.175542	2453.965637
459.548398	2452.549072
459.921194	2455.840946
460.293930	2456.740792
460.666607	2457.290278
461.039224	2459.894034
461.411782	2459.205916
461.784280	2461.421503
462.156719	2458.502675
462.529099	2460.781277
462.901419	2459.543673
463.273680	2458.414455
463.645882	2457.683488
464.018024	2457.164249
464.390106	2457.854887
464.762130	2464.080712
465.134094	2462.291102
465.505999	2468.514407
465.877845	2473.011116
466.249631	2474.770479
466.621358	2473.616054
466.993026	2475.801395
467.364634	2473.190077
467.736184	2470.165385
468.107674	2469.275621
468.479105	2469.240333
468.850477	2468.272431
469.221790	2466.586165
469.593043	2465.784622
469.964238	2464.436113
470.335373	2461.035855
470.706449	2469.381485
471.077467	2470.082206
471.448425	2475.687969
471.819324	2474.372228
472.190164	2476.799543
472.560945	2471.319809
472.931667	2468.753862
473.302330	2467.367544
473.672934	2466.261011
474.043479	2468.776547
474.413965	2466.674386
474.784393	2462.311267
475.154761	2464.723459
475.525070	2467.183542
475.895321	2464.607513
476.265513	2463.327059
476.635645	2470.354428
477.005719	2469.699078
477.375734	2471.523976
477.745691	2471.004737
478.115588	2472.040694
478.485427	2473.109418
478.855207	2475.793833
479.224928	2480.812302
479.594591	2481.918835
479.964194	2481.689462
480.333739	2479.065542
480.703226	2480.809781
481.072653	2481.540748
481.442022	2481.684421
481.811333	2484.469659
482.180584	2479.972949
482.549777	2484.847745
482.918912	2481.127374
483.287988	2480.766931
483.657005	2481.860862
484.025964	2482.296921
484.394864	2480.454380
484.763706	2481.003865
485.132489	2480.318268
485.501213	2480.328351
485.869879	2484.603249
486.238487	2483.239617
486.607036	2483.743733
486.975527	2481.709627
487.343959	2482.652323
487.712333	2479.609986
488.080648	2483.496716
488.448905	2482.816160
488.817104	2485.283805
489.185244	2487.151553
489.553326	2494.299909
489.921350	2495.098932
490.289315	2502.332987
490.657222	2502.345590
491.025070	2503.124448
491.392861	2503.520179
491.760593	2505.576970
492.128267	2505.075375
492.495883	2501.168481
492.863440	2499.681340
493.230939	2499.885507
493.598380	2501.763337
493.965763	2500.392143
494.333088	2503.157216
494.700354	2502.738800
495.067563	2504.339367
495.434713	2501.634787
495.801805	2509.788854
496.168839	2509.378000
496.535815	2511.757424
496.902733	2516.168434
497.269593	2514.361180
497.636395	2516.322189
498.003139	2517.733712
498.369825	2519.903929
498.736453	2523.798220
499.103023	2522.623632
499.469535	2527.284178
499.835989	2526.344003
500.202385	2527.710156
500.568723	2532.930271
500.935003	2536.070909
501.301226	2538.127700
501.667390	2543.010058
502.033497	2546.569112
502.399546	2543.856972
502.765537	2545.548279
503.131470	2552.114382
503.497345	2553.167983
503.863163	2552.736964
504.228923	2558.025134
504.594625	2561.284240
504.960269	2562.678119
505.325856	2565.959911
505.691385	2566.116186
506.056856	2574.857547
506.422270	2576.264029
506.787625	2577.521797
507.152924	2580.007086
507.518164	2585.829618
507.883347	2584.604618
508.248472	2589.524784
508.613540	2594.505444
508.978550	2596.272369
509.343503	2598.374530
509.708398	2603.309819
510.073236	2605.205293
510.438016	2612.575460
510.802738	2609.555809
511.167403	2617.341871
511.532010	2621.556276
511.896561	2625.337141
512.261053	2631.822586
512.625488	2629.334776
512.989866	2629.627163
513.354186	2635.495066
513.718449	2635.048924
514.082655	2648.334885
514.446803	2646.777168
514.810894	2650.585760
515.174927	2656.307470
515.538904	2658.117244
515.902822	2666.029335
516.266684	2664.758964
516.630488	2667.677792
516.994235	2672.555109
517.357925	2675.221879
517.721558	2678.236489
518.085133	2683.058353
518.448651	2688.689322
518.812112	2690.801565
519.175516	2696.409849
519.538863	2696.435054
519.902152	2697.312215
520.265385	2703.961497
520.628560	2710.048690
520.991678	2708.203628
521.354739	2711.886191
521.717743	2716.912221
522.080690	2718.361553
522.443580	2726.442523
522.806413	2730.883779
523.169189	2729.767164
523.531908	2736.446692
523.894569	2734.354614
524.257174	2737.238154
524.619722	2742.536406
524.982213	2746.317272
525.344647	2749.977149
525.707025	2749.341964
526.069345	2755.073756
526.431608	2755.875299
526.793815	2761.566762
527.155964	2761.425610
527.518057	2767.076743
527.880093	2767.071702
528.242072	2768.979779
528.603995	2770.348452
528.965860	2772.984976
529.327669	2773.577311
529.689421	2774.845161
530.051117	2779.183074
530.412755	2781.514608
530.774337	2783.001748
531.135862	2784.040226
531.497331	2784.811522
531.858743	2785.537449
532.220098	2792.315280
532.581396	2790.692028
532.942638	2788.685649
533.303824	2797.462298
533.664953	2796.101187
534.026025	2796.827113
534.387040	2804.918165
534.747999	2806.062507
535.108902	2807.912610
535.469748	2806.536375
535.830537	2810.039977
536.191270	2812.855461
536.551947	2813.704896
536.912567	2817.828560
537.273131	2822.214363
537.633638	2815.524752
537.994089	2825.387770
538.354483	2821.833756
538.714821	2830.527226
539.075103	2836.382526
539.435328	2835.422187
539.795497	2835.618792
540.155609	2835.984275
540.515665	2841.161540
540.875665	2841.902590
541.235609	2847.853672
541.595496	2848.781244
541.955328	2858.747605
542.315102	2855.349868
542.674821	2854.119826
543.034483	2855.939683
543.394090	2862.412524
543.753640	2868.436703
544.113134	2876.167313
544.472571	2872.217568
544.831953	2884.195350
545.191278	2884.888509
545.550548	2885.571585
545.909761	2893.594581
546.268918	2900.964748
546.628019	2904.788463
546.987064	2909.300296
547.346053	2905.108577
547.704986	2911.780544
548.063863	2916.831780
548.422684	2921.986360
548.781449	2925.873089
549.140158	2933.046651
549.498811	2935.904986
549.857408	2938.370110
550.215949	2949.332099
550.574434	2956.813171
550.932864	2962.323152
551.291237	2975.586428
551.649555	2979.896615
552.007817	2990.414982
552.366022	2994.299191
552.724173	3005.460306
553.082267	3016.092099
553.440305	3030.408976
553.798288	3031.197917
554.156215	3043.803322
554.514086	3058.442833
554.871902	3063.773853
555.229661	3077.594176
555.587365	3083.946030
555.945014	3100.334821
556.302606	3109.086264
556.660143	3126.001856
557.017625	3140.933754
557.375050	3150.116215
557.732421	3172.448527
558.089735	3186.999817
558.446994	3199.945501
558.804197	3227.263513
559.161345	3238.946387
559.518437	3242.989393
559.875474	3261.593771
560.232455	3285.788789
560.589381	3306.296203
560.946251	3322.203564
561.303065	3355.139942
561.659825	3374.213148
562.016528	3384.086248
562.373177	3403.913106
562.729770	3434.674227
563.086307	3452.081331
563.442789	3485.186588
563.799216	3511.544261
564.155587	3532.023948
564.511904	3557.297773
564.868164	3587.272474
565.224370	3627.296715
565.580520	3650.564161
565.936615	3686.686548
566.292654	3710.826114
566.648638	3754.124584
567.004567	3784.658853
567.360441	3824.100841
567.716260	3853.957074
568.072023	3901.888365
568.427732	3937.186524
568.783385	3966.576451
569.138982	4020.930172
569.494525	4062.214701
569.850013	4094.548662
570.205445	4142.356445
570.560823	4182.859595
570.916145	4229.911205
571.271412	4275.412659
571.626625	4316.767765
571.981782	4370.695508
572.336884	4404.403183
572.691931	4470.807782
573.046923	4509.977548
573.401860	4553.941450
573.756743	4609.845326
574.111570	4668.307587
574.466342	4715.928847
574.821059	4780.190956
575.175722	4814.977438
575.530330	4870.437692
575.884882	4913.075771
576.239380	4974.063650
576.593823	5036.263927
576.948211	5092.377010
577.302544	5127.057628
577.656823	5190.757648
578.011047	5271.534577
578.365216	5326.039532
578.719330	5378.696905
579.073389	5437.438950
579.427394	5516.413666
579.781344	5588.945788
580.135239	5637.202233
580.489080	5717.225509
580.842866	5749.027628
581.196597	5865.949630
581.550273	5940.120126
581.903895	6016.559142
582.257463	6133.627337
582.610975	6167.589591
582.964434	6273.723523
583.317837	6329.186298
583.671186	6395.984107
584.024481	6503.942937
584.377721	6537.834614
584.730906	6645.397714
585.084037	6736.503967
585.437113	6788.238808
585.790135	6876.280040
586.143103	6919.293685
586.496016	7022.488625
586.848874	7109.292253
587.201679	7207.105761
587.554428	7242.194712
587.907124	7363.046293
588.259765	7434.892818
588.612352	7559.316057
588.964884	7584.163904
589.317362	7715.208698
589.669786	7801.455279
590.022155	7866.103036
590.374470	8014.292794
590.726731	8048.302938
591.078937	8073.208759
591.431090	8176.312958
591.783188	8221.451450
592.135232	8271.051362
592.487222	8394.768839
592.839157	8513.210749
593.191038	8561.653717
593.542866	8618.112119
593.894639	8621.126729
594.246358	8759.183769
594.598022	8856.546093
594.949633	8887.092965
595.301190	8975.408939
595.652692	9043.968632
596.004141	9199.745327
596.355535	9126.643555
596.706876	9208.441317
597.058162	9276.542264
597.409395	9453.658164
597.760573	9575.850692
598.111698	9595.097817
598.462768	9698.552376
598.813785	9804.918202
599.164748	9802.379981
599.515657	9986.238423
599.866511	9992.865020
600.217312	10211.323422
600.568060	10112.274831
600.918753	10375.264266
601.269392	10468.626435
601.619978	10508.038176
601.970510	10650.075206
602.320988	10802.363423
602.671412	10982.945115
603.021783	11029.263237
603.372100	11063.989225
603.722363	11197.179030
604.072572	11329.736170
604.422728	11447.996598
604.772830	11510.043120
605.122878	11647.338945
605.472872	11748.484656
605.822813	11925.928230
606.172701	12003.990497
606.522534	12185.288034
606.872314	12369.413657
607.222041	12434.663832
607.571714	12663.461641
607.921333	12626.865384
608.270899	12848.759332
608.620411	13054.866907
608.969870	13129.349956
609.319276	13255.711518
609.668627	13405.922779
610.017926	13667.745186
610.367171	13847.404348
610.716362	14008.249923
611.065500	14120.730668
611.414585	14300.689778
611.763616	14538.249112
612.112594	14642.709381
612.461518	14846.283777
612.810389	15077.203911
613.159207	15170.571121
613.507971	15342.580332
613.856682	15635.647810
614.205340	15731.981740
614.553945	16114.184380
614.902496	16062.353757
615.250994	16359.749067
615.599439	16538.362188
615.947830	16772.644772
616.296169	16940.989064
616.644454	17136.805123
616.992686	17362.232920
617.340864	17719.106283
617.688990	17761.804857
618.037063	18158.057193
618.385082	18313.629721
618.733048	18583.863294
619.080961	18736.738805
619.428821	18888.848060
619.776628	19080.558100
620.124382	19149.947062
620.472083	19339.640640
620.819731	19522.778197
621.167326	19515.924749
621.514868	19646.480551
621.862357	19586.407641
622.209793	19723.166583
622.557176	19707.526404
622.904506	19721.550894
623.251783	19709.696620
623.599007	19722.715400
623.946179	19763.712584
624.293297	19868.177894
624.640363	19725.087263
624.987376	19853.193065
625.334336	19865.642194
625.681243	19833.298151
626.028097	19957.030752
626.374899	20013.741212
626.721647	20133.977772
627.068343	20203.142403
627.414987	20233.477546
627.761577	20245.919114
628.108115	20535.616581
628.454600	20390.459077
628.801032	20617.169848
629.147412	20720.689942
629.493739	20855.177844
629.840014	20800.909823
630.186236	21101.284454
630.532405	21026.002383
630.878521	21262.669433
631.224585	21322.523053
631.570597	21300.047068
631.916556	21500.140547
632.262462	21605.162905
632.608316	21723.662788
632.954117	21787.786265
633.299866	21895.508161
633.645562	21969.867700
633.991206	21819.974032
634.336797	21698.043644
634.682336	21810.060603
635.027823	21768.768512
635.373257	21774.454933
635.718639	21765.186772
636.063968	21786.067231
636.409245	21573.854819
636.754470	21708.839275
637.099642	21670.513903
637.444762	21511.662104
637.789829	21698.600691
638.134845	21596.358530
638.479808	21662.760608
638.824719	21719.960060
639.169577	21595.675453
639.514383	21726.120350
639.859137	21653.366418
640.203839	21883.056511
640.548489	21772.720776
640.893086	21899.886403
641.237632	21854.702541
641.582125	22028.803830
641.926566	22077.755954
642.270955	22155.278818
642.615292	22257.871340
642.959576	22338.948218
643.303809	22428.095982
643.647990	22591.908276
643.992118	22674.472294
644.336195	22770.733127
644.680219	22915.946084
645.024192	23200.236914
645.368112	23606.856383
645.711981	23700.732750
646.055797	24366.896025
646.399562	24412.069805
646.743274	25094.200934
647.086935	25473.532638
647.430544	25484.197199
647.774101	25653.655585
648.117606	25915.150318
648.461059	26201.792846
648.804460	26042.895677
649.147810	25728.100825
649.491108	25662.535578
649.834354	25506.471537
650.177548	25039.942996
650.520690	24823.906868
650.863781	24915.111423
651.206820	24914.924901
651.549807	24706.947058
651.892742	24461.750376
652.235626	24410.812037
652.578458	24400.402054
652.921238	24062.196084
653.263967	24371.624627
653.606644	24235.231169
653.949269	24273.987560
654.291843	24062.584252
654.634365	24425.098667
654.976836	24212.359454
655.319255	24290.449447
655.661622	24357.148954
656.003938	24275.855307
656.346203	24250.100052
656.688416	24472.178003
657.030577	24408.304063
657.372687	24351.828016
657.714746	24625.476970
658.056753	24769.122129
658.398708	24448.529950
658.740612	24569.300872
659.082465	24827.410470
659.424266	24770.445432
659.766016	24921.385139
660.107715	24900.081223
660.449362	25055.071498
660.790958	25111.597956
661.132503	25190.895306
661.473996	25270.071669
661.815438	25419.672950
662.156829	25622.075277
662.498168	25523.432499
662.839456	25607.579439
663.180693	25775.611179
663.521879	25963.900796
663.863013	25999.957649
664.204097	26047.193260
664.545129	26451.894571
664.886110	26502.512796
665.227040	26612.203263
665.567918	26747.275939
665.908746	26853.220828
666.249522	27035.937449
666.590248	27096.693436
666.930922	27240.406649
667.271545	27269.733562
667.612118	27396.264003
667.952639	27294.780535
668.293109	27383.971149
668.633528	27369.719807
668.973896	27367.068160
669.314213	27449.904400
669.654480	27313.672259
669.994695	27395.986739
670.334859	27368.779632
670.674973	27343.044542
671.015035	27522.570112
671.355047	27549.154637
671.695008	27550.903918
672.034918	27519.633640
672.374777	27628.661195
672.714585	27547.962404
673.054342	27795.535990
673.394049	27642.305078
673.733705	27914.325740
674.073310	27701.231125
674.412864	27812.050810
674.752368	27539.584007
675.091820	27829.442791
675.431223	27531.036730
675.770574	27347.412702
676.109875	27301.182800
676.449125	27124.107230
676.788324	27111.602648
677.127473	26717.298718
677.466571	26694.061519
677.805619	26469.800749
678.144616	26509.096543
678.483562	26487.013769
678.822458	26262.039676
679.161303	26249.719096
679.500098	26201.157661
679.838842	26156.044375
680.177535	26331.768916
680.516179	26601.367303
680.854771	26840.607861
681.193314	27590.847500
681.531805	28580.060517
681.870247	29262.163920
682.208638	29916.498127
682.546978	30153.923871
682.885268	30269.925862
683.223508	29850.373312
683.561697	29596.344529
683.899836	29476.596961
684.237925	29074.073429
684.575963	28979.060282
684.913951	28617.193656
685.251889	28782.425035
685.589776	28794.725450
685.927614	28818.489449
686.265401	28967.125350
686.603137	29073.720548
686.940824	29539.591219
687.278460	29886.757840
687.616046	29995.823204
687.953582	30552.515302
688.291068	30452.652565
688.628504	30724.431252
688.965889	30689.380109
689.303224	30397.903114
689.640510	30144.587654
689.977745	29548.995492
690.314930	28882.060920
690.652065	28471.665627
690.989150	27855.992028
691.326185	27111.131300
691.663170	26531.978341
692.000105	25908.506077
692.336990	25358.654824
692.673825	25001.962942
693.010610	24586.655045
693.347345	24097.095992
693.684030	23552.918557
694.020665	23338.316638
694.357251	22770.443260
694.693786	22749.668665
695.030272	22551.621895
695.366707	22104.068257
695.703093	21865.173017
696.039429	21877.382692
696.375716	21649.565388
696.711952	21636.070219
697.048139	21517.751818
697.384276	21371.538192
697.720363	21498.789517
698.056400	21337.172646
698.392388	21148.938482
698.728326	21130.588682
699.064214	20985.731126
699.400053	20942.407450
699.735842	20646.388375
700.071581	20413.502191
700.407270	20169.651497
700.742910	20028.413490
701.078501	19805.276897
701.414042	19555.888496
701.749533	19313.650971
702.084974	19009.679477
702.420366	19212.182627
702.755709	18831.149534
703.091002	18578.985977
703.426246	18616.235063
703.761440	18524.538995
704.096584	18295.907545
704.431679	18268.632382
704.766725	18197.242082
705.101721	18148.330287
705.436668	18255.989168
705.771565	17962.193243
706.106413	18294.453172
706.441212	18294.380075
706.775961	18421.475125
707.110661	18497.165530
707.445311	18836.178085
707.779913	18701.075162
708.114465	18925.681251
708.448967	19200.913127
708.783421	19839.861733
709.117825	20094.631566
709.452180	20309.737601
709.786485	20672.244453
710.120742	21406.642266
710.454949	21433.935073
710.789107	21846.331705
711.123216	22490.031598
711.457275	22605.867231
711.791286	23101.485751
712.125247	23172.888654
712.459159	22893.384400
712.793023	23516.786087
713.126837	22510.803673
713.460602	22750.802925
713.794318	22419.914189
714.127985	22086.759455
714.461602	21294.521964
714.795171	21273.805342
715.128691	20353.666216
715.462162	19871.227793
715.795584	19490.721500
716.128957	19266.367469
716.462281	18903.684176
716.795556	18709.095638
717.128782	18260.720291
717.461960	17748.465963
717.795088	17680.823761
718.128167	17319.279769
718.461198	16909.804486
718.794180	16787.022143
719.127113	16456.874457
719.459997	16295.250024
719.792833	15978.562218
720.125619	15951.818897
720.458357	15666.292985
720.791046	15513.583832
721.123686	15371.508993
721.456278	15156.276929
721.788821	15124.487413
722.121315	14885.899684
722.453761	14964.125789
722.786158	14896.085335
723.118506	14910.611420
723.450805	14781.028561
723.783056	14938.884732
724.115259	14854.566392
724.447412	14793.036589
724.779518	15031.256314
725.111574	15054.738009
725.443582	15238.818262
725.775542	15227.621859
726.107453	15668.848850
726.439315	15559.385235
726.771129	15945.247753
727.102895	16288.169723
727.434612	16469.613453
727.766281	16585.963284
728.097901	16836.125502
728.429473	16879.020680
728.760996	16868.197323
729.092471	16952.573635
729.423897	16846.043972
729.755276	16738.145636
730.086606	16844.080443
730.417887	17338.216863
730.749120	17837.601125
731.080305	18015.102673
731.411442	18339.695007
731.742530	18418.465557
732.073570	18509.329834
732.404562	18798.712229
732.735506	18618.944683
733.066401	18355.594806
733.397249	17852.840533
733.728048	17263.849762
734.058798	16504.674678
734.389501	15861.405803
734.720156	15424.148721
735.050762	14942.650473
735.381320	14607.023053
735.711831	14390.810485
736.042293	14061.562645
736.372707	14072.806939
736.703073	13871.755641
737.033391	14055.987129
737.363661	14026.554353
737.693883	14130.041679
738.024056	14286.156132
738.354182	14462.977123
738.684260	14744.575977
739.014290	14958.099089
739.344272	15130.325069
739.674207	15385.147835
740.004093	15495.959958
740.333931	15494.455173
740.663722	15533.801379
740.993464	15536.087543
741.323159	15370.689805
741.652806	15114.636999
741.982405	14915.909673
742.311956	14596.870169
742.641460	14490.698428
742.970915	14207.027660
743.300323	13892.865473
743.629683	13687.624977
743.958996	13421.076488
744.288260	13162.457733
744.617477	12875.540462
744.946647	12812.694918
745.275768	12556.077502
745.604842	12379.516130
745.933869	12222.350597
746.262847	12176.158504
746.591778	12112.934873
746.920662	12021.193435
747.249498	12024.376923
747.578286	12136.903039
747.907027	12271.529573
748.235720	12478.262251
748.564365	12515.481090
748.892963	12419.449630
749.221514	12479.361223
749.550017	12337.006600
749.878473	12306.051395
750.206881	12100.523552
750.535242	12017.473063
750.863555	11938.699993
751.191821	11843.132319
751.520039	11865.101668
751.848210	11782.603185
752.176334	11808.998667
752.504411	11716.937115
752.832440	11573.622152
753.160421	11632.931327
753.488356	11517.622495
753.816243	11423.385685
754.144082	11289.855602
754.471875	11239.542366
754.799620	11185.168481
755.127318	11157.190077
755.454969	11121.067689
755.782572	11080.897255
756.110129	11090.283883
756.437638	11014.215392
756.765100	11007.190544
757.092515	11012.428303
757.419882	11021.535148
757.747203	11029.227948
758.074477	11104.504978
758.401703	11058.355735
758.728882	11225.094419
759.056014	11254.393606
759.383099	11368.280833
759.710138	11467.788168
760.037129	11546.435210
760.364073	11566.720813
760.690970	11553.439893
761.017820	11551.592310
761.344623	11738.356978
761.671379	12056.226933
761.998088	12666.219152
762.324751	14183.374566
762.651366	16968.395297
762.977935	20524.498317
763.304456	22679.889014
763.630931	23124.654894
763.957359	21990.223880
764.283740	20135.749738
764.610074	18303.859965
764.936362	16240.437558
765.262602	14765.776550
765.588796	13342.492461
765.914943	12340.600943
766.241044	11524.299503
766.567097	10905.538198
766.893104	10376.471622
767.219064	10020.384679
767.544978	9658.024020
767.870845	9355.365746
768.196665	9170.584772
768.522438	8987.621135
768.848165	8824.113830
769.173846	8660.513264
769.499479	8546.235348
769.825066	8394.158860
770.150607	8212.475675
770.476101	8154.265472
770.801548	8047.836632
771.126949	7908.219355
771.452303	7824.742889
771.777611	7654.503123
772.102872	7643.072307
772.428087	7528.197014
772.753256	7407.143787
773.078378	7321.348389
773.403453	7185.317894
773.728482	7084.963644
774.053465	7030.211672
774.378401	6940.779083
774.703291	6850.378591
775.028135	6756.028356
775.352932	6724.251443
775.677683	6642.728423
776.002388	6557.684158
776.327046	6552.574948
776.651658	6474.583257
776.976224	6394.461678
777.300743	6382.564555
777.625216	6311.504451
777.949643	6273.831908
778.274024	6278.890706
778.598359	6211.107351
778.922647	6213.905192
779.246889	6185.876376
779.571086	6183.857394
779.895236	6199.066555
780.219339	6190.257139
780.543397	6189.251429
780.867409	6240.756898
781.191374	6233.386731
781.515294	6204.291711
781.839167	6251.706284
782.162995	6228.527058
782.486776	6175.978071
782.810511	6135.638758
783.134201	6066.307769
783.457844	6052.313526
783.781441	6009.738461
784.104993	5966.442511
784.428498	5936.651813
784.751958	5918.841416
785.075372	5894.112036
785.398739	5857.934195
785.722061	5880.705087
786.045337	5880.382453
786.368568	5986.793649
786.691752	6012.253997
787.014891	6252.817858
787.337983	6529.257091
787.661030	6954.685105
787.984031	7370.827314
788.306987	7628.604196
788.629897	7713.593008
788.952760	7629.171325
789.275579	7453.058616
789.598351	7163.361148
789.921078	6904.071921
790.243759	6628.950950
790.566395	6430.198418
790.888984	6241.631538
791.211529	6102.437718
791.534027	5941.279592
791.856480	5809.723120
792.178888	5755.424852
792.501249	5681.420714
792.823566	5584.519655
793.145836	5581.925981
793.468062	5568.360236
793.790241	5525.139903
794.112375	5571.604218
794.434464	5663.075955
794.756507	5688.753072
795.078505	5811.525333
795.400457	6022.689185
795.722364	6261.327326
796.044226	6444.938752
796.366042	6596.493481
796.687812	6544.456170
797.009538	6575.958340
797.331218	6483.105328
797.652852	6414.709473
797.974442	6292.753879
798.295986	6226.006482
798.617484	6105.328820
798.938938	5996.959136
799.260346	5929.258960
799.581709	5797.037057
799.903026	5745.619808
800.224299	5673.367471
800.545526	5554.870108
800.866708	5494.182178
801.187845	5445.532522
801.508936	5373.529722
801.829983	5338.776007
802.150984	5239.858487
802.471940	5218.075661
802.792851	5199.733423
803.113717	5174.217623
803.434538	5153.203573
803.755314	5122.036639
804.076045	5107.298826
804.396731	5072.199792
804.717372	5092.994552
805.037967	5092.031691
805.358518	5119.856340
805.679024	5171.790307
805.999485	5189.061300
806.319901	5203.937745
806.640272	5224.183019
806.960598	5268.910656
807.280879	5260.708699
807.601115	5296.700017
807.921306	5258.357001
808.241453	5252.448768
808.561554	5264.154328
808.881611	5231.248196
809.201623	5226.481785
809.521590	5181.262635
809.841513	5162.416281
810.161390	5179.447820
810.481223	5093.347433
810.801011	5080.053910
811.120755	5057.691351
811.440453	5001.931149
811.760107	4973.909895
812.079716	4946.559115
812.399281	4895.925766
812.718801	4895.451897
813.038276	4862.412175
813.357707	4829.808512
813.677093	4851.233416
813.996434	4790.631185
814.315731	4804.811951
814.634983	4806.306653
814.954191	4809.661541
815.273354	4869.590778
815.592473	4911.081995
815.911547	4983.672089
816.230577	5032.972053
816.549562	5117.315598
816.868502	5168.594215
817.187399	5226.663267
817.506250	5304.203774
817.825058	5328.126570
818.143821	5475.678622
818.462539	5643.753212
818.781213	5866.998190
819.099843	6225.119238
819.418429	6841.289391
819.736970	7445.509488
820.055466	8143.142166
820.373919	9033.488073
820.692327	10454.317120
821.010691	13089.925612
821.329011	19174.086627
821.647286	28510.759775
821.965517	38591.025800
822.283704	43908.505453
822.601847	45358.714344
822.919945	40844.613133
823.237999	35850.904106
823.556010	30779.495775
823.873976	26179.536152
824.191897	22080.173188
824.509775	19087.061188
824.827609	16390.772327
825.145398	14874.179001
825.463144	14150.107992
825.780845	14447.878867
826.098502	15679.044583
826.416116	18066.351043
826.733685	20316.621297
827.051210	20827.890078
827.368692	19413.269212
827.686129	16907.026810
828.003522	14494.169263
828.320872	12318.039258
828.638177	10710.826151
828.955439	9487.920366
829.272656	8457.309394
829.589830	7632.947150
829.906960	6923.016577
830.224046	6400.942082
830.541088	5996.719681
830.858086	5749.559470
831.175041	5550.726280
831.491952	5493.736036
831.808819	5528.817425
832.125642	5769.431698
832.442421	6308.746940
832.759157	7392.768936
833.075849	9121.690621
833.392497	10933.710686
833.709101	12016.858042
834.025662	11776.521033
834.342179	10734.564944
834.658653	9456.261920
834.975083	8369.283286
835.291469	7482.768656
835.607811	6771.340861
835.924110	6265.579539
836.240366	5787.121107
836.556578	5346.005022
836.872746	5005.719576
837.188871	4735.186055
837.504952	4518.119011
837.820990	4357.217983
838.136984	4244.454933
838.452935	4201.501782
838.768842	4226.977253
839.084706	4504.800283
839.400526	5229.120829
839.716303	6112.641014
840.032037	6670.658936
840.347727	6520.044382
840.663373	5929.813487
840.978977	5368.297004
841.294537	4931.412968
841.610054	4609.336169
841.925527	4378.017784
842.240957	4175.396167
842.556344	3999.356554
842.871687	3842.100280
843.186987	3695.362374
843.502244	3579.375507
843.817458	3497.734020
844.132629	3425.728699
844.447756	3380.060886
844.762840	3336.127231
845.077881	3293.486631
845.392879	3262.455808
845.707833	3240.647777
846.022745	3213.221379
846.337613	3200.991540
846.652438	3179.425484
846.967221	3168.624812
847.281960	3147.267963
847.596656	3139.287817
847.911309	3128.908081
848.225919	3117.603294
848.540485	3104.526541
848.855009	3098.383895
849.169490	3090.817123
849.483928	3084.419898
849.798323	3073.841037
850.112675	3064.618246
850.426984	3068.759554
850.741251	3061.633883
851.055474	3055.324879
851.369654	3058.168090
851.683792	3054.004097
851.997887	3056.716238
852.311938	3057.343861
852.625947	3054.908984
852.939914	3052.660629
853.253837	3057.432081
853.567718	3054.866134
853.881555	3050.097202
854.195350	3052.509395
854.509103	3052.297666
854.822812	3047.284239
855.136479	3045.534958
855.450103	3046.502860
855.763685	3040.138403
856.077224	3046.442366
856.390720	3051.256668
856.704173	3066.072619
857.017584	3067.043041
857.330953	3072.258115
857.644278	3080.762541
857.957561	3086.640527
858.270802	3083.749425
858.584000	3079.890422
858.897155	3074.261973
859.210268	3065.124882
859.523339	3051.634754
859.836367	3049.678787
860.149352	3043.100081
860.462295	3041.491953
860.775195	3034.343597
861.088054	3025.456043
861.400869	3030.224974
861.713642	3025.115765
862.026373	3036.763351
862.339062	3039.495656
862.651708	3046.049156
862.964312	3061.593554
863.276873	3072.734504
863.589392	3102.873042
863.901869	3127.050416
864.214303	3149.576812
864.526696	3166.056344
864.839045	3182.286339
865.151353	3194.571631
865.463619	3193.510468
865.775842	3197.137578
866.088023	3198.972558
866.400162	3191.786393
866.712258	3197.087166
867.024313	3194.397711
867.336325	3190.203471
867.648296	3193.737320
867.960224	3191.539377
868.272110	3198.193700
868.583954	3193.109696
868.895755	3199.585058
869.207515	3199.070860
869.519233	3221.244376
869.830909	3222.590364
870.142542	3233.811972
870.454134	3238.840523
870.765684	3255.302411
871.077191	3271.653393
871.388657	3279.424332
871.700081	3299.339410
872.011463	3322.647185
872.322803	3339.678723
872.634101	3356.521218
872.945357	3378.586349
873.256571	3401.251377
873.567744	3416.621855
873.878874	3421.826846
874.189963	3435.853857
874.501010	3439.773354
874.812015	3439.085236
875.122979	3450.200980
875.433900	3450.057308
875.744780	3449.585960
876.055618	3460.742033
876.366415	3458.085345
876.677169	3461.591467
876.987882	3478.519662
877.298554	3498.175121
877.609183	3536.681975
877.919771	3579.927513
878.230317	3644.968480
878.540822	3747.591249
878.851285	3896.320411
879.161707	4110.836630
879.472087	4473.807269
879.782425	5086.481381
880.092722	6242.435602
880.402977	8126.289588
880.713191	10434.959089
881.023363	12747.666554
881.333494	14056.453436
881.643583	14500.448020
881.953631	14099.819962
882.263637	13271.039146
882.573602	12260.464240
882.883526	11335.866213
883.193408	10412.440255
883.503248	9512.690075
883.813048	8705.016571
884.122806	7964.224054
884.432522	7213.712193
884.742197	6574.672846
885.051831	6027.218662
885.361424	5548.210744
885.670975	5161.587012
885.980485	4845.244525
886.289954	4581.715687
886.599382	4374.052917
886.908768	4206.537895
887.218113	4039.164025
887.527417	3916.265736
887.836680	3794.380718
888.145901	3699.478476
888.455082	3625.199595
888.764221	3555.692166
889.073319	3494.792507
889.382376	3463.320583
889.691392	3441.610854
890.000366	3434.575924
890.309300	3431.289092
890.618193	3434.454936
890.927044	3427.162907
891.235855	3436.136161
891.544625	3446.457924
891.853353	3475.056389
892.162041	3539.474774
892.470687	3625.350830
892.779293	3738.817120
893.087858	3908.583017
893.396381	4179.126621
893.704864	4586.686265
894.013306	5136.782014
894.321707	5692.874215
894.630068	6039.834149
894.938387	6079.079532
895.246665	5906.619138
895.554903	5593.744966
895.863100	5260.388586
896.171256	5000.045757
896.479371	4765.049850
896.787446	4548.406263
897.095480	4359.594887
897.403473	4212.380592
897.711425	4073.758944
898.019336	3949.494501
898.327207	3832.002849
898.635038	3735.406780
898.942827	3627.896612
899.250576	3547.921227
899.558284	3466.068012
899.865952	3413.839138
900.173579	3349.120805
900.481165	3305.567756
900.788711	3262.743154
901.096216	3234.459760
901.403681	3205.437838
901.711105	3196.096580
902.018489	3190.556352
902.325832	3226.598081
902.633135	3280.412398
902.940397	3446.836010
903.247619	3845.321578
903.554800	4571.454419
903.861941	5513.507441
904.169041	6193.342325
904.476101	6393.874384
904.783121	6128.820597
905.090100	5739.159569
905.397039	5332.078835
905.703938	4985.774251
906.010796	4672.844626
906.317614	4425.013941
906.624391	4192.556255
906.931129	4004.957276
907.237826	3827.390193
907.544483	3660.898526
907.851099	3493.539780
908.157675	3339.948425
908.464211	3204.795091
908.770707	3109.494598
909.077163	3029.413348
909.383578	2970.593165
909.689954	2925.757143
909.996289	2898.378636
910.302584	2881.808364
910.608839	2865.769933
910.915054	2856.663088
911.221229	2850.810309
911.527363	2854.855835
911.833458	2861.071577
912.139513	2870.667414
912.445527	2888.918911
912.751502	2916.529311
913.057436	2961.183852
913.363331	3014.799043
913.669186	3101.222064
913.975000	3213.402861
914.280775	3397.694843
914.586510	3655.746467
914.892205	4020.731046
915.197859	4505.264069
915.503475	5071.713321
915.809050	5553.627464
916.114585	5832.620041
916.420081	5897.280401
916.725536	5834.112223
917.030952	5594.959884
917.336328	5405.798148
917.641665	5188.204304
917.946961	4977.010205
918.252218	4779.623826
918.557435	4557.775248
918.862612	4365.790465
919.167750	4202.875497
919.472848	4014.124614
919.777906	3851.242413
920.082925	3695.299360
920.387904	3550.015827
920.692843	3442.563632
920.997743	3346.640557
921.302603	3253.215373
921.607423	3192.046012
921.912204	3129.107207
922.216946	3078.488981
922.521647	3032.095242
922.826310	2991.929849
923.130932	2959.215281
923.435516	2917.391348
923.740059	2893.072822
924.044564	2863.456043
924.349028	2838.512414
924.653454	2808.139462
924.957840	2784.690535
925.262186	2767.354007
925.566493	2745.235944
925.870761	2722.223077
926.174989	2712.627241
926.479178	2695.930939
926.783328	2682.198836
927.087438	2669.548060
927.391509	2659.780825
927.695541	2647.999648
927.999533	2636.883904
928.303486	2627.083901
928.607400	2623.570217
928.911275	2614.755759
929.215110	2610.531272
929.518906	2609.565891
929.822663	2606.054728
930.126381	2605.573297
930.430060	2611.605038
930.733699	2613.331633
931.037299	2619.711213
931.340861	2615.632920
931.644383	2617.233486
931.947866	2617.732561
932.251309	2613.268619
932.554714	2613.911366
932.858080	2612.729215
933.161407	2608.547578
933.464694	2604.297886
933.767943	2598.727411
934.071153	2595.483428
934.374323	2592.947728
934.677455	2592.844384
934.980548	2586.651327
935.283602	2584.206367
935.586617	2582.378949
935.889593	2586.144691
936.192530	2588.123343
936.495428	2594.364292
936.798287	2604.630602
937.101108	2617.238528
937.403890	2639.656539
937.706632	2666.848523
938.009336	2695.449509
938.312002	2727.057543
938.614628	2744.668814
938.917216	2762.809407
939.219765	2774.484719
939.522275	2783.228600
939.824747	2782.447221
940.127179	2776.859102
940.429573	2770.419028
940.731929	2770.338370
941.034246	2762.393511
941.336524	2761.332348
941.638763	2753.826070
941.940964	2748.845410
942.243126	2732.733883
942.545250	2723.243911
942.847335	2709.680686
943.149381	2694.847091
943.451389	2682.019875
943.753359	2671.632577
944.055290	2660.723521
944.357182	2653.804537
944.659036	2647.051911
944.960851	2645.272384
945.262628	2642.759369
945.564367	2638.676034
945.866067	2640.067393
946.167729	2639.996817
946.469352	2637.786271
946.770937	2639.028915
947.072484	2631.099180
947.373992	2629.914509
947.675462	2627.078860
947.976893	2619.617952
948.278286	2618.478651
948.579641	2614.662498
948.880958	2611.983125
949.182236	2610.407764
949.483476	2608.298041
949.784678	2607.161261
950.085841	2607.841817
950.386967	2612.172168
950.688054	2617.472941
950.989103	2623.623149
951.290114	2632.258645
951.591087	2644.871612
951.892021	2655.231183
952.192917	2667.024963
952.493776	2677.122394
952.794596	2680.719257
953.095378	2683.776717
953.396122	2682.413085
953.696828	2678.954853
953.997496	2673.543175
954.298126	2664.882472
954.598718	2655.904177
954.899272	2646.310862
955.199788	2635.696712
955.500266	2622.486369
955.800706	2608.156889
956.101108	2592.037799
956.401472	2582.358784
956.701798	2570.045766
957.002087	2556.865669
957.302337	2545.538196
957.602550	2535.002185
957.902724	2524.284692
958.202861	2515.404699
958.502960	2502.887514
958.803022	2501.942298
959.103045	2493.689929
959.403031	2486.861686
959.702979	2484.240286
960.002889	2477.926241
960.302762	2473.976497
960.602596	2469.807463
960.902393	2469.976341
961.202153	2462.026442
961.501875	2460.012501
961.801559	2463.700105
962.101205	2455.183075
962.400814	2456.647531
962.700385	2453.673250
962.999918	2453.338013
963.299414	2451.029165
963.598873	2449.950358
963.898293	2448.367435
964.197677	2447.467589
964.497022	2445.685542
964.796331	2444.720161
965.095601	2442.108843
965.394835	2441.597166
965.694030	2440.092381
965.993189	2444.203442
966.292309	2441.947526
966.591393	2439.227823
966.890439	2442.837290
967.189447	2439.686568
967.488419	2441.082968
967.787353	2441.841662
968.086249	2438.789243
968.385108	2441.682865
968.683930	2442.834769
968.982714	2445.405758
969.281462	2444.117743
969.580172	2445.186467
969.878844	2448.586726
970.177480	2450.497323
970.476078	2453.075873
970.774639	2456.859259
971.073162	2462.381843
971.371649	2461.043417
971.670098	2457.108796
971.968510	2462.492748
972.266885	2463.233798
972.565223	2468.584983
972.863524	2466.886114
973.161788	2472.285190
973.460014	2466.082050
973.758204	2469.552884
974.056356	2469.721763
974.354471	2472.723770
974.652550	2471.687813
974.950591	2473.356435
975.248595	2474.954481
975.546563	2468.680765
975.844493	2471.592031
976.142386	2465.862760
976.440243	2466.898717
976.738062	2463.881586
977.035845	2460.113324
977.333590	2455.954372
977.631299	2457.151646
977.928971	2455.109979
978.226606	2453.607715
978.524204	2451.790379
978.821765	2449.841973
979.119290	2450.522529
979.416777	2448.702672
979.714228	2448.359874
980.011642	2451.313990
980.309020	2454.114351
980.606360	2458.739609
980.903664	2467.395271
981.200931	2480.789616
981.498162	2499.812410
981.795356	2527.944569
982.092513	2565.390260
982.389633	2604.239912
982.686717	2646.673825
982.983764	2677.450069
983.280775	2695.003367
983.577749	2694.736186
983.874686	2688.941379
984.171587	2670.677279
984.468451	2654.568272
984.765279	2638.149234
985.062070	2621.715072
985.358824	2601.613471
985.655543	2580.813670
985.952224	2561.836247
986.248869	2534.636701
986.545478	2507.217865
986.842050	2491.623056
987.138586	2472.212093
987.435086	2460.360340
987.731549	2446.650922
988.027975	2443.752259
988.324366	2438.728749
988.620719	2433.596855
988.917037	2431.812286
989.213318	2430.526792
989.509563	2423.690987
989.805772	2427.393715
990.101944	2422.597057
990.398080	2421.994639
990.694180	2423.234763
990.990244	2423.212078
991.286271	2420.618404
991.582262	2423.259969
991.878217	2424.742068
992.174136	2423.028076
992.470019	2426.337593
992.765865	2424.915988
993.061676	2428.858170
993.357450	2428.732141
993.653188	2434.589962
993.948890	2436.621547
994.244556	2446.295521
994.540186	2453.300204
994.835780	2462.507872
995.131337	2480.366159
995.426859	2494.466267
995.722345	2518.389062
996.017795	2529.877852
996.313208	2542.553833
996.608586	2554.508930
996.903928	2558.660320
997.199234	2557.463046
997.494504	2553.848538
997.789738	2543.620037
998.084936	2537.510159
998.380099	2523.669671
998.675225	2512.848834
998.970316	2502.748883
999.265371	2487.640544
999.560390	2478.263998
999.855373	2466.848305
1000.150320	2456.408076
1000.445232	2450.373815
1000.740108	2442.086158
1001.034948	2437.017277
1001.329752	2431.484611
1001.624521	2427.353386
1001.919254	2418.901891
1002.213951	2422.269382
1002.508613	2415.945254
1002.803239	2418.453228
1003.097829	2411.854358
1003.392384	2415.158834
1003.686903	2412.355953
1003.981386	2411.945099
1004.275834	2412.794533
1004.570246	2411.637588
1004.864623	2409.094326
1005.158964	2409.510222
1005.453270	2407.723133
1005.747540	2408.552402
1006.041775	2408.887639
1006.335974	2405.540313
1006.630138	2406.926630
1006.924266	2405.273132
1007.218359	2406.914027
1007.512416	2406.548544
1007.806438	2404.781619
1008.100425	2406.427556
1008.394376	2405.000909
1008.688292	2405.517628
1008.982172	2404.499315
1009.276017	2402.245919
1009.569827	2403.833882
1009.863602	2406.631723
1010.157341	2403.806156
1010.451045	2404.892525
1010.744714	2406.944274
1011.038347	2403.841444
1011.331945	2405.217679
1011.625508	2404.511917
1011.919036	2404.264901
1012.212528	2403.523851
1012.505986	2403.987638
1012.799408	2403.496125
1013.092795	2400.610064
1013.386147	2401.570404
1013.679464	2403.619633
1013.972745	2401.565363
1014.265992	2403.075189
1014.559204	2401.018398
1014.852380	2402.845816
1015.145521	2404.156516
1015.438628	2402.772719
1015.731699	2403.564181
1016.024736	2398.807852
1016.317737	2401.252812
1016.610703	2404.763975
1016.903635	2398.081926
1017.196531	2401.862791
1017.489393	2402.447565
1017.782219	2401.673748
1018.075011	2407.113153
1018.367768	2405.084088
1018.660490	2404.267422
1018.953177	2404.267422
1019.245829	2404.267422
