Dividing Wavelength (nm)	Counts (n)	Blue Motor Position (mm): 32.400000	Red Motor Position (mm): 0.000000	
326.493990	1970.806329
326.888308	1970.806329
327.282561	1970.806329
327.676750	1946.833122
328.070874	1948.347988
328.464933	1954.783021
328.858929	1961.497838
329.252859	1976.444859
329.646726	1991.149905
330.040528	2006.560712
330.434265	2022.518485
330.827938	2045.332227
331.221547	2064.536502
331.615091	2085.119533
332.008571	2107.640888
332.401986	2125.494134
332.795338	2147.622279
333.188625	2166.304795
333.581847	2186.910512
333.975006	2204.042873
334.368100	2219.483927
334.761129	2237.581670
335.154095	2252.891654
335.546996	2292.971348
335.939833	2370.794160
336.332606	2385.063146
336.725315	2395.856256
337.117960	2405.837741
337.510540	2411.516601
337.903056	2425.347006
338.295508	2427.396235
338.687896	2438.305292
339.080220	2445.017589
339.472480	2450.504885
339.864676	2453.264916
340.256807	2455.878755
340.648875	2456.897068
341.040879	2458.898406
341.432818	2461.950824
341.824694	2463.188428
342.216506	2461.847481
342.608253	2459.800772
342.999937	2457.411265
343.391557	2458.593416
343.783113	2457.199537
344.174605	2455.921604
344.566033	2454.452108
344.957397	2454.575616
345.348697	2451.981943
345.739934	2449.075718
346.131106	2449.040429
346.522215	2448.145625
346.913260	2441.130859
347.304241	2441.093050
347.695159	2440.377207
348.086012	2438.411157
348.476802	2437.869233
348.867528	2437.289500
349.258191	2439.011054
349.648789	2434.950404
350.039324	2430.917481
350.429796	2436.440065
350.820203	2432.507965
351.210548	2431.814807
351.600828	2428.621236
351.991045	2431.668613
352.381198	2429.936977
352.771288	2429.763057
353.161314	2428.780032
353.551276	2429.344641
353.941175	2425.105031
354.331010	2427.373550
354.720782	2431.661052
355.110490	2432.024015
355.500135	2430.809097
355.889717	2427.555032
356.279235	2429.886565
356.668689	2430.695671
357.058080	2431.461926
357.447408	2431.930753
357.836672	2430.405804
358.225873	2428.923705
358.615010	2426.892120
359.004084	2433.682554
359.393095	2435.827565
359.782043	2435.295723
360.170927	2434.937802
360.559748	2434.864705
360.948505	2437.294541
361.337199	2438.080961
361.725830	2440.291507
362.114398	2438.327978
362.502903	2437.942329
362.891344	2442.081117
363.279722	2437.133224
363.668037	2441.549275
364.056289	2440.036929
364.444478	2441.907197
364.832603	2442.065993
365.220665	2442.512135
365.608665	2444.999945
365.996601	2444.064811
366.384474	2441.982814
366.772284	2444.306786
367.160031	2446.131684
367.547715	2443.643874
367.935336	2445.773762
368.322893	2444.147990
368.710388	2449.153855
369.097820	2450.152004
369.485189	2448.143104
369.872495	2448.884154
370.259738	2450.209977
370.646918	2451.684515
371.034035	2449.060594
371.421090	2452.798610
371.808081	2446.214863
372.195010	2451.868517
372.581875	2448.541355
372.968678	2452.531428
373.355418	2452.206274
373.742096	2450.580502
374.128710	2453.461521
374.515262	2453.774073
374.901751	2455.082252
375.288177	2452.271809
375.674540	2455.777932
376.060841	2455.810699
376.447079	2454.421861
376.833254	2454.852880
377.219367	2451.765173
377.605417	2455.911522
377.991404	2451.107303
378.377329	2455.830864
378.763191	2453.174176
379.148991	2460.307408
379.534727	2458.757253
379.920402	2461.169446
380.306013	2459.851184
380.691563	2460.819085
381.077049	2459.677264
381.462474	2462.638942
381.847835	2463.576597
382.233134	2462.454940
382.618371	2462.243211
383.003545	2461.771863
383.388657	2465.401494
383.773706	2462.286061
384.158693	2467.294447
384.543618	2465.802266
384.928480	2468.156485
385.313280	2468.791670
385.698017	2467.612040
386.082692	2470.692185
386.467305	2468.940384
386.851856	2469.194963
387.236344	2471.929788
387.620770	2472.065900
388.005133	2468.796711
388.389435	2473.754686
388.773674	2472.854840
389.157851	2473.583287
389.541965	2473.890797
389.926018	2473.240488
390.310008	2475.750983
390.693936	2476.890284
391.077802	2475.566981
391.461606	2477.313741
391.845348	2474.074799
392.229027	2476.867599
392.612645	2479.897332
392.996200	2478.763072
393.379694	2483.889926
393.763125	2483.474031
394.146494	2480.812302
394.529801	2480.827425
394.913047	2483.612663
395.296230	2485.213229
395.679351	2486.420585
396.062410	2486.332365
396.445408	2486.155925
396.828343	2484.598208
397.211217	2482.795996
397.594028	2483.849597
397.976778	2484.784731
398.359466	2485.563589
398.742092	2483.100985
399.124656	2488.605925
399.507158	2490.287150
399.889598	2492.265803
400.271977	2491.678509
400.654294	2494.065495
401.036549	2492.313694
401.418742	2493.364775
401.800874	2493.914260
402.182944	2496.694457
402.564952	2498.443737
402.946898	2497.470794
403.328783	2497.571618
403.710606	2498.849550
404.092367	2499.946001
404.474067	2501.397853
404.855705	2501.667555
405.237282	2501.801146
405.618797	2503.278204
406.000250	2509.196518
406.381642	2507.172495
406.762972	2508.573936
407.144240	2509.080572
407.525447	2510.781961
407.906593	2510.025788
408.287677	2512.294307
408.668700	2516.218846
409.049661	2513.002589
409.430560	2514.625841
409.811399	2516.501150
410.192176	2518.762108
410.572891	2519.084742
410.953545	2525.746626
411.334138	2521.527181
411.714669	2525.547501
412.095139	2522.364012
412.475547	2528.224353
412.855894	2529.177132
413.236180	2532.665610
413.616405	2534.309026
413.996568	2537.530323
414.376670	2540.250026
414.756711	2541.364121
415.136691	2549.167827
415.516609	2551.549772
415.896466	2556.686708
416.276262	2562.463870
416.655997	2568.964438
417.035670	2576.763103
417.415283	2591.584096
417.794834	2598.465271
418.174324	2609.467589
418.553753	2619.265071
418.933121	2637.211579
419.312428	2648.733136
419.691674	2661.343582
420.070859	2688.966585
420.449983	2704.170705
420.829045	2735.529202
421.208047	2754.688108
421.586988	2793.431896
421.965867	2829.342555
422.344686	2863.067874
422.723444	2914.228024
423.102141	2916.854465
423.480777	2996.499655
423.859352	3025.274561
424.237866	3119.569344
424.616319	3166.915861
424.994712	3258.286774
425.373044	3312.348108
425.751314	3426.071497
426.129524	3446.596555
426.507673	3594.642641
426.885762	3660.265861
427.263789	3765.595730
427.641756	3872.382492
428.019662	3981.397443
428.397508	4082.646498
428.775292	4220.746387
429.153016	4332.029858
429.530679	4456.627017
429.908282	4577.864246
430.285824	4666.205426
430.663305	4886.541658
431.040726	4961.024706
431.418086	5070.939504
431.795385	5304.037416
432.172624	5520.592783
432.549802	5589.691878
432.926920	5770.467655
433.303977	5905.328603
433.680974	6107.655313
434.057910	6330.988510
434.434786	6510.940059
434.811601	6660.211145
435.188355	7089.972031
435.565050	7184.612132
435.941683	7351.118923
436.318257	7785.250490
436.694770	7922.624453
437.071222	8292.244373
437.447614	8208.379738
437.823946	8412.231396
438.200218	8651.348447
438.576429	8775.880070
438.952580	9071.531140
439.328670	9259.709852
439.704700	9612.683882
440.080670	9645.736208
440.456580	10085.140821
440.832429	10368.360406
441.208218	10149.781016
441.583947	10530.360405
441.959616	10782.962542
442.335224	11091.808832
442.710773	11362.617096
443.086261	11824.782519
443.461689	11723.175543
443.837057	11986.152374
444.212365	12519.314887
444.587612	12745.632448
444.962800	12727.227196
445.337927	13168.736491
445.712995	12643.995225
446.088002	13899.141710
446.462949	14228.114807
446.837837	14539.093505
447.212664	14725.868255
447.587431	16690.569747
447.962139	18821.286516
448.336786	20616.229673
448.711374	19860.369147
449.085901	17636.605280
449.460369	17802.653326
449.834776	17977.500706
450.209124	19929.916906
450.583412	19842.427681
450.957640	20420.501833
451.331808	19669.216155
451.705917	18858.016363
452.079965	19069.460000
452.453954	19536.071720
452.827883	19642.472834
453.201752	19664.361524
453.575562	19957.534867
453.949311	21001.741831
454.323001	21222.549410
454.696632	21214.844007
455.070202	22618.979273
455.443713	22913.291916
455.817164	23539.020096
456.190556	24158.575383
456.563888	23856.186811
456.937160	24374.556058
457.310373	23119.775057
457.683526	23637.090703
458.056619	23764.087451
458.429653	23842.873124
458.802628	24473.821419
459.175542	24704.106367
459.548398	25962.433820
459.921194	27471.828378
460.293930	28190.538121
460.666607	30135.722785
461.039224	31825.532678
461.411782	32316.180620
461.784280	31345.261951
462.156719	30993.827992
462.529099	30579.117471
462.901419	29506.231383
463.273680	28619.396640
463.645882	28809.397728
464.018024	28879.104283
464.390106	29737.058256
464.762130	32340.657942
465.134094	36242.115288
465.505999	41366.780889
465.877845	45868.317025
466.249631	47055.934733
466.621358	45410.214772
466.993026	43393.612081
467.364634	41446.920112
467.736184	39637.279472
468.107674	38496.894854
468.479105	37808.976480
468.850477	37179.467435
469.221790	35879.598354
469.593043	34258.610293
469.964238	33456.257727
470.335373	33392.880340
470.706449	35041.768667
471.077467	37516.536625
471.448425	42026.660366
471.819324	44892.899126
472.190164	43142.101354
472.560945	39689.591525
472.931667	36690.770419
473.302330	35646.082025
473.672934	34867.218715
474.043479	35367.641454
474.413965	34630.342457
474.784393	34290.437618
475.154761	35153.964587
475.525070	35208.714038
475.895321	34769.243890
476.265513	35376.017331
476.635645	36307.136091
477.005719	36151.639180
477.375734	36614.722093
477.745691	37299.071330
478.115588	38593.133002
478.485427	40531.746522
478.855207	43834.481150
479.224928	46453.221941
479.594591	48059.812466
479.964194	47051.105308
480.333739	47146.287333
480.703226	47170.797423
481.072653	47811.447419
481.442022	48316.757557
481.811333	48596.546637
482.180584	47317.094229
482.549777	46813.195614
482.918912	46277.683923
483.287988	46001.211923
483.657005	45186.992480
484.025964	44546.506322
484.394864	44564.283951
484.763706	44127.941838
485.132489	43271.021302
485.501213	43105.008544
485.869879	43266.385961
486.238487	42870.584808
486.607036	43072.861106
486.975527	42548.989439
487.343959	42750.988474
487.712333	42835.027029
488.080648	42747.084100
488.448905	43160.249508
488.817104	42993.478056
489.185244	43921.582206
489.553326	45587.769252
489.921350	48282.185324
490.289315	51234.952969
490.657222	51865.636603
491.025070	52156.314575
491.392861	51225.825960
491.760593	49931.502148
492.128267	48221.802383
492.495883	46681.107301
492.863440	45324.827708
493.230939	43977.410464
493.598380	42913.853031
493.965763	42591.234309
494.333088	41809.159783
494.700354	41341.917918
495.067563	41063.202605
495.434713	40936.699890
495.801805	41003.527946
496.168839	40652.099029
496.535815	40313.744345
496.902733	40351.202638
497.269593	39944.454620
497.636395	39890.360518
498.003139	40270.035020
498.369825	39743.123538
498.736453	40036.614474
499.103023	39586.394065
499.469535	39452.843817
499.835989	39534.966734
500.202385	39216.564936
500.568723	39237.410107
500.935003	39429.740209
501.301226	39225.240762
501.667390	39832.001601
502.033497	40081.752965
502.399546	39515.160040
502.765537	38856.349288
503.131470	39222.251358
503.497345	39559.106299
503.863163	38251.919983
504.228923	38863.195175
504.594625	39250.070965
504.960269	38555.672188
505.325856	39234.420703
505.691385	38602.139023
506.056856	38740.289324
506.422270	39168.860498
506.787625	38745.743852
507.152924	38939.203172
507.518164	39023.541676
507.883347	38273.279352
508.248472	38515.947895
508.613540	38967.892379
508.978550	39268.750961
509.343503	39015.284266
509.708398	39215.556706
510.073236	39728.925128
510.438016	39723.886495
510.802738	39192.811019
511.167403	39798.235952
511.532010	40032.148011
511.896561	40316.557308
512.261053	41139.268575
512.625488	40694.243075
512.989866	40567.427809
513.354186	40414.925343
513.718449	40403.066029
514.082655	41053.800853
514.446803	40747.994378
514.810894	41249.858888
515.174927	41176.321056
515.538904	41091.002048
515.902822	41721.821793
516.266684	41192.462830
516.630488	41615.612243
516.994235	41459.225568
517.357925	42015.390867
517.721558	42176.362471
518.085133	42480.187772
518.448651	42601.624127
518.812112	42387.256621
519.175516	42481.269099
519.538863	42822.877848
519.902152	42775.044860
520.265385	43231.639808
520.628560	43290.611226
520.991678	43081.173969
521.354739	43298.687154
521.717743	43605.612765
522.080690	43496.282741
522.443580	44056.125561
522.806413	44103.315802
523.169189	44038.446234
523.531908	44213.492740
523.894569	44082.999952
524.257174	44243.505249
524.619722	44553.619390
524.982213	44537.875866
525.344647	44461.817458
525.707025	44493.639741
526.069345	44889.899639
526.431608	44793.941276
526.793815	45120.834897
527.155964	44670.256566
527.518057	44829.420917
527.880093	44627.401718
528.242072	45150.343291
528.603995	44860.401328
528.965860	44862.508530
529.327669	44945.082630
529.689421	44848.584863
530.051117	44818.348022
530.412755	44965.932842
530.774337	45032.465991
531.135862	44839.367113
531.497331	45034.379109
531.858743	44944.235716
532.220098	45289.781607
532.581396	45004.028842
532.942638	44666.974775
533.303824	44959.722141
533.664953	44947.668742
534.026025	44652.625131
534.387040	45123.163910
534.747999	45066.403038
535.108902	45246.150420
535.469748	44764.165701
535.830537	44892.765535
536.191270	45090.255258
536.551947	44727.100617
536.912567	45032.518923
537.273131	45155.671791
537.633638	44647.846117
537.994089	45013.077713
538.354483	44620.654133
538.714821	45174.283731
539.075103	45505.626170
539.435328	45290.318489
539.795497	45192.013469
540.155609	45165.549932
540.515665	45622.520446
540.875665	45085.768631
541.235609	45417.857161
541.595496	45367.364964
541.955328	46042.907306
542.315102	45420.319765
542.674821	45227.115023
543.034483	45264.101969
543.394090	45232.556949
543.753640	45197.972113
544.113134	46170.070412
544.472571	45215.996758
544.831953	46433.808457
545.191278	45655.111505
545.550548	45405.720583
545.909761	45843.091091
546.268918	46053.818883
546.628019	46356.414143
546.987064	45933.937724
547.346053	45214.978445
547.704986	46071.039465
548.063863	45645.566080
548.422684	45864.871396
548.781449	45709.878601
549.140158	46113.659900
549.498811	45948.647811
549.857408	45386.486061
550.215949	46206.291102
550.574434	46168.822726
550.932864	45930.202229
551.291237	46651.084709
551.649555	46254.855058
552.007817	46496.495206
552.366022	46154.495767
552.724173	46335.077459
553.082267	46722.492653
553.440305	47019.406532
553.798288	46347.526589
554.156215	46662.152562
554.514086	46863.939868
554.871902	46608.713811
555.229661	46624.394320
555.587365	46448.727752
555.945014	46562.040288
556.302606	46488.716705
556.660143	46719.495687
557.017625	46796.968139
557.375050	46611.725900
557.732421	46944.946169
558.089735	46918.225533
558.446994	46855.435442
558.804197	47302.918504
559.161345	47257.538037
559.518437	46513.143616
559.875474	46822.715833
560.232455	46991.110536
560.589381	47156.785536
560.946251	46863.884416
561.303065	47526.647432
561.659825	47337.994852
562.016528	47023.663787
562.373177	46748.341169
562.729770	47225.509066
563.086307	46743.957886
563.442789	47194.342132
563.799216	47241.875172
564.155587	47036.052422
564.511904	47065.409582
564.868164	47160.770568
565.224370	47402.332578
565.580520	47134.254099
565.936615	47346.176645
566.292654	47069.182885
566.648638	47308.955286
567.004567	47265.659336
567.360441	47301.532187
567.716260	47164.140580
568.072023	47455.201679
568.427732	47454.102708
568.783385	46999.672936
569.138982	47395.038029
569.494525	47350.070937
569.850013	47114.427241
570.205445	47079.403825
570.560823	47052.358034
570.916145	46909.789162
571.271412	46936.570292
571.626625	46696.487861
571.981782	46767.353881
572.336884	46440.989581
572.691931	46762.048067
573.046923	46365.241203
573.401860	46225.543269
573.756743	46200.624845
574.111570	46307.207440
574.466342	46164.068918
574.821059	46277.429345
575.175722	45814.855588
575.530330	45820.078224
575.884882	45545.398353
576.239380	45523.791968
576.593823	45483.286297
576.948211	45402.322846
577.302544	44945.579184
577.656823	44979.244009
578.011047	45178.782961
578.365216	44904.750879
578.719330	44705.675713
579.073389	44555.923197
579.427394	44648.128422
579.781344	44614.067866
580.135239	44278.470692
580.489080	44349.460221
580.842866	43845.249054
581.196597	44308.765506
581.550273	44238.287655
581.903895	44105.619609
582.257463	44526.291295
582.610975	43921.957772
582.964434	44190.787383
583.317837	43839.378631
583.671186	43668.768340
584.024481	43904.953960
584.377721	43446.017396
584.730906	43711.419023
585.084037	43720.271289
585.437113	43455.736741
585.790135	43487.271678
586.143103	43093.038324
586.496016	43223.029517
586.848874	43225.902975
587.201679	43243.448711
587.554428	42735.413829
587.907124	42931.824745
588.259765	42690.058568
588.612352	42923.753857
588.964884	42331.962725
589.317362	42603.481792
589.669786	42563.928899
590.022155	42314.976557
590.374470	42738.073038
590.726731	42278.002214
591.078937	41801.751808
591.431090	41885.770198
591.783188	41543.165821
592.135232	41232.968502
592.487222	41469.854841
592.839157	41566.949985
593.191038	41234.662329
593.542866	41002.912925
593.894639	40408.283623
594.246358	40680.032062
594.598022	40656.043732
594.949633	40283.333584
595.301190	40232.813661
595.652692	40078.521586
596.004141	40383.365200
596.355535	39423.625289
596.706876	39377.934792
597.058162	39214.616530
597.409395	39667.970016
597.760573	39737.779915
598.111698	39320.765586
598.462768	39321.355401
598.813785	39372.555880
599.164748	38843.506949
599.515657	39214.387158
599.866511	38702.092501
600.217312	39294.302049
600.568060	38293.945562
600.918753	39020.275008
601.269392	38991.288374
601.619978	38634.094898
601.970510	38864.636945
602.320988	39038.808811
602.671412	39346.961942
603.021783	39084.794216
603.372100	38740.523738
603.722363	38842.932257
604.072572	38906.715456
604.422728	38950.497877
604.772830	38750.268288
605.122878	38844.016105
605.472872	38785.329513
605.822813	39066.126823
606.172701	38901.747399
606.522534	39126.842480
606.872314	39386.955936
607.222041	39154.384824
607.571714	39526.643789
607.921333	39006.779840
608.270899	39282.856109
608.620411	39606.329308
608.969870	39415.551882
609.319276	39418.498436
609.668627	39451.185277
610.017926	39955.794695
610.367171	40095.328792
610.716362	40194.853772
611.065500	40132.096448
611.414585	40342.433551
611.763616	40614.408842
612.112594	40553.244523
612.461518	40788.184977
612.810389	41061.168499
613.159207	40923.774372
613.507971	41011.213185
613.856682	41474.359112
614.205340	41369.089738
614.553945	42067.743249
614.902496	41514.602643
615.250994	41956.099336
615.599439	42046.391442
615.947830	42268.091306
616.296169	42315.934377
616.644454	42439.775362
616.992686	42618.055768
617.340864	43127.613078
617.688990	42858.591903
618.037063	43442.889360
618.385082	43436.388792
618.733048	43720.004108
619.080961	43745.663581
619.428821	43742.787602
619.776628	43845.269219
620.124382	43684.292574
620.472083	43803.707426
620.819731	43927.666878
621.167326	43610.938744
621.514868	43585.657358
621.862357	43141.947599
622.209793	43174.720140
622.557176	42852.696273
622.904506	42599.088426
623.251783	42246.580702
623.599007	42026.478884
623.946179	41818.304436
624.293297	41780.606688
624.640363	41190.867305
624.987376	41186.743641
625.334336	40941.829264
625.681243	40592.121901
626.028097	40569.335886
626.374899	40411.794787
626.721647	40397.878682
627.068343	40288.304162
627.414987	40054.807998
627.761577	39815.098612
628.108115	40173.446512
628.454600	39627.729006
628.801032	39818.219086
629.147412	39778.096543
629.493739	39805.938835
629.840014	39446.875091
630.186236	39791.160693
630.532405	39410.367055
630.878521	39622.095516
631.224585	39497.205971
631.570597	39207.362310
631.916556	39379.260615
632.262462	39329.262451
632.608316	39360.971309
632.954117	39239.318184
633.299866	39221.192716
633.645562	39153.026233
633.991206	38654.642641
634.336797	38233.721418
634.682336	38247.866896
635.027823	37983.362594
635.373257	37805.939185
635.718639	37570.101405
636.063968	37420.482479
636.409245	36868.024950
636.754470	36909.959788
637.099642	36675.760383
637.444762	36213.473973
637.789829	36351.415066
638.134845	36026.663935
638.479808	35970.835677
638.824719	35861.800560
639.169577	35482.683106
639.514383	35551.681378
639.859137	35253.804639
640.203839	35501.524418
640.548489	35127.793437
640.893086	35190.512952
641.237632	34953.840861
641.582125	35068.012914
641.926566	35003.765928
642.270955	34981.065613
642.615292	34996.239486
642.959576	34965.841328
643.303809	34966.005166
643.647990	35111.923884
643.992118	35085.878763
644.336195	35081.608906
644.680219	35170.166855
645.024192	35480.449874
645.368112	35990.148337
645.711981	36005.390266
646.055797	36862.507407
646.399562	36798.212531
646.743274	37743.043229
647.086935	38184.000517
647.430544	38078.544620
647.774101	38189.671816
648.117606	38432.005122
648.461059	38736.795804
648.804460	38342.746452
649.147810	37744.613548
649.491108	37487.655854
649.834354	37119.102138
650.177548	36309.477707
650.520690	35858.448193
650.863781	35870.257096
651.206820	35724.817287
651.549807	35292.500536
651.892742	34811.329963
652.235626	34621.487671
652.578458	34491.226776
652.921238	33893.529932
653.263967	34232.237497
653.606644	33917.467851
653.949269	33858.372925
654.291843	33461.588747
654.634365	33865.760736
654.976836	33486.338292
655.319255	33481.239164
655.661622	33462.680157
656.003938	33244.385592
656.346203	33096.999898
656.688416	33330.032275
657.030577	33123.377735
657.372687	32975.750065
657.714746	33237.421238
658.056753	33350.491798
658.398708	32828.835719
658.740612	32864.111193
659.082465	33134.634632
659.424266	32977.663183
659.766016	33092.798096
660.107715	32959.751964
660.449362	33102.401494
660.790958	33089.097889
661.132503	33113.807105
661.473996	33135.831906
661.815438	33253.232817
662.156829	33441.537557
662.498168	33215.046077
662.839456	33244.509100
663.180693	33396.222625
663.521879	33550.509659
663.863013	33496.528984
664.204097	33503.372350
664.545129	33968.938032
664.886110	33932.924028
665.227040	34003.323742
665.567918	34117.062255
665.908746	34187.214952
666.249522	34344.501472
666.590248	34345.315619
666.930922	34461.637723
667.271545	34422.692289
667.612118	34501.808158
667.952639	34293.774862
668.293109	34333.705842
668.633528	34238.667489
668.973896	34155.715302
669.314213	34199.459915
669.654480	33927.983698
669.994695	33960.662977
670.334859	33854.219014
670.674973	33757.784262
671.015035	33920.295938
671.355047	33866.070767
671.695008	33815.807942
672.034918	33714.185842
672.374777	33806.091118
672.714585	33639.291940
673.054342	33866.537073
673.394049	33618.164465
673.733705	33911.743621
674.073310	33575.138217
674.412864	33643.130779
674.752368	33237.383429
675.091820	33530.498799
675.431223	33099.321349
675.770574	32852.418237
676.109875	32698.080791
676.449125	32430.793773
676.788324	32354.906763
677.127473	31816.146049
677.466571	31743.072003
677.805619	31388.409186
678.144616	31394.521585
678.483562	31319.405872
678.822458	30988.355820
679.161303	30937.198191
679.500098	30830.650884
679.838842	30718.447402
680.177535	30885.601981
680.516179	31150.219708
680.854771	31385.288712
681.193314	32255.911105
681.531805	33388.403796
681.870247	34176.626008
682.208638	34904.127523
682.546978	35134.145290
682.885268	35219.260132
683.223508	34685.958987
683.561697	34332.165769
683.899836	34150.006195
684.237925	33644.922909
684.575963	33483.560616
684.913951	33051.344688
685.251889	33199.277348
685.589776	33194.468087
685.927614	33183.846376
686.265401	33333.034283
686.603137	33430.789817
686.940824	33932.939152
687.278460	34333.524360
687.616046	34463.525635
687.953582	35089.657108
688.291068	34946.601764
688.628504	35227.333540
688.965889	35152.951315
689.303224	34769.271616
689.640510	34411.861370
689.977745	33679.086809
690.314930	32886.725809
690.652065	32356.653523
690.989150	31596.311412
691.326185	30696.594000
691.663170	29994.096609
692.000105	29238.205836
692.336990	28547.144302
692.673825	28111.215565
693.010610	27590.187109
693.347345	27018.674018
693.684030	26364.654883
694.020665	26078.390441
694.357251	25419.723362
694.693786	25359.915112
695.030272	25132.576718
695.366707	24592.512865
695.703093	24292.178563
696.039429	24287.152533
696.375716	24027.346587
696.711952	24005.654502
697.048139	23836.622093
697.384276	23669.606146
697.720363	23801.492813
698.056400	23589.323250
698.392388	23374.355847
698.728326	23334.429909
699.064214	23123.671869
699.400053	23068.183889
699.735842	22708.641235
700.071581	22429.051281
700.407270	22145.118373
700.742910	21954.121656
701.078501	21684.263650
701.414042	21392.862272
701.749533	21106.159250
702.084974	20752.653378
702.420366	20958.367743
702.755709	20529.995695
703.091002	20228.083512
703.426246	20243.179247
703.761440	20137.259563
704.096584	19871.442042
704.431679	19826.336318
704.766725	19733.823583
705.101721	19672.765127
705.436668	19762.830382
705.771565	19440.544375
706.106413	19787.889958
706.441212	19775.529048
706.775961	19903.723070
707.110661	19971.609768
707.445311	20316.646502
707.779913	20168.103863
708.114465	20417.560320
708.448967	20696.661282
708.783421	21395.004763
709.117825	21666.914519
709.452180	21890.504815
709.786485	22300.060757
710.120742	23099.489454
710.454949	23115.855560
710.789107	23589.378703
711.123216	24291.097236
711.457275	24416.057357
711.791286	24960.890142
712.125247	25013.234962
712.459159	24706.548807
712.793023	25369.417687
713.126837	24257.543316
713.460602	24513.835577
713.794318	24124.386278
714.127985	23752.704526
714.461602	22838.236697
714.795171	22797.418475
715.128691	21787.894649
715.462162	21242.766958
715.795584	20820.451856
716.128957	20557.205323
716.462281	20148.397993
716.795556	19911.758669
717.128782	19419.363967
717.461960	18883.113748
717.795088	18800.688362
718.128167	18390.368686
718.461198	17938.487217
718.794180	17794.171585
719.127113	17424.667611
719.459997	17230.585708
719.792833	16882.370527
720.125619	16850.432297
720.458357	16541.026438
720.791046	16372.609050
721.123686	16209.817589
721.456278	15979.709081
721.788821	15932.309632
722.121315	15676.738255
722.453761	15744.975314
722.786158	15673.935374
723.118506	15680.788823
723.450805	15555.168310
723.783056	15706.486104
724.115259	15609.559839
724.447412	15540.911927
724.779518	15784.356808
725.111574	15803.422452
725.443582	16002.739592
725.775542	15982.877446
726.107453	16459.180785
726.439315	16333.809809
726.771129	16741.533291
727.102895	17114.180425
727.434612	17315.009912
727.766281	17432.486440
728.097901	17706.145477
728.429473	17736.856186
728.760996	17716.011015
729.092471	17802.043347
729.423897	17675.210436
729.755276	17534.259775
730.086606	17645.732289
730.417887	18177.576541
730.749120	18687.383388
731.080305	18864.839565
731.411442	19192.224699
731.742530	19266.110370
732.073570	19359.790132
732.404562	19653.109668
732.735506	19460.993816
733.066401	19184.484007
733.397249	18657.466660
733.728048	18019.581738
734.058798	17180.723656
734.389501	16498.690828
734.720156	16051.669032
735.050762	15521.160686
735.381320	15167.972406
735.711831	14923.612556
736.042293	14573.673300
736.372707	14582.021451
736.703073	14378.391603
737.033391	14566.441765
737.363661	14532.229974
737.693883	14636.692764
738.024056	14815.608355
738.354182	14999.242467
738.684260	15286.376507
739.014290	15504.459343
739.344272	15700.981164
739.674207	15976.538195
740.004093	16086.440390
740.333931	16070.724593
740.663722	16112.278824
740.993464	16104.278513
741.323159	15927.452480
741.652806	15643.116280
741.982405	15437.780001
742.311956	15093.446508
742.641460	14972.761285
742.970915	14668.429348
743.300323	14335.677906
743.629683	14120.062715
743.958996	13844.878730
744.288260	13580.881064
744.617477	13283.984829
744.946647	13207.578581
745.275768	12928.772526
745.604842	12749.067995
745.933869	12576.554669
746.262847	12531.040611
746.591778	12454.941873
746.920662	12354.847243
747.249498	12350.952952
747.578286	12473.886530
747.907027	12612.863579
748.235720	12832.632681
748.564365	12871.474772
748.892963	12767.475768
749.221514	12831.977331
749.550017	12685.183973
749.878473	12644.643013
750.206881	12425.118407
750.535242	12327.191473
750.863555	12237.106054
751.191821	12149.692446
751.520039	12170.590550
751.848210	12076.358781
752.176334	12104.649737
752.504411	12007.131136
752.832440	11856.027591
753.160421	11920.158629
753.488356	11795.599280
753.816243	11701.894312
754.144082	11567.197202
754.471875	11506.698314
754.799620	11448.838471
755.127318	11422.513566
755.454969	11384.964531
755.782572	11343.395177
756.110129	11348.595127
756.437638	11270.996646
756.765100	11259.190263
757.092515	11262.305697
757.419882	11276.937646
757.747203	11281.457040
758.074477	11353.787515
758.401703	11313.959879
758.728882	11479.652524
759.056014	11516.052175
759.383099	11631.247582
759.710138	11739.375291
760.037129	11810.977319
760.364073	11830.191677
760.690970	11822.453506
761.017820	11822.025008
761.344623	12003.259530
761.671379	12317.628404
761.998088	12938.131428
762.324751	14495.124561
762.651366	17357.690841
762.977935	21004.852223
763.304456	23220.497311
763.630931	23691.368807
763.957359	22507.685719
764.283740	20593.052968
764.610074	18719.813131
764.936362	16591.390086
765.262602	15085.098358
765.588796	13627.247077
765.914943	12598.970159
766.241044	11750.223854
766.567097	11122.547268
766.893104	10582.317057
767.219064	10220.856244
767.544978	9839.611423
767.870845	9532.590030
768.196665	9336.970576
768.522438	9144.123756
768.848165	8970.791242
769.173846	8816.973036
769.499479	8689.691463
769.825066	8533.657669
770.150607	8350.794854
770.476101	8288.944938
770.801548	8180.519801
771.126949	8037.207359
771.452303	7950.801982
771.777611	7787.120758
772.102872	7766.716687
772.428087	7641.587687
772.753256	7528.759103
773.078378	7438.764424
773.403453	7297.725542
773.728482	7196.284924
774.053465	7129.734132
774.378401	7043.916049
774.703291	6951.713345
775.028135	6857.201793
775.352932	6817.550597
775.677683	6743.758187
776.002388	6651.497510
776.327046	6651.910885
776.651658	6563.262194
776.976224	6487.682695
777.300743	6469.713503
777.625216	6405.446353
777.949643	6360.070927
778.274024	6363.975301
778.598359	6299.307379
778.922647	6298.127749
779.246889	6264.704899
779.571086	6271.054232
779.895236	6278.033710
780.219339	6277.073370
780.543397	6277.335510
780.867409	6320.931408
781.191374	6321.720349
781.515294	6289.920751
781.839167	6338.782134
782.162995	6302.407689
782.486776	6261.327326
782.810511	6221.073712
783.134201	6147.792980
783.457844	6132.672039
783.781441	6084.584472
784.104993	6039.587133
784.428498	6013.617629
784.751958	5995.240103
785.075372	5978.455581
785.398739	5932.450011
785.722061	5960.824145
786.045337	5959.604186
786.368568	6062.935237
786.691752	6083.934163
787.014891	6334.149314
787.337983	6612.857066
787.661030	7053.380815
787.984031	7477.435115
788.306987	7737.190649
788.629897	7818.862383
788.952760	7732.837613
789.275579	7554.088380
789.598351	7257.850015
789.921078	6993.968297
790.243759	6714.093518
790.566395	6507.418813
790.888984	6314.241797
791.211529	6177.180386
791.534027	6022.910996
791.856480	5881.453698
792.178888	5820.579245
792.501249	5755.419811
792.823566	5653.215458
793.145836	5645.086597
793.468062	5626.961129
793.790241	5585.447227
794.112375	5628.198732
794.434464	5732.308641
794.756507	5756.571715
795.078505	5881.763729
795.400457	6091.705102
795.722364	6334.343398
796.044226	6524.369693
796.366042	6686.084867
796.687812	6630.758203
797.009538	6652.011708
797.331218	6567.224541
797.652852	6495.481360
797.974442	6374.763370
798.295986	6303.312576
798.617484	6173.903636
798.938938	6063.550258
799.260346	6000.808057
799.581709	5864.633889
799.903026	5811.119520
800.224299	5740.190485
800.545526	5616.389829
800.866708	5559.621396
801.187845	5508.357902
801.508936	5434.820071
801.829983	5405.455349
802.150984	5296.846210
802.471940	5270.402838
802.792851	5257.676445
803.113717	5231.376745
803.434538	5208.149629
803.755314	5179.946894
804.076045	5167.757384
804.396731	5132.665912
804.717372	5147.181914
805.037967	5147.275176
805.358518	5179.450340
805.679024	5237.776490
805.999485	5249.114045
806.319901	5268.303197
806.640272	5285.654849
806.960598	5327.067928
807.280879	5319.964942
807.601115	5359.490109
807.921306	5325.031302
808.241453	5318.145085
808.561554	5325.321168
808.881611	5290.733811
809.201623	5287.832627
809.521590	5236.690122
809.841513	5223.867947
810.161390	5239.140122
810.481223	5147.703674
810.801011	5138.417868
811.120755	5113.716215
811.440453	5057.257812
811.760107	5031.038771
812.079716	5005.860728
812.399281	4951.741421
812.718801	4946.546512
813.038276	4909.768774
813.357707	4877.651583
813.677093	4900.215787
813.996434	4836.561138
814.315731	4856.153582
814.634983	4854.255588
814.954191	4859.188357
815.273354	4917.701030
815.592473	4962.385817
815.911547	5037.385584
816.230577	5085.581535
816.549562	5171.334082
816.868502	5225.443307
817.187399	5281.626967
817.506250	5359.422053
817.825058	5380.783943
818.143821	5538.050298
818.462539	5703.468200
818.781213	5931.877840
819.099843	6292.958046
819.418429	6911.623569
819.736970	7533.598610
820.055466	8229.267759
820.373919	9138.644022
820.692327	10573.237939
821.010691	13245.727513
821.329011	19418.098638
821.647286	28943.996536
821.965517	39211.952281
822.283704	44661.114434
822.601847	46158.874009
822.919945	41560.610734
823.237999	36462.015460
823.556010	31295.455351
823.873976	26608.245957
824.191897	22444.371347
824.509775	19380.229490
824.827609	16629.937269
825.145398	15093.653196
825.463144	14343.728629
825.780845	14637.201921
826.098502	15893.205402
826.416116	18326.199838
826.733685	20608.544433
827.051210	21125.275306
827.368692	19711.708041
827.686129	17161.892425
828.003522	14700.123082
828.320872	12494.850168
828.638177	10851.504590
828.955439	9622.294842
829.272656	8569.641425
829.589830	7727.743527
829.906960	7000.090778
830.224046	6474.807588
830.541088	6067.925979
830.858086	5810.469211
831.175041	5610.642914
831.491952	5554.418925
831.808819	5588.068627
832.125642	5828.919834
832.442421	6372.699017
832.759157	7474.032336
833.075849	9236.029032
833.392497	11070.283105
833.709101	12183.334587
834.025662	11933.139601
834.342179	10885.396268
834.658653	9579.976876
834.975083	8481.070873
835.291469	7590.059533
835.607811	6858.754468
835.924110	6339.603842
836.240366	5853.026632
836.556578	5409.183283
836.872746	5057.484664
837.188871	4787.626657
837.504952	4568.613729
837.820990	4399.777925
838.136984	4287.385400
838.452935	4239.665837
838.768842	4270.351341
839.084706	4546.788053
839.400526	5286.012771
839.716303	6183.013001
840.032037	6746.556028
840.347727	6598.870385
840.663373	6002.539693
840.978977	5430.550213
841.294537	4986.953881
841.610054	4660.350126
841.925527	4425.439918
842.240957	4220.711099
842.556344	4038.914488
842.871687	3879.384654
843.186987	3731.792273
843.502244	3616.465796
843.817458	3525.997249
844.132629	3457.235911
844.447756	3411.331164
844.762840	3364.206458
845.077881	3325.475273
845.392879	3292.954789
845.707833	3265.563680
846.022745	3243.236409
846.337613	3231.682085
846.652438	3207.784495
846.967221	3197.891230
847.281960	3176.481450
847.596656	3166.147085
847.911309	3157.569561
848.225919	3142.884680
848.540485	3134.118114
848.855009	3125.696866
849.169490	3114.210597
849.483928	3108.403188
849.798323	3103.654421
850.112675	3092.558841
850.426984	3093.947679
850.741251	3085.037440
851.055474	3079.963518
851.369654	3082.640371
851.683792	3080.084506
851.997887	3085.987697
852.311938	3085.912080
852.625947	3086.877461
852.939914	3077.455544
853.253837	3083.439394
853.567718	3081.160792
853.881555	3075.255081
854.195350	3084.137594
854.509103	3079.981163
854.822812	3075.560071
855.136479	3071.295254
855.450103	3078.725915
855.763685	3067.378278
856.077224	3070.667631
856.390720	3079.509815
856.704173	3089.720672
857.017584	3097.199223
857.330953	3100.080243
857.644278	3105.169288
857.957561	3111.211111
858.270802	3106.454782
858.584000	3106.069134
858.897155	3102.114348
859.210268	3091.361567
859.523339	3079.295566
859.836367	3078.388158
860.149352	3071.955646
860.462295	3068.898186
860.775195	3057.064077
861.088054	3052.597615
861.400869	3058.276475
861.713642	3050.520659
862.026373	3063.768812
862.339062	3067.612692
862.651708	3074.821542
862.964312	3091.757298
863.276873	3096.586723
863.589392	3128.086373
863.901869	3154.214673
864.214303	3175.697551
864.526696	3198.816282
864.839045	3211.640977
865.151353	3224.818554
865.463619	3224.420302
865.775842	3225.171434
866.088023	3232.302147
866.400162	3224.155642
866.712258	3227.041702
867.024313	3224.405179
867.336325	3222.988615
867.648296	3221.519118
867.960224	3221.952658
868.272110	3224.911815
868.583954	3226.948441
868.895755	3231.016652
869.207515	3227.250910
869.519233	3247.211359
869.830909	3253.197729
870.142542	3267.663320
870.454134	3272.938888
870.765684	3285.408182
871.077191	3302.273362
871.388657	3313.709219
871.700081	3332.442147
872.011463	3353.360415
872.322803	3373.671224
872.634101	3389.893657
872.945357	3409.516348
873.256571	3433.441664
873.567744	3451.178964
873.878874	3457.387145
874.189963	3474.476657
874.501010	3472.631594
874.812015	3470.408446
875.122979	3487.351764
875.433900	3483.487719
875.744780	3486.325889
876.055618	3494.280830
876.366415	3490.240345
876.677169	3495.137826
876.987882	3511.559384
877.298554	3531.804658
877.609183	3570.011563
877.919771	3617.312710
878.230317	3685.857279
878.540822	3789.480717
878.851285	3937.892286
879.161707	4157.890760
879.472087	4530.432029
879.782425	5147.524713
880.092722	6320.918806
880.402977	8241.505160
880.713191	10598.083266
881.023363	12962.414667
881.333494	14304.468123
881.643583	14750.476648
881.953631	14349.483106
882.263637	13516.918904
882.573602	12486.330618
882.883526	11538.109744
883.193408	10588.139590
883.503248	9680.043780
883.813048	8851.446966
884.122806	8092.488652
884.432522	7335.062848
884.742197	6676.584812
885.051831	6120.298527
885.361424	5626.046159
885.670975	5235.770111
885.980485	4914.348662
886.289954	4647.860667
886.599382	4433.838481
886.908768	4256.044546
887.218113	4094.064711
887.527417	3957.358701
887.836680	3837.923684
888.145901	3736.087336
888.455082	3661.390038
888.764221	3598.436109
889.073319	3538.506872
889.382376	3501.638394
889.691392	3481.872029
890.000366	3473.213848
890.309300	3466.451140
890.618193	3473.405412
890.927044	3465.573979
891.235855	3470.973055
891.544625	3488.576764
891.853353	3514.460568
892.162041	3576.048345
892.470687	3664.427334
892.779293	3783.885036
893.087858	3956.670584
893.396381	4231.594950
893.704864	4639.560407
894.013306	5202.677457
894.321707	5773.865393
894.630068	6133.221524
894.938387	6173.074366
895.246665	5992.064176
895.554903	5677.561711
895.863100	5339.481769
896.171256	5072.950924
896.479371	4830.441177
896.787446	4611.743320
897.095480	4413.268052
897.403473	4267.379581
897.711425	4126.459166
898.019336	4000.931915
898.327207	3880.576887
898.635038	3781.331691
898.942827	3671.358920
899.250576	3587.763987
899.558284	3507.851616
899.865952	3455.332875
900.173579	3388.711506
900.481165	3340.455061
900.788711	3300.413176
901.096216	3267.433948
901.403681	3243.783374
901.711105	3233.002867
902.018489	3227.218143
902.325832	3261.122423
902.633135	3315.972698
902.940397	3489.007783
903.247619	3884.178792
903.554800	4633.059839
903.861941	5592.623309
904.169041	6292.680782
904.476101	6504.200036
904.783121	6231.526545
905.090100	5830.296069
905.397039	5417.697792
905.703938	5063.342485
906.010796	4737.855346
906.317614	4493.561030
906.624391	4249.866612
906.931129	4056.684556
907.237826	3878.542782
907.544483	3709.896021
907.851099	3541.897048
908.157675	3383.509036
908.464211	3242.298755
908.770707	3138.650111
909.077163	3065.800397
909.383578	3002.896879
909.689954	2957.007256
909.996289	2924.932914
910.302584	2911.170564
910.608839	2896.165570
910.915054	2882.476317
911.221229	2877.672097
911.527363	2883.068652
911.833458	2889.584343
912.139513	2900.006929
912.445527	2913.940678
912.751502	2951.083900
913.057436	2992.053357
913.363331	3049.187274
913.669186	3136.016108
913.975000	3254.173192
914.280775	3435.684978
914.586510	3701.573076
914.892205	4077.091146
915.197859	4568.354109
915.503475	5148.394312
915.809050	5643.869159
916.114585	5926.972797
916.420081	5996.124825
916.725536	5931.847593
917.030952	5695.593918
917.336328	5489.977855
917.641665	5277.422645
917.946961	5052.249426
918.252218	4855.427656
918.557435	4633.758039
918.862612	4433.702369
919.167750	4261.781379
919.472848	4074.988985
919.777906	3907.257194
920.082925	3749.799274
920.387904	3593.946962
920.692843	3486.920745
920.997743	3383.796381
921.302603	3295.891261
921.607423	3231.722414
921.912204	3168.085408
922.216946	3114.742439
922.521647	3066.980027
922.826310	3028.359747
923.130932	2989.847852
923.435516	2948.744804
923.740059	2923.047523
924.044564	2891.066443
924.349028	2867.955273
924.653454	2837.718432
924.957840	2815.499547
925.262186	2794.548511
925.566493	2772.501025
925.870761	2742.947260
926.174989	2734.798235
926.479178	2722.659137
926.783328	2707.409646
927.087438	2692.858356
927.391509	2681.682118
927.695541	2667.813903
927.999533	2659.674961
928.303486	2652.398055
928.607400	2644.942188
928.911275	2638.807104
929.215110	2632.644294
929.518906	2628.361833
929.822663	2630.942904
930.126381	2628.583644
930.430060	2632.735034
930.733699	2632.203193
931.037299	2643.157620
931.340861	2635.810138
931.644383	2640.979842
931.947866	2640.765592
932.251309	2636.709984
932.554714	2636.190745
932.858080	2633.380302
933.161407	2630.262348
933.464694	2625.692542
933.767943	2622.854373
934.071153	2621.931842
934.374323	2618.070318
934.677455	2614.460852
934.980548	2612.114195
935.283602	2605.359048
935.586617	2604.741507
935.889593	2610.064966
936.192530	2610.722836
936.495428	2617.094855
936.798287	2624.800258
937.101108	2640.276601
937.403890	2663.443223
937.706632	2686.325020
938.009336	2719.762994
938.312002	2749.132756
938.614628	2770.333329
938.917216	2788.925104
939.219765	2801.096970
939.522275	2809.072075
939.824747	2810.402940
940.127179	2805.329019
940.429573	2798.783080
940.731929	2799.808955
941.034246	2786.154990
941.336524	2784.607356
941.638763	2780.203908
941.940964	2773.947836
942.243126	2757.364960
942.545250	2748.061511
942.847335	2732.214644
943.149381	2719.982284
943.451389	2707.674307
943.753359	2695.502441
944.055290	2685.498271
944.357182	2674.294307
944.659036	2673.139882
944.960851	2666.336845
945.262628	2663.934736
945.564367	2663.964982
945.866067	2662.656803
946.167729	2661.847698
946.469352	2661.177224
946.770937	2657.265289
947.072484	2650.558034
947.373992	2650.691624
947.675462	2650.515184
947.976893	2644.211221
948.278286	2638.519758
948.579641	2636.339459
948.880958	2631.502472
949.182236	2634.396095
949.483476	2629.186062
949.784678	2629.846453
950.085841	2629.664972
950.386967	2634.963224
950.688054	2640.740387
950.989103	2647.843372
951.290114	2653.698673
951.591087	2667.067813
951.892021	2679.524504
952.192917	2689.354754
952.493776	2700.460416
952.794596	2701.171218
953.095378	2704.705067
953.396122	2702.176929
953.696828	2705.761189
953.997496	2695.005887
954.298126	2688.195288
954.598718	2677.296314
954.899272	2669.474964
955.199788	2659.012049
955.500266	2645.723567
955.800706	2632.339304
956.101108	2613.445059
956.401472	2603.773606
956.701798	2589.865062
957.002087	2574.527352
957.302337	2567.913358
957.602550	2554.009855
957.902724	2541.258257
958.202861	2534.669469
958.502960	2525.907943
958.803022	2517.048115
959.103045	2508.921775
959.403031	2503.462206
959.702979	2502.519510
960.002889	2495.771926
960.302762	2490.413179
960.602596	2486.624752
960.902393	2483.582416
961.202153	2479.166365
961.501875	2478.047229
961.801559	2475.423308
962.101205	2472.958184
962.400814	2469.729325
962.700385	2468.345528
962.999918	2467.556588
963.299414	2465.272945
963.598873	2464.100877
963.898293	2462.656586
964.197677	2462.964096
964.497022	2458.623663
964.796331	2463.382512
965.095601	2456.334979
965.394835	2461.078705
965.694030	2457.933025
965.993189	2457.403704
966.292309	2455.283898
966.591393	2452.075204
966.890439	2455.402366
967.189447	2453.277519
967.488419	2456.009825
967.787353	2456.251800
968.086249	2456.637448
968.385108	2458.225412
968.683930	2457.459156
968.982714	2459.946966
969.281462	2458.666513
969.580172	2461.638273
969.878844	2463.158181
970.177480	2466.581124
970.476078	2470.054479
970.774639	2472.691003
971.073162	2474.402474
971.371649	2476.587815
971.670098	2475.226703
971.968510	2478.014461
972.266885	2475.549337
972.565223	2481.119812
972.863524	2482.675008
973.161788	2486.080307
973.460014	2487.683394
973.758204	2486.680205
974.056356	2488.371512
974.354471	2488.316059
974.652550	2487.922849
974.950591	2485.079638
975.248595	2487.398569
975.546563	2485.987046
975.844493	2485.422437
976.142386	2481.563433
976.440243	2477.827938
976.738062	2479.088227
977.035845	2477.432208
977.333590	2473.028760
977.631299	2471.140848
977.928971	2470.120014
978.226606	2466.379478
978.524204	2466.765126
978.821765	2464.630198
979.119290	2465.577935
979.416777	2461.240022
979.714228	2466.122379
980.011642	2464.352934
980.309020	2472.607824
980.606360	2470.263687
980.903664	2482.448156
981.200931	2492.994250
981.498162	2517.552231
981.795356	2542.848741
982.092513	2580.475913
982.389633	2623.723972
982.686717	2668.260046
982.983764	2697.312215
983.280775	2715.314176
983.577749	2715.626727
983.874686	2709.040460
984.171587	2690.920032
984.468451	2674.687517
984.765279	2659.092707
985.062070	2640.092598
985.358824	2622.070473
985.655543	2597.116762
985.952224	2578.837538
986.248869	2549.442570
986.545478	2524.251924
986.842050	2504.974552
987.138586	2484.968733
987.435086	2469.169757
987.731549	2459.210957
988.027975	2458.210288
988.324366	2453.562344
988.620719	2447.855758
988.917037	2441.224120
989.213318	2436.140117
989.509563	2439.699171
989.805772	2434.027873
990.101944	2434.126176
990.398080	2435.903182
990.694180	2429.165680
990.990244	2433.062492
991.286271	2433.001998
991.582262	2434.753799
991.878217	2435.464602
992.174136	2434.242122
992.470019	2435.542740
992.765865	2436.394695
993.061676	2436.238419
993.357450	2443.391817
993.653188	2445.632609
993.948890	2452.503702
994.244556	2456.226594
994.540186	2463.395115
994.835780	2478.185860
995.131337	2493.044661
995.426859	2504.472957
995.722345	2528.380629
996.017795	2547.869730
996.313208	2557.621842
996.608586	2570.587690
996.903928	2571.558112
997.199234	2571.989131
997.494504	2569.032494
997.789738	2561.165773
998.084936	2551.063301
998.380099	2539.771116
998.675225	2525.693694
998.970316	2516.637261
999.265371	2503.595796
999.560390	2487.824547
999.855373	2480.398927
1000.150320	2465.005764
1000.445232	2458.371605
1000.740108	2454.068980
1001.034948	2443.686724
1001.329752	2441.665221
1001.624521	2437.062648
1001.919254	2430.877152
1002.213951	2427.875145
1002.508613	2424.686615
1002.803239	2425.278951
1003.097829	2422.261820
1003.392384	2423.514547
1003.686903	2422.828950
1003.981386	2420.225194
1004.275834	2420.830133
1004.570246	2419.713517
1004.864623	2417.472724
1005.158964	2412.179513
1005.453270	2418.044895
1005.747540	2414.536252
1006.041775	2416.346026
1006.335974	2411.761097
1006.630138	2413.099523
1006.924266	2416.600604
1007.218359	2414.415264
1007.512416	2412.595408
1007.806438	2416.391397
1008.100425	2414.861406
1008.394376	2413.618762
1008.688292	2413.969122
1008.982172	2411.249420
1009.276017	2410.611714
1009.569827	2412.829821
1009.863602	2413.454924
1010.157341	2412.600449
1010.451045	2411.940058
1010.744714	2412.149266
1011.038347	2411.365366
1011.331945	2407.443348
1011.625508	2410.911662
1011.919036	2409.570715
1012.212528	2406.346898
1012.505986	2410.641961
1012.799408	2409.033833
1013.092795	2407.206414
1013.386147	2407.128276
1013.679464	2405.913358
1013.972745	2407.327402
1014.265992	2407.859244
1014.559204	2408.570046
1014.852380	2405.174829
1015.145521	2408.368400
1015.438628	2406.437638
1015.731699	2408.907804
1016.024736	2407.317320
1016.317737	2408.252454
1016.610703	2408.938051
1016.903635	2408.197001
1017.196531	2407.161044
1017.489393	2410.694893
1017.782219	2406.359500
1018.075011	2410.389903
1018.367768	2409.328740
1018.660490	2409.936199
1018.953177	2409.936199
1019.245829	2409.936199
