Dividing Wavelength (nm)	Counts (n)	Blue Motor Position (mm): 10.800000	Red Motor Position (mm): 0.000000	
326.493990	1978.179016
326.888308	1978.179016
327.282561	1978.179016
327.676750	1952.781683
328.070874	1952.058277
328.464933	1959.219237
328.858929	1968.008488
329.252859	1981.165900
329.646726	1996.662407
330.040528	2010.712102
330.434265	2033.112470
330.827938	2047.595705
331.221547	2071.198387
331.615091	2090.901737
332.008571	2109.395210
332.401986	2129.751389
332.795338	2151.629997
333.188625	2170.025167
333.581847	2190.295647
333.975006	2207.060004
334.368100	2226.617160
334.761129	2244.503174
335.154095	2256.143198
335.546996	2285.084462
335.939833	2330.429641
336.332606	2342.674604
336.725315	2354.375122
337.117960	2364.976668
337.510540	2370.897504
337.903056	2380.528628
338.295508	2385.279916
338.687896	2396.241905
339.080220	2402.873542
339.472480	2407.818914
339.864676	2409.033832
340.256807	2413.928793
340.648875	2413.190264
341.040879	2416.769483
341.432818	2416.076324
341.824694	2417.596232
342.216506	2418.876685
342.608253	2417.891140
342.999937	2416.628331
343.391557	2415.040367
343.783113	2413.530542
344.174605	2410.846127
344.566033	2410.790675
344.957397	2411.511560
345.348697	2409.202711
345.739934	2408.325550
346.131106	2404.395971
346.522215	2403.178532
346.913260	2399.833727
347.304241	2397.615619
347.695159	2396.209137
348.086012	2393.998591
348.476802	2394.747203
348.867528	2392.461039
349.258191	2391.036913
349.648789	2388.380225
350.039324	2388.468445
350.429796	2390.898282
350.820203	2386.109185
351.210548	2385.715975
351.600828	2386.225132
351.991045	2384.974926
352.381198	2384.238917
352.771288	2386.618342
353.161314	2385.257230
353.551276	2385.718496
353.941175	2380.831097
354.331010	2385.559700
354.720782	2384.463249
355.110490	2389.809392
355.500135	2385.622714
355.889717	2381.940151
356.279235	2384.478372
356.668689	2387.760163
357.058080	2385.206819
357.447408	2385.910060
357.836672	2384.972405
358.225873	2385.968033
358.615010	2383.069370
359.004084	2388.223949
359.393095	2390.189999
359.782043	2390.560524
360.170927	2389.315359
360.559748	2389.471635
360.948505	2388.660009
361.337199	2389.315359
361.725830	2390.137067
362.114398	2391.752757
362.502903	2391.452808
362.891344	2391.488097
363.279722	2393.282747
363.668037	2394.018756
364.056289	2394.807696
364.444478	2394.974054
364.832603	2392.670247
365.220665	2397.371123
365.608665	2395.526061
365.996601	2394.986657
366.384474	2393.827192
366.772284	2399.105280
367.160031	2396.471277
367.547715	2397.083777
367.935336	2396.284754
368.322893	2397.386247
368.710388	2397.368602
369.097820	2399.737945
369.485189	2398.490259
369.872495	2400.128634
370.259738	2397.093860
370.646918	2398.855743
371.034035	2396.710732
371.421090	2401.363717
371.808081	2399.001936
372.195010	2404.378327
372.581875	2399.919426
372.968678	2401.709036
373.355418	2401.542678
373.742096	2401.381361
374.128710	2399.843809
374.515262	2403.201217
374.901751	2404.060734
375.288177	2402.341701
375.674540	2402.641649
376.060841	2400.093346
376.447079	2404.234654
376.833254	2402.157699
377.219367	2398.568397
377.605417	2401.494787
377.991404	2402.014026
378.377329	2401.482184
378.763191	2399.329611
379.148991	2403.584345
379.534727	2405.235323
379.920402	2405.749521
380.306013	2406.475447
380.691563	2409.187588
381.077049	2402.984448
381.462474	2408.678431
381.847835	2404.340518
382.233134	2407.327402
382.618371	2405.668862
383.003545	2403.864129
383.388657	2405.247926
383.773706	2408.378482
384.158693	2408.890160
384.543618	2407.811353
384.928480	2405.328584
385.313280	2407.342525
385.698017	2406.704819
386.082692	2409.558112
386.467305	2407.420663
386.851856	2409.832855
387.236344	2409.936199
387.620770	2407.455951
388.005133	2409.598442
388.389435	2411.962743
388.773674	2410.878895
389.157851	2411.017527
389.541965	2412.224883
389.926018	2409.298493
390.310008	2412.189595
390.693936	2410.087434
391.077802	2411.788823
391.461606	2412.350912
391.845348	2411.524162
392.229027	2410.667166
392.612645	2410.699934
392.996200	2412.703792
393.379694	2412.182033
393.763125	2412.650860
394.146494	2410.732701
394.529801	2414.914338
394.913047	2413.953999
395.296230	2412.880233
395.679351	2416.603125
396.062410	2416.956006
396.445408	2414.785789
396.828343	2414.435429
397.211217	2412.645819
397.594028	2414.170768
397.976778	2412.701272
398.359466	2415.370563
398.742092	2410.999883
399.124656	2417.122364
399.507158	2415.650347
399.889598	2416.305697
400.271977	2413.497774
400.654294	2419.322828
401.036549	2415.052970
401.418742	2417.192940
401.800874	2419.640420
402.182944	2416.729154
402.564952	2416.290573
402.946898	2416.623290
403.328783	2416.116654
403.710606	2417.359298
404.092367	2418.584298
404.474067	2419.519432
404.855705	2420.126892
405.237282	2419.315266
405.618797	2419.390883
406.000250	2421.427509
406.381642	2419.411048
406.762972	2421.924063
407.144240	2419.290060
407.525447	2424.185020
407.906593	2421.893816
408.287677	2419.796696
408.668700	2420.963723
409.049661	2420.653692
409.430560	2418.576737
409.811399	2421.689649
410.192176	2417.787796
410.572891	2422.226532
410.953545	2419.637900
411.334138	2422.060174
411.714669	2421.046902
412.095139	2421.361974
412.475547	2425.329362
412.855894	2422.697880
413.236180	2422.924732
413.616405	2422.586975
413.996568	2418.884247
414.376670	2423.580082
414.756711	2424.144691
415.136691	2424.353899
415.516609	2421.946748
415.896466	2421.306522
416.276262	2422.521440
416.655997	2420.205029
417.035670	2421.553538
417.415283	2423.887592
417.794834	2421.654361
418.174324	2425.107552
418.553753	2423.844742
418.933121	2422.047571
419.312428	2425.006728
419.691674	2424.772315
420.070859	2424.769794
420.449983	2423.983374
420.829045	2424.747109
421.208047	2424.530339
421.586988	2425.788107
421.965867	2424.855494
422.344686	2424.283323
422.723444	2426.801379
423.102141	2423.443971
423.480777	2426.599733
423.859352	2427.280289
424.237866	2428.560742
424.616319	2427.338262
424.994712	2428.880855
425.373044	2425.868766
425.751314	2425.485638
426.129524	2426.204002
426.507673	2427.098807
426.885762	2427.323139
427.263789	2428.081832
427.641756	2429.584096
428.019662	2428.369178
428.397508	2426.508992
428.775292	2426.221647
429.153016	2428.132244
429.530679	2427.534867
429.908282	2429.175763
430.285824	2425.447829
430.663305	2430.446133
431.040726	2427.905392
431.418086	2426.529157
431.795385	2428.170052
432.172624	2426.216605
432.549802	2426.035124
432.926920	2428.280958
433.303977	2430.373037
433.680974	2427.885227
434.057910	2427.418921
434.434786	2429.967224
434.811601	2427.305495
435.188355	2428.527974
435.565050	2429.455547
435.941683	2429.977306
436.318257	2426.481266
436.694770	2427.073602
437.071222	2426.967737
437.447614	2426.917326
437.823946	2429.364806
438.200218	2428.258273
438.576429	2430.529312
438.952580	2430.766247
439.328670	2428.530495
439.704700	2431.164498
440.080670	2431.633325
440.456580	2428.979158
440.832429	2432.487801
441.208218	2431.025866
441.583947	2433.947215
441.959616	2428.570824
442.335224	2430.189035
442.710773	2431.214909
443.086261	2428.485125
443.461689	2431.207348
443.837057	2433.443099
444.212365	2430.496545
444.587612	2432.805393
444.962800	2430.927564
445.337927	2433.617019
445.712995	2432.142482
446.088002	2432.989396
446.462949	2430.920002
446.837837	2434.577359
447.212664	2433.979982
447.587431	2435.562905
447.962139	2437.065168
448.336786	2433.314550
448.711374	2432.129879
449.085901	2436.639191
449.460369	2433.528799
449.834776	2434.526948
450.209124	2434.660538
450.583412	2437.407967
450.957640	2434.489139
451.331808	2435.830086
451.705917	2438.088523
452.079965	2435.905703
452.453954	2436.147678
452.827883	2437.181115
453.201752	2436.193049
453.575562	2437.997782
453.949311	2437.153389
454.323001	2436.500559
454.696632	2438.814449
455.070202	2438.446445
455.443713	2436.835796
455.817164	2436.122473
456.190556	2435.520055
456.563888	2438.254881
456.937160	2436.646753
457.310373	2437.758327
457.683526	2439.048862
458.056619	2439.542896
458.429653	2437.470981
458.802628	2442.149172
459.175542	2441.014912
459.548398	2442.000458
459.921194	2441.813935
460.293930	2444.132866
460.666607	2443.785027
461.039224	2448.064966
461.411782	2446.013217
461.784280	2445.660336
462.156719	2445.864502
462.529099	2448.059925
462.901419	2444.289142
463.273680	2443.903494
463.645882	2444.432815
464.018024	2444.732763
464.390106	2447.901129
464.762130	2451.107302
465.134094	2451.876078
465.505999	2454.925977
465.877845	2458.795062
466.249631	2459.389918
466.621358	2457.038220
466.993026	2460.108283
467.364634	2457.128961
467.736184	2454.620987
468.107674	2452.004628
468.479105	2455.679629
468.850477	2454.023610
469.221790	2456.443364
469.593043	2455.339351
469.964238	2449.274843
470.335373	2452.609566
470.706449	2455.384722
471.077467	2455.072170
471.448425	2457.819599
471.819324	2462.107100
472.190164	2459.387398
472.560945	2457.083590
472.931667	2455.677108
473.302330	2452.516305
473.672934	2454.373970
474.043479	2452.455811
474.413965	2451.908846
474.784393	2446.280398
475.154761	2452.589402
475.525070	2450.804833
475.895321	2454.000925
476.265513	2447.860799
476.635645	2456.652572
477.005719	2452.967488
477.375734	2455.578806
477.745691	2457.373457
478.115588	2459.019393
478.485427	2458.059054
478.855207	2459.589044
479.224928	2466.641618
479.594591	2465.928295
479.964194	2462.762450
480.333739	2463.541308
480.703226	2467.891824
481.072653	2464.935187
481.442022	2464.277317
481.811333	2465.141875
482.180584	2465.280507
482.549777	2462.429734
482.918912	2464.325208
483.287988	2464.103397
483.657005	2463.127934
484.025964	2466.502986
484.394864	2463.122893
484.763706	2464.000053
485.132489	2461.610547
485.501213	2463.354786
485.869879	2462.240691
486.238487	2462.328911
486.607036	2462.482666
486.975527	2465.036011
487.343959	2461.519806
487.712333	2464.383181
488.080648	2461.250104
488.448905	2462.891000
488.817104	2465.121710
489.185244	2462.880917
489.553326	2467.700260
489.921350	2470.193111
490.289315	2472.254943
490.657222	2475.914821
491.025070	2473.800057
491.392861	2476.061014
491.760593	2473.560602
492.128267	2473.038842
492.495883	2471.599593
492.863440	2470.084726
493.230939	2468.534571
493.598380	2468.481639
493.965763	2464.594910
494.333088	2465.933336
494.700354	2464.877214
495.067563	2470.455251
495.434713	2466.276134
495.801805	2469.323512
496.168839	2470.291413
496.535815	2469.928450
496.902733	2471.413070
497.269593	2474.059676
497.636395	2472.428863
498.003139	2474.591518
498.369825	2474.029429
498.736453	2479.831797
499.103023	2477.114615
499.469535	2481.936479
499.835989	2478.296766
500.202385	2481.427322
500.568723	2481.447487
500.935003	2480.431694
501.301226	2484.026037
501.667390	2486.667602
502.033497	2488.495020
502.399546	2487.960658
502.765537	2491.297902
503.131470	2492.177583
503.497345	2493.757985
503.863163	2491.857470
504.228923	2497.652276
504.594625	2498.942811
504.960269	2499.930877
505.325856	2502.199397
505.691385	2506.743997
506.056856	2504.276352
506.422270	2510.035870
506.787625	2512.165758
507.152924	2514.903104
507.518164	2514.983763
507.883347	2515.538290
508.248472	2517.413599
508.613540	2522.003570
508.978550	2528.282327
509.343503	2527.596730
509.708398	2527.551359
510.073236	2532.935312
510.438016	2537.119469
510.802738	2536.590148
511.167403	2542.821014
511.532010	2547.768907
511.896561	2545.359235
512.261053	2554.105637
512.625488	2550.584391
512.989866	2552.232849
513.354186	2557.730227
513.718449	2556.028838
514.082655	2565.060065
514.446803	2566.247256
514.810894	2573.032649
515.174927	2572.460478
515.538904	2577.786458
515.902822	2582.507498
516.266684	2584.201326
516.630488	2585.121336
516.994235	2587.130236
517.357925	2592.700711
517.721558	2595.526278
518.085133	2600.121290
518.448651	2602.450303
518.812112	2605.868205
519.175516	2607.531786
519.538863	2608.613113
519.902152	2618.161059
520.265385	2617.031840
520.628560	2620.273302
520.991678	2623.570217
521.354739	2628.739920
521.717743	2629.894344
522.080690	2632.145219
522.443580	2637.161167
522.806413	2640.566467
523.169189	2642.920686
523.531908	2645.693320
523.894569	2649.239772
524.257174	2653.678508
524.619722	2653.481903
524.982213	2658.991884
525.344647	2661.285609
525.707025	2662.429951
526.069345	2667.526558
526.431608	2668.010508
526.793815	2671.985458
527.155964	2672.713905
527.518057	2676.068793
527.880093	2676.739266
528.242072	2681.351922
528.603995	2682.977694
528.965860	2685.815864
529.327669	2689.407686
529.689421	2690.239476
530.051117	2693.725434
530.412755	2696.344314
530.774337	2695.837678
531.135862	2697.024869
531.497331	2699.938656
531.858743	2698.638039
532.220098	2706.192208
532.581396	2705.531817
532.942638	2701.430838
533.303824	2708.637167
533.664953	2713.406099
534.026025	2710.346118
534.387040	2716.788713
534.747999	2719.195864
535.108902	2722.107130
535.469748	2718.585884
535.830537	2720.771225
536.191270	2723.153170
536.551947	2726.802965
536.912567	2728.007801
537.273131	2730.697257
537.633638	2727.120558
537.994089	2731.161043
538.354483	2727.717935
538.714821	2735.584655
539.075103	2738.906776
539.435328	2740.104050
539.795497	2740.086406
540.155609	2741.956674
540.515665	2744.809967
540.875665	2742.740573
541.235609	2745.785430
541.595496	2746.042529
541.955328	2753.072418
542.315102	2754.491503
542.674821	2749.967067
543.034483	2753.372367
543.394090	2753.006883
543.753640	2752.875813
544.113134	2761.450816
544.472571	2758.302615
544.831953	2765.060282
545.191278	2761.229005
545.550548	2761.962493
545.909761	2767.716970
546.268918	2768.364758
546.628019	2770.779471
546.987064	2771.225613
547.346053	2766.665889
547.704986	2773.547064
548.063863	2773.189142
548.422684	2774.567898
548.781449	2773.221910
549.140158	2777.900101
549.498811	2775.641664
549.857408	2773.947836
550.215949	2779.838424
550.574434	2777.108639
550.932864	2780.213990
551.291237	2782.674073
551.649555	2789.411575
552.007817	2788.194137
552.366022	2789.051133
552.724173	2791.170938
553.082267	2798.147895
553.440305	2802.059830
553.798288	2796.171763
554.156215	2802.621919
554.514086	2804.817342
554.871902	2805.472692
555.229661	2811.184319
555.587365	2808.048721
555.945014	2810.687765
556.302606	2813.848569
556.660143	2817.896615
557.017625	2818.980463
557.375050	2821.382573
557.732421	2826.343068
558.089735	2830.040755
558.446994	2830.678461
558.804197	2840.100377
559.161345	2840.491067
559.518437	2836.795901
559.875474	2840.438135
560.232455	2848.292252
560.589381	2854.094620
560.946251	2858.286340
561.303065	2865.984182
561.659825	2866.833616
562.016528	2871.226982
562.373177	2871.113556
562.729770	2881.422715
563.086307	2884.505381
563.442789	2891.505023
563.799216	2898.403842
564.155587	2903.944070
564.511904	2908.476068
564.868164	2914.820360
565.224370	2924.320414
565.580520	2928.116403
565.936615	2938.589400
566.292654	2945.929320
566.648638	2953.178499
567.004567	2960.064715
567.360441	2972.100470
567.716260	2980.430977
568.072023	2988.660661
568.427732	2997.129799
568.783385	3008.174967
569.138982	3020.792975
569.494525	3032.531302
569.850013	3044.020092
570.205445	3057.285888
570.560823	3069.911458
570.916145	3081.828745
571.271412	3096.438009
571.626625	3108.125924
571.981782	3119.652523
572.336884	3131.728607
572.691931	3149.609579
573.046923	3163.802948
573.401860	3176.032787
573.756743	3190.989891
574.111570	3207.729042
574.466342	3223.361660
574.821059	3244.300093
575.175722	3253.790065
575.530330	3269.465533
575.884882	3284.016823
576.239380	3302.888383
576.593823	3322.556444
576.948211	3341.115452
577.302544	3353.907380
577.656823	3373.714074
578.011047	3404.235740
578.365216	3418.779468
578.719330	3435.591717
579.073389	3459.156590
579.427394	3489.549707
579.781344	3512.156761
580.135239	3534.965462
580.489080	3563.752971
580.842866	3575.997933
581.196597	3617.947895
581.550273	3645.971669
581.903895	3676.395033
582.257463	3721.074779
582.610975	3741.529261
582.964434	3779.665590
583.317837	3803.689209
583.671186	3829.147036
584.024481	3871.598592
584.377721	3889.857651
584.730906	3935.656534
585.084037	3967.083087
585.437113	3995.069053
585.790135	4027.347561
586.143103	4046.077968
586.496016	4091.922221
586.848874	4124.367087
587.201679	4171.496834
587.554428	4191.048950
587.907124	4245.347218
588.259765	4271.664561
588.612352	4329.181606
588.964884	4352.401161
589.317362	4404.861928
589.669786	4445.463381
590.022155	4480.602744
590.374470	4540.695819
590.726731	4561.057039
591.078937	4577.458433
591.431090	4628.769817
591.783188	4650.103981
592.135232	4677.379143
592.487222	4729.973502
592.839157	4780.768168
593.191038	4803.823885
593.542866	4841.955172
593.894639	4852.216441
594.246358	4916.039969
594.598022	4960.729798
594.949633	4984.455989
595.301190	5024.777658
595.652692	5057.892998
596.004141	5123.738028
596.355535	5106.950986
596.706876	5143.000277
597.058162	5174.557900
597.409395	5259.191312
597.760573	5313.759282
598.111698	5328.539945
598.462768	5380.504158
598.813785	5429.206746
599.164748	5441.224857
599.515657	5523.067989
599.866511	5535.449063
600.217312	5634.858096
600.568060	5601.767963
600.918753	5722.090222
601.269392	5770.127377
601.619978	5802.952851
601.970510	5870.554724
602.320988	5937.712975
602.671412	6025.050966
603.021783	6058.872067
603.372100	6079.203040
603.722363	6144.934645
604.072572	6218.512806
604.422728	6276.652434
604.772830	6309.966899
605.122878	6378.458536
605.472872	6426.795639
605.822813	6517.813672
606.172701	6572.129584
606.522534	6649.841491
606.872314	6742.618887
607.222041	6778.345544
607.571714	6886.417800
607.921333	6888.945939
608.270899	6989.663151
608.620411	7096.273473
608.969870	7137.704196
609.319276	7207.919907
609.668627	7288.422093
610.017926	7417.405055
610.367171	7510.462235
610.716362	7596.101356
611.065500	7660.350862
611.414585	7764.995133
611.763616	7881.105509
612.112594	7945.405427
612.461518	8053.207981
612.810389	8175.844131
613.159207	8240.302844
613.507971	8326.700660
613.856682	8480.667580
614.205340	8544.891880
614.553945	8731.661589
614.902496	8727.076660
615.250994	8882.926452
615.599439	8994.207402
615.947830	9117.367832
616.296169	9216.986073
616.644454	9332.423455
616.992686	9451.109860
617.340864	9646.928440
617.688990	9694.348054
618.037063	9901.872193
618.385082	10001.697122
618.733048	10153.970215
619.080961	10256.030895
619.428821	10347.011119
619.776628	10451.867119
620.124382	10514.884063
620.472083	10608.319329
620.819731	10716.736904
621.167326	10726.506660
621.514868	10808.808538
621.862357	10792.966712
622.209793	10866.731395
622.557176	10877.199351
622.904506	10890.112267
623.251783	10888.496577
623.599007	10922.380693
623.946179	10948.798859
624.293297	11020.153872
624.640363	10967.330141
624.987376	11046.577079
625.334336	11074.779815
625.681243	11080.967831
626.028097	11159.302321
626.374899	11213.053623
626.721647	11297.571088
627.068343	11354.009326
627.414987	11393.824359
627.761577	11435.207191
628.108115	11592.022364
628.454600	11554.896786
628.801032	11688.177332
629.147412	11770.743871
629.493739	11866.828263
629.840014	11878.828730
630.186236	12059.354969
630.532405	12063.191287
630.878521	12207.534646
631.224585	12278.947631
631.570597	12298.411526
631.916556	12449.172273
632.262462	12524.819827
632.608316	12627.188018
632.954117	12688.317050
633.299866	12772.005245
633.645562	12841.734485
633.991206	12785.818006
634.336797	12731.504615
634.682336	12809.493785
635.027823	12815.419662
635.373257	12846.783200
635.718639	12851.418541
636.063968	12890.197617
636.409245	12787.123665
636.754470	12888.478584
637.099642	12899.304462
637.444762	12831.894152
637.789829	12951.626597
638.134845	12925.679778
638.479808	12993.485818
638.824719	13035.516438
639.169577	13008.198426
639.514383	13118.236732
639.859137	13089.335797
640.203839	13253.236311
640.548489	13218.870766
640.893086	13314.546824
641.237632	13315.350888
641.582125	13440.527780
641.926566	13490.974606
642.270955	13570.244230
642.615292	13659.777643
642.959576	13736.819076
643.303809	13813.026199
643.647990	13947.347743
643.992118	14023.766594
644.336195	14098.451289
644.680219	14219.247417
645.024192	14414.458538
645.368112	14680.210525
645.711981	14785.744560
646.055797	15208.528489
646.399562	15293.499658
646.743274	15735.855867
647.086935	16008.005077
647.430544	16072.917495
647.774101	16210.820779
648.117606	16391.848614
648.461059	16598.278822
648.804460	16519.646905
649.147810	16360.462390
649.491108	16349.694485
649.834354	16277.384174
650.177548	16024.829928
650.520690	15916.523259
650.863781	16001.353275
651.206820	16022.195926
651.549807	15927.434836
651.892742	15815.208669
652.235626	15810.560725
652.578458	15821.971377
652.921238	15654.461397
653.263967	15875.866353
653.606644	15813.991231
653.949269	15872.161105
654.291843	15792.790658
654.634365	16034.806372
654.976836	15934.744509
655.319255	16012.426169
655.661622	16094.181082
656.003938	16074.623926
656.346203	16085.989207
656.688416	16253.592449
657.030577	16242.683392
657.372687	16239.628453
657.714746	16431.830005
658.056753	16570.796972
658.398708	16393.355919
658.740612	16492.096999
659.082465	16691.434304
659.424266	16686.022626
659.766016	16825.438256
660.107715	16841.862335
660.449362	16966.598125
660.790958	17041.552521
661.132503	17110.840660
661.473996	17200.661419
661.815438	17342.217019
662.156829	17511.302360
662.498168	17477.183831
662.839456	17562.465031
663.180693	17711.857104
663.521879	17874.013379
663.863013	17927.676462
664.204097	18004.087752
664.545129	18308.228125
664.886110	18377.879227
665.227040	18490.566659
665.567918	18616.492162
665.908746	18731.720336
666.249522	18879.292553
666.590248	18959.131827
666.930922	19088.467670
667.271545	19147.542432
667.612118	19267.567263
667.952639	19222.852229
668.293109	19321.220264
668.633528	19352.261169
668.973896	19371.694817
669.314213	19470.327512
669.654480	19396.830010
669.994695	19481.483586
670.334859	19497.907665
670.674973	19513.250417
671.015035	19679.807619
671.355047	19728.575742
671.695008	19769.605693
672.034918	19767.322050
672.374777	19882.756911
672.714585	19873.093019
673.054342	20074.890408
673.394049	19998.264869
673.733705	20230.576362
674.073310	20107.063052
674.412864	20226.500589
674.752368	20053.185720
675.091820	20299.125972
675.431223	20124.087028
675.770574	20027.445588
676.109875	20019.992243
676.449125	19919.123795
676.788324	19956.309867
677.127473	19697.144147
677.466571	19726.541636
677.805619	19586.732796
678.144616	19647.987856
678.483562	19665.389919
678.822458	19531.688437
679.161303	19556.574093
679.500098	19554.267765
679.838842	19555.248269
680.177535	19702.762513
680.516179	19938.406209
680.854771	20141.068155
681.193314	20728.493648
681.531805	21468.308181
681.870247	22015.477540
682.208638	22522.995703
682.546978	22724.926682
682.885268	22843.512265
683.223508	22573.218198
683.561697	22417.728849
683.899836	22369.490048
684.237925	22109.351386
684.575963	22071.414183
684.913951	21834.331238
685.251889	21983.902273
685.589776	22032.917412
685.927614	22079.162436
686.265401	22222.752142
686.603137	22330.932783
686.940824	22709.193241
687.278460	22990.109019
687.616046	23115.474953
687.953582	23554.652714
688.291068	23513.789121
688.628504	23745.914091
688.965889	23765.947637
689.303224	23569.261978
689.640510	23412.603081
689.977745	22985.125838
690.314930	22517.105115
690.652065	22245.752406
690.989150	21807.880304
691.326185	21284.752207
691.663170	20866.449864
692.000105	20424.131464
692.336990	20048.809998
692.673825	19787.073291
693.010610	19489.612446
693.347345	19165.677982
693.684030	18761.223689
694.020665	18618.959807
694.357251	18210.172641
694.693786	18221.202686
695.030272	18103.365715
695.366707	17753.907889
695.703093	17588.283300
696.039429	17620.690358
696.375716	17472.240980
696.711952	17475.769787
697.048139	17402.657933
697.384276	17310.992112
697.720363	17425.527128
698.056400	17318.269018
698.392388	17202.448508
698.728326	17206.458746
699.064214	17100.115606
699.400053	17099.687107
699.735842	16890.534676
700.071581	16724.048049
700.407270	16564.031744
700.742910	16462.913759
701.078501	16305.002136
701.414042	16139.622043
701.749533	15970.209027
702.084974	15749.111581
702.420366	15926.361070
702.755709	15646.355221
703.091002	15467.290916
703.426246	15519.797054
703.761440	15468.873838
704.096584	15312.721577
704.431679	15300.096008
704.766725	15256.590850
705.101721	15240.741462
705.436668	15341.138562
705.771565	15121.850890
706.106413	15406.305557
706.441212	15422.051601
706.775961	15543.397216
707.110661	15619.556447
707.445311	15910.630150
707.779913	15809.010571
708.114465	16006.570869
708.448967	16240.465284
708.783421	16772.634690
709.117825	16999.584916
709.452180	17169.204619
709.786485	17501.620824
710.120742	18116.767622
710.454949	18126.567625
710.789107	18503.499740
711.123216	19024.369399
711.457275	19120.383215
711.791286	19537.100116
712.125247	19599.572615
712.459159	19385.799965
712.793023	19926.065464
713.126837	19117.224932
713.460602	19342.864458
713.794318	19109.746381
714.127985	18841.806533
714.461602	18208.400676
714.795171	18216.597592
715.128691	17464.643961
715.462162	17081.249087
715.795584	16804.663661
716.128957	16624.391999
716.462281	16350.571646
716.795556	16188.826225
717.128782	15838.438306
717.461960	15441.858295
717.795088	15400.455298
718.128167	15118.349808
718.461198	14774.777530
718.794180	14695.631414
719.127113	14424.866000
719.459997	14298.373368
719.792833	14045.803998
720.125619	14031.749262
720.458357	13804.937668
720.791046	13684.479297
721.123686	13572.232965
721.456278	13393.196386
721.788821	13373.079662
722.121315	13178.753263
722.453761	13253.647165
722.786158	13203.003734
723.118506	13221.814799
723.450805	13119.353348
723.783056	13264.881377
724.115259	13195.472250
724.447412	13148.284529
724.779518	13364.597920
725.111574	13385.322104
725.443582	13556.444071
725.775542	13553.681519
726.107453	13935.473305
726.439315	13846.766642
726.771129	14173.027598
727.102895	14478.841634
727.434612	14641.610410
727.766281	14744.182767
728.097901	14958.031034
728.429473	15002.110883
728.760996	15003.194731
729.092471	15084.052318
729.423897	15014.277708
729.755276	14928.454584
730.086606	15039.392736
730.417887	15471.134796
730.749120	15893.248251
731.080305	16056.299331
731.411442	16339.879359
731.742530	16424.023778
732.073570	16514.545257
732.404562	16764.649502
732.735506	16624.386958
733.066401	16409.031387
733.397249	16001.978378
733.728048	15513.276321
734.058798	14858.609398
734.389501	14315.316686
734.720156	13951.932673
735.050762	13530.625802
735.381320	13241.112336
735.711831	13049.624108
736.042293	12761.088626
736.372707	12776.701079
736.703073	12595.874891
737.033391	12771.455759
737.363661	12747.207809
737.693883	12838.026716
738.024056	12983.751350
738.354182	13138.446718
738.684260	13381.579047
739.014290	13564.083940
739.344272	13720.599164
739.674207	13963.020691
740.004093	14052.828846
740.333931	14059.967120
740.663722	14096.437348
740.993464	14109.095685
741.323159	13973.045025
741.652806	13750.384821
741.982405	13588.599071
742.311956	13318.922546
742.641460	13227.907034
742.970915	12978.367398
743.300323	12700.355325
743.629683	12512.713497
743.958996	12292.042028
744.288260	12074.070097
744.617477	11828.853251
744.946647	11774.300405
745.275768	11555.340408
745.604842	11414.609037
745.933869	11279.375043
746.262847	11247.640980
746.591778	11186.895076
746.920662	11104.441964
747.249498	11114.060485
747.578286	11218.677031
747.907027	11333.101141
748.235720	11521.605006
748.564365	11550.329501
748.892963	11473.230094
749.221514	11530.406861
749.550017	11420.807135
749.878473	11387.742207
750.206881	11206.207737
750.535242	11135.160235
750.863555	11071.709752
751.191821	10992.833338
751.520039	11008.102993
751.848210	10937.904926
752.176334	10964.343257
752.504411	10890.545806
752.832440	10748.599517
753.160421	10809.705863
753.488356	10709.747344
753.816243	10629.691300
754.144082	10507.660089
754.471875	10468.444953
754.799620	10414.557539
755.127318	10398.950127
755.454969	10368.002484
755.782572	10331.194499
756.110129	10344.185552
756.437638	10275.953535
756.765100	10268.104458
757.092515	10270.473801
757.419882	10293.700917
757.747203	10297.822060
758.074477	10362.270692
758.401703	10321.427263
758.728882	10467.290529
759.056014	10505.499955
759.383099	10609.660276
759.710138	10705.094359
760.037129	10777.931470
760.364073	10801.811416
760.690970	10789.155599
761.017820	10790.526793
761.344623	10960.043153
761.671379	11266.537745
761.998088	11808.164356
762.324751	13215.891444
762.651366	15722.464041
762.977935	18944.446946
763.304456	20916.329561
763.630931	21352.696879
763.957359	20343.798157
764.283740	18664.972938
764.610074	16995.168865
764.936362	15136.941584
765.262602	13803.881546
765.588796	12475.116571
765.914943	11569.594270
766.241044	10830.389717
766.567097	10258.813612
766.893104	9771.639025
767.219064	9451.208163
767.544978	9117.720712
767.870845	8837.551026
768.196665	8675.273763
768.522438	8506.982403
768.848165	8357.975978
769.173846	8209.221610
769.499479	8105.325950
769.825066	7964.977707
770.150607	7799.123745
770.476101	7750.290088
770.801548	7648.055488
771.126949	7520.496651
771.452303	7447.410003
771.777611	7299.600852
772.102872	7289.745396
772.428087	7183.324117
772.753256	7070.235913
773.078378	7002.127404
773.403453	6875.596963
773.728482	6777.982581
774.053465	6722.144240
774.378401	6647.741851
774.703291	6565.873512
775.028135	6479.261448
775.352932	6445.024452
775.677683	6373.976950
776.002388	6293.835207
776.327046	6289.845133
776.651658	6216.556839
776.976224	6145.837012
777.300743	6138.602956
777.625216	6073.816567
777.949643	6032.915166
778.274024	6041.356578
778.598359	5983.438761
778.922647	5986.269369
779.246889	5948.664882
779.571086	5954.091684
779.895236	5965.290608
780.219339	5960.675431
780.543397	5955.982117
780.867409	6007.958934
781.191374	6008.231156
781.515294	5979.262165
781.839167	6027.498446
782.162995	5998.882336
782.486776	5959.921779
782.810511	5918.375109
783.134201	5851.128638
783.457844	5847.761147
783.781441	5800.099558
784.104993	5762.512715
784.428498	5744.966979
784.751958	5721.220623
785.075372	5700.067942
785.398739	5666.088044
785.722061	5689.572260
786.045337	5690.716602
786.368568	5789.588752
786.691752	5814.383667
787.014891	6040.650816
787.337983	6295.581966
787.661030	6692.262801
787.984031	7085.230825
788.306987	7324.920047
788.629897	7411.080928
788.952760	7338.841193
789.275579	7181.100969
789.598351	6908.364463
789.921078	6671.440315
790.243759	6415.546304
790.566395	6228.693417
790.888984	6049.203134
791.211529	5918.170943
791.534027	5771.980002
791.856480	5645.275641
792.178888	5588.986117
792.501249	5523.536817
792.823566	5432.014668
793.145836	5425.919913
793.468062	5418.280045
793.790241	5372.077870
794.112375	5418.804325
794.434464	5509.918139
794.756507	5536.469897
795.078505	5647.138347
795.400457	5839.602039
795.722364	6062.355504
796.044226	6239.572227
796.366042	6387.595627
796.687812	6339.591239
797.009538	6366.485795
797.331218	6285.199710
797.652852	6224.189146
797.974442	6113.530778
798.295986	6044.761877
798.617484	5934.804230
798.938938	5826.999155
799.260346	5770.918839
799.581709	5642.059385
799.903026	5593.553402
800.224299	5528.204925
800.545526	5418.950518
800.866708	5356.838462
801.187845	5311.730217
801.508936	5239.195575
801.829983	5214.680444
802.150984	5118.283500
802.471940	5093.907001
802.792851	5074.528805
803.113717	5053.955856
803.434538	5027.114233
803.755314	4997.172299
804.076045	4990.528059
804.396731	4954.703099
804.717372	4971.177590
805.037967	4969.932425
805.358518	4994.855889
805.679024	5049.408736
805.999485	5064.421292
806.319901	5080.926029
806.640272	5092.235858
806.960598	5138.478362
807.280879	5134.205984
807.601115	5169.746119
807.921306	5133.464935
808.241453	5129.931086
808.561554	5141.409793
808.881611	5109.070791
809.201623	5108.370071
809.521590	5061.825098
809.841513	5050.542995
810.161390	5059.475920
810.481223	4976.266634
810.801011	4971.101972
811.120755	4945.442499
811.440453	4893.311927
811.760107	4872.529771
812.079716	4848.639742
812.399281	4800.877330
812.718801	4796.932627
813.038276	4760.172534
813.357707	4731.805961
813.677093	4750.765741
813.996434	4694.657698
814.315731	4714.078743
814.634983	4712.241243
814.954191	4719.611410
815.273354	4770.816930
815.592473	4813.051717
815.911547	4883.395978
816.230577	4936.968320
816.549562	5013.719887
816.868502	5064.499430
817.187399	5118.157471
817.506250	5196.255027
817.825058	5218.151278
818.143821	5364.133011
818.462539	5525.187794
818.781213	5742.012862
819.099843	6084.881900
819.418429	6680.385842
819.736970	7257.250118
820.055466	7932.774816
820.373919	8801.680696
820.692327	10171.440333
821.010691	12681.708097
821.329011	18441.420451
821.647286	27179.975818
821.965517	36679.183327
822.283704	41730.706827
822.601847	43241.689348
822.919945	39058.504599
823.237999	34363.161303
823.556010	29551.087570
823.873976	25177.942062
824.191897	21264.731265
824.509775	18404.859482
824.827609	15838.592061
825.145398	14407.927723
825.463144	13721.342734
825.780845	13997.545033
826.098502	15172.940463
826.416116	17448.781970
826.733685	19620.430389
827.051210	20118.516553
827.368692	18774.202139
827.686129	16383.008950
828.003522	14062.777563
828.320872	11965.566823
828.638177	10412.745245
828.955439	9245.455989
829.272656	8247.451201
829.589830	7449.118954
829.906960	6767.257526
830.224046	6259.520072
830.541088	5879.873297
830.858086	5639.259024
831.175041	5445.575372
831.491952	5398.329678
831.808819	5425.186426
832.125642	5663.451521
832.442421	6184.157343
832.759157	7235.762200
833.075849	8905.473012
833.392497	10651.554785
833.709101	11696.623786
834.025662	11467.432767
834.342179	10469.574172
834.658653	9232.311181
834.975083	8186.972478
835.291469	7325.792166
835.607811	6638.413195
835.924110	6139.570858
836.240366	5676.886196
836.556578	5260.698617
836.872746	4918.822686
837.188871	4661.728881
837.504952	4450.718784
837.820990	4291.287253
838.136984	4187.177343
838.452935	4141.708656
838.768842	4170.405425
839.084706	4435.189510
839.400526	5139.232015
839.716303	5994.592314
840.032037	6528.067379
840.347727	6389.947325
840.663373	5821.398433
840.978977	5275.844763
841.294537	4853.537223
841.610054	4538.928894
841.925527	4310.781395
842.240957	4119.174699
842.556344	3946.157257
842.871687	3794.509268
843.186987	3654.448370
843.502244	3545.209086
843.817458	3457.493009
844.132629	3391.254768
844.447756	3345.786081
844.762840	3301.595327
845.077881	3267.169287
845.392879	3235.722569
845.707833	3211.149465
846.022745	3186.551155
846.337613	3171.662107
846.652438	3151.613438
846.967221	3143.474495
847.281960	3126.684932
847.596656	3115.775875
847.911309	3102.028649
848.225919	3090.164293
848.540485	3081.183478
848.855009	3074.493867
849.169490	3063.335273
849.483928	3055.329920
849.798323	3050.984446
850.112675	3046.023950
850.426984	3045.497150
850.741251	3036.700336
851.055474	3032.884183
851.369654	3034.391488
851.683792	3032.838812
851.997887	3035.195552
852.311938	3035.666900
852.625947	3035.871066
852.939914	3028.851260
853.253837	3035.165305
853.567718	3031.225643
853.881555	3024.596526
854.195350	3034.436858
854.509103	3028.821013
854.822812	3025.945034
855.136479	3023.923532
855.450103	3027.510313
855.763685	3019.772142
856.077224	3022.136443
856.390720	3028.057278
856.704173	3040.685368
857.017584	3042.865667
857.330953	3049.925803
857.644278	3055.738254
857.957561	3060.214798
858.270802	3058.160528
858.584000	3056.451577
858.897155	3052.093499
859.210268	3043.339536
859.523339	3030.759336
859.836367	3027.023841
860.149352	3021.347502
860.462295	3021.065197
860.775195	3010.264525
861.088054	3005.936695
861.400869	3005.283865
861.713642	3002.130624
862.026373	3010.947602
862.339062	3015.562778
862.651708	3023.157276
862.964312	3040.725698
863.276873	3048.186605
863.589392	3079.250195
863.901869	3102.391612
864.214303	3123.589664
864.526696	3144.339053
864.839045	3155.749705
865.151353	3170.086746
865.463619	3174.568332
865.775842	3172.962725
866.088023	3177.222500
866.400162	3171.720080
866.712258	3174.021367
867.024313	3170.323681
867.336325	3168.198834
867.648296	3169.320491
867.960224	3166.384019
868.272110	3171.679751
868.583954	3169.133968
868.895755	3177.025895
869.207515	3175.846265
869.519233	3194.785880
869.830909	3197.830737
870.142542	3208.066799
870.454134	3214.859754
870.765684	3228.710324
871.077191	3242.870926
871.388657	3253.795106
871.700081	3273.309412
872.011463	3292.506126
872.322803	3311.334836
872.634101	3330.198834
872.945357	3347.197604
873.256571	3374.513097
873.567744	3388.265364
873.878874	3392.436919
874.189963	3409.309661
874.501010	3411.507604
874.812015	3406.042993
875.122979	3422.603184
875.433900	3420.750560
875.744780	3422.711568
876.055618	3428.788679
876.366415	3425.758946
876.677169	3428.120727
876.987882	3449.406999
877.298554	3468.601192
877.609183	3502.898682
877.919771	3544.304199
878.230317	3613.310034
878.540822	3707.909806
878.851285	3854.123432
879.161707	4065.816606
879.472087	4420.502108
879.782425	5017.546123
880.092722	6145.617722
880.402977	7973.530024
880.713191	10199.842194
881.023363	12413.490986
881.333494	13677.535107
881.643583	14128.529333
881.953631	13759.461419
882.263637	12963.919451
882.573602	11993.739311
882.883526	11097.177661
883.193408	10195.479076
883.503248	9325.690994
883.813048	8532.036938
884.122806	7809.148079
884.432522	7088.227791
884.742197	6457.977696
885.051831	5933.359939
885.361424	5460.081292
885.670975	5091.051187
885.980485	4786.406698
886.289954	4528.685270
886.599382	4325.753622
886.908768	4155.264319
887.218113	4000.148015
887.527417	3869.619939
887.836680	3755.629368
888.145901	3662.347858
888.455082	3589.513267
888.764221	3524.303421
889.073319	3466.428455
889.382376	3435.629525
889.691392	3413.914755
890.000366	3404.225657
890.309300	3401.616860
890.618193	3402.068043
890.927044	3398.781211
891.235855	3404.928898
891.544625	3422.013369
891.853353	3448.073613
892.162041	3506.056965
892.470687	3590.821446
892.779293	3708.267728
893.087858	3867.167418
893.396381	4135.636587
893.704864	4531.422616
894.013306	5072.441768
894.321707	5618.809583
894.630068	5962.210463
894.938387	5996.475185
895.246665	5822.517569
895.554903	5518.256208
895.863100	5198.684863
896.171256	4939.753557
896.479371	4708.324266
896.787446	4494.329806
897.095480	4310.544460
897.403473	4167.118592
897.711425	4025.890667
898.019336	3912.394130
898.327207	3798.537149
898.635038	3699.218857
898.942827	3600.450050
899.250576	3514.248840
899.558284	3436.942746
899.865952	3384.325703
900.173579	3323.756239
900.481165	3281.967594
900.788711	3241.628281
901.096216	3211.391440
901.403681	3184.338088
901.711105	3171.047086
902.018489	3169.650687
902.325832	3201.087322
902.633135	3259.915067
902.940397	3420.642175
903.247619	3806.056030
903.554800	4525.085886
903.861941	5447.896824
904.169041	6108.257731
904.476101	6304.966074
904.783121	6048.759512
905.090100	5661.172919
905.397039	5268.328403
905.703938	4926.344088
906.010796	4613.560656
906.317614	4376.916292
906.624391	4145.834841
906.931129	3967.032676
907.237826	3790.252013
907.544483	3631.700163
907.851099	3464.449802
908.157675	3313.280721
908.464211	3181.774662
908.770707	3084.808067
909.077163	3010.509021
909.383578	2955.016000
909.689954	2909.428846
909.996289	2881.468086
910.302584	2866.261445
910.608839	2851.765607
910.915054	2839.845799
911.221229	2835.059223
911.527363	2837.355469
911.833458	2847.773013
912.139513	2858.929087
912.445527	2872.119266
912.751502	2900.750499
913.057436	2946.685493
913.363331	2998.995026
913.669186	3083.104157
913.975000	3192.376208
914.280775	3372.337839
914.586510	3628.284781
914.892205	3984.596056
915.197859	4460.193633
915.503475	5020.659035
915.809050	5486.600282
916.114585	5766.306183
916.420081	5822.857847
916.725536	5763.951964
917.030952	5531.653074
917.336328	5339.839691
917.641665	5135.718331
917.946961	4917.905196
918.252218	4725.217173
918.557435	4512.057024
918.862612	4323.288497
919.167750	4159.506450
919.472848	3977.026763
919.777906	3819.263853
920.082925	3668.664423
920.387904	3519.960467
920.692843	3414.605393
920.997743	3319.539314
921.302603	3230.734348
921.607423	3172.057837
921.912204	3111.369907
922.216946	3060.784449
922.521647	3017.864065
922.826310	2978.026347
923.130932	2940.494956
923.435516	2902.315778
923.740059	2878.743342
924.044564	2850.838035
924.349028	2824.427430
924.653454	2796.088584
924.957840	2772.574122
925.262186	2755.877820
925.566493	2735.337639
925.870761	2709.925182
926.174989	2702.655838
926.479178	2686.476255
926.783328	2671.488905
927.087438	2658.265958
927.391509	2647.946716
927.695541	2636.941877
927.999533	2626.300002
928.303486	2617.430091
928.607400	2614.574278
928.911275	2607.841817
929.215110	2600.413677
929.518906	2596.199272
929.822663	2600.915271
930.126381	2597.736824
930.430060	2599.952411
930.733699	2603.599686
931.037299	2610.982456
931.340861	2605.207814
931.644383	2609.608741
931.947866	2607.642691
932.251309	2606.926847
932.554714	2603.657659
932.858080	2604.086157
933.161407	2599.231526
933.464694	2592.471339
933.767943	2592.909919
934.071153	2588.798858
934.374323	2581.640420
934.677455	2580.833835
934.980548	2579.823084
935.283602	2574.300500
935.586617	2573.007444
935.889593	2579.087075
936.192530	2579.815522
936.495428	2586.570668
936.798287	2594.550815
937.101108	2606.833586
937.403890	2626.287399
937.706632	2654.396872
938.009336	2687.219825
938.312002	2715.674618
938.614628	2738.548854
938.917216	2753.780700
939.219765	2761.314704
939.522275	2772.984976
939.824747	2771.628905
940.127179	2766.459202
940.429573	2761.039962
940.731929	2762.106166
941.034246	2750.239289
941.336524	2749.881367
941.638763	2744.109246
941.940964	2734.785632
942.243126	2721.908005
942.545250	2712.947354
942.847335	2698.075950
943.149381	2686.408199
943.451389	2671.153668
943.753359	2662.074550
944.055290	2651.004176
944.357182	2646.149545
944.659036	2639.170067
944.960851	2637.882052
945.262628	2631.079015
945.564367	2633.435755
945.866067	2629.760754
946.167729	2630.862246
946.469352	2631.777215
946.770937	2627.305712
947.072484	2622.057871
947.373992	2621.173148
947.675462	2616.951182
947.976893	2610.246447
948.278286	2605.706888
948.579641	2603.713112
948.880958	2605.152361
949.182236	2604.086157
949.483476	2598.356886
949.784678	2598.820672
950.085841	2597.164653
950.386967	2601.363934
950.688054	2608.252671
950.989103	2614.453290
951.290114	2625.153139
951.591087	2636.457927
951.892021	2648.927221
952.192917	2658.177738
952.493776	2670.183246
952.794596	2673.031498
953.095378	2673.318843
953.396122	2670.823472
953.696828	2669.555622
953.997496	2666.122596
954.298126	2656.496513
954.598718	2649.207005
954.899272	2639.548154
955.199788	2628.734879
955.500266	2619.184413
955.800706	2597.840167
956.101108	2581.194277
956.401472	2575.822928
956.701798	2563.094015
957.002087	2548.063814
957.302337	2537.142155
957.602550	2526.160001
957.902724	2519.145235
958.202861	2508.553771
958.502960	2504.256188
958.803022	2495.592965
959.103045	2487.436378
959.403031	2481.777682
959.702979	2479.761221
960.002889	2475.604790
960.302762	2468.635394
960.602596	2463.412759
960.902393	2462.669189
961.202153	2460.589713
961.501875	2454.651234
961.801559	2452.415482
962.101205	2451.757611
962.400814	2453.395986
962.700385	2448.092693
962.999918	2447.785182
963.299414	2443.752259
963.598873	2445.756118
963.898293	2443.008689
964.197677	2441.100612
964.497022	2442.532300
964.796331	2443.941302
965.095601	2438.522062
965.394835	2437.297062
965.694030	2436.515683
965.993189	2437.549119
966.292309	2438.080961
966.591393	2436.228337
966.890439	2435.880497
967.189447	2436.888728
967.488419	2436.067020
967.787353	2438.446445
968.086249	2437.786053
968.385108	2437.256732
968.683930	2438.416198
968.982714	2438.627926
969.281462	2441.251847
969.580172	2441.390478
969.878844	2442.922989
970.177480	2448.430450
970.476078	2450.724175
970.774639	2453.343054
971.073162	2456.884465
971.371649	2455.929166
971.670098	2454.474793
971.968510	2459.989816
972.266885	2459.251287
972.565223	2463.647173
972.863524	2463.488376
973.161788	2465.502317
973.460014	2466.913840
973.758204	2466.679427
974.056356	2467.478450
974.354471	2471.289562
974.652550	2467.211268
974.950591	2467.785960
975.248595	2465.688840
975.546563	2467.458285
975.844493	2461.582820
976.142386	2461.121555
976.440243	2462.039045
976.738062	2459.256328
977.035845	2455.558641
977.333590	2456.019907
977.631299	2452.823815
977.928971	2451.268619
978.226606	2448.501026
978.524204	2447.429781
978.821765	2445.075562
979.119290	2444.730243
979.416777	2444.405088
979.714228	2448.357353
980.011642	2446.325768
980.309020	2454.230297
980.606360	2456.549228
980.903664	2464.090794
981.200931	2474.624285
981.498162	2494.015083
981.795356	2524.509023
982.092513	2558.960268
982.389633	2599.065168
982.686717	2641.257105
982.983764	2671.156188
983.280775	2690.405834
983.577749	2687.764270
983.874686	2679.640450
984.171587	2666.165446
984.468451	2649.580050
984.765279	2635.048924
985.062070	2614.483537
985.358824	2597.220106
985.655543	2576.624472
985.952224	2555.431461
986.248869	2527.906761
986.545478	2503.389109
986.842050	2484.517550
987.138586	2470.094808
987.435086	2454.189968
987.731549	2440.198246
988.027975	2440.130190
988.324366	2435.653645
988.620719	2430.715835
988.917037	2429.702563
989.213318	2424.603436
989.509563	2422.229053
989.805772	2421.417427
990.101944	2419.499268
990.398080	2420.444484
990.694180	2420.199988
990.990244	2417.099679
991.286271	2415.904925
991.582262	2421.845925
991.878217	2422.534043
992.174136	2421.273754
992.470019	2420.817530
992.765865	2424.474887
993.061676	2424.958838
993.357450	2426.947573
993.653188	2429.755495
993.948890	2437.027360
994.244556	2441.559357
994.540186	2450.782148
994.835780	2461.696246
995.131337	2475.201497
995.426859	2491.547439
995.722345	2509.935047
996.017795	2525.701256
996.313208	2541.101981
996.608586	2548.754453
996.903928	2552.381563
997.199234	2550.292004
997.494504	2546.801005
997.789738	2539.014943
998.084936	2534.951773
998.380099	2520.869310
998.675225	2510.550068
998.970316	2498.219406
999.265371	2486.423106
999.560390	2475.055304
999.855373	2463.591720
1000.150320	2451.586212
1000.445232	2447.863320
1000.740108	2438.862340
1001.034948	2434.226999
1001.329752	2430.005032
1001.624521	2424.379105
1001.919254	2419.393404
1002.213951	2420.625966
1002.508613	2416.056160
1002.803239	2414.626993
1003.097829	2412.290418
1003.392384	2412.648340
1003.686903	2409.439645
1003.981386	2410.919224
1004.275834	2406.851013
1004.570246	2408.471744
1004.864623	2411.062897
1005.158964	2406.921589
1005.453270	2407.113153
1005.747540	2403.869170
1006.041775	2407.755900
1006.335974	2405.744480
1006.630138	2403.806156
1006.924266	2402.840775
1007.218359	2405.348749
1007.512416	2405.222720
1007.806438	2401.870353
1008.100425	2402.704664
1008.394376	2401.709036
1008.688292	2403.443193
1008.982172	2403.244067
1009.276017	2404.209448
1009.569827	2400.494118
1009.863602	2401.293141
1010.157341	2405.154665
1010.451045	2402.261042
1010.744714	2399.916906
1011.038347	2403.601989
1011.331945	2402.646691
1011.625508	2402.699623
1011.919036	2401.310785
1012.212528	2400.693243
1012.505986	2400.605023
1012.799408	2398.457492
1013.092795	2400.206772
1013.386147	2399.236350
1013.679464	2401.008316
1013.972745	2401.288100
1014.265992	2398.371792
1014.559204	2399.637122
1014.852380	2402.039232
1015.145521	2399.125445
1015.438628	2401.338511
1015.731699	2399.049827
1016.024736	2400.209293
1016.317737	2399.690054
1016.610703	2402.460168
1016.903635	2398.785167
1017.196531	2399.468243
1017.489393	2401.399005
1017.782219	2396.118396
1018.075011	2406.152813
1018.367768	2402.379509
1018.660490	2404.254819
1018.953177	2404.254819
1019.245829	2404.254819
