Dividing Wavelength (nm)	Counts (n)	Blue Motor Position (mm): 38.400000	Red Motor Position (mm): 0.000000	
326.493990	1972.457307
326.888308	1972.457307
327.282561	1972.457307
327.676750	1947.727926
328.070874	1948.461414
328.464933	1953.467280
328.858929	1961.550770
329.252859	1977.150621
329.646726	1991.349031
330.040528	2007.851248
330.434265	2024.555111
330.827938	2044.356763
331.221547	2064.271842
331.615091	2086.417630
332.008571	2107.484612
332.401986	2124.861470
332.795338	2146.543472
333.188625	2166.503921
333.581847	2185.173834
333.975006	2204.660414
334.368100	2222.730430
334.761129	2238.562174
335.154095	2251.782600
335.546996	2296.611061
335.939833	2375.553009
336.332606	2390.830226
336.725315	2403.702812
337.117960	2412.761766
337.510540	2416.028433
337.903056	2427.285330
338.295508	2432.858326
338.687896	2442.890222
339.080220	2447.104626
339.472480	2454.371450
339.864676	2455.480503
340.256807	2458.638786
340.648875	2461.350927
341.040879	2467.039869
341.432818	2464.534416
341.824694	2462.923767
342.216506	2467.191104
342.608253	2465.656073
342.999937	2465.721607
343.391557	2464.496607
343.783113	2461.996195
344.174605	2460.009980
344.566033	2457.514609
344.957397	2459.863787
345.348697	2452.927159
345.739934	2454.003445
346.131106	2451.863476
346.522215	2452.445729
346.913260	2447.512960
347.304241	2449.126129
347.695159	2444.090016
348.086012	2447.412137
348.476802	2442.108843
348.867528	2440.856116
349.258191	2442.769234
349.648789	2440.029367
350.039324	2434.607606
350.429796	2438.653132
350.820203	2434.826896
351.210548	2436.467792
351.600828	2436.656835
351.991045	2435.767071
352.381198	2434.635332
352.771288	2435.346135
353.161314	2435.623398
353.551276	2434.085847
353.941175	2434.973090
354.331010	2433.115424
354.720782	2437.453337
355.110490	2434.869746
355.500135	2435.706578
355.889717	2433.571649
356.279235	2435.913265
356.668689	2435.300765
357.058080	2435.981320
357.447408	2433.801021
357.836672	2433.450661
358.225873	2435.767071
358.615010	2434.234561
359.004084	2440.092381
359.393095	2441.193873
359.782043	2444.667228
360.170927	2438.970725
360.559748	2443.873247
360.948505	2442.365942
361.337199	2444.178237
361.725830	2442.960798
362.114398	2445.211673
362.502903	2449.370625
362.891344	2445.340222
363.279722	2444.203442
363.668037	2448.979936
364.056289	2448.407765
364.444478	2444.455500
364.832603	2447.102106
365.220665	2447.492795
365.608665	2450.893053
365.996601	2450.323403
366.384474	2449.844493
366.772284	2450.734257
367.160031	2449.713423
367.547715	2453.048147
367.935336	2452.523867
368.322893	2453.481686
368.710388	2454.741974
369.097820	2455.306584
369.485189	2455.205761
369.872495	2457.184413
370.259738	2453.499330
370.646918	2459.047120
371.034035	2458.671554
371.421090	2458.560648
371.808081	2456.518981
372.195010	2459.152984
372.581875	2460.887141
372.968678	2458.424537
373.355418	2461.860084
373.742096	2459.460494
374.128710	2462.855712
374.515262	2461.575258
374.901751	2461.950824
375.288177	2465.318315
375.674540	2463.843778
376.060841	2465.635908
376.447079	2465.532564
376.833254	2467.722946
377.219367	2464.731021
377.605417	2465.870322
377.991404	2466.263532
378.377329	2468.988275
378.763191	2466.371916
379.148991	2472.348204
379.534727	2470.901393
379.920402	2474.893987
380.306013	2472.053297
380.691563	2476.761734
381.077049	2473.979017
381.462474	2473.442135
381.847835	2477.112095
382.233134	2479.194091
382.618371	2477.570840
383.003545	2479.302476
383.388657	2478.216107
383.773706	2481.253403
384.158693	2482.264154
384.543618	2484.981336
384.928480	2486.062663
385.313280	2484.898157
385.698017	2487.675833
386.082692	2486.821357
386.467305	2486.768425
386.851856	2487.877479
387.236344	2490.156080
387.620770	2491.081132
388.005133	2491.436533
388.389435	2491.960813
388.773674	2496.291164
389.157851	2496.245794
389.541965	2496.240753
389.926018	2497.748058
390.310008	2497.758140
390.693936	2497.435506
391.077802	2502.736280
391.461606	2503.686537
391.845348	2506.955725
392.229027	2507.351456
392.612645	2507.054028
392.996200	2511.870850
393.379694	2514.804802
393.763125	2517.539628
394.146494	2519.535925
394.529801	2523.679753
394.913047	2525.401307
395.296230	2530.981865
395.679351	2532.400949
396.062410	2538.107536
396.445408	2543.332692
396.828343	2551.746377
397.211217	2557.611760
397.594028	2562.952862
397.976778	2576.206056
398.359466	2592.060485
398.742092	2601.502566
399.124656	2622.514095
399.507158	2643.482774
399.889598	2664.451454
400.271977	2693.370033
400.654294	2716.922304
401.036549	2752.727099
401.418742	2780.846655
401.800874	2828.185610
402.182944	2873.447610
402.564952	2935.698298
402.946898	2973.229689
403.328783	3024.810775
403.710606	3093.763677
404.092367	3168.264369
404.474067	3266.120727
404.855705	3315.854230
405.237282	3380.338150
405.618797	3501.338445
406.000250	3616.438070
406.381642	3746.469592
406.762972	3831.652489
407.144240	3890.172723
407.525447	4020.143752
407.906593	4113.437866
408.287677	4262.487141
408.668700	4401.292791
409.049661	4507.643493
409.430560	4653.277387
409.811399	4762.405765
410.192176	4918.331174
410.572891	5065.245520
410.953545	5322.074665
411.334138	5301.529442
411.714669	5606.763746
412.095139	5537.213467
412.475547	5823.735008
412.855894	5904.582512
413.236180	6162.601369
413.616405	6189.954670
413.996568	6431.607421
414.376670	6568.568009
414.756711	6653.675289
415.136691	6917.821668
415.516609	7133.267980
415.896466	7318.187586
416.276262	7603.607634
416.655997	7971.188408
417.035670	8146.744070
417.415283	8632.786918
417.794834	8841.397426
418.174324	8870.686530
418.553753	8971.791912
418.933121	9400.607581
419.312428	9454.265623
419.691674	9558.148680
420.070859	9988.544751
420.449983	9929.366646
420.829045	10429.580178
421.208047	10419.795298
421.586988	10863.426919
421.965867	11187.046311
422.344686	11341.005670
422.723444	11882.249152
423.102141	11099.189082
423.480777	12079.083525
423.859352	11866.548479
424.237866	12832.546982
424.616319	12747.033889
424.994712	13395.651428
425.373044	13369.424825
425.751314	14034.927709
426.129524	13474.928613
426.507673	14459.917143
426.885762	14347.423795
427.263789	14618.922697
427.641756	14869.851171
428.019662	15032.806469
428.397508	15182.475806
428.775292	15520.601118
429.153016	15604.536329
429.530679	15760.093734
429.908282	15877.814759
430.285824	15719.772065
430.663305	16421.286432
431.040726	16154.735422
431.418086	16081.149699
431.795385	16713.554888
432.172624	17160.654822
432.549802	16829.264492
432.926920	17074.153663
433.303977	17013.359868
433.680974	17303.977347
434.057910	17630.991955
434.434786	17709.386939
434.811601	17677.098348
435.188355	18705.246717
435.565050	18434.067928
435.941683	18413.744516
436.318257	19281.790879
436.694770	19134.725298
437.071222	19738.680734
437.447614	18882.803717
437.823946	18930.795501
438.200218	19102.154403
438.576429	18902.905318
438.952580	19198.987407
439.328670	19186.364357
439.704700	19598.471123
440.080670	19193.807621
440.456580	19775.667680
440.832429	19957.078643
441.208218	19014.642493
441.583947	19436.897101
441.959616	19555.318846
442.335224	19792.595875
442.710773	19916.111706
443.086261	20445.931934
443.461689	19837.605817
443.837057	19978.127980
444.212365	20592.203533
444.587612	20592.248904
444.962800	20207.497960
445.337927	20608.710792
445.712995	19394.241377
446.088002	21172.074857
446.462949	21371.649097
446.837837	21535.090866
447.212664	21498.537460
447.587431	24237.597991
447.962139	27086.338906
448.336786	29411.369471
448.711374	27911.273321
449.085901	24330.156096
449.460369	24262.672690
449.834776	24183.503889
450.209124	26601.634484
450.583412	26180.337695
450.957640	26697.393722
451.331808	25383.548042
451.705917	24047.722931
452.079965	24079.857766
452.453954	24424.937350
452.827883	24322.939684
453.201752	24131.612772
453.575562	24278.900164
453.949311	25356.174576
454.323001	25427.799290
454.696632	25199.235895
455.070202	26712.103809
455.443713	26847.453748
455.817164	27410.590962
456.190556	27942.571325
456.563888	27405.668275
456.937160	27818.483323
457.310373	26206.627313
457.683526	26617.962781
458.056619	26611.618489
458.429653	26547.174899
458.802628	27098.394825
459.175542	27225.656233
459.548398	28496.919287
459.921194	30044.520750
460.293930	30716.917412
460.666607	32725.360995
461.039224	34444.298675
461.411782	34806.593799
461.784280	33601.705097
462.156719	33098.229939
462.529099	32512.987266
462.901419	31249.505233
463.273680	30228.674100
463.645882	30305.501285
464.018024	30302.564813
464.390106	31124.958486
464.762130	33792.767349
465.134094	37827.459871
465.505999	43094.023870
465.877845	47619.863408
466.249631	48722.325946
466.621358	46923.753159
466.993026	44768.364982
467.364634	42664.817511
467.736184	40728.134753
468.107674	39504.518165
468.479105	38737.864529
468.850477	38061.394615
469.221790	36666.101533
469.593043	34987.004092
469.964238	34104.343424
470.335373	34029.547824
470.706449	35675.416499
471.077467	38180.718726
471.448425	42700.735732
471.819324	45571.375419
472.190164	43763.849543
472.560945	40246.296227
472.931667	37185.705862
473.302330	36090.190035
473.672934	35278.518895
474.043479	35788.393798
474.413965	35014.397722
474.784393	34663.840925
475.154761	35537.735026
475.525070	35558.063479
475.895321	35120.282117
476.265513	35714.140123
476.635645	36636.061297
477.005719	36475.848387
477.375734	36942.003883
477.745691	37595.886907
478.115588	38900.141792
478.485427	40858.214166
478.855207	44165.233774
479.224928	46798.283881
479.594591	48405.325589
479.964194	47356.722739
480.333739	47451.067933
480.703226	47470.662898
481.072653	48122.050551
481.442022	48624.388929
481.811333	48890.887007
482.180584	47584.419055
482.549777	47084.951615
482.918912	46557.853610
483.287988	46263.180523
483.657005	45430.729747
484.025964	44797.104600
484.394864	44797.608715
484.763706	44342.470661
485.132489	43491.662523
485.501213	43338.461858
485.869879	43490.109848
486.238487	43080.110285
486.607036	43280.448260
486.975527	42762.331070
487.343959	42965.028305
487.712333	43041.810119
488.080648	42941.687762
488.448905	43392.311463
488.817104	43189.694887
489.185244	44122.986384
489.553326	45773.482839
489.921350	48493.979320
490.289315	51436.347065
490.657222	52067.159249
491.025070	52361.267726
491.392861	51421.566402
491.760593	50115.917638
492.128267	48411.853883
492.495883	46868.285343
492.863440	45480.528786
493.230939	44149.442360
493.598380	43077.007455
493.965763	42762.522634
494.333088	41960.384316
494.700354	41504.117043
495.067563	41229.880795
495.434713	41081.116345
495.801805	41156.554692
496.168839	40789.924175
496.535815	40458.188526
496.902733	40502.442295
497.269593	40090.194377
497.636395	40023.305828
498.003139	40413.450806
498.369825	39887.103933
498.736453	40189.825221
499.103023	39716.239064
499.469535	39593.711300
499.835989	39678.868991
500.202385	39356.507367
500.568723	39374.063185
500.935003	39565.513606
501.301226	39372.969255
501.667390	39959.091610
502.033497	40206.178724
502.399546	39640.757868
502.765537	38986.388372
503.131470	39348.539823
503.497345	39688.913490
503.863163	38377.094354
504.228923	38982.874688
504.594625	39368.288544
504.960269	38675.573511
505.325856	39340.194193
505.691385	38716.169923
506.056856	38866.454281
506.422270	39276.756313
506.787625	38855.298208
507.152924	39053.965040
507.518164	39144.627671
507.883347	38384.706496
508.248472	38623.989905
508.613540	39095.060526
508.978550	39381.060307
509.343503	39143.821086
509.708398	39334.371661
510.073236	39854.102019
510.438016	39861.383966
510.802738	39311.847785
511.167403	39926.349316
511.532010	40148.991875
511.896561	40439.087594
512.261053	41259.802563
512.625488	40803.913377
512.989866	40710.894006
513.354186	40537.478314
513.718449	40524.489781
514.082655	41193.886956
514.446803	40874.245035
514.810894	41379.008208
515.174927	41300.943420
515.538904	41209.083515
515.902822	41853.342976
516.266684	41342.900943
516.630488	41734.041550
516.994235	41600.786210
517.357925	42139.420895
517.721558	42306.116729
518.085133	42623.424597
518.448651	42762.983900
518.812112	42532.840103
519.175516	42641.363543
519.538863	42962.134682
519.902152	42922.019701
520.265385	43377.624062
520.628560	43412.042540
520.991678	43211.185326
521.354739	43455.766987
521.717743	43758.251342
522.080690	43655.651258
522.443580	44204.489239
522.806413	44259.689874
523.169189	44209.742121
523.531908	44375.401998
523.894569	44236.097274
524.257174	44409.218058
524.619722	44704.365013
524.982213	44708.657556
525.344647	44617.662208
525.707025	44659.496223
526.069345	45057.147480
526.431608	44992.083828
526.793815	45307.947404
527.155964	44841.202093
527.518057	45010.315161
527.880093	44799.511751
528.242072	45332.238204
528.603995	45047.952415
528.965860	45040.793977
529.327669	45140.215613
529.689421	45045.318413
530.051117	45008.492784
530.412755	45145.357590
530.774337	45211.986520
531.135862	45036.476229
531.497331	45242.790491
531.858743	45138.012629
532.220098	45486.414333
532.581396	45206.847064
532.942638	44897.325259
533.303824	45170.439851
533.664953	45146.055790
534.026025	44866.153284
534.387040	45334.577300
534.747999	45297.774356
535.108902	45475.101984
535.469748	44994.221277
535.830537	45123.912522
536.191270	45316.456872
536.551947	44951.570595
536.912567	45279.429597
537.273131	45389.420012
537.633638	44898.817441
537.994089	45244.348207
538.354483	44854.109968
538.714821	45402.892496
539.075103	45760.827022
539.435328	45550.583180
539.795497	45423.846052
540.155609	45412.478250
540.515665	45871.697118
540.875665	45348.377458
541.235609	45655.608059
541.595496	45636.991078
541.955328	46304.835578
542.315102	45696.353185
542.674821	45482.777140
543.034483	45514.362490
543.394090	45498.901271
543.753640	45454.962574
544.113134	46441.781042
544.472571	45483.208159
544.831953	46711.152577
545.191278	45928.820953
545.550548	45666.565007
545.909761	46106.650176
546.268918	46327.629155
546.628019	46623.358363
546.987064	46200.715586
547.346053	45499.062588
547.704986	46352.933226
548.063863	45924.160407
548.422684	46111.693850
548.781449	45980.059241
549.140158	46359.615276
549.498811	46217.061527
549.857408	45661.279357
550.215949	46476.144067
550.574434	46411.912206
550.932864	46198.358847
551.291237	46907.679440
551.649555	46522.472271
552.007817	46752.041376
552.366022	46426.440811
552.724173	46597.794672
553.082267	46979.543608
553.440305	47278.985626
553.798288	46611.741024
554.156215	46908.796055
554.514086	47099.296218
554.871902	46846.018566
555.229661	46891.575474
555.587365	46715.210706
555.945014	46808.139336
556.302606	46729.928355
556.660143	46945.543546
557.017625	47024.140176
557.375050	46827.628437
557.732421	47173.411262
558.089735	47148.754978
558.446994	47089.045032
558.804197	47550.290444
559.161345	47481.037593
559.518437	46733.812564
559.875474	47038.479738
560.232455	47190.049590
560.589381	47357.297431
560.946251	47064.287925
561.303065	47736.974453
561.659825	47555.001402
562.016528	47231.331599
562.373177	46943.897609
562.729770	47406.693177
563.086307	46939.892413
563.442789	47373.734113
563.799216	47425.189170
564.155587	47211.834936
564.511904	47241.270234
564.868164	47337.697424
565.224370	47573.134433
565.580520	47314.664392
565.936615	47502.573402
566.292654	47236.773524
566.648638	47453.563304
567.004567	47423.258408
567.360441	47458.070096
567.716260	47313.565421
568.072023	47607.439484
568.427732	47600.162579
568.783385	47139.585119
569.138982	47535.892908
569.494525	47489.221906
569.850013	47260.187163
570.205445	47217.314671
570.560823	47170.230294
570.916145	47044.193886
571.271412	47082.599916
571.626625	46825.483426
571.981782	46894.453973
572.336884	46570.610249
572.691931	46890.642860
573.046923	46492.374062
573.401860	46344.824530
573.756743	46314.350755
574.111570	46434.360464
574.466342	46283.050231
574.821059	46410.054541
575.175722	45917.874088
575.530330	45940.594568
575.884882	45674.283013
576.239380	45613.068282
576.593823	45581.316575
576.948211	45516.535227
577.302544	45037.179470
577.656823	45071.986116
578.011047	45273.833916
578.365216	45011.819945
578.719330	44796.071163
579.073389	44657.399103
579.427394	44734.364920
579.781344	44698.910485
580.135239	44357.304256
580.489080	44442.290548
580.842866	43926.812403
581.196597	44373.282193
581.550273	44331.168394
581.903895	44185.209346
582.257463	44605.626453
582.610975	43999.778064
582.964434	44278.969767
583.317837	43930.505048
583.671186	43748.151390
584.024481	43974.254702
584.377721	43515.794527
584.730906	43791.848112
585.084037	43815.448273
585.437113	43530.925550
585.790135	43562.531064
586.143103	43158.152388
586.496016	43285.290288
586.848874	43322.665403
587.201679	43338.976056
587.554428	42813.019872
587.907124	43018.212478
588.259765	42763.845937
588.612352	42987.668127
588.964884	42401.560895
589.317362	42678.826877
589.669786	42616.535860
590.022155	42393.091757
590.374470	42825.136285
590.726731	42339.511853
591.078937	41851.669313
591.431090	41945.946452
591.783188	41614.016718
592.135232	41307.451550
592.487222	41528.460775
592.839157	41618.974693
593.191038	41293.626185
593.542866	41065.198902
593.894639	40473.765691
594.246358	40757.330595
594.598022	40728.810267
594.949633	40327.720944
595.301190	40289.163678
595.652692	40130.203495
596.004141	40444.562287
596.355535	39491.287656
596.706876	39442.388464
597.058162	39265.945559
597.409395	39743.234443
597.760573	39804.234925
598.111698	39386.847552
598.462768	39410.079709
598.813785	39444.969535
599.164748	38917.498484
599.515657	39289.384404
599.866511	38780.739542
600.217312	39376.939164
600.568060	38364.867035
600.918753	39095.657902
601.269392	39058.542407
601.619978	38707.511742
601.970510	38919.429246
602.320988	39095.163869
602.671412	39410.120038
603.021783	39143.526179
603.372100	38800.747882
603.722363	38905.808049
604.072572	38970.410435
604.422728	39005.585086
604.772830	38815.019388
605.122878	38914.738453
605.472872	38846.362762
605.822813	39111.237588
606.172701	38958.959454
606.522534	39199.742606
606.872314	39448.291655
607.222041	39205.194614
607.571714	39602.369481
607.921333	39055.240452
608.270899	39348.731387
608.620411	39677.739772
608.969870	39471.657403
609.319276	39482.591666
609.668627	39533.993791
610.017926	39995.544193
610.367171	40182.969252
610.716362	40277.405187
611.065500	40201.036747
611.414585	40395.456407
611.763616	40678.408811
612.112594	40623.709771
612.461518	40838.465446
612.810389	41122.680658
613.159207	40986.090595
613.507971	41067.104458
613.856682	41523.974148
614.205340	41425.848089
614.553945	42118.046403
614.902496	41590.159457
615.250994	42037.455997
615.599439	42106.078704
615.947830	42320.486538
616.296169	42365.378013
616.644454	42492.074813
616.992686	42682.338041
617.340864	43193.737893
617.688990	42927.325515
618.037063	43513.258827
618.385082	43475.034277
618.733048	43788.576403
619.080961	43807.231192
619.428821	43815.899457
619.776628	43914.527111
620.124382	43733.000202
620.472083	43870.459865
620.819731	43988.148122
621.167326	43655.094211
621.514868	43636.840193
621.862357	43186.584496
622.209793	43225.108993
622.557176	42893.101122
622.904506	42645.651044
623.251783	42314.805158
623.599007	42086.491300
623.946179	41867.397713
624.293297	41826.791219
624.640363	41244.711869
624.987376	41238.107958
625.334336	40997.861689
625.681243	40649.976703
626.028097	40611.500097
626.374899	40466.450977
626.721647	40459.920162
627.068343	40334.385349
627.414987	40105.839598
627.761577	39890.826825
628.108115	40232.012117
628.454600	39680.056183
628.801032	39880.371472
629.147412	39834.776756
629.493739	39847.346873
629.840014	39493.916618
630.186236	39839.802786
630.532405	39472.116148
630.878521	39671.816417
631.224585	39550.876615
631.570597	39278.175398
631.916556	39441.690264
632.262462	39382.383610
632.608316	39394.547914
632.954117	39288.960947
633.299866	39293.676946
633.645562	39198.663799
633.991206	38706.753048
634.336797	38282.955847
634.682336	38282.721433
635.027823	38044.300062
635.373257	37861.079326
635.718639	37612.938610
636.063968	37480.573033
636.409245	36911.777124
636.754470	36956.318239
637.099642	36719.971303
637.444762	36270.144104
637.789829	36398.446510
638.134845	36064.008803
638.479808	36000.696951
638.824719	35916.746616
639.169577	35533.845776
639.514383	35593.306186
639.859137	35289.768230
640.203839	35533.064397
640.548489	35182.321077
640.893086	35255.241368
641.237632	35013.535685
641.582125	35119.762878
641.926566	35048.733021
642.270955	35017.472826
642.615292	35041.887134
642.959576	35009.328842
643.303809	35013.339080
643.647990	35163.101678
643.992118	35141.160056
644.336195	35128.262264
644.680219	35231.991566
645.024192	35526.231113
645.368112	36036.499226
645.711981	36043.214043
646.055797	36926.212468
646.399562	36847.116764
646.743274	37786.986967
647.086935	38240.927747
647.430544	38127.774008
647.774101	38238.079495
648.117606	38478.779468
648.461059	38776.162175
648.804460	38400.079495
649.147810	37775.717467
649.491108	37513.890019
649.834354	37166.355393
650.177548	36344.365012
650.520690	35895.150313
650.863781	35914.490700
651.206820	35747.971306
651.549807	35333.477555
651.892742	34849.425962
652.235626	34657.093340
652.578458	34536.408117
652.921238	33920.419446
653.263967	34263.054070
653.606644	33951.402378
653.949269	33905.918567
654.291843	33502.255735
654.634365	33909.006274
654.976836	33519.743498
655.319255	33512.774102
655.661622	33505.655993
656.003938	33283.814977
656.346203	33146.153668
656.688416	33378.530696
657.030577	33162.401307
657.372687	33013.460417
657.714746	33269.591361
658.056753	33400.028697
658.398708	32859.117930
658.740612	32913.617844
659.082465	33181.406457
659.424266	33013.231044
659.766016	33131.625063
660.107715	33009.286341
660.449362	33138.818789
660.790958	33119.722899
661.132503	33138.125631
661.473996	33167.770136
661.815438	33290.824701
662.156829	33498.134592
662.498168	33253.893208
662.839456	33290.411327
663.180693	33434.084211
663.521879	33595.310394
663.863013	33538.476425
664.204097	33536.243194
664.545129	34010.893034
664.886110	33974.130420
665.227040	34047.736307
665.567918	34150.664066
665.908746	34227.702979
666.249522	34391.984101
666.590248	34388.712392
666.930922	34500.900750
667.271545	34469.779187
667.612118	34536.884506
667.952639	34327.190150
668.293109	34384.737442
668.633528	34285.741783
668.973896	34195.754667
669.314213	34246.100670
669.654480	33967.561797
669.994695	34010.139382
670.334859	33892.927514
670.674973	33784.257881
671.015035	33948.728046
671.355047	33900.675767
671.695008	33848.096533
672.034918	33748.337139
672.374777	33826.885878
672.714585	33671.562887
673.054342	33897.509923
673.394049	33658.677698
673.733705	33952.939930
674.073310	33587.781430
674.412864	33675.676468
674.752368	33269.916516
675.091820	33572.559666
675.431223	33149.697599
675.770574	32880.293297
676.109875	32736.832141
676.449125	32468.728456
676.788324	32382.819632
677.127473	31853.773221
677.466571	31769.941353
677.805619	31425.907809
678.144616	31418.046130
678.483562	31360.811390
678.822458	31016.767763
679.161303	30946.451229
679.500098	30864.323271
679.838842	30751.645921
680.177535	30912.735992
680.516179	31189.563393
680.854771	31428.302357
681.193314	32301.899031
681.531805	33448.358238
681.870247	34212.697985
682.208638	34942.301660
682.546978	35186.822828
682.885268	35266.369715
683.223508	34723.530707
683.561697	34378.688057
683.899836	34194.953123
684.237925	33692.408058
684.575963	33534.622463
684.913951	33067.894796
685.251889	33233.595002
685.589776	33234.850250
685.927614	33220.472879
686.265401	33366.172307
686.603137	33472.223061
686.940824	33982.544106
687.278460	34370.110534
687.616046	34516.210734
687.953582	35129.144466
688.291068	34982.424204
688.628504	35268.776866
688.965889	35182.525244
689.303224	34794.346315
689.640510	34448.263542
689.977745	33699.455591
690.314930	32897.299629
690.652065	32373.337222
690.989150	31620.483745
691.326185	30711.369622
691.663170	30027.592555
692.000105	29270.068449
692.336990	28567.510564
692.673825	28120.546741
693.010610	27603.165560
693.347345	27030.407304
693.684030	26378.649126
694.020665	26105.090912
694.357251	25432.394302
694.693786	25393.156481
695.030272	25159.456150
695.366707	24612.375012
695.703093	24318.727800
696.039429	24319.355424
696.375716	24054.868767
696.711952	24019.875597
697.048139	23866.082596
697.384276	23688.757489
697.720363	23808.452125
698.056400	23605.800261
698.392388	23394.079362
698.728326	23361.836142
699.064214	23145.822699
699.400053	23083.370365
699.735842	22729.995563
700.071581	22455.978604
700.407270	22159.515908
700.742910	21978.644349
701.078501	21697.683201
701.414042	21419.121643
701.749533	21121.499481
702.084974	20772.873446
702.420366	20975.500104
702.755709	20541.613034
703.091002	20243.683362
703.426246	20254.728530
703.761440	20160.920219
704.096584	19891.034486
704.431679	19848.653506
704.766725	19751.545759
705.101721	19696.012408
705.436668	19783.970461
705.771565	19464.885587
706.106413	19808.881322
706.441212	19800.697009
706.775961	19928.984292
707.110661	19998.320322
707.445311	20352.380721
707.779913	20196.150323
708.114465	20434.501118
708.448967	20730.555480
708.783421	21429.566913
709.117825	21701.015404
709.452180	21921.749887
709.786485	22321.039518
710.120742	23126.028609
710.454949	23148.161795
710.789107	23603.078038
711.123216	24318.490866
711.457275	24441.525267
711.791286	24979.789427
712.125247	25043.184458
712.459159	24725.942125
712.793023	25388.571552
713.126837	24285.516678
713.460602	24532.475244
713.794318	24152.228571
714.127985	23760.641822
714.461602	22858.055994
714.795171	22816.847082
715.128691	21792.227521
715.462162	21239.429714
715.795584	20827.731282
716.128957	20564.653627
716.462281	20151.089969
716.795556	19931.240208
717.128782	19429.010215
717.461960	18890.176404
717.795088	18815.199323
718.128167	18409.877951
718.461198	17951.470708
718.794180	17811.944173
719.127113	17441.537832
719.459997	17253.054131
719.792833	16903.402221
720.125619	16872.096655
720.458357	16551.396092
720.791046	16381.126079
721.123686	16234.970427
721.456278	15980.346787
721.788821	15941.660972
722.121315	15691.705441
722.453761	15766.188489
722.786158	15681.474419
723.118506	15695.680391
723.450805	15563.208950
723.783056	15722.219545
724.115259	15626.152797
724.447412	15559.337344
724.779518	15796.536235
725.111574	15818.898794
725.443582	16017.507653
725.775542	16005.096332
726.107453	16467.851570
726.439315	16364.991867
726.771129	16757.269253
727.102895	17120.837268
727.434612	17337.296853
727.766281	17461.170606
728.097901	17720.303557
728.429473	17745.043020
728.760996	17732.482985
729.092471	17806.033420
729.423897	17686.585800
729.755276	17555.520841
730.086606	17668.384714
730.417887	18186.343107
730.749120	18713.264672
731.080305	18883.927894
731.411442	19208.646257
731.742530	19277.936917
732.073570	19380.897443
732.404562	19669.359828
732.735506	19478.610128
733.066401	19190.425007
733.397249	18669.696500
733.728048	18019.954783
734.058798	17187.771189
734.389501	16511.271028
734.720156	16044.140068
735.050762	15524.928948
735.381320	15172.585062
735.711831	14931.582620
736.042293	14592.499489
736.372707	14594.417648
736.703073	14389.414086
737.033391	14586.848356
737.363661	14548.749835
737.693883	14647.473272
738.024056	14823.666640
738.354182	15010.711092
738.684260	15304.461647
739.014290	15527.109248
739.344272	15712.482557
739.674207	15992.614435
740.004093	16106.849502
740.333931	16089.021461
740.663722	16122.877850
740.993464	16111.913341
741.323159	15943.606858
741.652806	15665.924980
741.982405	15438.241267
742.311956	15106.833292
742.641460	14986.057329
742.970915	14672.404298
743.300323	14333.822762
743.629683	14127.362306
743.958996	13851.631355
744.288260	13587.366509
744.617477	13286.086990
744.946647	13218.467473
745.275768	12933.634719
745.604842	12753.872214
745.933869	12588.451792
746.262847	12535.862475
746.591778	12462.027215
746.920662	12360.213552
747.249498	12365.781506
747.578286	12480.167807
747.907027	12618.839867
748.235720	12847.267151
748.564365	12875.729506
748.892963	12782.090073
749.221514	12831.448010
749.550017	12692.695292
749.878473	12642.949186
750.206881	12427.775095
750.535242	12330.107781
750.863555	12249.787077
751.191821	12156.003971
751.520039	12171.707165
751.848210	12085.755492
752.176334	12114.185079
752.504411	12014.430727
752.832440	11867.541586
753.160421	11923.808425
753.488356	11802.455249
753.816243	11708.304139
754.144082	11571.600650
754.471875	11508.341731
754.799620	11457.244595
755.127318	11430.191243
755.454969	11389.035263
755.782572	11341.020793
756.110129	11358.871519
756.437638	11275.997470
756.765100	11270.921028
757.092515	11268.692838
757.419882	11283.344952
757.747203	11294.304421
758.074477	11361.175326
758.401703	11320.462968
758.728882	11476.053140
759.056014	11522.673731
759.383099	11637.188582
759.710138	11736.222049
760.037129	11823.005512
760.364073	11837.564365
760.690970	11826.768734
761.017820	11820.984010
761.344623	12008.872855
761.671379	12332.136845
761.998088	12961.391312
762.324751	14506.162168
762.651366	17388.434318
762.977935	21041.740866
763.304456	23247.843050
763.630931	23706.822464
763.957359	22520.676772
764.283740	20600.783577
764.610074	18727.329491
764.936362	16597.855366
765.262602	15081.345219
765.588796	13624.479483
765.914943	12594.410436
766.241044	11750.107907
766.567097	11118.763882
766.893104	10579.990565
767.219064	10222.587880
767.544978	9839.414818
767.870845	9530.475266
768.196665	9343.506432
768.522438	9153.737236
768.848165	8982.789189
769.173846	8813.905494
769.499479	8693.542904
769.825066	8540.838793
770.150607	8355.218467
770.476101	8292.514075
770.801548	8183.635234
771.126949	8040.063172
771.452303	7957.925132
771.777611	7788.847353
772.102872	7767.077130
772.428087	7650.913822
772.753256	7526.979575
773.078378	7437.736029
773.403453	7302.859957
773.728482	7198.929009
774.053465	7135.954915
774.378401	7050.361164
774.703291	6950.989940
775.028135	6860.927206
775.352932	6822.707698
775.677683	6739.589153
776.002388	6652.462891
776.327046	6653.418190
776.651658	6563.937709
776.976224	6482.402087
777.300743	6474.472352
777.625216	6406.646147
777.949643	6364.383634
778.274024	6366.465631
778.598359	6301.868285
778.922647	6304.356095
779.246889	6264.301607
779.571086	6271.412154
779.895236	6281.812055
780.219339	6280.332476
780.543397	6280.735768
780.867409	6327.366441
781.191374	6324.432490
781.515294	6290.571059
781.839167	6341.564851
782.162995	6312.671478
782.486776	6259.767089
782.810511	6223.475822
783.134201	6149.585110
783.457844	6134.063397
783.781441	6092.630154
784.104993	6047.284975
784.428498	6015.261045
784.751958	5997.932079
785.075372	5971.660105
785.398739	5931.794661
785.722061	5958.137210
786.045337	5956.040090
786.368568	6066.620320
786.691752	6085.602785
787.014891	6335.717113
787.337983	6616.216995
787.661030	7052.430558
787.984031	7482.153635
788.306987	7739.955722
788.629897	7825.317580
788.952760	7734.896924
789.275579	7558.645583
789.598351	7259.561487
789.921078	6998.855695
790.243759	6721.067954
790.566395	6516.843250
790.888984	6321.992571
791.211529	6181.493093
791.534027	6022.588362
791.856480	5886.792280
792.178888	5824.133259
792.501249	5757.315285
792.823566	5657.560933
793.145836	5651.216641
793.468062	5630.232838
793.790241	5588.436631
794.112375	5634.444722
794.434464	5731.766717
794.756507	5762.260657
795.078505	5883.654162
795.400457	6097.759528
795.722364	6338.421692
796.044226	6533.824377
796.366042	6687.655186
796.687812	6635.149048
797.009538	6664.004613
797.331218	6566.284366
797.652852	6498.546382
797.974442	6379.053392
798.295986	6305.218132
798.617484	6182.279513
798.938938	6074.875210
799.260346	5998.799157
799.581709	5864.099526
799.903026	5812.188245
800.224299	5741.496144
800.545526	5625.201766
800.866708	5558.945881
801.187845	5515.193707
801.508936	5438.890802
801.829983	5403.285133
802.150984	5303.732427
802.471940	5276.454743
802.792851	5257.512607
803.113717	5236.425461
803.434538	5212.689188
803.755314	5175.697201
804.076045	5169.877189
804.396731	5135.937621
804.717372	5149.087471
805.037967	5151.257687
805.358518	5183.117780
805.679024	5241.867387
805.999485	5249.797122
806.319901	5270.327221
806.640272	5292.079799
806.960598	5334.990101
807.280879	5324.847299
807.601115	5361.602352
807.921306	5329.114636
808.241453	5321.552905
808.561554	5330.536242
808.881611	5294.774296
809.201623	5289.370179
809.521590	5240.591975
809.841513	5225.435746
810.161390	5241.355709
810.481223	5147.854908
810.801011	5136.590450
811.120755	5118.782574
811.440453	5056.408378
811.760107	5032.273854
812.079716	5006.407693
812.399281	4953.967090
812.718801	4948.933498
813.038276	4913.259773
813.357707	4878.125451
813.677093	4905.624946
813.996434	4840.906612
814.315731	4858.512842
814.634983	4857.353377
814.954191	4863.939644
815.273354	4920.995424
815.592473	4963.441939
815.911547	5035.875758
816.230577	5088.999437
816.549562	5176.574362
816.868502	5231.051591
817.187399	5281.558911
817.506250	5362.174523
817.825058	5389.724429
818.143821	5542.483993
818.462539	5712.418769
818.781213	5937.541576
819.099843	6296.902749
819.418429	6924.977586
819.736970	7536.731687
820.055466	8249.260975
820.373919	9157.747474
820.692327	10589.372152
821.010691	13269.862037
821.329011	19457.757395
821.647286	28987.872219
821.965517	39279.128176
822.283704	44711.513369
822.601847	46194.862806
822.919945	41576.258476
823.237999	36474.832594
823.556010	31296.665227
823.873976	26614.612934
824.191897	22443.658024
824.509775	19388.091170
824.827609	16639.601161
825.145398	15091.782928
825.463144	14347.380945
825.780845	14640.040090
826.098502	15899.400980
826.416116	18352.018108
826.733685	20641.422839
827.051210	21163.494813
827.368692	19732.288551
827.686129	17168.869382
828.003522	14704.874370
828.320872	12497.111125
828.638177	10860.810560
828.955439	9620.585891
829.272656	8570.132938
829.589830	7730.584217
829.906960	7011.798858
830.224046	6480.897302
830.541088	6071.106947
830.858086	5815.444830
831.175041	5611.530157
831.491952	5558.101488
831.808819	5588.285397
832.125642	5835.203633
832.442421	6383.013218
832.759157	7484.084397
833.075849	9245.793747
833.392497	11087.695251
833.709101	12197.570805
834.025662	11942.720313
834.342179	10892.474048
834.658653	9592.141180
834.975083	8492.363057
835.291469	7592.479287
835.607811	6867.188319
835.924110	6344.783628
836.240366	5862.211614
836.556578	5409.241256
836.872746	5058.424839
837.188871	4791.581443
837.504952	4570.788987
837.820990	4403.657092
838.136984	4289.356491
838.452935	4240.626177
838.768842	4271.712452
839.084706	4551.877098
839.400526	5288.102329
839.716303	6191.759403
840.032037	6752.905361
840.347727	6604.839111
840.663373	6011.775087
840.978977	5428.601807
841.294537	4996.905118
841.610054	4663.823481
841.925527	4426.904373
842.240957	4225.217890
842.556344	4039.862225
842.871687	3885.063514
843.186987	3732.860997
843.502244	3616.866568
843.817458	3531.824823
844.132629	3458.473514
844.447756	3411.381575
844.762840	3367.100080
845.077881	3331.612877
845.392879	3296.100469
845.707833	3272.694392
846.022745	3243.990062
846.337613	3230.925912
846.652438	3207.209803
846.967221	3200.991540
847.281960	3176.816687
847.596656	3169.489370
847.911309	3158.386228
848.225919	3148.626554
848.540485	3139.859988
848.855009	3128.136785
849.169490	3118.505660
849.483928	3113.046091
849.798323	3102.005964
850.112675	3092.755446
850.426984	3094.403904
850.741251	3087.827718
851.055474	3085.223962
851.369654	3086.106164
851.683792	3083.572985
851.997887	3089.042637
852.311938	3085.912080
852.625947	3085.952409
852.939914	3079.441759
853.253837	3088.278902
853.567718	3080.341605
853.881555	3077.657191
854.195350	3084.568612
854.509103	3079.451841
854.822812	3080.197932
855.136479	3075.970925
855.450103	3077.783219
855.763685	3069.919019
856.077224	3071.388516
856.390720	3081.808581
856.704173	3092.997422
857.017584	3097.673092
857.330953	3102.124431
857.644278	3112.395782
857.957561	3115.271760
858.270802	3110.260853
858.584000	3111.742952
858.897155	3103.593927
859.210268	3095.926332
859.523339	3084.339240
859.836367	3079.230031
860.149352	3076.840524
860.462295	3071.433886
860.775195	3061.961558
861.088054	3056.990980
861.400869	3057.477452
861.713642	3055.060218
862.026373	3067.514389
862.339062	3069.200655
862.651708	3078.783888
862.964312	3097.436158
863.276873	3101.335490
863.589392	3129.790283
863.901869	3160.853873
864.214303	3177.046059
864.526696	3199.005325
864.839045	3215.530228
865.151353	3226.590519
865.463619	3228.115468
865.775842	3229.083370
866.088023	3234.064030
866.400162	3228.864080
866.712258	3228.319635
867.024313	3226.041033
867.336325	3225.163873
867.648296	3224.495920
867.960224	3224.022051
868.272110	3229.642938
868.583954	3228.385170
868.895755	3237.134092
869.207515	3234.416911
869.519233	3252.809560
869.830909	3255.811568
870.142542	3270.365379
870.454134	3275.706481
870.765684	3288.853810
871.077191	3308.224444
871.388657	3313.918427
871.700081	3332.434585
872.011463	3356.369984
872.322803	3374.324053
872.634101	3391.529511
872.945357	3413.312337
873.256571	3441.915844
873.567744	3453.671815
873.878874	3458.173565
874.189963	3475.507573
874.501010	3479.376658
874.812015	3476.926657
875.122979	3492.201354
875.433900	3489.821929
875.744780	3489.032988
876.055618	3498.722086
876.366415	3496.655213
876.677169	3499.266531
876.987882	3518.281763
877.298554	3538.698436
877.609183	3573.368972
877.919771	3626.238073
878.230317	3692.332641
878.540822	3796.689567
878.851285	3946.459727
879.161707	4166.874096
879.472087	4542.092218
879.782425	5160.490561
880.092722	6340.102917
880.402977	8265.480887
880.713191	10626.182657
881.023363	12991.222340
881.333494	14336.219830
881.643583	14788.728923
881.953631	14375.714750
882.263637	13540.251885
882.573602	12514.329186
882.883526	11559.161603
883.193408	10605.844122
883.503248	9696.145225
883.813048	8866.048668
884.122806	8107.591949
884.432522	7344.913263
884.742197	6687.493869
885.051831	6126.751203
885.361424	5634.621162
885.670975	5242.192541
885.980485	4920.002316
886.289954	4651.147499
886.599382	4437.470632
886.908768	4262.993777
887.218113	4098.712655
887.527417	3967.733396
887.836680	3845.913913
888.145901	3744.080085
888.455082	3669.965041
888.764221	3599.802262
889.073319	3540.296482
889.382376	3506.805576
889.691392	3483.573419
890.000366	3476.815752
890.309300	3470.831903
890.618193	3477.627378
890.927044	3469.672437
891.235855	3479.845486
891.544625	3490.595746
891.853353	3520.202443
892.162041	3578.584045
892.470687	3667.013446
892.779293	3788.117084
893.087858	3963.506388
893.396381	4238.634921
893.704864	4650.217407
894.013306	5214.211617
894.321707	5788.381396
894.630068	6142.403986
894.938387	6188.487694
895.246665	6010.298029
895.554903	5693.703485
895.863100	5359.638823
896.171256	5084.051545
896.479371	4843.933825
896.787446	4621.465186
897.095480	4421.258281
897.403473	4272.319911
897.711425	4130.877737
898.019336	4011.009181
898.327207	3889.983680
898.635038	3785.193215
898.942827	3678.436700
899.250576	3592.757249
899.558284	3508.862367
899.865952	3457.334213
900.173579	3394.113103
900.481165	3346.088551
900.788711	3305.408960
901.096216	3274.718415
901.403681	3244.466451
901.711105	3233.474215
902.018489	3231.500603
902.325832	3262.087804
902.633135	3323.917556
902.940397	3491.861076
903.247619	3894.702200
903.554800	4644.694822
903.861941	5607.151915
904.169041	6310.801210
904.476101	6521.692840
904.783121	6242.823771
905.090100	5841.426937
905.397039	5427.742291
905.703938	5073.838167
906.010796	4749.921347
906.317614	4499.764170
906.624391	4258.613014
906.931129	4065.834250
907.237826	3883.946898
907.544483	3714.942216
907.851099	3546.628171
908.157675	3385.984242
908.464211	3245.820001
908.770707	3145.634630
909.077163	3066.778381
909.383578	3005.062055
909.689954	2962.464305
909.996289	2933.301230
910.302584	2913.665935
910.608839	2899.512896
910.915054	2884.497819
911.221229	2880.293497
911.527363	2885.180896
911.833458	2892.898902
912.139513	2906.462127
912.445527	2921.451998
912.751502	2954.206895
913.057436	2996.111486
913.363331	3052.509395
913.669186	3141.332005
913.975000	3258.556476
914.280775	3443.443314
914.586510	3711.506669
914.892205	4085.933330
915.197859	4580.273917
915.503475	5167.338968
915.809050	5663.065873
916.114585	5950.474656
916.420081	6018.487383
916.725536	5946.749244
917.030952	5713.447164
917.336328	5508.829250
917.641665	5293.438390
917.946961	5071.506633
918.252218	4866.074573
918.557435	4638.721055
918.862612	4441.286785
919.167750	4274.086836
919.472848	4081.860078
919.777906	3917.125252
920.082925	3754.043926
920.387904	3604.770319
920.692843	3488.959892
920.997743	3392.507495
921.302603	3297.615336
921.607423	3235.006726
921.912204	3168.818896
922.216946	3122.800723
922.521647	3072.242991
922.826310	3032.138092
923.130932	2994.934377
923.435516	2954.133798
923.740059	2926.120106
924.044564	2896.770508
924.349028	2870.465768
924.653454	2840.523834
924.957840	2814.236737
925.262186	2794.631690
925.566493	2773.970521
925.870761	2748.789958
926.174989	2737.245715
926.479178	2726.530743
926.783328	2707.434852
927.087438	2695.802390
927.391509	2682.266892
927.695541	2672.547547
927.999533	2660.370640
928.303486	2653.401245
928.607400	2646.976294
928.911275	2643.235758
929.215110	2636.483132
929.518906	2635.031280
929.822663	2633.355096
930.126381	2632.278810
930.430060	2636.742752
930.733699	2638.234933
931.037299	2640.873977
931.340861	2641.456231
931.644383	2642.855151
931.947866	2645.652991
932.251309	2638.963380
932.554714	2641.904893
932.858080	2636.404994
933.161407	2633.813841
933.464694	2631.762092
933.767943	2629.228912
934.071153	2622.320011
934.374323	2617.440174
934.677455	2617.727519
934.980548	2611.277363
935.283602	2611.562188
935.586617	2609.618823
935.889593	2612.330964
936.192530	2610.957250
936.495428	2619.630555
936.798287	2629.738068
937.101108	2640.281642
937.403890	2664.733758
937.706632	2689.137984
938.009336	2721.628221
938.312002	2751.565113
938.614628	2775.165275
938.917216	2794.056999
939.219765	2803.337763
939.522275	2816.147335
939.824747	2813.440235
940.127179	2808.699030
940.429573	2802.223668
940.731929	2801.349028
941.034246	2792.728655
941.336524	2786.858231
941.638763	2780.360184
941.940964	2774.620830
942.243126	2758.678181
942.545250	2752.878333
942.847335	2737.044069
943.149381	2721.446739
943.451389	2708.228834
943.753359	2697.163501
944.055290	2687.514733
944.357182	2676.041067
944.659036	2674.677434
944.960851	2671.587207
945.262628	2664.970693
945.564367	2667.478667
945.866067	2665.323573
946.167729	2663.365085
946.469352	2662.566062
946.770937	2661.827533
947.072484	2653.512150
947.373992	2653.842346
947.675462	2651.384783
947.976893	2644.795995
948.278286	2642.903042
948.579641	2637.264511
948.880958	2636.987248
949.182236	2635.578245
949.483476	2634.648152
949.784678	2631.126906
950.085841	2631.401649
950.386967	2635.328708
950.688054	2642.376241
950.989103	2650.593322
951.290114	2658.323931
951.591087	2670.805828
951.892021	2680.754545
952.192917	2698.317925
952.493776	2704.470654
952.794596	2706.865202
953.095378	2710.363762
953.396122	2705.715819
953.696828	2705.776312
953.997496	2697.851619
954.298126	2690.743592
954.598718	2682.765966
954.899272	2673.591066
955.199788	2660.655465
955.500266	2646.857827
955.800706	2631.124386
956.101108	2613.989504
956.401472	2605.134717
956.701798	2588.821543
957.002087	2576.226220
957.302337	2567.547874
957.602550	2556.686708
957.902724	2542.447969
958.202861	2536.297761
958.502960	2525.053468
958.803022	2519.636748
959.103045	2514.099040
959.403031	2507.129645
959.702979	2502.315343
960.002889	2498.007677
960.302762	2490.778663
960.602596	2487.396048
960.902393	2486.856645
961.202153	2481.596201
961.501875	2479.035295
961.801559	2477.028916
962.101205	2475.937506
962.400814	2471.954994
962.700385	2469.444500
962.999918	2470.893831
963.299414	2466.059365
963.598873	2465.386371
963.898293	2463.349745
964.197677	2462.787656
964.497022	2461.698767
964.796331	2461.529888
965.095601	2457.804475
965.394835	2458.182562
965.694030	2457.630556
965.993189	2457.136523
966.292309	2459.452933
966.591393	2454.457149
966.890439	2455.699794
967.189447	2455.755246
967.488419	2458.595937
967.787353	2458.860597
968.086249	2459.122737
968.385108	2460.710701
968.683930	2458.719445
968.982714	2463.327059
969.281462	2461.295474
969.580172	2464.350414
969.878844	2464.567183
970.177480	2465.638428
970.476078	2470.011629
970.774639	2475.408185
971.073162	2475.425829
971.371649	2472.605303
971.670098	2478.082517
971.968510	2475.486323
972.266885	2479.564616
972.565223	2482.942189
972.863524	2484.401603
973.161788	2487.030565
973.460014	2485.520739
973.758204	2488.003507
974.056356	2488.207674
974.354471	2488.379073
974.652550	2487.401090
974.950591	2486.481079
975.248595	2486.115595
975.546563	2489.029382
975.844493	2481.931438
976.142386	2481.326499
976.440243	2479.007568
976.738062	2479.771303
977.035845	2477.318782
977.333590	2474.281487
977.631299	2471.508852
977.928971	2471.130766
978.226606	2467.486011
978.524204	2466.898717
978.821765	2465.575414
979.119290	2464.630198
979.416777	2463.805969
979.714228	2467.226392
980.011642	2467.682616
980.309020	2472.007926
980.606360	2474.498256
980.903664	2483.584936
981.200931	2494.849394
981.498162	2518.144566
981.795356	2543.690613
982.092513	2582.462128
982.389633	2626.438633
982.686717	2671.544357
982.983764	2701.897145
983.280775	2718.676625
983.577749	2718.931203
983.874686	2710.474668
984.171587	2692.944055
984.468451	2680.333609
984.765279	2661.930877
985.062070	2642.146869
985.358824	2626.335290
985.655543	2603.657659
985.952224	2579.203022
986.248869	2553.402396
986.545478	2521.799403
986.842050	2506.194511
987.138586	2486.491161
987.435086	2470.893831
987.731549	2461.277830
988.027975	2458.540484
988.324366	2448.987497
988.620719	2445.677980
988.917037	2444.067331
989.213318	2440.563729
989.509563	2438.320416
989.805772	2438.401074
990.101944	2436.298913
990.398080	2434.229519
990.694180	2432.540733
990.990244	2432.616350
991.286271	2435.686413
991.582262	2435.066351
991.878217	2434.254725
992.174136	2435.036104
992.470019	2438.562391
992.765865	2438.650611
993.061676	2438.537185
993.357450	2441.070365
993.653188	2443.911055
993.948890	2451.356840
994.244556	2456.776080
994.540186	2467.279324
994.835780	2477.790130
995.131337	2493.947028
995.426859	2507.858092
995.722345	2528.854498
996.017795	2549.929041
996.313208	2559.323232
996.608586	2570.222206
996.903928	2574.701271
997.199234	2571.122052
997.494504	2568.994685
997.789738	2563.411607
998.084936	2550.788558
998.380099	2543.725902
998.675225	2529.106555
998.970316	2518.895698
999.265371	2501.793584
999.560390	2491.865031
999.855373	2474.236116
1000.150320	2468.196814
1000.445232	2459.200875
1000.740108	2453.300204
1001.034948	2447.059256
1001.329752	2441.660180
1001.624521	2439.915941
1001.919254	2428.331369
1002.213951	2431.542584
1002.508613	2425.657037
1002.803239	2426.014959
1003.097829	2419.612694
1003.392384	2424.285843
1003.686903	2422.529001
1003.981386	2421.051943
1004.275834	2418.062539
1004.570246	2421.062026
1004.864623	2420.346182
1005.158964	2417.243352
1005.453270	2416.998856
1005.747540	2417.434915
1006.041775	2416.222518
1006.335974	2415.907446
1006.630138	2416.182189
1006.924266	2417.296284
1007.218359	2415.383166
1007.512416	2415.781417
1007.806438	2413.122208
1008.100425	2414.601787
1008.394376	2412.287897
1008.688292	2412.600449
1008.982172	2414.029616
1009.276017	2413.228072
1009.569827	2412.638258
1009.863602	2412.222362
1010.157341	2412.779410
1010.451045	2412.678587
1010.744714	2410.485685
1011.038347	2413.210428
1011.331945	2413.114647
1011.625508	2412.683628
1011.919036	2409.943761
1012.212528	2406.684655
1012.505986	2410.576426
1012.799408	2409.593401
1013.092795	2408.297824
1013.386147	2410.442835
1013.679464	2405.411763
1013.972745	2408.237330
1014.265992	2407.382855
1014.559204	2408.254974
1014.852380	2407.246743
1015.145521	2409.069121
1015.438628	2407.324881
1015.731699	2408.444017
1016.024736	2407.350087
1016.317737	2409.134656
1016.610703	2410.760428
1016.903635	2406.107443
1017.196531	2405.988976
1017.489393	2407.592063
1017.782219	2405.192473
1018.075011	2411.007444
1018.367768	2409.545510
1018.660490	2409.936199
1018.953177	2409.936199
1019.245829	2409.936199
