Dividing Wavelength (nm)	Counts (n)	Blue Motor Position (mm): 13.800000	Red Motor Position (mm): 0.000000	
326.493990	1973.710033
326.888308	1973.710033
327.282561	1973.710033
327.676750	1951.423092
328.070874	1950.941662
328.464933	1956.048351
328.858929	1966.977572
329.252859	1977.987452
329.646726	1993.410862
330.040528	2010.374345
330.434265	2026.251459
330.827938	2048.251055
331.221547	2068.592110
331.615091	2090.064905
332.008571	2106.660384
332.401986	2128.957407
332.795338	2150.324338
333.188625	2168.888387
333.581847	2187.404545
333.975006	2207.352391
334.368100	2223.433671
334.761129	2238.904973
335.154095	2256.438106
335.546996	2289.238373
335.939833	2339.289469
336.332606	2355.297653
336.725315	2360.527850
337.117960	2371.920858
337.510540	2381.741026
337.903056	2390.530277
338.295508	2395.725186
338.687896	2406.296486
339.080220	2411.471230
339.472480	2414.145562
339.864676	2419.539597
340.256807	2421.273754
340.648875	2425.911616
341.040879	2429.516041
341.432818	2426.304826
341.824694	2429.563932
342.216506	2428.711977
342.608253	2426.904723
342.999937	2428.349013
343.391557	2425.369692
343.783113	2425.667120
344.174605	2421.238466
344.566033	2417.384504
344.957397	2420.588157
345.348697	2417.376942
345.739934	2416.346026
346.131106	2415.496592
346.522215	2410.510891
346.913260	2410.795716
347.304241	2409.661456
347.695159	2408.990983
348.086012	2405.331105
348.476802	2401.514952
348.867528	2403.690209
349.258191	2398.102090
349.648789	2402.472771
350.039324	2397.023283
350.429796	2398.825496
350.820203	2397.655948
351.210548	2396.690567
351.600828	2395.339538
351.991045	2397.562687
352.381198	2394.873231
352.771288	2396.491442
353.161314	2397.673592
353.551276	2392.907181
353.941175	2392.012377
354.331010	2394.527912
354.720782	2399.407749
355.110490	2399.059910
355.500135	2393.817110
355.889717	2396.995557
356.279235	2392.433313
356.668689	2399.125445
357.058080	2392.934908
357.447408	2394.646379
357.836672	2394.301060
358.225873	2394.260731
358.615010	2391.883827
359.004084	2398.820455
359.393095	2401.648542
359.782043	2402.235837
360.170927	2400.554612
360.559748	2399.425393
360.948505	2403.201217
361.337199	2400.504200
361.725830	2401.000754
362.114398	2403.702812
362.502903	2403.483522
362.891344	2403.667524
363.279722	2404.022926
363.668037	2403.586866
364.056289	2405.820097
364.444478	2407.057700
364.832603	2406.649367
365.220665	2406.314130
365.608665	2405.736918
365.996601	2405.462175
366.384474	2403.596948
366.772284	2406.939233
367.160031	2404.902607
367.547715	2407.138359
367.935336	2409.406878
368.322893	2407.299676
368.710388	2409.888308
369.097820	2411.098185
369.485189	2407.869326
369.872495	2409.585839
370.259738	2410.551220
370.646918	2411.246899
371.034035	2409.449728
371.421090	2410.266395
371.808081	2410.979718
372.195010	2409.099367
372.581875	2411.380490
372.968678	2409.222876
373.355418	2412.098854
373.742096	2408.733884
374.128710	2414.037178
374.515262	2411.811508
374.901751	2413.810326
375.288177	2414.412744
375.674540	2413.422157
376.060841	2418.002045
376.447079	2416.550193
376.833254	2411.171282
377.219367	2408.933009
377.605417	2412.507188
377.991404	2410.901580
378.377329	2412.590367
378.763191	2411.670356
379.148991	2416.956006
379.534727	2414.556417
379.920402	2417.381983
380.306013	2413.003741
380.691563	2417.654206
381.077049	2417.722261
381.462474	2416.076324
381.847835	2416.335944
382.233134	2419.411048
382.618371	2417.787796
383.003545	2418.453228
383.388657	2417.974319
383.773706	2418.022210
384.158693	2419.373239
384.543618	2418.092786
384.928480	2421.225863
385.313280	2419.040523
385.698017	2418.458270
386.082692	2422.234094
386.467305	2419.912642
386.851856	2421.798034
387.236344	2418.443146
387.620770	2422.188723
388.005133	2423.292736
388.389435	2423.872469
388.773674	2419.713517
389.157851	2424.616039
389.541965	2423.960689
389.926018	2421.808116
390.310008	2423.950607
390.693936	2423.171748
391.077802	2422.594536
391.461606	2422.657551
391.845348	2422.012283
392.229027	2422.609660
392.612645	2423.683426
392.996200	2425.815834
393.379694	2425.609146
393.763125	2424.658889
394.146494	2424.394228
394.529801	2424.578230
394.913047	2424.512695
395.296230	2427.504620
395.679351	2423.378436
396.062410	2427.973447
396.445408	2426.798859
396.828343	2428.651483
397.211217	2424.875658
397.594028	2426.667789
397.976778	2423.411203
398.359466	2427.282809
398.742092	2421.795513
399.124656	2430.746082
399.507158	2428.656524
399.889598	2428.815320
400.271977	2428.495207
400.654294	2428.878335
401.036549	2428.754826
401.418742	2426.108221
401.800874	2427.673499
402.182944	2430.055444
402.564952	2431.363623
402.946898	2432.117276
403.328783	2429.417738
403.710606	2429.236257
404.092367	2431.378747
404.474067	2434.068203
404.855705	2430.607450
405.237282	2432.114755
405.618797	2431.824889
406.000250	2434.297575
406.381642	2432.258428
406.762972	2432.969231
407.144240	2433.186001
407.525447	2433.440579
407.906593	2432.041659
408.287677	2432.898655
408.668700	2433.992585
409.049661	2434.272369
409.430560	2434.322781
409.811399	2435.192380
410.192176	2433.763213
410.572891	2434.186670
410.953545	2435.822524
411.334138	2432.984354
411.714669	2432.414704
412.095139	2435.855292
412.475547	2436.588779
412.855894	2434.244643
413.236180	2434.776485
413.616405	2436.671958
413.996568	2433.077616
414.376670	2436.692123
414.756711	2437.476023
415.136691	2439.328647
415.516609	2433.170877
415.896466	2436.992072
416.276262	2436.631629
416.655997	2432.109714
417.035670	2430.912440
417.415283	2437.712957
417.794834	2432.717173
418.174324	2438.406115
418.553753	2436.233378
418.933121	2435.855292
419.312428	2435.462082
419.691674	2437.229006
420.070859	2439.865529
420.449983	2440.803184
420.829045	2436.712288
421.208047	2437.584407
421.586988	2441.229162
421.965867	2436.245981
422.344686	2438.443924
422.723444	2439.545416
423.102141	2436.931578
423.480777	2438.511980
423.859352	2438.741352
424.237866	2440.034408
424.616319	2439.827721
424.994712	2439.648760
425.373044	2439.792433
425.751314	2438.600200
426.129524	2440.137752
426.507673	2439.835283
426.885762	2442.602876
427.263789	2438.988369
427.641756	2443.487598
428.019662	2440.621702
428.397508	2437.017277
428.775292	2441.095571
429.153016	2442.139090
429.530679	2440.677155
429.908282	2439.754624
430.285824	2444.195881
430.663305	2438.827052
431.040726	2441.148503
431.418086	2442.136569
431.795385	2441.544234
432.172624	2441.408123
432.549802	2440.132711
432.926920	2443.724533
433.303977	2443.810232
433.680974	2442.701178
434.057910	2444.211004
434.434786	2442.554985
434.811601	2446.071190
435.188355	2443.679162
435.565050	2444.561364
435.941683	2444.034564
436.318257	2445.120932
436.694770	2439.953750
437.071222	2443.071703
437.447614	2441.607248
437.823946	2444.258895
438.200218	2444.435335
438.576429	2442.771755
438.952580	2445.357867
439.328670	2446.519852
439.704700	2443.434666
440.080670	2445.685542
440.456580	2445.546910
440.832429	2443.585901
441.208218	2444.735284
441.583947	2448.369956
441.959616	2446.963474
442.335224	2446.035902
442.710773	2445.347784
443.086261	2446.298042
443.461689	2448.899277
443.837057	2446.184616
444.212365	2448.901798
444.587612	2448.201077
444.962800	2448.397682
445.337927	2449.768876
445.712995	2446.103957
446.088002	2449.526901
446.462949	2446.545058
446.837837	2448.816098
447.212664	2449.990687
447.587431	2452.523867
447.962139	2455.845987
448.336786	2453.932869
448.711374	2453.322890
449.085901	2457.486883
449.460369	2450.749381
449.834776	2453.327931
450.209124	2455.414968
450.583412	2455.969495
450.957640	2453.370781
451.331808	2454.885647
451.705917	2454.542849
452.079965	2456.372788
452.453954	2455.679629
452.827883	2455.593929
453.201752	2455.954372
453.575562	2455.959413
453.949311	2459.246245
454.323001	2457.990998
454.696632	2458.210288
455.070202	2461.106431
455.443713	2457.925463
455.817164	2458.479990
456.190556	2459.233642
456.563888	2458.152315
456.937160	2456.309773
457.310373	2458.215329
457.683526	2460.004939
458.056619	2462.240691
458.429653	2460.728345
458.802628	2462.419652
459.175542	2460.952676
459.548398	2461.061061
459.921194	2465.703963
460.293930	2467.692699
460.666607	2465.590537
461.039224	2468.403501
461.411782	2470.629171
461.784280	2468.085909
462.156719	2470.288893
462.529099	2467.438120
462.901419	2467.445682
463.273680	2467.060034
463.645882	2465.255301
464.018024	2467.677575
464.390106	2467.743110
464.762130	2472.408698
465.134094	2476.963381
465.505999	2482.405306
465.877845	2483.627786
466.249631	2485.664412
466.621358	2484.913280
466.993026	2486.997797
467.364634	2484.000831
467.736184	2477.797692
468.107674	2479.231900
468.479105	2476.875160
468.850477	2477.588484
469.221790	2476.928093
469.593043	2473.031281
469.964238	2474.026908
470.335373	2474.707464
470.706449	2477.802733
471.077467	2481.477734
471.448425	2487.670791
471.819324	2485.364463
472.190164	2489.543580
472.560945	2483.113588
472.931667	2479.078145
473.302330	2478.216107
473.672934	2478.218628
474.043479	2479.841879
474.413965	2476.224852
474.784393	2474.019347
475.154761	2477.371714
475.525070	2474.536065
475.895321	2478.495891
476.265513	2472.678400
476.635645	2479.826756
477.005719	2481.979329
477.375734	2481.195429
477.745691	2482.841366
478.115588	2488.800010
478.485427	2484.056284
478.855207	2492.258241
479.224928	2495.391318
479.594591	2494.400732
479.964194	2494.625063
480.333739	2497.800990
480.703226	2497.685043
481.072653	2499.827534
481.442022	2500.195538
481.811333	2502.267452
482.180584	2503.197545
482.549777	2503.870539
482.918912	2501.602020
483.287988	2504.651918
483.657005	2503.154695
484.025964	2500.069509
484.394864	2504.485560
484.763706	2506.484377
485.132489	2505.766013
485.501213	2505.813904
485.869879	2507.888339
486.238487	2511.810357
486.607036	2510.058556
486.975527	2508.997393
487.343959	2511.767507
487.712333	2514.240193
488.080648	2512.604338
488.448905	2517.148938
488.817104	2517.882426
489.185244	2524.241842
489.553326	2528.249559
489.921350	2534.974458
490.289315	2543.612476
490.657222	2550.511295
491.025070	2552.134546
491.392861	2549.601366
491.760593	2552.794937
492.128267	2550.118085
492.495883	2550.531459
492.863440	2545.886036
493.230939	2550.390307
493.598380	2547.448794
493.965763	2548.124308
494.333088	2548.756973
494.700354	2544.754297
495.067563	2553.299053
495.434713	2551.905174
495.801805	2556.986657
496.168839	2560.076884
496.535815	2562.920095
496.902733	2564.079560
497.269593	2567.063923
497.636395	2571.048955
498.003139	2570.834706
498.369825	2576.959708
498.736453	2579.316448
499.103023	2581.973136
499.469535	2582.255440
499.835989	2583.732498
500.202385	2587.599063
500.568723	2592.562079
500.935003	2592.935125
501.301226	2595.110383
501.667390	2602.599017
502.033497	2608.645881
502.399546	2605.979110
502.765537	2608.350973
503.131470	2609.490274
503.497345	2617.319186
503.863163	2613.936572
504.228923	2620.157356
504.594625	2625.085083
504.960269	2625.589199
505.325856	2630.801752
505.691385	2630.794190
506.056856	2634.219654
506.422270	2637.834162
506.787625	2641.241982
507.152924	2647.107364
507.518164	2650.893271
507.883347	2646.378917
508.248472	2651.001655
508.613540	2659.680002
508.978550	2663.531443
509.343503	2661.925836
509.708398	2669.442196
510.073236	2675.176509
510.438016	2675.768844
510.802738	2675.728515
511.167403	2680.978877
511.532010	2689.402645
511.896561	2691.214940
512.261053	2703.666590
512.625488	2696.848429
512.989866	2696.228367
513.354186	2702.171887
513.718449	2702.121476
514.082655	2713.370811
514.446803	2715.417519
514.810894	2720.955227
515.174927	2725.083932
515.538904	2725.845146
515.902822	2729.925960
516.266684	2734.021897
516.630488	2735.889645
516.994235	2737.338977
517.357925	2746.889443
517.721558	2750.723240
518.085133	2753.523601
518.448651	2756.911257
518.812112	2759.935949
519.175516	2759.759508
519.538863	2766.386105
519.902152	2766.842330
520.265385	2774.925820
520.628560	2776.849020
520.991678	2773.776437
521.354739	2782.553086
521.717743	2786.996863
522.080690	2787.548869
522.443580	2795.055147
522.806413	2798.278965
523.169189	2799.521609
523.531908	2806.211221
523.894569	2807.385809
524.257174	2813.231027
524.619722	2815.320586
524.982213	2819.887871
525.344647	2818.763694
525.707025	2822.791576
526.069345	2830.711228
526.431608	2832.886486
526.793815	2838.489729
527.155964	2838.603155
527.518057	2844.135821
527.880093	2847.203363
528.242072	2851.833663
528.603995	2851.082531
528.965860	2855.922039
529.327669	2862.392360
529.689421	2864.222298
530.051117	2869.036600
530.412755	2871.249667
530.774337	2877.949360
531.135862	2879.517159
531.497331	2884.623848
531.858743	2883.688714
532.220098	2895.056516
532.581396	2894.917884
532.942638	2899.323853
533.303824	2908.365162
533.664953	2914.825401
534.026025	2915.495874
534.387040	2926.271341
534.747999	2934.430448
535.108902	2941.934206
535.469748	2945.105091
535.830537	2949.652212
536.191270	2959.159828
536.551947	2963.729634
536.912567	2972.665079
537.273131	2983.291832
537.633638	2984.612614
537.994089	2995.819099
538.354483	3001.916375
538.714821	3017.024713
539.075103	3029.516692
539.435328	3037.915254
539.795497	3046.286090
540.155609	3059.166238
540.515665	3074.201480
540.875665	3078.957808
541.235609	3094.855087
541.595496	3107.463013
541.955328	3127.748616
542.315102	3130.506127
542.674821	3141.707571
543.034483	3155.154849
543.394090	3168.375275
543.753640	3185.426977
544.113134	3215.827656
544.472571	3212.351780
544.831953	3255.304932
545.191278	3259.297525
545.550548	3269.054679
545.909761	3300.055254
546.268918	3322.294304
546.628019	3346.229703
546.987064	3358.000797
547.346053	3366.976572
547.704986	3405.150709
548.063863	3416.694951
548.422684	3443.501287
548.781449	3462.370326
549.140158	3497.131602
549.498811	3523.569933
549.857408	3536.150133
550.215949	3580.681165
550.574434	3609.491360
550.932864	3635.244094
551.291237	3678.897966
551.649555	3704.393601
552.007817	3744.823655
552.366022	3768.501955
552.724173	3807.081905
553.082267	3854.562013
553.440305	3901.021287
553.798288	3918.317485
554.156215	3967.486379
554.514086	4020.385727
554.871902	4050.665418
555.229661	4097.548149
555.587365	4135.389570
555.945014	4186.249771
556.302606	4229.618818
556.660143	4287.851706
557.017625	4339.122762
557.375050	4385.249319
557.732421	4447.363896
558.089735	4502.932535
558.446994	4549.873239
558.804197	4630.919870
559.161345	4679.440975
559.518437	4704.281261
559.875474	4776.810862
560.232455	4844.203527
560.589381	4913.955452
560.946251	4960.583605
561.303065	5065.696704
561.659825	5120.574704
562.016528	5167.250748
562.373177	5219.106577
562.729770	5314.689374
563.086307	5355.288307
563.442789	5459.297393
563.799216	5539.318149
564.155587	5600.028764
564.511904	5677.365106
564.868164	5767.831132
565.224370	5859.207087
565.580520	5929.233755
565.936615	6028.022726
566.292654	6092.647798
566.648638	6202.250044
567.004567	6288.746162
567.360441	6379.718824
567.716260	6457.138344
568.072023	6581.667447
568.427732	6679.107910
568.783385	6731.046918
569.138982	6864.675303
569.494525	6968.712116
569.850013	7045.345216
570.205445	7145.162583
570.560823	7251.266268
570.916145	7341.142480
571.271412	7452.095755
571.626625	7537.881070
571.981782	7652.978174
572.336884	7727.052889
572.691931	7876.558389
573.046923	7944.518184
573.401860	8042.125004
573.756743	8153.156418
574.111570	8285.368239
574.466342	8376.998772
574.821059	8514.680245
575.175722	8571.037825
575.530330	8685.184671
575.884882	8767.786498
576.239380	8883.334785
576.593823	9001.118824
576.948211	9119.732133
577.302544	9165.019338
577.656823	9298.622518
578.011047	9467.274320
578.365216	9556.346468
578.719330	9654.119646
579.073389	9757.554041
579.427394	9909.214634
579.781344	10039.593996
580.135239	10111.972362
580.489080	10268.338872
580.842866	10320.280401
581.196597	10540.644359
581.550273	10672.818372
581.903895	10799.706734
582.257463	11032.252641
582.610975	11052.893645
582.964434	11263.659246
583.317837	11344.012718
583.671186	11450.532299
584.024481	11651.293730
584.377721	11692.885770
584.730906	11909.582289
585.084037	12069.212946
585.437113	12147.567600
585.790135	12306.898308
586.143103	12365.383255
586.496016	12554.474415
586.848874	12714.349568
587.201679	12878.154301
587.554428	12907.614804
587.907124	13122.597330
588.259765	13226.462743
588.612352	13455.958752
588.964884	13453.753247
589.317362	13688.650851
589.669786	13837.309437
590.022155	13936.637812
590.374470	14209.921283
590.726731	14234.423811
591.078937	14245.252209
591.431090	14431.328759
591.783188	14484.959075
592.135232	14538.773392
592.487222	14774.938847
592.839157	14970.928826
593.191038	15021.216856
593.542866	15104.988230
593.894639	15064.517847
594.246358	15308.819724
594.598022	15472.400125
594.949633	15493.391490
595.301190	15629.227901
595.652692	15728.768004
596.004141	16001.585168
596.355535	15812.060469
596.706876	15945.454441
597.058162	16034.231680
597.409395	16356.474837
597.760573	16553.765434
598.111698	16561.238945
598.462768	16705.564659
598.813785	16893.375366
599.164748	16840.004670
599.515657	17150.968245
599.866511	17090.524810
600.217312	17507.942431
600.568060	17242.513078
600.918753	17710.596816
601.269392	17866.282770
601.619978	17875.820633
601.970510	18136.665057
602.320988	18368.328761
602.671412	18662.404471
603.021783	18715.996977
603.372100	18719.619046
603.722363	18927.117980
604.072572	19114.956413
604.422728	19286.867321
604.772830	19345.417802
605.122878	19548.208298
605.472872	19682.867600
605.822813	19977.381890
606.172701	20057.949610
606.522534	20321.937193
606.872314	20609.013261
607.222041	20660.112917
607.571714	21008.408757
607.921333	20883.216742
608.270899	21185.814522
608.620411	21510.129593
608.969870	21571.460271
609.319276	21732.290723
609.668627	21921.023961
610.017926	22325.503460
610.367171	22567.846849
610.716362	22775.103807
611.065500	22911.628336
611.414585	23170.526874
611.763616	23496.336647
612.112594	23616.522796
612.461518	23889.705443
612.810389	24222.456885
613.159207	24294.850375
613.507971	24493.403781
613.856682	24924.603916
614.205340	25018.644121
614.553945	25572.891260
614.902496	25410.760190
615.250994	25832.664438
615.599439	26024.155187
615.947830	26320.640568
616.296169	26514.926638
616.644454	26746.663439
616.992686	26998.615267
617.340864	27474.081774
617.688990	27454.141490
618.037063	27980.828641
618.385082	28117.723694
618.733048	28457.701630
619.080961	28603.698487
619.428821	28771.276523
619.776628	28983.670417
620.124382	29006.363171
620.472083	29242.863862
620.819731	29468.755446
621.167326	29382.869308
621.514868	29516.348979
621.862357	29371.451094
622.209793	29524.676965
622.557176	29428.801781
622.904506	29400.362112
623.251783	29290.132242
623.599007	29276.362330
623.946179	29250.223947
624.293297	29352.224133
624.640363	29059.217148
624.987376	29188.245481
625.334336	29146.446754
625.681243	29021.917651
626.028097	29123.433887
626.374899	29119.758886
626.721647	29236.529653
627.068343	29278.540108
627.414987	29225.015657
627.761577	29167.322172
628.108115	29526.932882
628.454600	29233.237779
628.801032	29482.777415
629.147412	29557.482274
629.493739	29673.456539
629.840014	29524.127480
630.186236	29893.843182
630.532405	29695.713233
630.878521	29964.421857
631.224585	29951.203951
631.570597	29838.108185
631.916556	30062.699151
632.262462	30127.788009
632.608316	30225.631764
632.954117	30247.969116
633.299866	30335.934730
633.645562	30363.174605
633.991206	30087.526833
634.336797	29866.946106
634.682336	29957.268459
635.027823	29846.577324
635.373257	29815.135647
635.718639	29717.672499
636.063968	29697.094509
636.409245	29326.690689
636.754470	29460.291348
637.099642	29373.679284
637.444762	29059.118846
637.789829	29260.066800
638.134845	29068.346678
638.479808	29099.954713
638.824719	29109.011146
639.169577	28875.474652
639.514383	28996.858075
639.859137	28833.713734
640.203839	29105.520147
640.548489	28887.835562
640.893086	29004.639096
641.237632	28869.362253
641.582125	29049.349090
641.926566	29050.425376
642.270955	29095.460524
642.615292	29176.129068
642.959576	29233.240300
643.303809	29310.947166
643.647990	29480.690377
643.992118	29523.726708
644.336195	29575.643031
644.680219	29720.490504
645.024192	30036.255778
645.368112	30500.331798
645.711981	30580.173593
646.055797	31375.125746
646.399562	31363.279034
646.743274	32204.486294
647.086935	32629.589154
647.430544	32590.217743
647.774101	32749.424943
648.117606	33020.880995
648.461059	33347.429297
648.804460	33066.299271
649.147810	32613.079375
649.491108	32472.695844
649.834354	32215.723026
650.177548	31564.030383
650.520690	31224.138147
650.863781	31305.583029
651.206820	31225.884907
651.549807	30899.495401
651.892742	30541.523067
652.235626	30439.679156
652.578458	30361.453051
652.921238	29883.576872
653.263967	30205.857838
653.606644	29970.733381
653.949269	29997.650622
654.291843	29668.488482
654.634365	30073.136860
654.976836	29763.927606
655.319255	29804.420675
655.661622	29853.332470
656.003938	29695.224241
656.346203	29623.062644
656.688416	29852.349445
657.030577	29723.689116
657.372687	29603.215622
657.714746	29888.315557
658.056753	30022.022080
658.398708	29580.638814
658.740612	29672.750777
659.082465	29944.012745
659.424266	29841.833598
659.766016	29976.669340
660.107715	29898.876774
660.449362	30044.626614
660.790958	30066.588401
661.132503	30107.963671
661.473996	30174.837097
661.815438	30305.226542
662.156829	30501.307262
662.498168	30342.679794
662.839456	30405.737067
663.180693	30560.513093
663.521879	30741.170403
663.863013	30737.964229
664.204097	30742.902039
664.545129	31213.219008
664.886110	31205.876567
665.227040	31284.687446
665.567918	31426.051482
665.908746	31514.745543
666.249522	31698.251105
666.590248	31711.244679
666.930922	31848.943796
667.271545	31843.378362
667.612118	31935.081992
667.952639	31770.271549
668.293109	31835.940140
668.633528	31769.558226
668.973896	31741.778947
669.314213	31789.773253
669.654480	31593.347214
669.994695	31622.565741
670.334859	31563.914437
670.674973	31494.243170
671.015035	31661.841371
671.355047	31644.124236
671.695008	31624.463736
672.034918	31546.593032
672.374777	31651.300318
672.714585	31510.853772
673.054342	31757.585485
673.394049	31546.151931
673.733705	31820.698211
674.073310	31542.227393
674.412864	31627.548922
674.752368	31265.566349
675.091820	31571.466085
675.431223	31193.929033
675.770574	30975.084983
676.109875	30867.965504
676.449125	30613.833377
676.788324	30569.395606
677.127473	30083.516596
677.466571	30038.844411
677.805619	29731.596166
678.144616	29754.407387
678.483562	29700.028461
678.822458	29407.339068
679.161303	29359.445586
679.500098	29286.152251
679.838842	29198.804178
680.177535	29371.937566
680.516179	29648.815379
680.854771	29897.742515
681.193314	30720.499152
681.531805	31780.794958
681.870247	32539.138251
682.208638	33239.125148
682.546978	33474.748679
682.885268	33571.987495
683.223508	33074.516352
683.561697	32782.893163
683.899836	32614.621968
684.237925	32138.220327
684.575963	32019.428057
684.913951	31587.290267
685.251889	31756.320156
685.589776	31769.066713
685.927614	31748.738260
686.265401	31896.796949
686.603137	32001.836951
686.940824	32496.525378
687.278460	32863.410473
687.616046	33020.369318
687.953582	33587.229424
688.291068	33466.468584
688.628504	33744.069802
688.965889	33693.706155
689.303224	33342.098277
689.640510	33032.699980
689.977745	32341.260360
690.314930	31577.674266
690.652065	31100.345053
690.989150	30411.665464
691.326185	29570.112885
691.663170	28899.430216
692.000105	28178.025977
692.336990	27553.817705
692.673825	27136.972255
693.010610	26640.872305
693.347345	26096.974655
693.684030	25489.379505
694.020665	25229.099691
694.357251	24593.140489
694.693786	24562.717126
695.030272	24339.545245
695.366707	23809.697290
695.703093	23553.752868
696.039429	23546.521333
696.375716	23297.241317
696.711952	23270.883644
697.048139	23135.258961
697.384276	22972.719558
697.720363	23091.993258
698.056400	22882.835785
698.392388	22692.489378
698.728326	22664.016941
699.064214	22470.229946
699.400053	22430.553545
699.735842	22093.532245
700.071581	21823.946461
700.407270	21560.803272
700.742910	21382.921117
701.078501	21119.987135
701.414042	20854.257834
701.749533	20571.963301
702.084974	20241.480378
702.420366	20448.187850
702.755709	20025.245125
703.091002	19751.777652
703.426246	19780.812178
703.761440	19667.620630
704.096584	19414.169058
704.431679	19382.389625
704.766725	19296.939546
705.101721	19243.228573
705.436668	19335.579991
705.771565	19026.325367
706.106413	19362.782057
706.441212	19353.738227
706.775961	19483.799996
707.110661	19563.722449
707.445311	19913.674308
707.779913	19760.561863
708.114465	20003.122021
708.448967	20289.220105
708.783421	20965.213630
709.117825	21235.046431
709.452180	21445.149120
709.786485	21844.867250
710.120742	22627.718113
710.454949	22635.899905
710.789107	23106.695784
711.123216	23794.679693
711.457275	23907.740171
711.791286	24434.911273
712.125247	24501.429298
712.459159	24200.880747
712.793023	24847.779252
713.126837	23779.289050
713.460602	24023.026318
713.794318	23661.820083
714.127985	23280.794552
714.461602	22409.315163
714.795171	22379.658055
715.128691	21392.370760
715.462162	20865.151767
715.795584	20473.436469
716.128957	20204.992506
716.462281	19814.913063
716.795556	19580.645603
717.128782	19114.399366
717.461960	18579.734589
717.795088	18490.216299
718.128167	18096.539992
718.461198	17653.394843
718.794180	17514.372423
719.127113	17157.045356
719.459997	16981.262842
719.792833	16633.440871
720.125619	16604.328207
720.458357	16304.266127
720.791046	16134.437216
721.123686	15980.465254
721.456278	15754.346819
721.788821	15706.977617
722.121315	15458.552076
722.453761	15535.724579
722.786158	15452.530417
723.118506	15460.714731
723.450805	15333.773436
723.783056	15496.834598
724.115259	15393.836263
724.447412	15331.903168
724.779518	15575.219499
725.111574	15594.948055
725.443582	15787.346212
725.775542	15769.210661
726.107453	16225.561113
726.439315	16118.277797
726.771129	16509.657858
727.102895	16873.326697
727.434612	17071.696101
727.766281	17190.153134
728.097901	17443.914736
728.429473	17486.784708
728.760996	17466.131101
729.092471	17550.368782
729.423897	17434.742357
729.755276	17306.288716
730.086606	17416.274090
730.417887	17931.585877
730.749120	18445.498744
731.080305	18626.521537
731.411442	18947.839642
731.742530	19014.158542
732.073570	19115.566393
732.404562	19417.158463
732.735506	19230.287931
733.066401	18939.829249
733.397249	18425.376978
733.728048	17797.229045
734.058798	16989.220303
734.389501	16308.397353
734.720156	15861.713313
735.050762	15350.595766
735.381320	14995.164173
735.711831	14765.489204
736.042293	14419.575309
736.372707	14427.217698
736.703073	14224.807810
737.033391	14405.094595
737.363661	14371.109656
737.693883	14477.349453
738.024056	14649.814888
738.354182	14838.754813
738.684260	15109.283293
739.014290	15340.742831
739.344272	15517.258833
739.674207	15792.626821
740.004093	15898.554066
740.333931	15894.826133
740.663722	15929.844508
740.993464	15931.518171
741.323159	15761.328817
741.652806	15479.873636
741.982405	15279.626402
742.311956	14942.668117
742.641460	14831.853474
742.970915	14517.262788
743.300323	14198.485425
743.629683	13980.082476
743.958996	13711.487278
744.288260	13441.382255
744.617477	13135.749700
744.946647	13068.359556
745.275768	12794.355200
745.604842	12624.831279
745.933869	12464.646095
746.262847	12406.478741
746.591778	12332.174654
746.920662	12233.171433
747.249498	12233.264695
747.578286	12350.857170
747.907027	12487.253149
748.235720	12711.471069
748.564365	12737.354874
748.892963	12645.409269
749.221514	12694.759644
749.550017	12557.204200
749.878473	12511.075122
750.206881	12304.690283
750.535242	12213.074874
750.863555	12130.470527
751.191821	12033.882019
751.520039	12059.329764
751.848210	11969.635034
752.176334	11995.685196
752.504411	11903.616083
752.832440	11753.765264
753.160421	11810.077473
753.488356	11687.254801
753.816243	11595.387334
754.144082	11467.899074
754.471875	11405.358519
754.799620	11343.196051
755.127318	11323.467496
755.454969	11285.250508
755.782572	11238.377860
756.110129	11254.562484
756.437638	11164.376242
756.765100	11156.809470
757.092515	11161.858186
757.419882	11175.325628
757.747203	11181.153202
758.074477	11257.468709
758.401703	11210.142357
758.728882	11378.680733
759.056014	11415.967627
759.383099	11529.315451
759.710138	11628.210287
760.037129	11701.977491
760.364073	11724.027498
760.690970	11710.630632
761.017820	11712.541229
761.344623	11894.799105
761.671379	12212.190151
761.998088	12837.774658
762.324751	14374.353639
762.651366	17203.630659
762.977935	20827.801858
763.304456	23005.257686
763.630931	23474.301763
763.957359	22292.090692
764.283740	20408.629916
764.610074	18549.727120
764.936362	16455.606607
765.262602	14963.843484
765.588796	13499.753776
765.914943	12490.517296
766.241044	11660.042653
766.567097	11035.395800
766.893104	10491.732564
767.219064	10139.242484
767.544978	9762.418754
767.870845	9450.744377
768.196665	9262.840408
768.522438	9073.887880
768.848165	8914.186647
769.173846	8747.074917
769.499479	8625.482286
769.825066	8474.222465
770.150607	8295.626987
770.476101	8230.107111
770.801548	8124.918395
771.126949	7979.556723
771.452303	7891.155050
771.777611	7729.739824
772.102872	7709.781896
772.428087	7592.832168
772.753256	7466.354659
773.078378	7381.141515
773.403453	7241.577171
773.728482	7143.662840
774.053465	7081.437357
774.378401	6995.160530
774.703291	6899.615541
775.028135	6806.490306
775.352932	6772.903618
775.677683	6688.209713
776.002388	6606.666529
776.327046	6601.143945
776.651658	6513.276633
776.976224	6443.867507
777.300743	6429.187667
777.625216	6355.672520
777.949643	6316.059133
778.274024	6325.140772
778.598359	6255.149392
778.922647	6259.547799
779.246889	6222.540688
779.571086	6227.647377
779.895236	6235.811526
780.219339	6233.495116
780.543397	6233.671556
780.867409	6284.703156
781.191374	6277.358195
781.515294	6246.287043
781.839167	6296.512059
782.162995	6268.924345
782.486776	6212.226487
782.810511	6177.969327
783.134201	6106.916784
783.457844	6090.059165
783.781441	6043.012597
784.104993	6004.407441
784.428498	5978.851311
784.751958	5956.231654
785.075372	5932.051760
785.398739	5893.544906
785.722061	5917.828144
786.045337	5916.141878
786.368568	6025.003075
786.691752	6046.281785
787.014891	6293.227747
787.337983	6571.128915
787.661030	7001.814853
787.984031	7423.338493
788.306987	7684.109820
788.629897	7765.012777
788.952760	7677.452976
789.275579	7498.595358
789.598351	7210.087603
789.921078	6948.444157
790.243759	6674.331417
790.566395	6468.793492
790.888984	6277.592609
791.211529	6141.665457
791.534027	5980.063709
791.856480	5843.501372
792.178888	5785.878463
792.501249	5720.938319
792.823566	5617.095591
793.145836	5611.147029
793.468062	5597.697231
793.790241	5554.701230
794.112375	5595.587508
794.434464	5691.026632
794.756507	5720.255242
795.078505	5844.980950
795.400457	6054.657662
795.722364	6288.937726
796.044226	6480.342775
796.366042	6636.568133
796.687812	6581.634680
797.009538	6619.037521
797.331218	6521.160998
797.652852	6454.010308
797.974442	6334.487071
798.295986	6268.006855
798.617484	6137.246886
798.938938	6033.794847
799.260346	5963.869002
799.581709	5827.513352
799.903026	5774.876144
800.224299	5701.721440
800.545526	5589.863278
800.866708	5525.276015
801.187845	5476.812882
801.508936	5401.135081
801.829983	5373.176841
802.150984	5267.448722
802.471940	5239.198096
802.792851	5222.645467
803.113717	5199.103278
803.434538	5177.144012
803.755314	5148.593438
804.076045	5135.758660
804.396731	5098.416313
804.717372	5115.200834
805.037967	5116.254436
805.358518	5142.715452
805.679024	5199.428433
805.999485	5212.545515
806.319901	5231.517898
806.640272	5252.312657
806.960598	5294.078617
807.280879	5288.268687
807.601115	5323.922248
807.921306	5287.623419
808.241453	5281.412718
808.561554	5299.132374
808.881611	5258.798102
809.201623	5257.994038
809.521590	5203.746181
809.841513	5191.382751
810.161390	5209.450247
810.481223	5114.691678
810.801011	5106.948466
811.120755	5081.767902
811.440453	5026.438718
811.760107	4996.579964
812.079716	4973.693125
812.399281	4920.178757
812.718801	4920.660187
813.038276	4881.631574
813.357707	4853.010423
813.677093	4872.610429
813.996434	4811.824196
814.315731	4830.436136
814.634983	4831.693904
814.954191	4834.287577
815.273354	4892.001227
815.592473	4933.129481
815.911547	5003.456098
816.230577	5058.397113
816.549562	5147.176873
816.868502	5195.781158
817.187399	5245.751596
817.506250	5330.634544
817.825058	5352.208162
818.143821	5508.746071
818.462539	5675.444426
818.781213	5896.705709
819.099843	6257.702736
819.418429	6875.995214
819.736970	7488.114800
820.055466	8191.214609
820.373919	9091.100900
820.692327	10528.664057
821.010691	13195.499976
821.329011	19354.607826
821.647286	28845.671351
821.965517	39081.656098
822.283704	44479.534593
822.601847	45912.467450
822.919945	41356.882584
823.237999	36288.758564
823.556010	31122.702570
823.873976	26478.579918
824.191897	22317.364517
824.509775	19285.992681
824.827609	16559.288018
825.145398	15013.047666
825.463144	14273.054173
825.780845	14564.954624
826.098502	15810.790098
826.416116	18241.909225
826.733685	20498.387660
827.051210	21002.563539
827.368692	19590.470811
827.686129	17057.674131
828.003522	14605.656901
828.320872	12408.134760
828.638177	10789.374890
828.955439	9561.629597
829.272656	8519.360957
829.589830	7685.375150
829.906960	6968.878474
830.224046	6441.636796
830.541088	6037.812647
830.858086	5781.515344
831.175041	5582.601496
831.491952	5524.343401
831.808819	5560.861520
832.125642	5797.969670
832.442421	6343.051992
832.759157	7432.341994
833.075849	9188.445580
833.392497	11012.400577
833.709101	12103.754932
834.025662	11860.927592
834.342179	10812.728035
834.658653	9520.571919
834.975083	8429.711597
835.291469	7538.967439
835.607811	6817.689229
835.924110	6300.318130
836.240366	5823.714843
836.556578	5379.243870
836.872746	5028.329151
837.188871	4760.268316
837.504952	4541.431827
837.820990	4377.082650
838.136984	4265.216926
838.452935	4217.240264
838.768842	4244.351590
839.084706	4524.299466
839.400526	5254.424901
839.716303	6145.108565
840.032037	6703.370983
840.347727	6562.735394
840.663373	5966.268591
840.978977	5396.046036
841.294537	4962.519408
841.610054	4635.784583
841.925527	4399.137698
842.240957	4197.920042
842.556344	4016.118391
842.871687	3860.344216
843.186987	3712.366186
843.502244	3595.822271
843.817458	3505.255422
844.132629	3438.853343
844.447756	3390.370046
844.762840	3348.309179
845.077881	3307.319557
845.392879	3273.624485
845.707833	3251.224117
846.022745	3224.783266
846.337613	3212.684496
846.652438	3188.912935
846.967221	3182.089734
847.281960	3161.821775
847.596656	3151.472286
847.911309	3139.849906
848.225919	3127.433544
848.540485	3114.775206
848.855009	3113.043570
849.169490	3098.058740
849.483928	3095.155036
849.798323	3087.515167
850.112675	3075.698702
850.426984	3076.994279
850.741251	3067.471539
851.055474	3066.433062
851.369654	3067.733679
851.683792	3063.262176
851.997887	3069.024215
852.311938	3065.271076
852.625947	3066.944739
852.939914	3060.693708
853.253837	3070.040007
853.567718	3065.634039
853.881555	3053.346226
854.195350	3063.355437
854.509103	3060.832340
854.822812	3058.775549
855.136479	3052.007800
855.450103	3058.087431
855.763685	3052.244734
856.077224	3054.934190
856.390720	3059.854356
856.704173	3073.127714
857.017584	3077.702561
857.330953	3080.833117
857.644278	3089.622369
857.957561	3093.297370
858.270802	3087.873089
858.584000	3091.417020
858.897155	3083.895618
859.210268	3073.462951
859.523339	3060.270251
859.836367	3062.175807
860.149352	3052.085938
860.462295	3054.672050
860.775195	3040.398023
861.088054	3038.762168
861.400869	3037.716129
861.713642	3035.566077
862.026373	3045.381203
862.339062	3052.098541
862.651708	3057.452246
862.964312	3072.338773
863.276873	3079.421594
863.589392	3110.722119
863.901869	3139.401243
864.214303	3157.549397
864.526696	3174.656552
864.839045	3192.156918
865.151353	3205.198383
865.463619	3206.814073
865.775842	3205.311809
866.088023	3210.874722
866.400162	3206.378013
866.712258	3206.423383
867.024313	3206.529247
867.336325	3206.499001
867.648296	3205.634443
867.960224	3204.313660
868.272110	3205.173177
868.583954	3206.110832
868.895755	3214.446380
869.207515	3214.562326
869.519233	3228.649831
869.830909	3232.531519
870.142542	3247.662542
870.454134	3254.316865
870.765684	3266.113165
871.077191	3281.402985
871.388657	3294.537711
871.700081	3314.427584
872.011463	3333.805779
872.322803	3348.082327
872.634101	3367.276520
872.945357	3390.070097
873.256571	3415.490116
873.567744	3428.249276
873.878874	3439.639763
874.189963	3455.927731
874.501010	3453.505457
874.812015	3450.879016
875.122979	3464.810244
875.433900	3463.275213
875.744780	3466.025162
876.055618	3474.663179
876.366415	3472.109835
876.677169	3478.146617
876.987882	3493.338134
877.298554	3510.828417
877.609183	3553.526990
877.919771	3598.209257
878.230317	3664.321469
878.540822	3762.419803
878.851285	3919.265222
879.161707	4131.717089
879.472087	4502.498996
879.782425	5121.313233
880.092722	6287.279186
880.402977	8209.438380
880.713191	10550.151975
881.023363	12918.705342
881.333494	14240.513525
881.643583	14695.969172
881.953631	14291.852635
882.263637	13444.011217
882.573602	12412.936459
882.883526	11474.802934
883.193408	10524.454693
883.503248	9621.765521
883.813048	8800.485942
884.122806	8040.879839
884.432522	7291.182125
884.742197	6637.228524
885.051831	6078.063740
885.361424	5586.720118
885.670975	5203.821798
885.980485	4879.453795
886.289954	4617.074341
886.599382	4399.535949
886.908768	4225.167479
887.218113	4066.383736
887.527417	3934.797017
887.836680	3812.357473
888.145901	3713.031618
888.455082	3639.145947
888.764221	3573.999116
889.073319	3511.471164
889.382376	3479.006133
889.691392	3457.286322
890.000366	3451.529324
890.309300	3444.867440
890.618193	3447.367852
890.927044	3440.905093
891.235855	3448.061011
891.544625	3464.817806
891.853353	3488.647340
892.162041	3547.739746
892.470687	3642.137872
892.779293	3757.771859
893.087858	3929.034978
893.396381	4205.910271
893.704864	4614.198362
894.013306	5170.651006
894.321707	5733.389969
894.630068	6088.796356
894.938387	6122.650225
895.246665	5946.073729
895.554903	5636.859434
895.863100	5300.884175
896.171256	5030.615314
896.479371	4798.936486
896.787446	4577.491201
897.095480	4382.123804
897.403473	4235.912698
897.711425	4092.592694
898.019336	3972.411587
898.327207	3854.216694
898.635038	3749.481681
898.942827	3646.659787
899.250576	3562.742219
899.558284	3481.020074
899.865952	3431.914195
900.173579	3368.685523
900.481165	3321.364212
900.788711	3279.497429
901.096216	3245.550299
901.403681	3218.665825
901.711105	3206.186449
902.018489	3204.467416
902.325832	3239.221130
902.633135	3296.166004
902.940397	3462.869400
903.247619	3862.337992
903.554800	4605.646045
903.861941	5562.492333
904.169041	6251.023208
904.476101	6457.435772
904.783121	6186.975348
905.090100	5788.731756
905.397039	5381.487183
905.703938	5024.681876
906.010796	4706.990881
906.317614	4456.581646
906.624391	4217.527610
906.931129	4027.637427
907.237826	3849.039429
907.544483	3684.828883
907.851099	3518.548944
908.157675	3357.171527
908.464211	3217.897049
908.770707	3118.324179
909.077163	3042.903476
909.383578	2981.131697
909.689954	2940.643670
909.996289	2910.217786
910.302584	2887.472100
910.608839	2876.409288
910.915054	2862.795652
911.221229	2859.476052
911.527363	2867.786394
911.833458	2874.453320
912.139513	2881.553785
912.445527	2896.994840
912.751502	2929.419541
913.057436	2972.430666
913.363331	3032.274203
913.669186	3116.902573
913.975000	3231.367012
914.280775	3414.035743
914.586510	3679.197914
914.892205	4044.898338
915.197859	4539.690108
915.503475	5114.878201
915.809050	5602.135967
916.114585	5886.593155
916.420081	5955.815759
916.725536	5887.137599
917.030952	5653.603627
917.336328	5446.770126
917.641665	5236.306994
917.946961	5014.070247
918.252218	4814.637160
918.557435	4593.905197
918.862612	4398.152153
919.167750	4229.397007
919.472848	4040.487328
919.777906	3878.159654
920.082925	3717.619068
920.387904	3571.891914
920.692843	3459.932928
920.997743	3362.963813
921.302603	3268.119545
921.607423	3208.104608
921.912204	3144.409629
922.216946	3095.344079
922.521647	3046.359187
922.826310	3003.143896
923.130932	2970.583083
923.435516	2927.826537
923.740059	2903.460119
924.044564	2875.504401
924.349028	2849.923066
924.653454	2819.111533
924.957840	2798.135292
925.262186	2775.974380
925.566493	2754.909918
925.870761	2728.159036
926.174989	2720.025134
926.479178	2704.480736
926.783328	2688.422140
927.087438	2679.912673
927.391509	2664.953049
927.695541	2654.696821
927.999533	2642.025881
928.303486	2633.793677
928.607400	2629.178500
928.911275	2623.552573
929.215110	2616.459669
929.518906	2615.186778
929.822663	2617.031840
930.126381	2615.769031
930.430060	2616.908332
930.733699	2619.391100
931.037299	2624.689353
931.340861	2624.918725
931.644383	2625.304374
931.947866	2623.154322
932.251309	2620.268261
932.554714	2621.102572
932.858080	2622.904784
933.161407	2615.726181
933.464694	2611.330295
933.767943	2607.562033
934.071153	2603.841661
934.374323	2600.816969
934.677455	2598.863522
934.980548	2594.122317
935.283602	2593.053592
935.586617	2590.222984
935.889593	2594.235742
936.192530	2593.948397
936.495428	2601.253029
936.798287	2611.494133
937.101108	2625.470732
937.403890	2645.542086
937.706632	2672.373627
938.009336	2702.260108
938.312002	2733.071640
938.614628	2756.238262
938.917216	2772.541354
939.219765	2781.469237
939.522275	2790.210598
939.824747	2791.019703
940.127179	2787.029630
940.429573	2780.874381
940.731929	2781.055863
941.034246	2771.452465
941.336524	2773.116046
941.638763	2761.342431
941.940964	2756.613828
942.243126	2738.722773
942.545250	2732.968296
942.847335	2716.211501
943.149381	2706.025850
943.451389	2690.073118
943.753359	2677.694565
944.055290	2672.484532
944.357182	2660.955414
944.659036	2655.682367
944.960851	2655.110196
945.262628	2648.118115
945.564367	2649.043167
945.866067	2647.188022
946.167729	2644.685090
946.469352	2644.773310
946.770937	2646.242806
947.072484	2637.728297
947.373992	2637.912299
947.675462	2631.568007
947.976893	2627.242697
948.278286	2623.398817
948.579641	2620.757253
948.880958	2618.287087
949.182236	2617.772890
949.483476	2614.934720
949.784678	2612.038577
950.085841	2612.668722
950.386967	2618.680297
950.688054	2622.259517
950.989103	2632.334263
951.290114	2639.565798
951.591087	2650.933600
951.892021	2663.828871
952.192917	2674.271622
952.493776	2687.290401
952.794596	2691.431709
953.095378	2692.656710
953.396122	2687.955834
953.696828	2686.193950
953.997496	2683.587674
954.298126	2672.844975
954.598718	2660.897440
954.899272	2651.162972
955.199788	2642.489667
955.500266	2629.806124
955.800706	2617.034361
956.101108	2598.165322
956.401472	2589.638210
956.701798	2573.395613
957.002087	2561.611915
957.302337	2549.319062
957.602550	2541.613658
957.902724	2528.451205
958.202861	2524.135978
958.502960	2513.627693
958.803022	2506.191991
959.103045	2498.148830
959.403031	2494.320073
959.702979	2488.691625
960.002889	2484.870430
960.302762	2480.363639
960.602596	2475.282156
960.902393	2472.164202
961.202153	2464.206741
961.501875	2463.052317
961.801559	2463.584158
962.101205	2462.248253
962.400814	2458.555607
962.700385	2455.881275
962.999918	2458.051492
963.299414	2454.862962
963.598873	2455.525874
963.898293	2451.750050
964.197677	2449.620162
964.497022	2449.975563
964.796331	2448.133022
965.095601	2448.238886
965.394835	2446.308124
965.694030	2446.905501
965.993189	2447.883485
966.292309	2442.633123
966.591393	2445.685542
966.890439	2444.084975
967.189447	2442.181940
967.488419	2443.485078
967.787353	2444.354677
968.086249	2444.823504
968.385108	2446.169492
968.683930	2445.516663
968.982714	2451.034206
969.281462	2448.927003
969.580172	2451.182920
969.878844	2457.222222
970.177480	2457.590226
970.476078	2460.461163
970.774639	2463.863942
971.073162	2465.023408
971.371649	2464.819241
971.670098	2465.325877
971.968510	2468.161526
972.266885	2466.104735
972.565223	2471.720581
972.863524	2472.514562
973.161788	2474.006744
973.460014	2475.501446
973.758204	2474.941878
974.056356	2477.270891
974.354471	2475.168730
974.652550	2478.619400
974.950591	2475.476240
975.248595	2476.630664
975.546563	2477.555716
975.844493	2473.018678
976.142386	2470.881228
976.440243	2469.497432
976.738062	2468.171608
977.035845	2467.284365
977.333590	2465.277986
977.631299	2460.897223
977.928971	2460.025104
978.226606	2458.888323
978.524204	2454.434464
978.821765	2455.137705
979.119290	2456.133333
979.416777	2453.330451
979.714228	2456.299691
980.011642	2455.803137
980.309020	2460.866976
980.606360	2462.001236
980.903664	2471.768472
981.200931	2485.135091
981.498162	2502.212000
981.795356	2532.710980
982.092513	2568.654407
982.389633	2609.797784
982.686717	2657.426606
982.983764	2689.342151
983.280775	2707.823021
983.577749	2705.831765
983.874686	2696.709797
984.171587	2679.736232
984.468451	2663.947338
984.765279	2645.756335
985.062070	2632.782925
985.358824	2612.101592
985.655543	2588.937490
985.952224	2568.684654
986.248869	2538.924203
986.545478	2512.251457
986.842050	2492.810248
987.138586	2472.050776
987.435086	2463.455609
987.731549	2450.575461
988.027975	2449.973043
988.324366	2442.781837
988.620719	2437.707916
988.917037	2434.370672
989.213318	2432.596186
989.509563	2427.867583
989.805772	2429.387491
990.101944	2427.103848
990.398080	2423.360792
990.694180	2427.449168
990.990244	2423.970771
991.286271	2424.550504
991.582262	2426.559404
991.878217	2426.879517
992.174136	2429.689960
992.470019	2429.402615
992.765865	2430.899837
993.061676	2432.689447
993.357450	2436.934098
993.653188	2438.902669
993.948890	2443.434666
994.244556	2446.865172
994.540186	2455.614094
994.835780	2469.157154
995.131337	2483.889926
995.426859	2499.353665
995.722345	2518.235307
996.017795	2536.466640
996.313208	2551.703527
996.608586	2561.402708
996.903928	2565.438151
997.199234	2558.907336
997.494504	2558.257027
997.789738	2553.535987
998.084936	2539.393030
998.380099	2534.188038
998.675225	2520.347551
998.970316	2508.518483
999.265371	2492.893427
999.560390	2481.669298
999.855373	2470.301496
1000.150320	2457.565021
1000.445232	2450.431788
1000.740108	2446.134204
1001.034948	2439.036260
1001.329752	2435.187339
1001.624521	2431.592996
1001.919254	2421.414906
1002.213951	2422.276944
1002.508613	2418.506161
1002.803239	2418.773342
1003.097829	2414.238824
1003.392384	2415.957857
1003.686903	2414.712692
1003.981386	2416.824936
1004.275834	2413.185223
1004.570246	2415.408372
1004.864623	2413.258319
1005.158964	2414.004410
1005.453270	2411.655232
1005.747540	2409.699265
1006.041775	2409.961405
1006.335974	2410.452917
1006.630138	2409.968967
1006.924266	2407.168606
1007.218359	2406.515776
1007.512416	2408.257495
1007.806438	2409.424522
1008.100425	2409.215314
1008.394376	2408.978380
1008.688292	2407.997875
1008.982172	2410.231107
1009.276017	2407.589542
1009.569827	2409.537948
1009.863602	2407.874367
1010.157341	2406.861095
1010.451045	2403.576783
1010.744714	2407.337484
1011.038347	2407.140879
1011.331945	2403.544016
1011.625508	2406.815725
1011.919036	2404.834551
1012.212528	2404.378327
1012.505986	2403.158368
1012.799408	2403.609551
1013.092795	2403.695251
1013.386147	2405.971332
1013.679464	2402.598800
1013.972745	2403.468399
1014.265992	2402.923954
1014.559204	2404.824469
1014.852380	2402.810528
1015.145521	2403.299520
1015.438628	2403.347411
1015.731699	2403.019736
1016.024736	2403.533934
1016.317737	2404.017884
1016.610703	2407.672721
1016.903635	2402.319016
1017.196531	2402.026629
1017.489393	2400.680641
1017.782219	2401.981258
1018.075011	2407.198852
1018.367768	2406.024264
1018.660490	2405.419325
1018.953177	2405.419325
1019.245829	2405.419325
