Dividing Wavelength (nm)	Counts (n)	Blue Motor Position (mm): 17.400000	Red Motor Position (mm): 0.000000	
326.493990	1974.408233
326.888308	1974.408233
327.282561	1974.408233
327.676750	1952.310335
328.070874	1950.800510
328.464933	1957.727055
328.858929	1967.703498
329.252859	1979.804788
329.646726	1994.225009
330.040528	2010.828049
330.434265	2029.455112
330.827938	2047.792310
331.221547	2067.760320
331.615091	2087.677919
332.008571	2109.256578
332.401986	2129.912706
332.795338	2149.348874
333.188625	2170.725887
333.581847	2187.896057
333.975006	2203.707636
334.368100	2224.981306
334.761129	2241.294479
335.154095	2255.742426
335.546996	2288.348609
335.939833	2348.189626
336.332606	2361.556246
336.725315	2371.802391
337.117960	2380.563916
337.510540	2388.188661
337.903056	2400.352966
338.295508	2405.668862
338.687896	2412.905439
339.080220	2418.841397
339.472480	2423.842222
339.864676	2427.721390
340.256807	2430.539395
340.648875	2432.560897
341.040879	2431.963521
341.432818	2435.792277
341.824694	2435.318409
342.216506	2435.320929
342.608253	2433.430497
342.999937	2434.809252
343.391557	2431.915630
343.783113	2431.217430
344.174605	2430.052923
344.566033	2426.985381
344.957397	2427.613005
345.348697	2422.760894
345.739934	2424.684095
346.131106	2421.472880
346.522215	2421.273754
346.913260	2420.661254
347.304241	2416.351067
347.695159	2414.533731
348.086012	2412.671025
348.476802	2412.056004
348.867528	2410.344533
349.258191	2410.662125
349.648789	2406.936713
350.039324	2407.871847
350.429796	2408.935530
350.820203	2404.700961
351.210548	2406.009140
351.600828	2403.289438
351.991045	2406.034346
352.381198	2401.474622
352.771288	2403.317164
353.161314	2401.792215
353.551276	2402.634088
353.941175	2399.697616
354.331010	2401.951011
354.720782	2404.756413
355.110490	2407.100550
355.500135	2402.109808
355.889717	2403.173491
356.279235	2403.581825
356.668689	2403.753224
357.058080	2402.971845
357.447408	2401.530075
357.836672	2401.860271
358.225873	2403.438152
358.615010	2400.852040
359.004084	2407.430746
359.393095	2408.433935
359.782043	2408.963256
360.170927	2407.302196
360.559748	2410.480644
360.948505	2407.420663
361.337199	2410.515932
361.725830	2408.943092
362.114398	2408.738925
362.502903	2409.248082
362.891344	2414.115316
363.279722	2408.970818
363.668037	2415.335275
364.056289	2411.856879
364.444478	2412.247568
364.832603	2411.763617
365.220665	2411.158679
365.608665	2412.797054
365.996601	2412.499626
366.384474	2413.364184
366.772284	2414.503484
367.160031	2415.264699
367.547715	2414.168248
367.935336	2417.152611
368.322893	2414.763104
368.710388	2417.820564
369.097820	2417.192940
369.485189	2419.259813
369.872495	2423.577561
370.259738	2417.318969
370.646918	2415.178999
371.034035	2418.859041
371.421090	2420.076480
371.808081	2418.841397
372.195010	2419.786614
372.581875	2416.976170
372.968678	2420.842735
373.355418	2419.690832
373.742096	2418.919535
374.128710	2422.637386
374.515262	2420.958682
374.901751	2420.174782
375.288177	2422.695359
375.674540	2421.369536
376.060841	2425.246183
376.447079	2420.230235
376.833254	2423.456574
377.219367	2418.324679
377.605417	2420.721748
377.991404	2419.300142
378.377329	2421.598908
378.763191	2420.963723
379.148991	2424.086718
379.534727	2422.970102
379.920402	2425.793148
380.306013	2423.421286
380.691563	2428.873293
381.077049	2426.640062
381.462474	2422.970102
381.847835	2425.147881
382.233134	2427.963365
382.618371	2427.134095
383.003545	2428.033941
383.388657	2428.298602
383.773706	2427.287851
384.158693	2429.314394
384.543618	2428.056627
384.928480	2427.330700
385.313280	2430.304981
385.698017	2428.278437
386.082692	2429.435382
386.467305	2427.736513
386.851856	2428.512851
387.236344	2430.017635
387.620770	2430.811617
388.005133	2429.826072
388.389435	2429.306833
388.773674	2431.550146
389.157851	2430.541915
389.541965	2432.190373
389.926018	2432.560898
390.310008	2433.077616
390.693936	2429.838674
391.077802	2432.946546
391.461606	2433.145671
391.845348	2432.913778
392.229027	2433.826227
392.612645	2431.635846
392.996200	2431.358582
393.379694	2433.947215
393.763125	2436.528286
394.146494	2431.656010
394.529801	2434.925199
394.913047	2437.329829
395.296230	2439.179933
395.679351	2431.572831
396.062410	2433.894283
396.445408	2435.525096
396.828343	2437.150868
397.211217	2432.288675
397.594028	2436.550971
397.976778	2430.819179
398.359466	2439.240426
398.742092	2432.018973
399.124656	2437.304623
399.507158	2437.284459
399.889598	2439.008533
400.271977	2437.332350
400.654294	2435.348656
401.036549	2435.963676
401.418742	2443.086827
401.800874	2438.325457
402.182944	2440.626744
402.564952	2437.594490
402.946898	2437.599531
403.328783	2441.319902
403.710606	2440.546085
404.092367	2439.832762
404.474067	2440.969542
404.855705	2442.247475
405.237282	2440.732608
405.618797	2443.439708
406.000250	2442.935592
406.381642	2444.228648
406.762972	2443.568257
407.144240	2443.018771
407.525447	2446.605552
407.906593	2442.313010
408.287677	2441.392999
408.668700	2444.790737
409.049661	2443.104471
409.430560	2443.170006
409.811399	2446.570264
410.192176	2443.485078
410.572891	2443.664039
410.953545	2442.698658
411.334138	2442.776796
411.714669	2443.323761
412.095139	2446.328289
412.475547	2442.524738
412.855894	2445.355346
413.236180	2443.500201
413.616405	2449.201746
413.996568	2444.243772
414.376670	2445.738474
414.756711	2443.696806
415.136691	2448.687549
415.516609	2446.504729
415.896466	2448.001952
416.276262	2448.785851
416.655997	2444.548761
417.035670	2442.444080
417.415283	2444.823504
417.794834	2444.120263
418.174324	2449.728547
418.553753	2448.899277
418.933121	2447.928855
419.312428	2446.154369
419.691674	2448.909359
420.070859	2448.480861
420.449983	2449.965481
420.829045	2448.468258
421.208047	2447.747373
421.586988	2449.713423
421.965867	2450.880451
422.344686	2449.826849
422.723444	2451.830708
423.102141	2450.131839
423.480777	2448.475820
423.859352	2451.976902
424.237866	2451.719803
424.616319	2453.073352
424.994712	2454.552931
425.373044	2450.477158
425.751314	2454.275668
426.129524	2452.849021
426.507673	2450.464555
426.885762	2450.482199
427.263789	2453.280040
427.641756	2451.624021
428.019662	2451.482868
428.397508	2455.830864
428.775292	2454.507561
429.153016	2451.056891
429.530679	2453.184258
429.908282	2452.985132
430.285824	2452.090328
430.663305	2453.466562
431.040726	2453.373301
431.418086	2454.898250
431.795385	2455.142746
432.172624	2454.285750
432.549802	2454.653754
432.926920	2456.166100
433.303977	2456.070318
433.680974	2454.893209
434.057910	2455.215843
434.434786	2459.095011
434.811601	2458.129630
435.188355	2456.869341
435.565050	2459.082408
435.941683	2460.057871
436.318257	2456.244238
436.694770	2455.571244
437.071222	2454.850359
437.447614	2454.948662
437.823946	2456.327417
438.200218	2456.841615
438.576429	2459.634414
438.952580	2456.554269
439.328670	2460.859415
439.704700	2458.505196
440.080670	2461.608026
440.456580	2463.062399
440.832429	2460.322532
441.208218	2460.375464
441.583947	2463.269086
441.959616	2463.533747
442.335224	2462.449899
442.710773	2463.828654
443.086261	2462.654065
443.461689	2463.697584
443.837057	2463.856381
444.212365	2461.053499
444.587612	2462.633901
444.962800	2463.695064
445.337927	2464.453757
445.712995	2463.385033
446.088002	2466.641618
446.462949	2466.258490
446.837837	2468.413584
447.212664	2465.038531
447.587431	2468.804273
447.962139	2470.417442
448.336786	2471.377782
448.711374	2473.931127
449.085901	2473.474902
449.460369	2469.855354
449.834776	2472.544809
450.209124	2474.354583
450.583412	2468.438789
450.957640	2472.322998
451.331808	2472.809470
451.705917	2470.692185
452.079965	2471.226548
452.453954	2471.791157
452.827883	2473.648822
453.201752	2474.193267
453.575562	2470.656897
453.949311	2472.257463
454.323001	2474.896508
454.696632	2475.821559
455.070202	2476.444142
455.443713	2478.034626
455.817164	2476.371045
456.190556	2474.629326
456.563888	2477.780047
456.937160	2475.075468
457.310373	2479.357929
457.683526	2479.299955
458.056619	2479.607466
458.429653	2481.127374
458.802628	2479.884729
459.175542	2479.037815
459.548398	2479.302476
459.921194	2484.220122
460.293930	2486.062663
460.666607	2486.100472
461.039224	2490.483755
461.411782	2491.633138
461.784280	2491.237408
462.156719	2491.252531
462.529099	2490.448467
462.901419	2489.727582
463.273680	2489.087356
463.645882	2489.001656
464.018024	2490.587099
464.390106	2496.122286
464.762130	2495.146822
465.134094	2501.702843
465.505999	2510.116529
465.877845	2516.758249
466.249631	2520.854187
466.621358	2516.886798
466.993026	2516.523835
467.364634	2518.666326
467.736184	2515.303876
468.107674	2510.897908
468.479105	2511.888494
468.850477	2510.653412
469.221790	2507.679131
469.593043	2507.359018
469.964238	2503.895745
470.335373	2506.917917
470.706449	2510.424039
471.077467	2515.755059
471.448425	2522.721934
471.819324	2530.689478
472.190164	2527.369878
472.560945	2525.388704
472.931667	2519.084742
473.302330	2516.397807
473.672934	2518.041223
474.043479	2524.690505
474.413965	2519.845956
474.784393	2515.631551
475.154761	2519.727489
475.525070	2518.333610
475.895321	2521.141532
476.265513	2522.331245
476.635645	2527.188396
477.005719	2532.592513
477.375734	2531.700229
477.745691	2540.199614
478.115588	2540.159285
478.485427	2544.986190
478.855207	2556.898437
479.224928	2564.573593
479.594591	2571.563153
479.964194	2568.125086
480.333739	2571.240519
480.703226	2572.294120
481.072653	2578.333423
481.442022	2581.421129
481.811333	2585.736357
482.180584	2584.523960
482.549777	2587.059660
482.918912	2584.307190
483.287988	2589.749116
483.657005	2586.106882
484.025964	2589.509661
484.394864	2590.742223
484.763706	2594.437389
485.132489	2590.253231
485.501213	2594.165166
485.869879	2598.734972
486.238487	2601.880652
486.607036	2600.829572
486.975527	2603.400560
487.343959	2606.800818
487.712333	2610.304420
488.080648	2614.266767
488.448905	2618.589557
488.817104	2617.024278
489.185244	2624.722120
489.553326	2637.836682
489.921350	2652.556851
490.289315	2667.461023
490.657222	2674.420336
491.025070	2681.200687
491.392861	2678.821263
491.760593	2676.404030
492.128267	2673.555778
492.495883	2668.277690
492.863440	2667.977741
493.230939	2661.903151
493.598380	2663.009684
493.965763	2663.607061
494.333088	2663.133192
494.700354	2663.947338
495.067563	2671.244409
495.434713	2670.793225
495.801805	2677.697086
496.168839	2682.309741
496.535815	2686.186389
496.902733	2689.087573
497.269593	2693.543953
497.636395	2698.448995
498.003139	2705.786395
498.369825	2705.708257
498.736453	2715.447766
499.103023	2716.652602
499.469535	2721.590412
499.835989	2726.399673
500.202385	2731.309757
500.568723	2737.913668
500.935003	2746.075296
501.301226	2748.999166
501.667390	2762.365785
502.033497	2772.624533
502.399546	2775.069493
502.765537	2777.816922
503.131470	2787.954682
503.497345	2801.497742
503.863163	2799.319963
504.228923	2814.788744
504.594625	2828.604026
504.960269	2829.642504
505.325856	2847.634382
505.691385	2851.969774
506.056856	2865.722042
506.422270	2880.217880
506.787625	2893.168604
507.152924	2903.621436
507.518164	2919.314548
507.883347	2923.871751
508.248472	2941.949329
508.613540	2964.652165
508.978550	2982.144969
509.343503	2996.466887
509.708398	3016.165196
510.073236	3040.962632
510.438016	3059.690518
510.802738	3071.252405
511.167403	3102.033690
511.532010	3125.033954
511.896561	3153.153511
512.261053	3188.459232
512.625488	3206.763661
512.989866	3225.491548
513.354186	3246.954260
513.718449	3273.125410
514.082655	3317.875733
514.446803	3339.640915
514.810894	3378.624158
515.174927	3411.560536
515.538904	3440.403498
515.902822	3488.697752
516.266684	3511.531658
516.630488	3555.099830
516.994235	3587.559820
517.357925	3641.293479
517.721558	3687.142773
518.085133	3733.970051
518.448651	3779.179119
518.812112	3818.918534
519.175516	3865.065257
519.538863	3921.100202
519.902152	3970.127944
520.265385	4035.635218
520.628560	4086.029112
520.991678	4126.585195
521.354739	4194.590360
521.717743	4260.112757
522.080690	4315.600738
522.443580	4398.487389
522.806413	4461.801761
523.169189	4519.853168
523.531908	4594.240434
523.894569	4651.598683
524.257174	4723.500660
524.619722	4808.272703
524.982213	4877.593610
525.344647	4944.265390
525.707025	5018.231720
526.069345	5120.874653
526.431608	5189.565415
526.793815	5287.822545
527.155964	5335.960523
527.518057	5419.474798
527.880093	5489.362835
528.242072	5609.314570
528.603995	5671.613149
528.965860	5755.354276
529.327669	5849.333987
529.689421	5925.399957
530.051117	6014.376323
530.412755	6111.050530
530.774337	6205.985539
531.135862	6290.598786
531.497331	6400.868985
531.858743	6478.369164
532.220098	6610.459997
532.581396	6675.606828
532.942638	6740.909935
533.303824	6868.372990
533.664953	6970.640357
534.026025	7040.258692
534.387040	7194.812907
534.747999	7294.312681
535.108902	7426.970645
535.469748	7472.272974
535.830537	7593.187569
536.191270	7726.281593
536.551947	7792.469422
536.912567	7947.192516
537.273131	8080.218483
537.633638	8122.906974
537.994089	8286.883106
538.354483	8352.103034
538.714821	8545.375831
539.075103	8712.361532
539.435328	8800.601889
539.795497	8904.774812
540.155609	9028.504892
540.515665	9218.011948
540.875665	9265.224874
541.235609	9446.776989
541.595496	9572.631915
541.955328	9808.825096
542.315102	9836.838788
542.674821	9929.222973
543.034483	10068.187420
543.394090	10197.125012
543.753640	10323.799126
544.113134	10654.173664
544.472571	10609.841757
544.831953	10979.794394
545.191278	10980.724487
545.550548	11063.240613
545.909761	11303.156687
546.268918	11491.476550
546.628019	11704.712317
546.987064	11752.189904
547.346053	11750.806107
547.704986	12090.083323
548.063863	12148.961479
548.422684	12347.789628
548.781449	12466.619706
549.140158	12727.045714
549.498811	12859.106301
549.857408	12880.382491
550.215949	13256.094646
550.574434	13401.186615
550.932864	13514.612577
551.291237	13855.888610
551.649555	13924.922170
552.007817	14153.969516
552.366022	14229.390219
552.724173	14440.843937
553.082267	14730.110386
553.440305	15003.192211
553.798288	14980.179343
554.156215	15230.059257
554.514086	15482.084182
554.871902	15580.611013
555.229661	15774.035045
555.587365	15896.220012
555.945014	16111.464678
556.302606	16270.566014
556.660143	16526.482709
557.017625	16746.229126
557.375050	16868.020883
557.732421	17172.191503
558.089735	17354.893000
558.446994	17511.899737
558.804197	17881.116365
559.161345	18067.497905
559.518437	17973.608935
559.875474	18288.360937
560.232455	18552.078819
560.589381	18807.153642
560.946251	18889.402587
561.303065	19346.431074
561.659825	19472.104519
562.016528	19543.814932
562.373177	19626.620926
562.729770	20016.460914
563.086307	20025.197234
563.442789	20416.269785
563.799216	20645.697737
564.155587	20752.708831
564.511904	20968.031635
564.868164	21205.893438
565.224370	21520.521932
565.580520	21599.133685
565.936615	21914.621695
566.292654	21973.555304
566.648638	22306.941932
567.004567	22496.544769
567.360441	22721.433163
567.716260	22855.890818
568.072023	23210.329304
568.427732	23412.479573
568.783385	23407.675353
569.138982	23799.027688
569.494525	23984.854701
569.850013	24078.738630
570.205445	24273.259113
570.560823	24454.256701
570.916145	24591.446661
571.271412	24820.607433
571.626625	24889.940942
571.981782	25131.016481
572.336884	25157.946325
572.691931	25541.815067
573.046923	25522.565421
573.401860	25646.209801
573.756743	25828.959190
574.111570	26089.337307
574.466342	26208.898352
574.821059	26493.075756
575.175722	26404.487560
575.530330	26607.696471
575.884882	26664.969020
576.239380	26832.312643
576.593823	27018.159820
576.948211	27160.564855
577.302544	27058.481489
577.656823	27268.014528
578.011047	27615.899514
578.365216	27640.555798
578.719330	27697.190641
579.073389	27791.003993
579.427394	28039.283341
579.781344	28224.134890
580.135239	28180.644856
580.489080	28420.999510
580.842866	28282.650084
581.196597	28764.090358
581.550273	28906.697039
581.903895	29010.968265
582.257463	29467.495157
582.610975	29237.663912
582.964434	29605.947927
583.317837	29556.090916
583.671186	29613.854977
584.024481	29948.217067
584.377721	29800.576795
584.730906	30181.050320
585.084037	30362.206704
585.437113	30326.769913
585.790135	30533.389165
586.143103	30411.695711
586.496016	30674.607007
586.848874	30852.779028
587.201679	31025.446109
587.554428	30818.355509
587.907124	31120.781890
588.259765	31102.084251
588.612352	31446.664760
588.964884	31157.146254
589.317362	31524.041431
589.669786	31635.103091
590.022155	31617.030554
590.374470	32080.294949
590.726731	31888.915105
591.078937	31676.884174
591.431090	31889.068860
591.783188	31775.935285
592.135232	31682.663857
592.487222	32018.475279
592.839157	32211.097768
593.191038	32104.600872
593.542866	32053.160938
593.894639	31718.355226
594.246358	32069.953022
594.598022	32184.145239
594.949633	32003.220748
595.301190	32101.200614
595.652692	32098.362444
596.004141	32491.338031
596.355535	31829.875632
596.706876	31919.247728
597.058162	31887.443088
597.409395	32395.291447
597.760573	32556.754563
598.111698	32354.495909
598.462768	32468.675523
598.813785	32609.742132
599.164748	32296.429379
599.515657	32724.743454
599.866511	32405.033477
600.217312	33018.473844
600.568060	32257.476383
600.918753	32985.497136
601.269392	33055.422981
601.619978	32873.288613
601.970510	33144.099398
602.320988	33406.990530
602.671412	33745.045266
603.021783	33625.189313
603.372100	33433.580096
603.722363	33630.023779
604.072572	33778.407622
604.422728	33893.545055
604.772830	33813.625123
605.122878	33987.575177
605.472872	34031.334913
605.822813	34343.788149
606.172701	34280.667862
606.522534	34575.035958
606.872314	34881.989296
607.222041	34742.964355
607.571714	35191.143096
607.921333	34774.776556
608.270899	35104.969613
608.620411	35483.482128
608.969870	35384.103342
609.319276	35454.959280
609.668627	35580.385708
610.017926	36078.184527
610.367171	36295.596890
610.716362	36451.749151
611.065500	36458.166539
611.414585	36697.661676
611.763616	37048.505819
612.112594	37037.715230
612.461518	37280.771942
612.810389	37625.841443
613.159207	37575.102230
613.507971	37695.071609
613.856682	38205.196049
614.205340	38151.661516
614.553945	38850.587249
614.902496	38400.301306
615.250994	38890.669464
615.599439	39014.596149
615.947830	39268.405642
616.296169	39384.626923
616.644454	39558.657636
616.992686	39755.141649
617.340864	40277.253953
617.688990	40073.462788
618.037063	40681.476353
618.385082	40690.878105
618.733048	41017.151664
619.080961	41066.895250
619.428821	41134.988635
619.776628	41292.749024
620.124382	41147.883907
620.472083	41325.496360
620.819731	41504.762311
621.167326	41248.744792
621.514868	41268.039809
621.862357	40912.010839
622.209793	40991.444300
622.557176	40722.735677
622.904506	40524.192353
623.251783	40236.125699
623.599007	40075.219630
623.946179	39896.175489
624.293297	39886.128470
624.640363	39351.199032
624.987376	39381.211542
625.334336	39191.999394
625.681243	38889.101665
626.028097	38889.141994
626.374899	38786.178947
626.721647	38804.032194
627.068343	38724.606294
627.414987	38524.711941
627.761577	38329.326901
628.108115	38686.210346
628.454600	38182.079838
628.801032	38390.627331
629.147412	38377.359014
629.493739	38425.355840
629.840014	38111.607028
630.186236	38451.932803
630.532405	38104.587221
630.878521	38335.209927
631.224585	38242.344312
631.570597	37975.924372
631.916556	38156.538832
632.262462	38127.577403
632.608316	38155.747371
632.954117	38082.431350
633.299866	38085.705579
633.645562	38042.364259
633.991206	37590.712163
634.336797	37193.507048
634.682336	37220.444454
635.027823	37005.257761
635.373257	36837.601587
635.718639	36641.936762
636.063968	36518.446137
636.409245	35982.178273
636.754470	36045.979116
637.099642	35840.980595
637.444762	35389.275566
637.789829	35542.559410
638.134845	35232.588943
638.479808	35192.463879
638.824719	35116.070233
639.169577	34747.178759
639.514383	34819.665511
639.859137	34550.067123
640.203839	34791.881191
640.548489	34442.698108
640.893086	34530.280595
641.237632	34306.501255
641.582125	34421.265643
641.926566	34353.794840
642.270955	34345.602965
642.615292	34380.946494
642.959576	34356.713668
643.303809	34381.087647
643.647990	34526.880336
643.992118	34500.623487
644.336195	34513.057493
644.680219	34604.486379
645.024192	34913.340231
645.368112	35413.248773
645.711981	35447.180780
646.055797	36310.180948
646.399562	36241.452377
646.743274	37172.175406
647.086935	37609.104812
647.430544	37522.591051
647.774101	37638.567836
648.117606	37884.866010
648.461059	38179.087913
648.804460	37808.273239
649.147810	37212.418937
649.491108	36989.047930
649.834354	36644.422051
650.177548	35835.823494
650.520690	35403.882309
650.863781	35428.089930
651.206820	35283.446623
651.549807	34871.934714
651.892742	34389.125766
652.235626	34207.361923
652.578458	34083.909107
652.921238	33490.393900
653.263967	33826.837987
653.606644	33518.241234
653.949269	33476.152640
654.291843	33103.303861
654.634365	33485.309896
654.976836	33098.819754
655.319255	33108.206383
655.661622	33098.809672
656.003938	32880.252967
656.346203	32766.824485
656.688416	32985.189626
657.030577	32791.415234
657.372687	32641.224137
657.714746	32908.049890
658.056753	33024.931562
658.398708	32496.046468
658.740612	32554.559141
659.082465	32822.408248
659.424266	32664.068126
659.766016	32794.515543
660.107715	32667.511234
660.449362	32800.988385
660.790958	32785.534728
661.132503	32803.272028
661.473996	32823.209791
661.815438	32954.574699
662.156829	33130.838643
662.498168	32921.272836
662.839456	32953.929431
663.180693	33096.526029
663.521879	33265.669344
663.863013	33221.889443
664.204097	33228.586616
664.545129	33691.616597
664.886110	33655.695855
665.227040	33719.128694
665.567918	33827.261444
665.908746	33909.333949
666.249522	34066.675922
666.590248	34064.956889
666.930922	34181.301678
667.271545	34139.013959
667.612118	34241.268724
667.952639	34015.782954
668.293109	34079.790484
668.633528	33978.382633
668.973896	33899.596960
669.314213	33938.807055
669.654480	33692.650033
669.994695	33705.847774
670.334859	33618.471975
670.674973	33531.615415
671.015035	33667.804707
671.355047	33626.343737
671.695008	33574.939091
672.034918	33490.749301
672.374777	33561.229673
672.714585	33396.976278
673.054342	33632.977895
673.394049	33389.772469
673.733705	33676.329298
674.073310	33342.494008
674.412864	33409.327105
674.752368	33021.319576
675.091820	33316.539627
675.431223	32899.868097
675.770574	32631.978661
676.109875	32496.422034
676.449125	32218.979612
676.788324	32145.151914
677.127473	31632.988327
677.466571	31554.434547
677.805619	31202.907328
678.144616	31196.792408
678.483562	31145.390283
678.822458	30807.133901
679.161303	30746.062843
679.500098	30659.667548
679.838842	30547.499354
680.177535	30699.013754
680.516179	30966.086523
680.854771	31219.323845
681.193314	32068.929667
681.531805	33187.939793
681.870247	33972.149247
682.208638	34691.957960
682.546978	34931.256492
682.885268	35007.466135
683.223508	34469.980833
683.561697	34141.675689
683.899836	33960.136177
684.237925	33456.587922
684.575963	33304.458502
684.913951	32842.461958
685.251889	33005.994468
685.589776	32992.053157
685.927614	32995.264372
686.265401	33126.528456
686.603137	33239.775457
686.940824	33742.965790
687.278460	34133.067918
687.616046	34263.684215
687.953582	34859.430132
688.291068	34721.360490
688.628504	34998.374414
688.965889	34948.267866
689.303224	34550.815735
689.640510	34221.807350
689.977745	33482.673373
690.314930	32681.366845
690.652065	32164.215037
690.989150	31428.372933
691.326185	30528.708453
691.663170	29820.501955
692.000105	29076.294057
692.336990	28409.160360
692.673825	27960.623697
693.010610	27441.873842
693.347345	26868.190535
693.684030	26220.024179
694.020665	25944.348681
694.357251	25286.470542
694.693786	25244.744912
695.030272	25015.889130
695.366707	24473.733198
695.703093	24187.834240
696.039429	24169.965871
696.375716	23910.779987
696.711952	23881.758064
697.048139	23732.363470
697.384276	23551.897724
697.720363	23681.422610
698.056400	23471.203974
698.392388	23251.213062
698.728326	23207.854097
699.064214	23011.546525
699.400053	22947.344911
699.735842	22605.587447
700.071581	22322.400630
700.407270	22038.767671
700.742910	21846.193073
701.078501	21589.124474
701.414042	21294.141357
701.749533	21012.383706
702.084974	20658.938328
702.420366	20865.391222
702.755709	20421.666340
703.091002	20137.592279
703.426246	20156.436112
703.761440	20056.303674
704.096584	19790.105545
704.431679	19751.855790
704.766725	19660.351286
705.101721	19593.160267
705.436668	19683.369194
705.771565	19362.134268
706.106413	19713.621159
706.441212	19690.736841
706.775961	19818.250307
707.110661	19891.238653
707.445311	20249.755432
707.779913	20088.166287
708.114465	20342.260605
708.448967	20616.010382
708.783421	21306.030918
709.117825	21580.299934
709.452180	21796.641051
709.786485	22198.342875
710.120742	22992.359894
710.454949	23005.235001
710.789107	23480.961128
711.123216	24180.035575
711.457275	24302.696931
711.791286	24846.130795
712.125247	24905.447532
712.459159	24595.988741
712.793023	25254.761684
713.126837	24152.820906
713.460602	24395.002978
713.794318	24018.721173
714.127985	23632.639364
714.461602	22751.904417
714.795171	22695.047763
715.128691	21680.094616
715.462162	21154.077938
715.795584	20735.510934
716.128957	20475.793209
716.462281	20081.166644
716.795556	19834.134983
717.128782	19345.929479
717.461960	18802.351943
717.795088	18724.249346
718.128167	18329.819387
718.461198	17875.437505
718.794180	17729.511225
719.127113	17366.391872
719.459997	17173.189651
719.792833	16833.862024
720.125619	16796.857434
720.458357	16482.246584
720.791046	16310.441541
721.123686	16165.876372
721.456278	15918.133907
721.788821	15883.506222
722.121315	15617.482013
722.453761	15699.352872
722.786158	15625.084073
723.118506	15632.950793
723.450805	15491.380070
723.783056	15651.928217
724.115259	15553.792075
724.447412	15493.114227
724.779518	15738.134468
725.111574	15751.947230
725.443582	15949.449555
725.775542	15928.501040
726.107453	16392.569499
726.439315	16281.714526
726.771129	16678.042479
727.102895	17039.652006
727.434612	17249.820231
727.766281	17369.787089
728.097901	17625.630688
728.429473	17660.775092
728.760996	17639.100651
729.092471	17720.336325
729.423897	17615.266076
729.755276	17471.983881
730.086606	17584.152074
730.417887	18108.956354
730.749120	18625.677144
731.080305	18796.395819
731.411442	19127.370254
731.742530	19203.126194
732.073570	19288.626684
732.404562	19569.539941
732.735506	19389.517816
733.066401	19107.457697
733.397249	18589.630374
733.728048	17961.794991
734.058798	17122.760469
734.389501	16452.213910
734.720156	15999.288923
735.050762	15472.311905
735.381320	15111.730773
735.711831	14876.737387
736.042293	14539.277507
736.372707	14550.436101
736.703073	14338.561446
737.033391	14518.182799
737.363661	14488.313963
737.693883	14589.966309
738.024056	14767.813176
738.354182	14951.888388
738.684260	15237.452109
739.014290	15452.033864
739.344272	15641.886238
739.674207	15913.677527
740.004093	16026.795978
740.333931	16019.319947
740.663722	16053.534258
740.993464	16044.114863
741.323159	15882.497991
741.652806	15600.740341
741.982405	15386.987856
742.311956	15050.107709
742.641460	14924.502320
742.970915	14619.988901
743.300323	14293.170897
743.629683	14073.351384
743.958996	13806.079489
744.288260	13532.944732
744.617477	13231.652611
744.946647	13157.640911
745.275768	12893.570149
745.604842	12707.382693
745.933869	12543.131819
746.262847	12494.131803
746.591778	12421.907192
746.920662	12311.873927
747.249498	12319.092860
747.578286	12433.317844
747.907027	12583.970206
748.235720	12799.043473
748.564365	12827.745283
748.892963	12725.427504
749.221514	12782.377419
749.550017	12644.428764
749.878473	12605.180861
750.206881	12381.202396
750.535242	12291.449693
750.863555	12209.747712
751.191821	12109.809358
751.520039	12130.205866
751.848210	12039.543235
752.176334	12074.107906
752.504411	11979.051909
752.832440	11816.973772
753.160421	11878.427958
753.488356	11761.009403
753.816243	11670.674446
754.144082	11529.955678
754.471875	11474.986936
754.799620	11415.881928
755.127318	11386.030735
755.454969	11345.285609
755.782572	11301.851028
756.110129	11316.898872
756.437638	11231.670605
756.765100	11221.053935
757.092515	11228.343443
757.419882	11242.549415
757.747203	11245.788356
758.074477	11322.940695
758.401703	11275.642069
758.728882	11441.465784
759.056014	11476.922739
759.383099	11593.907755
759.710138	11699.041019
760.037129	11766.917635
760.364073	11794.301183
760.690970	11779.611260
761.017820	11778.358533
761.344623	11964.203191
761.671379	12281.190944
761.998088	12907.791244
762.324751	14452.368015
762.651366	17292.475954
762.977935	20935.191038
763.304456	23144.438903
763.630931	23606.863945
763.957359	22428.660591
764.283740	20528.251456
764.610074	18665.265325
764.936362	16547.484156
765.262602	15039.995154
765.588796	13584.707300
765.914943	12560.982545
766.241044	11723.747714
766.567097	11088.640467
766.893104	10549.544516
767.219064	10188.149238
767.544978	9813.415067
767.870845	9496.558383
768.196665	9306.683323
768.522438	9120.390003
768.848165	8957.142318
769.173846	8789.279457
769.499479	8663.689191
769.825066	8514.740739
770.150607	8332.046803
770.476101	8270.685879
770.801548	8154.071387
771.126949	8014.076024
771.452303	7932.069054
771.777611	7768.052593
772.102872	7748.056857
772.428087	7626.431458
772.753256	7502.328333
773.078378	7419.285406
773.403453	7276.189733
773.728482	7175.165010
774.053465	7106.784279
774.378401	7028.197731
774.703291	6934.802795
775.028135	6836.903587
775.352932	6798.001003
775.677683	6719.447223
776.002388	6634.024871
776.327046	6632.318440
776.651658	6544.423403
776.976224	6471.621579
777.300743	6450.660462
777.625216	6389.823817
777.949643	6345.496951
778.274024	6350.825451
778.598359	6281.728876
778.922647	6280.609739
779.246889	6246.581951
779.571086	6251.098825
779.895236	6260.750114
780.219339	6259.502428
780.543397	6258.080823
780.867409	6306.012114
781.191374	6299.390558
781.515294	6269.564571
781.839167	6320.548281
782.162995	6292.234640
782.486776	6244.595736
782.810511	6200.495722
783.134201	6127.010823
783.457844	6114.793587
783.781441	6069.433284
784.104993	6030.704620
784.428498	5997.440566
784.751958	5975.297298
785.075372	5958.270801
785.398739	5917.109780
785.722061	5941.849242
786.045337	5941.445950
786.368568	6042.692484
786.691752	6073.355302
787.014891	6316.991747
787.337983	6597.337874
787.661030	7029.914244
787.984031	7446.457225
788.306987	7708.924900
788.629897	7794.894217
788.952760	7710.321299
789.275579	7529.338835
789.598351	7236.369659
789.921078	6975.920966
790.243759	6702.279573
790.566395	6494.788202
790.888984	6305.916332
791.211529	6158.903683
791.534027	6000.571123
791.856480	5864.865782
792.178888	5807.200023
792.501249	5738.819292
792.823566	5639.014528
793.145836	5635.931862
793.468062	5614.925374
793.790241	5576.274847
794.112375	5618.461743
794.434464	5714.851126
794.756507	5743.739458
795.078505	5863.844948
795.400457	6077.113482
795.722364	6315.643238
796.044226	6507.428895
796.366042	6658.461864
796.687812	6606.195181
797.009538	6638.861858
797.331218	6544.816613
797.652852	6469.844573
797.974442	6355.715370
798.295986	6287.730369
798.617484	6155.694988
798.938938	6050.624739
799.260346	5983.539584
799.581709	5845.444737
799.903026	5792.303413
800.224299	5724.845213
800.545526	5604.394404
800.866708	5539.555083
801.187845	5493.433566
801.508936	5417.465898
801.829983	5387.181167
802.150984	5284.087050
802.471940	5262.127784
802.792851	5241.796810
803.113717	5219.086412
803.434538	5197.608576
803.755314	5162.489378
804.076045	5147.068488
804.396731	5114.585814
804.717372	5131.761025
805.037967	5137.691942
805.358518	5163.394265
805.679024	5219.817380
805.999485	5227.802567
806.319901	5247.531123
806.640272	5266.178351
806.960598	5312.819106
807.280879	5302.923321
807.601115	5340.338765
807.921306	5306.983971
808.241453	5301.113547
808.561554	5306.361388
808.881611	5274.876862
809.201623	5274.506337
809.521590	5220.825610
809.841513	5207.428744
810.161390	5221.606989
810.481223	5134.518536
810.801011	5120.436073
811.120755	5098.360860
811.440453	5043.503024
811.760107	5011.373230
812.079716	4985.277697
812.399281	4935.138381
812.718801	4933.003452
813.038276	4900.757712
813.357707	4862.409654
813.677093	4888.238006
813.996434	4823.812060
814.315731	4846.121686
814.634983	4843.318805
814.954191	4849.622767
815.273354	4905.163680
815.592473	4949.798056
815.911547	5024.780178
816.230577	5075.942849
816.549562	5160.001569
816.868502	5208.840267
817.187399	5266.939565
817.506250	5342.324980
817.825058	5372.269434
818.143821	5525.018916
818.462539	5686.721487
818.781213	5919.048103
819.099843	6272.944665
819.418429	6899.640747
819.736970	7515.352154
820.055466	8212.014410
820.373919	9113.040001
820.692327	10549.385720
821.010691	13223.816138
821.329011	19386.538494
821.647286	28853.016312
821.965517	39122.076069
822.283704	44525.426737
822.601847	45986.136352
822.919945	41427.040322
823.237999	36350.651331
823.556010	31207.003265
823.873976	26533.969596
824.191897	22369.941231
824.509775	19324.481890
824.827609	16580.657469
825.145398	15048.567636
825.463144	14306.915603
825.780845	14598.208596
826.098502	15831.214333
826.416116	18275.868958
826.733685	20526.678616
827.051210	21057.983463
827.368692	19649.555655
827.686129	17097.315245
828.003522	14650.180371
828.320872	12450.324177
828.638177	10822.094499
828.955439	9585.827135
829.272656	8535.984162
829.589830	7703.525824
829.906960	6982.555124
830.224046	6457.728159
830.541088	6050.491149
830.858086	5800.391945
831.175041	5594.564154
831.491952	5541.324528
831.808819	5570.386780
832.125642	5813.902237
832.442421	6357.933478
832.759157	7446.898326
833.075849	9202.558291
833.392497	11031.982939
833.709101	12132.658388
834.025662	11885.704863
834.342179	10841.966727
834.658653	9550.332371
834.975083	8454.935011
835.291469	7560.541057
835.607811	6835.197156
835.924110	6321.521223
836.240366	5838.931566
836.556578	5390.727618
836.872746	5044.208785
837.188871	4771.840284
837.504952	4555.771389
837.820990	4387.016244
838.136984	4273.711270
838.452935	4227.955237
838.768842	4256.344495
839.084706	4534.520405
839.400526	5266.379997
839.716303	6158.417211
840.032037	6723.228088
840.347727	6578.224339
840.663373	5980.963555
840.978977	5412.512965
841.294537	4972.952076
841.610054	4645.181294
841.925527	4409.630860
842.240957	4203.220816
842.556344	4029.338817
842.871687	3870.313098
843.186987	3720.306003
843.502244	3601.866614
843.817458	3516.603059
844.132629	3447.221658
844.447756	3400.717014
844.762840	3356.634644
845.077881	3316.774241
845.392879	3285.007410
845.707833	3259.932711
846.022745	3232.967579
846.337613	3223.165055
846.652438	3197.351827
846.967221	3187.219108
847.281960	3168.949966
847.596656	3159.805313
847.911309	3148.447593
848.225919	3130.881693
848.540485	3123.647637
848.855009	3117.782255
849.169490	3109.582818
849.483928	3099.291302
849.798323	3095.384408
850.112675	3082.763879
850.426984	3086.020465
850.741251	3076.628795
851.055474	3074.030080
851.369654	3072.474884
851.683792	3071.280131
851.997887	3076.381779
852.311938	3076.031418
852.625947	3074.813980
852.939914	3068.507496
853.253837	3076.250709
853.567718	3072.512693
853.881555	3067.133782
854.195350	3070.544123
854.509103	3070.138310
854.822812	3068.968762
855.136479	3063.390725
855.450103	3066.485994
855.763685	3059.567010
856.077224	3064.966086
856.390720	3071.058320
856.704173	3080.553333
857.017584	3086.300249
857.330953	3091.807709
857.644278	3100.544029
857.957561	3104.269442
858.270802	3100.360027
858.584000	3099.750047
858.897155	3093.289809
859.210268	3080.994434
859.523339	3069.306519
859.836367	3069.356931
860.149352	3062.664799
860.462295	3056.454098
860.775195	3048.988149
861.088054	3048.047973
861.400869	3047.785833
861.713642	3043.364742
862.026373	3053.336144
862.339062	3055.279509
862.651708	3065.082032
862.964312	3080.671801
863.276873	3085.120619
863.589392	3121.951289
863.901869	3145.432983
864.214303	3167.256138
864.526696	3185.764735
864.839045	3202.758464
865.151353	3215.426884
865.463619	3214.690876
865.775842	3212.641647
866.088023	3219.545507
866.400162	3214.693396
866.712258	3214.464024
867.024313	3212.858416
867.336325	3213.299517
867.648296	3214.695917
867.960224	3210.184084
868.272110	3216.727502
868.583954	3214.978221
868.895755	3223.283522
869.207515	3219.757235
869.519233	3237.973445
869.830909	3240.516707
870.142542	3254.631937
870.454134	3259.242073
870.765684	3275.320833
871.077191	3295.104841
871.388657	3303.884011
871.700081	3321.543173
872.011463	3339.731656
872.322803	3361.269985
872.634101	3377.515104
872.945357	3396.921025
873.256571	3425.118719
873.567744	3436.728497
873.878874	3445.626133
874.189963	3461.813278
874.501010	3461.861169
874.812015	3461.561221
875.122979	3476.969507
875.433900	3473.239053
875.744780	3477.803818
876.055618	3485.166423
876.366415	3481.715754
876.677169	3486.404027
876.987882	3505.169722
877.298554	3523.212012
877.609183	3557.779203
877.919771	3604.563632
878.230317	3675.976617
878.540822	3773.253242
878.851285	3922.877209
879.161707	4142.560611
879.472087	4509.417980
879.782425	5126.230879
880.092722	6293.691534
880.402977	8200.021505
880.713191	10549.267252
881.023363	12910.636975
881.333494	14236.437752
881.643583	14686.141442
881.953631	14282.851655
882.263637	13446.476341
882.573602	12415.998960
882.883526	11475.803603
883.193408	10531.547597
883.503248	9631.013518
883.813048	8809.880132
884.122806	8049.812764
884.432522	7293.755634
884.742197	6641.758001
885.051831	6086.484987
885.361424	5593.346715
885.670975	5208.681471
885.980485	4890.635075
886.289954	4627.935507
886.599382	4412.537085
886.908768	4237.674582
887.218113	4074.754572
887.527417	3941.300106
887.836680	3825.290553
888.145901	3725.243814
888.455082	3648.804798
888.764221	3582.397678
889.073319	3522.523894
889.382376	3490.353771
889.691392	3464.732106
890.000366	3457.608956
890.309300	3454.682566
890.618193	3459.436374
890.927044	3451.572174
891.235855	3460.321097
891.544625	3469.944659
891.853353	3499.765605
892.162041	3558.477403
892.470687	3649.102226
892.779293	3767.085391
893.087858	3938.713994
893.396381	4210.714491
893.704864	4618.322026
894.013306	5178.898334
894.321707	5740.901288
894.630068	6096.617706
894.938387	6134.688500
895.246665	5957.421366
895.554903	5645.376464
895.863100	5307.987160
896.171256	5044.302047
896.479371	4809.154905
896.787446	4584.606789
897.095480	4392.649733
897.403473	4243.993668
897.711425	4106.586937
898.019336	3983.371055
898.327207	3860.573589
898.635038	3762.656737
898.942827	3656.061539
899.250576	3573.905855
899.558284	3490.189933
899.865952	3435.095163
900.173579	3375.856564
900.481165	3329.230932
900.788711	3286.731485
901.096216	3254.881475
901.403681	3229.431209
901.711105	3218.542317
902.018489	3214.645505
902.325832	3246.293869
902.633135	3306.147489
902.940397	3474.005309
903.247619	3871.293602
903.554800	4611.340028
903.861941	5562.426798
904.169041	6251.693681
904.476101	6460.740249
904.783121	6191.865267
905.090100	5795.345750
905.397039	5388.300303
905.703938	5030.010376
906.010796	4714.852561
906.317614	4464.075321
906.624391	4229.964137
906.931129	4035.214281
907.237826	3858.927652
907.544483	3693.504709
907.851099	3523.643030
908.157675	3364.733258
908.464211	3224.228739
908.770707	3126.379942
909.077163	3050.361863
909.383578	2992.575117
909.689954	2947.121553
909.996289	2918.775145
910.302584	2898.907958
910.608839	2888.316493
910.915054	2874.483567
911.221229	2868.121631
911.527363	2873.508104
911.833458	2880.043960
912.139513	2892.901423
912.445527	2905.282497
912.751502	2937.250974
913.057436	2981.338385
913.363331	3038.268135
913.669186	3124.149232
913.975000	3240.153744
914.280775	3417.388110
914.586510	3683.833255
914.892205	4053.208680
915.197859	4544.247312
915.503475	5116.332573
915.809050	5606.620073
916.114585	5891.185646
916.420081	5954.358865
916.725536	5891.412498
917.030952	5653.530530
917.336328	5456.000478
917.641665	5243.147840
917.946961	5022.259602
918.252218	4828.878419
918.557435	4598.162452
918.862612	4403.773039
919.167750	4237.160384
919.472848	4050.405798
919.777906	3884.536713
920.082925	3729.818661
920.387904	3576.393664
920.692843	3465.185810
920.997743	3373.182232
921.302603	3280.228396
921.607423	3214.932851
921.912204	3150.771565
922.216946	3102.003443
922.521647	3057.202709
922.826310	3014.914990
923.130932	2980.178919
923.435516	2936.454471
923.740059	2910.585790
924.044564	2880.464896
924.349028	2856.622759
924.653454	2827.449602
924.957840	2801.780046
925.262186	2783.725154
925.566493	2761.012235
925.870761	2738.957187
926.174989	2728.882441
926.479178	2711.961808
926.783328	2698.232226
927.087438	2687.073632
927.391509	2672.489574
927.695541	2659.783345
927.999533	2650.278250
928.303486	2643.273567
928.607400	2635.646301
928.911275	2631.784777
929.215110	2624.507871
929.518906	2621.412603
929.822663	2622.443519
930.126381	2622.546862
930.430060	2627.315794
930.733699	2624.223046
931.037299	2632.253604
931.340861	2628.213119
931.644383	2633.949952
931.947866	2632.024232
932.251309	2631.351238
932.554714	2629.975003
932.858080	2628.472739
933.161407	2623.895371
933.464694	2618.700462
933.767943	2615.645523
934.071153	2612.124277
934.374323	2610.158227
934.677455	2607.667897
934.980548	2602.110025
935.283602	2602.329315
935.586617	2600.567432
935.889593	2601.056424
936.192530	2601.419387
936.495428	2609.775099
936.798287	2614.654936
937.101108	2631.920888
937.403890	2650.810092
937.706632	2679.900070
938.009336	2710.860316
938.312002	2740.797208
938.614628	2761.047523
938.917216	2778.787344
939.219765	2790.366874
939.522275	2797.999181
939.824747	2800.386167
940.127179	2791.717903
940.429573	2787.322017
940.731929	2788.463838
941.034246	2779.074689
941.336524	2778.288269
941.638763	2770.126641
941.940964	2761.700353
942.243126	2748.182499
942.545250	2738.430387
942.847335	2724.534446
943.149381	2712.344936
943.451389	2698.915302
943.753359	2685.480627
944.055290	2680.477282
944.357182	2668.461692
944.659036	2662.344252
944.960851	2659.150681
945.262628	2656.022645
945.564367	2657.275371
945.866067	2651.863693
946.167729	2655.190854
946.469352	2651.972077
946.770937	2647.467807
947.072484	2644.392703
947.373992	2645.335398
947.675462	2641.957825
947.976893	2636.614202
948.278286	2630.305198
948.579641	2630.214457
948.880958	2624.883437
949.182236	2625.586678
949.483476	2622.607356
949.784678	2622.136008
950.085841	2620.232973
950.386967	2626.370578
950.688054	2630.542132
950.989103	2638.766775
951.290114	2648.987714
951.591087	2659.478356
951.892021	2670.407577
952.192917	2681.467869
952.493776	2692.911288
952.794596	2697.687781
953.095378	2699.245498
953.396122	2695.116793
953.696828	2691.789631
953.997496	2686.917356
954.298126	2679.373269
954.598718	2672.592917
954.899272	2660.627739
955.199788	2650.575678
955.500266	2639.270890
955.800706	2620.971502
956.101108	2603.685385
956.401472	2594.954107
956.701798	2581.710996
957.002087	2568.268759
957.302337	2558.705690
957.602550	2550.065152
957.902724	2536.554860
958.202861	2528.622605
958.502960	2517.726151
958.803022	2515.535769
959.103045	2505.362721
959.403031	2502.295179
959.702979	2494.662872
960.002889	2490.297233
960.302762	2488.454691
960.602596	2482.281798
960.902393	2477.520428
961.202153	2478.079996
961.501875	2473.729480
961.801559	2474.150417
962.101205	2469.646146
962.400814	2468.549695
962.700385	2463.201031
962.999918	2463.011987
963.299414	2463.511062
963.598873	2460.256997
963.898293	2457.207099
964.197677	2457.121399
964.497022	2457.864969
964.796331	2452.579319
965.095601	2454.038733
965.394835	2455.256172
965.694030	2454.270627
965.993189	2454.507561
966.292309	2452.039916
966.591393	2449.226952
966.890439	2451.923969
967.189447	2448.906839
967.488419	2451.152673
967.787353	2453.741305
968.086249	2454.177365
968.385108	2453.592591
968.683930	2455.636779
968.982714	2455.714917
969.281462	2458.046451
969.580172	2457.774228
969.878844	2458.724486
970.177480	2463.737913
970.476078	2465.333439
970.774639	2470.304016
971.073162	2469.759572
971.371649	2469.469705
971.670098	2468.902576
971.968510	2475.148565
972.266885	2475.899697
972.565223	2479.899853
972.863524	2477.333905
973.161788	2480.598052
973.460014	2477.875829
973.758204	2484.020996
974.056356	2480.035964
974.354471	2484.026037
974.652550	2484.797334
974.950591	2483.211891
975.248595	2482.203660
975.546563	2479.920017
975.844493	2479.458752
976.142386	2479.325161
976.440243	2475.635037
976.738062	2474.772999
977.035845	2471.357618
977.333590	2467.019705
977.631299	2467.768316
977.928971	2466.830661
978.226606	2463.445527
978.524204	2461.585341
978.821765	2461.663479
979.119290	2459.273972
979.416777	2461.658438
979.714228	2459.846143
980.011642	2462.192800
980.309020	2467.738069
980.606360	2468.080868
980.903664	2477.333905
981.200931	2492.845536
981.498162	2509.773730
981.795356	2537.058976
982.092513	2576.571539
982.389633	2617.561161
982.686717	2659.768222
982.983764	2690.090762
983.280775	2710.575491
983.577749	2707.828062
983.874686	2700.863708
984.171587	2684.522808
984.468451	2667.834068
984.765279	2653.582726
985.062070	2634.756537
985.358824	2615.108640
985.655543	2594.351689
985.952224	2573.219172
986.248869	2544.988711
986.545478	2519.452746
986.842050	2498.728562
987.138586	2482.135604
987.435086	2467.949798
987.731549	2456.763477
988.027975	2454.273147
988.324366	2446.640840
988.620719	2444.392486
988.917037	2441.811415
989.213318	2436.533327
989.509563	2435.202462
989.805772	2432.089550
990.101944	2431.295568
990.398080	2431.681216
990.694180	2430.743562
990.990244	2433.871597
991.286271	2429.523602
991.582262	2430.431010
991.878217	2431.998809
992.174136	2433.080136
992.470019	2434.237081
992.765865	2436.387133
993.061676	2439.588266
993.357450	2441.216559
993.653188	2442.237392
993.948890	2448.314503
994.244556	2453.476645
994.540186	2462.775053
994.835780	2471.763430
995.131337	2487.290184
995.426859	2501.692761
995.722345	2522.568179
996.017795	2543.771272
996.313208	2556.169990
996.608586	2563.436813
996.903928	2569.821434
997.199234	2568.256156
997.494504	2564.066957
997.789738	2558.486400
998.084936	2547.930224
998.380099	2535.168543
998.675225	2525.610515
998.970316	2509.219203
999.265371	2498.378202
999.560390	2485.576192
999.855373	2474.442804
1000.150320	2463.548870
1000.445232	2454.835236
1000.740108	2449.834411
1001.034948	2444.037084
1001.329752	2437.027360
1001.624521	2436.866043
1001.919254	2430.491504
1002.213951	2428.848088
1002.508613	2421.961872
1002.803239	2424.283323
1003.097829	2421.568662
1003.392384	2421.510688
1003.686903	2422.342479
1003.981386	2421.372057
1004.275834	2419.045564
1004.570246	2415.297466
1004.864623	2416.293094
1005.158964	2415.224369
1005.453270	2418.453228
1005.747540	2414.657240
1006.041775	2411.882084
1006.335974	2414.064904
1006.630138	2415.494071
1006.924266	2411.874523
1007.218359	2413.964081
1007.512416	2412.421488
1007.806438	2411.453586
1008.100425	2409.190108
1008.394376	2411.803947
1008.688292	2414.473238
1008.982172	2409.487536
1009.276017	2411.216652
1009.569827	2411.904770
1009.863602	2411.398134
1010.157341	2410.074831
1010.451045	2409.293452
1010.744714	2411.430901
1011.038347	2413.026426
1011.331945	2410.888977
1011.625508	2410.034502
1011.919036	2410.750345
1012.212528	2408.968298
1012.505986	2406.551064
1012.799408	2409.285890
1013.092795	2407.453431
1013.386147	2406.104922
1013.679464	2406.717422
1013.972745	2408.035684
1014.265992	2406.825807
1014.559204	2405.089130
1014.852380	2405.409243
1015.145521	2410.155489
1015.438628	2408.804460
1015.731699	2409.265726
1016.024736	2407.445869
1016.317737	2409.081723
1016.610703	2407.869326
1016.903635	2405.477298
1017.196531	2406.553585
1017.489393	2410.944430
1017.782219	2403.533934
1018.075011	2413.281005
1018.367768	2408.917886
1018.660490	2409.268246
1018.953177	2409.268246
1019.245829	2409.268246
