Dividing Wavelength (nm)	Counts (n)	Blue Motor Position (mm): 25.400000	Red Motor Position (mm): 0.000000	
326.493990	1969.999744
326.888308	1969.999744
327.282561	1969.999744
327.676750	1947.337237
328.070874	1947.455704
328.464933	1955.942487
328.858929	1964.575462
329.252859	1977.027112
329.646726	1991.112096
330.040528	2003.132728
330.434265	2024.615605
330.827938	2044.810467
331.221547	2064.528940
331.615091	2083.428226
332.008571	2103.406319
332.401986	2126.830040
332.795338	2145.257978
333.188625	2165.820845
333.581847	2185.932528
333.975006	2203.911803
334.368100	2222.657334
334.761129	2237.052348
335.154095	2255.104720
335.546996	2287.295008
335.939833	2360.099352
336.332606	2375.560571
336.725315	2385.920142
337.117960	2393.970865
337.510540	2399.803480
337.903056	2414.944585
338.295508	2416.167065
338.687896	2425.997315
339.080220	2432.976793
339.472480	2439.137083
339.864676	2440.901487
340.256807	2445.194029
340.648875	2447.210491
341.040879	2448.697631
341.432818	2449.315172
341.824694	2449.975563
342.216506	2451.442539
342.608253	2449.219390
342.999937	2451.187961
343.391557	2446.262754
343.783113	2446.567743
344.174605	2443.754780
344.566033	2443.792588
344.957397	2443.706889
345.348697	2440.483071
345.739934	2436.525765
346.131106	2435.759510
346.522215	2435.973759
346.913260	2431.771957
347.304241	2432.185332
347.695159	2427.955803
348.086012	2428.643921
348.476802	2427.227357
348.867528	2424.641245
349.258191	2422.478590
349.648789	2420.386511
350.039324	2421.334248
350.429796	2421.041861
350.820203	2421.193096
351.210548	2418.705286
351.600828	2418.480955
351.991045	2418.294432
352.381198	2416.335944
352.771288	2418.289391
353.161314	2416.744277
353.551276	2415.632703
353.941175	2414.450552
354.331010	2415.511715
354.720782	2416.227559
355.110490	2419.196799
355.500135	2418.251582
355.889717	2418.044895
356.279235	2416.484658
356.668689	2418.980029
357.058080	2418.032292
357.447408	2416.852662
357.836672	2415.725964
358.225873	2414.944585
358.615010	2417.233269
359.004084	2420.605801
359.393095	2422.713003
359.782043	2421.853487
360.170927	2423.665782
360.559748	2422.919691
360.948505	2424.709300
361.337199	2426.468663
361.725830	2426.012439
362.114398	2427.363468
362.502903	2425.528488
362.891344	2428.961514
363.279722	2429.019487
363.668037	2429.047213
364.056289	2428.492686
364.444478	2429.027049
364.832603	2431.933274
365.220665	2430.877152
365.608665	2431.159457
365.996601	2431.595517
366.384474	2430.216761
366.772284	2433.059972
367.160031	2430.060485
367.547715	2431.262800
367.935336	2432.961669
368.322893	2431.582914
368.710388	2432.921340
369.097820	2433.939653
369.485189	2432.893614
369.872495	2434.690785
370.259738	2434.123655
370.646918	2433.306988
371.034035	2434.567277
371.421090	2434.922678
371.808081	2438.751434
372.195010	2437.907041
372.581875	2438.617844
372.968678	2435.933429
373.355418	2434.279931
373.742096	2438.259922
374.128710	2439.222782
374.515262	2437.796136
374.901751	2439.495005
375.288177	2438.557350
375.674540	2436.795467
376.060841	2438.932916
376.447079	2439.386620
376.833254	2439.570622
377.219367	2438.945519
377.605417	2440.609100
377.991404	2437.715477
378.377329	2441.037598
378.763191	2440.097423
379.148991	2442.060952
379.534727	2443.359049
379.920402	2442.446600
380.306013	2440.609100
380.691563	2444.941971
381.077049	2441.597166
381.462474	2445.307455
381.847835	2445.662856
382.233134	2443.921138
382.618371	2445.491457
383.003545	2446.751746
383.388657	2448.639658
383.773706	2446.900460
384.158693	2446.928186
384.543618	2452.357509
384.928480	2446.212342
385.313280	2446.449276
385.698017	2452.231480
386.082692	2446.630758
386.467305	2447.394493
386.851856	2448.317024
387.236344	2451.999587
387.620770	2449.305090
388.005133	2447.417178
388.389435	2453.000256
388.773674	2451.301387
389.157851	2455.001594
389.541965	2450.966150
389.926018	2452.198712
390.310008	2452.859103
390.693936	2450.595625
391.077802	2453.678291
391.461606	2455.283898
391.845348	2453.257355
392.229027	2455.684670
392.612645	2453.529577
392.996200	2455.175514
393.379694	2455.392283
393.763125	2454.497478
394.146494	2456.196347
394.529801	2456.856738
394.913047	2458.916050
395.296230	2457.670885
395.679351	2458.908488
396.062410	2457.673405
396.445408	2455.457818
396.828343	2459.349589
397.211217	2456.468570
397.594028	2459.117696
397.976778	2455.109979
398.359466	2458.459825
398.742092	2456.216512
399.124656	2460.171297
399.507158	2458.689198
399.889598	2460.965279
400.271977	2459.215998
400.654294	2466.112297
401.036549	2461.348407
401.418742	2464.783953
401.800874	2462.603654
402.182944	2466.197997
402.564952	2464.597430
402.946898	2464.083233
403.328783	2463.695064
403.710606	2465.787143
404.092367	2465.129272
404.474067	2466.946608
404.855705	2467.155816
405.237282	2465.661114
405.618797	2467.261680
406.000250	2468.164047
406.381642	2467.060034
406.762972	2470.351907
407.144240	2469.426856
407.525447	2470.588842
407.906593	2469.512555
408.287677	2468.693368
408.668700	2469.396609
409.049661	2471.735704
409.430560	2472.307875
409.811399	2472.612865
410.192176	2472.005406
410.572891	2471.839048
410.953545	2476.441621
411.334138	2473.570684
411.714669	2474.503298
412.095139	2476.108905
412.475547	2473.994141
412.855894	2475.841724
413.236180	2472.849799
413.616405	2474.417598
413.996568	2471.241671
414.376670	2474.893987
414.756711	2473.197639
415.136691	2477.621251
415.516609	2476.398771
415.896466	2478.377424
416.276262	2476.711323
416.655997	2474.407516
417.035670	2475.657722
417.415283	2481.961685
417.794834	2474.440283
418.174324	2480.146869
418.553753	2479.983032
418.933121	2482.012096
419.312428	2480.381283
419.691674	2483.784062
420.070859	2484.227683
420.449983	2480.898001
420.829045	2483.942858
421.208047	2482.770790
421.586988	2485.593836
421.965867	2484.850266
422.344686	2486.854124
422.723444	2486.102992
423.102141	2485.424957
423.480777	2486.138281
423.859352	2487.816985
424.237866	2489.283961
424.616319	2487.620380
424.994712	2490.365288
425.373044	2491.396204
425.751314	2489.283961
426.129524	2489.566265
426.507673	2493.765546
426.885762	2494.501555
427.263789	2492.527943
427.641756	2491.587768
428.019662	2494.680516
428.397508	2492.999291
428.775292	2492.631287
429.153016	2496.195382
429.530679	2495.497183
429.908282	2495.993736
430.285824	2496.258397
430.663305	2494.725886
431.040726	2494.604898
431.418086	2498.829385
431.795385	2499.963645
432.172624	2500.417349
432.549802	2500.470281
432.926920	2498.315188
433.303977	2500.772750
433.680974	2501.218892
434.057910	2505.604696
434.434786	2503.893224
434.811601	2507.051507
435.188355	2505.307268
435.565050	2506.388596
435.941683	2506.602845
436.318257	2510.577794
436.694770	2507.870695
437.071222	2511.739780
437.447614	2506.686024
437.823946	2507.815242
438.200218	2513.675583
438.576429	2514.444359
438.952580	2515.571057
439.328670	2513.431087
439.704700	2516.801099
440.080670	2515.702127
440.456580	2520.284536
440.832429	2521.350740
441.208218	2521.287726
441.583947	2520.065246
441.959616	2525.161853
442.335224	2527.765608
442.710773	2526.540608
443.086261	2530.255938
443.461689	2528.032790
443.837057	2533.346166
444.212365	2532.806762
444.587612	2538.551157
444.962800	2542.304296
445.337927	2540.418905
445.712995	2540.842362
446.088002	2546.942158
446.462949	2553.672098
446.837837	2551.161603
447.212664	2556.124619
447.587431	2571.827814
447.962139	2588.282140
448.336786	2602.253698
448.711374	2601.338728
449.085901	2589.860021
449.460369	2594.727255
449.834776	2600.582555
450.209124	2619.015534
450.583412	2629.092801
450.957640	2637.987917
451.331808	2641.486477
451.705917	2642.421612
452.079965	2654.601039
452.453954	2666.417504
452.827883	2681.624144
453.201752	2689.122861
453.575562	2703.323791
453.949311	2730.548542
454.323001	2750.110740
454.696632	2769.398195
455.070202	2805.699543
455.443713	2833.282217
455.817164	2864.814634
456.190556	2899.235633
456.563888	2924.002821
456.937160	2955.280660
457.310373	2965.166363
457.683526	3002.576766
458.056619	3040.007333
458.429653	3078.977973
458.802628	3136.469812
459.175542	3189.618697
459.548398	3274.720936
459.921194	3380.073489
460.293930	3475.363900
460.666607	3614.121659
461.039224	3755.374790
461.411782	3836.751616
461.784280	3859.214998
462.156719	3909.571083
462.529099	3961.046305
462.901419	3981.432732
463.273680	4014.550592
463.645882	4094.175617
464.018024	4188.011654
464.390106	4337.683512
464.762130	4631.413903
465.134094	5063.851641
465.505999	5621.378051
465.877845	6135.827801
466.249631	6367.234407
466.621358	6342.595767
466.993026	6293.139527
467.364634	6255.673672
467.736184	6232.338171
468.107674	6272.758142
468.479105	6353.101532
468.850477	6432.950888
469.221790	6433.180261
469.593043	6388.404732
469.964238	6442.990346
470.335373	6582.554690
470.706449	6954.065043
471.077467	7492.535892
471.448425	8333.322215
471.819324	8949.537738
472.190164	8865.305098
472.560945	8510.612034
472.931667	8214.809729
473.302330	8222.731903
473.672934	8275.417002
474.043479	8543.891211
474.413965	8588.207995
474.784393	8710.342550
475.154761	9062.464625
475.525070	9266.860728
475.895321	9374.406184
476.265513	9687.439153
476.635645	10096.218756
477.005719	10273.024625
477.375734	10588.431977
477.745691	10967.131015
478.115588	11504.691935
478.485427	12248.183990
478.855207	13403.992017
479.224928	14413.261264
479.594591	15162.868238
479.964194	15149.975487
480.333739	15468.405011
480.703226	15793.892150
481.072653	16326.200188
481.442022	16819.761917
481.811333	17232.236686
482.180584	17118.719984
482.549777	17246.999705
482.918912	17393.629227
483.287988	17621.827138
483.657005	17627.929454
484.025964	17712.353658
484.394864	18030.329478
484.763706	18190.975928
485.132489	18172.631169
485.501213	18410.739988
485.869879	18783.266134
486.238487	18941.190361
486.607036	19347.572896
486.975527	19431.261091
487.343959	19827.815896
487.712333	20171.274749
488.080648	20441.561253
488.448905	20958.062753
488.817104	21206.921833
489.185244	21980.643167
489.553326	23146.155415
489.921350	24893.804987
490.289315	26850.228903
490.657222	27594.358664
491.025070	28141.853177
491.392861	27952.613303
491.760593	27565.850939
492.128267	26962.548332
492.495883	26430.535202
492.863440	25978.900749
493.230939	25540.824480
493.598380	25239.318110
493.965763	25368.422060
494.333088	25202.205135
494.700354	25225.691871
495.067563	25358.102818
495.434713	25573.029891
495.801805	25898.965693
496.168839	25953.253879
496.535815	26032.100046
496.902733	26335.867374
497.269593	26343.010689
497.636395	26575.985093
498.003139	27117.606662
498.369825	27022.023865
498.736453	27480.509245
499.103023	27438.176156
499.469535	27624.141801
499.835989	27938.740048
500.202385	27966.524367
500.568723	28224.742349
500.935003	28628.193453
501.301226	28736.636234
501.667390	29408.974923
502.033497	29844.427272
502.399546	29662.839869
502.765537	29423.400185
503.131470	29931.397258
503.497345	30416.948593
503.863163	29648.419648
504.228923	30340.766676
504.594625	30871.615300
504.960269	30545.253520
505.325856	31277.435746
505.691385	30991.531747
506.056856	31302.250826
506.422270	31867.482639
506.787625	31723.855125
507.152924	32083.629672
507.518164	32367.159288
507.883347	31927.058995
508.248472	32324.362412
508.613540	32890.592374
508.978550	33325.671677
509.343503	33312.897393
509.708398	33645.648835
510.073236	34269.264772
510.438016	34445.702636
510.802738	34156.526928
511.167403	34847.545612
511.532010	35210.596909
511.896561	35627.621320
512.261053	36510.322317
512.625488	36264.130007
512.989866	36318.123286
513.354186	36317.750240
513.718449	36448.931146
514.082655	37210.689821
514.446803	37041.864099
514.810894	37641.327868
515.174927	37699.200314
515.538904	37758.290199
515.902822	38467.255390
516.266684	38101.950698
516.630488	38593.143084
516.994235	38581.603883
517.357925	39199.694715
517.721558	39466.631373
518.085133	39868.867559
518.448651	40099.397004
518.812112	39985.502215
519.175516	40155.361373
519.538863	40568.962840
519.902152	40633.640844
520.265385	41156.537047
520.628560	41263.475044
520.991678	41142.752012
521.354739	41445.710235
521.717743	41815.713283
522.080690	41776.903960
522.443580	42381.335786
522.806413	42499.979342
523.169189	42510.520394
523.531908	42749.415634
523.894569	42680.596322
524.257174	42893.718663
524.619722	43243.766304
524.982213	43290.898572
525.344647	43257.473201
525.707025	43342.638454
526.069345	43782.466524
526.431608	43751.057615
526.793815	44083.020117
527.155964	43695.688102
527.518057	43898.783588
527.880093	43725.317484
528.242072	44269.600782
528.603995	43998.094318
528.965860	44049.617431
529.327669	44172.412377
529.689421	44107.878046
530.051117	44103.703971
530.412755	44268.567346
530.774337	44352.701683
531.135862	44213.890991
531.497331	44405.800156
531.858743	44345.873440
532.220098	44701.710846
532.581396	44440.896669
532.942638	44119.674346
533.303824	44429.735555
533.664953	44430.043065
534.026025	44183.439901
534.387040	44647.720088
534.747999	44597.245535
535.108902	44792.839784
535.469748	44330.913816
535.830537	44456.083145
536.191270	44663.793807
536.551947	44326.986757
536.912567	44645.202032
537.273131	44766.262821
537.633638	44289.518381
537.994089	44629.234177
538.354483	44241.715640
538.714821	44820.394731
539.075103	45153.950237
539.435328	44957.849352
539.795497	44848.567219
540.155609	44844.257033
540.515665	45322.065156
540.875665	44781.303103
541.235609	45103.057268
541.595496	45090.681235
541.955328	45746.111894
542.315102	45147.505122
542.674821	44940.774964
543.034483	44972.758565
543.394090	44971.180683
543.753640	44926.420278
544.113134	45906.347489
544.472571	44970.021218
544.831953	46178.279931
545.191278	45404.480459
545.550548	45150.653322
545.909761	45597.622187
546.268918	45813.582697
546.628019	46108.366689
546.987064	45685.781885
547.346053	44969.862422
547.704986	45840.005905
548.063863	45421.280105
548.422684	45625.222504
548.781449	45489.960785
549.140158	45869.118568
549.498811	45725.428040
549.857408	45160.105486
550.215949	45992.825963
550.574434	45929.587209
550.932864	45712.058900
551.291237	46414.745334
551.649555	46034.428085
552.007817	46265.222191
552.366022	45943.548684
552.724173	46113.390198
553.082267	46506.433840
553.440305	46799.065259
553.798288	46130.527601
554.156215	46435.976154
554.514086	46655.006727
554.871902	46400.846873
555.229661	46420.046107
555.587365	46249.324912
555.945014	46354.455655
556.302606	46281.467309
556.660143	46511.432144
557.017625	46601.099148
557.375050	46398.036430
557.732421	46764.795496
558.089735	46715.921509
558.446994	46646.882907
558.804197	47081.843743
559.161345	47038.482258
559.518437	46312.636763
559.875474	46612.819831
560.232455	46774.850077
560.589381	46948.278372
560.946251	46655.785585
561.303065	47327.841969
561.659825	47120.186759
562.016528	46813.488001
562.373177	46552.910758
562.729770	47016.686830
563.086307	46554.697847
563.442789	47012.399328
563.799216	47048.158753
564.155587	46852.219186
564.511904	46865.643778
564.868164	46967.633882
565.224370	47208.265799
565.580520	46952.081923
565.936615	47172.279523
566.292654	46892.908859
566.648638	47116.695760
567.004567	47087.510000
567.360441	47131.947771
567.716260	46967.538100
568.072023	47273.158052
568.427732	47275.141746
568.783385	46823.966039
569.138982	47217.823827
569.494525	47196.643419
569.850013	46957.486040
570.205445	46933.081814
570.560823	46882.670275
570.916145	46764.477903
571.271412	46802.170610
571.626625	46553.109884
571.981782	46609.376722
572.336884	46321.012640
572.691931	46612.270345
573.046923	46226.922024
573.401860	46085.353821
573.756743	46057.987918
574.111570	46184.185642
574.466342	46032.968671
574.821059	46147.309602
575.175722	45700.965841
575.530330	45720.533079
575.884882	45450.516276
576.239380	45402.516930
576.593823	45380.068672
576.948211	45300.607484
577.302544	44826.567624
577.656823	44879.436725
578.011047	45087.033961
578.365216	44824.029403
578.719330	44614.723216
579.073389	44474.130476
579.427394	44568.639508
579.781344	44534.929312
580.135239	44202.631574
580.489080	44291.333196
580.842866	43764.300726
581.196597	44218.581785
581.550273	44161.896530
581.903895	44034.234350
582.257463	44465.525226
582.610975	43850.746433
582.964434	44137.388961
583.317837	43786.620435
583.671186	43625.822751
584.024481	43851.154766
584.377721	43396.984613
584.730906	43689.079149
585.084037	43705.944329
585.437113	43433.603555
585.790135	43457.443171
586.143103	43073.632402
586.496016	43195.446844
586.848874	43226.482708
587.201679	43238.243720
587.554428	42728.595669
587.907124	42922.765791
588.259765	42675.991228
588.612352	42945.516519
588.964884	42347.597864
589.317362	42630.613282
589.669786	42566.676328
590.022155	42362.829710
590.374470	42764.723098
590.726731	42295.379072
591.078937	41829.732732
591.431090	41899.769482
591.783188	41569.866292
592.135232	41267.157607
592.487222	41504.550583
592.839157	41586.555032
593.191038	41271.316559
593.542866	41044.242825
593.894639	40450.944388
594.246358	40710.556249
594.598022	40694.296007
594.949633	40302.762191
595.301190	40265.908836
595.652692	40120.660591
596.004141	40431.800606
596.355535	39475.430707
596.706876	39408.864791
597.058162	39244.896221
597.409395	39705.687929
597.760573	39793.005755
598.111698	39356.025937
598.462768	39371.237619
598.813785	39409.976365
599.164748	38883.390037
599.515657	39287.713261
599.866511	38750.888350
600.217312	39368.112103
600.568060	38350.096454
600.918753	39085.416798
601.269392	39037.556084
601.619978	38709.704643
601.970510	38904.648583
602.320988	39089.605997
602.671412	39388.795958
603.021783	39113.044842
603.372100	38787.149369
603.722363	38887.299452
604.072572	38967.756268
604.422728	38972.454623
604.772830	38792.435019
605.122878	38885.935820
605.472872	38830.198303
605.822813	39097.820557
606.172701	38927.220350
606.522534	39169.344448
606.872314	39418.281666
607.222041	39183.016057
607.571714	39568.039224
607.921333	39024.025627
608.270899	39310.093464
608.620411	39662.449953
608.969870	39453.615114
609.319276	39450.323240
609.668627	39515.807829
610.017926	39970.532508
610.367171	40143.360906
610.716362	40226.189585
611.065500	40193.152383
611.414585	40355.729594
611.763616	40662.115802
612.112594	40577.389129
612.461518	40805.246762
612.810389	41102.556372
613.159207	40961.371297
613.507971	41019.538651
613.856682	41507.643331
614.205340	41385.188662
614.553945	42084.777308
614.902496	41525.252081
615.250994	42000.030471
615.599439	42079.027872
615.947830	42296.823362
616.296169	42329.278311
616.644454	42465.815442
616.992686	42629.584887
617.340864	43158.346472
617.688990	42871.487174
618.037063	43474.956140
618.385082	43442.907004
618.733048	43730.182197
619.080961	43738.936161
619.428821	43757.207823
619.776628	43844.724774
620.124382	43690.452864
620.472083	43810.777644
620.819731	43941.159527
621.167326	43611.432777
621.514868	43591.986526
621.862357	43157.612984
622.209793	43170.770396
622.557176	42855.433620
622.904506	42587.403032
623.251783	42263.009823
623.599007	42042.444219
623.946179	41811.103148
624.293297	41765.440377
624.640363	41184.064268
624.987376	41184.885976
625.334336	40939.633842
625.681243	40572.547101
626.028097	40538.209281
626.374899	40401.334393
626.721647	40374.278520
627.068343	40263.423547
627.414987	40046.157378
627.761577	39807.942694
628.108115	40155.021095
628.454600	39589.701062
628.801032	39785.033170
629.147412	39759.172051
629.493739	39756.444787
629.840014	39407.087784
630.186236	39761.485941
630.532405	39379.976459
630.878521	39578.436603
631.224585	39468.360489
631.570597	39171.547432
631.916556	39345.815080
632.262462	39315.245523
632.608316	39307.025922
632.954117	39208.239471
633.299866	39193.151297
633.645562	39101.898851
633.991206	38617.532187
634.336797	38178.896349
634.682336	38189.450005
635.027823	37948.331616
635.373257	37753.334744
635.718639	37526.437451
636.063968	37377.166365
636.409245	36826.236305
636.754470	36869.151648
637.099642	36630.805894
637.444762	36161.920613
637.789829	36300.491850
638.134845	35956.654911
638.479808	35913.134630
638.824719	35809.974978
639.169577	35435.583605
639.514383	35489.997820
639.859137	35206.344696
640.203839	35433.294921
640.548489	35068.965692
640.893086	35139.985467
641.237632	34900.288684
641.582125	35019.922827
641.926566	34933.245227
642.270955	34913.186476
642.615292	34918.759472
642.959576	34897.516049
643.303809	34905.115589
643.647990	35054.164864
643.992118	35003.947410
644.336195	34998.744939
644.680219	35086.271973
645.024192	35399.357874
645.368112	35907.359988
645.711981	35923.526968
646.055797	36788.072250
646.399562	36707.522173
646.743274	37652.582244
647.086935	38086.111392
647.430544	37989.417020
647.774101	38101.358362
648.117606	38334.254628
648.461059	38631.231522
648.804460	38253.621373
649.147810	37634.192114
649.491108	37382.119299
649.834354	37032.585856
650.177548	36214.467080
650.520690	35764.967556
650.863781	35777.537673
651.206820	35632.241537
651.549807	35196.128798
651.892742	34729.411213
652.235626	34533.229670
652.578458	34390.491919
652.921238	33800.198009
653.263967	34131.197650
653.606644	33821.199456
653.949269	33757.391052
654.291843	33386.770462
654.634365	33776.192035
654.976836	33383.201325
655.319255	33362.217522
655.661622	33365.403531
656.003938	33141.004130
656.346203	33010.776002
656.688416	33242.626229
657.030577	33026.393497
657.372687	32871.244426
657.714746	33130.084990
658.056753	33259.561986
658.398708	32721.738926
658.740612	32771.691719
659.082465	33046.986610
659.424266	32871.645197
659.766016	32989.194823
660.107715	32865.041286
660.449362	33000.061030
660.790958	32962.375884
661.132503	33007.428676
661.473996	33027.041285
661.815438	33140.394150
662.156829	33321.895853
662.498168	33103.603809
662.839456	33133.419714
663.180693	33274.196455
663.521879	33427.669343
663.863013	33388.194588
664.204097	33376.768813
664.545129	33844.436655
664.886110	33809.630008
665.227040	33881.879825
665.567918	34002.396170
665.908746	34064.956889
666.249522	34220.090837
666.590248	34221.550251
666.930922	34332.165769
667.271545	34305.099814
667.612118	34388.432608
667.952639	34171.448743
668.293109	34217.920620
668.633528	34113.276348
668.973896	34045.024167
669.314213	34075.603806
669.654480	33809.899710
669.994695	33848.335987
670.334859	33738.650562
670.674973	33628.171155
671.015035	33783.801657
671.355047	33748.841255
671.695008	33690.308417
672.034918	33596.190075
672.374777	33669.977444
672.714585	33527.552245
673.054342	33741.461005
673.394049	33498.358923
673.733705	33786.115546
674.073310	33457.588591
674.412864	33528.358829
674.752368	33114.810294
675.091820	33413.710388
675.431223	32983.523525
675.770574	32731.186048
676.109875	32584.798502
676.449125	32297.883752
676.788324	32241.616913
677.127473	31701.694213
677.466571	31624.914919
677.805619	31286.663578
678.144616	31277.163524
678.483562	31198.271987
678.822458	30883.688863
679.161303	30809.460393
679.500098	30716.259541
679.838842	30605.964136
680.177535	30761.839134
680.516179	31040.708203
680.854771	31283.104524
681.193314	32129.635242
681.531805	33256.502005
681.870247	34040.003177
682.208638	34763.610400
682.546978	34994.989280
682.885268	35068.557358
683.223508	34555.151127
683.561697	34213.171853
683.899836	34013.695916
684.237925	33517.570760
684.575963	33362.668705
684.913951	32906.040990
685.251889	33075.058276
685.589776	33062.120154
685.927614	33053.736715
686.265401	33192.388611
686.603137	33286.834628
686.940824	33810.093794
687.278460	34192.026733
687.616046	34323.439532
687.953582	34938.921567
688.291068	34806.029189
688.628504	35078.874080
688.965889	35017.553484
689.303224	34631.867406
689.640510	34285.555261
689.977745	33546.665780
690.314930	32750.367639
690.652065	32225.674264
690.989150	31478.784472
691.326185	30575.969271
691.663170	29881.429341
692.000105	29132.863365
692.336990	28441.461553
692.673825	27995.256423
693.010610	27486.220873
693.347345	26900.806800
693.684030	26263.456240
694.020665	25991.675033
694.357251	25320.125285
694.693786	25277.255313
695.030272	25043.512132
695.366707	24504.552292
695.703093	24222.194745
696.039429	24196.678945
696.375716	23946.937663
696.711952	23907.173041
697.048139	23745.863680
697.384276	23588.839299
697.720363	23709.615263
698.056400	23504.909129
698.392388	23278.576445
698.728326	23237.649837
699.064214	23046.212020
699.400053	22983.951249
699.735842	22633.144915
700.071581	22352.264425
700.407270	22069.410324
700.742910	21874.415973
701.078501	21603.872369
701.414042	21336.708860
701.749533	21024.860562
702.084974	20681.454642
702.420366	20888.925849
702.755709	20446.491502
703.091002	20163.765950
703.426246	20178.695327
703.761440	20073.090716
704.096584	19801.198604
704.431679	19761.922974
704.766725	19675.043729
705.101721	19615.936200
705.436668	19709.139573
705.771565	19380.524398
706.106413	19733.942050
706.441212	19703.559016
706.775961	19836.143882
707.110661	19915.869730
707.445311	20261.292113
707.779913	20112.893146
708.114465	20356.143943
708.448967	20629.860952
708.783421	21328.461532
709.117825	21601.702153
709.452180	21824.115340
709.786485	22210.066078
710.120742	23025.462631
710.454949	23041.765722
710.789107	23509.282330
711.123216	24213.929773
711.457275	24316.718900
711.791286	24869.741039
712.125247	24930.645739
712.459159	24641.180165
712.793023	25274.301197
713.126837	24176.264792
713.460602	24434.686941
713.794318	24046.923908
714.127985	23663.564323
714.461602	22768.535184
714.795171	22715.666083
715.128691	21711.589224
715.462162	21180.644819
715.795584	20746.762790
716.128957	20503.920327
716.462281	20098.949315
716.795556	19852.204998
717.128782	19373.670949
717.461960	18827.658535
717.795088	18744.880268
718.128167	18351.866873
718.461198	17885.318167
718.794180	17743.833143
719.127113	17379.516516
719.459997	17190.148093
719.792833	16849.161926
720.125619	16815.245043
720.458357	16495.217473
720.791046	16326.187585
721.123686	16167.280333
721.456278	15935.178048
721.788821	15890.261368
722.121315	15636.645959
722.453761	15714.436004
722.786158	15637.888603
723.118506	15640.562935
723.450805	15514.549213
723.783056	15670.189797
724.115259	15571.604992
724.447412	15503.259549
724.779518	15756.698517
725.111574	15769.626556
725.443582	15957.951461
725.775542	15950.722446
726.107453	16407.403094
726.439315	16297.387473
726.771129	16695.898246
727.102895	17071.260041
727.434612	17263.824556
727.766281	17391.680821
728.097901	17652.578176
728.429473	17681.947938
728.760996	17662.612593
729.092471	17751.513341
729.423897	17633.923386
729.755276	17489.017940
730.086606	17608.732741
730.417887	18126.900342
730.749120	18642.973343
731.080305	18814.990115
731.411442	19150.365478
731.742530	19206.617193
732.073570	19313.066198
732.404562	19610.562330
732.735506	19425.103321
733.066401	19129.238002
733.397249	18612.247510
733.728048	17977.258731
734.058798	17147.134448
734.389501	16467.153370
734.720156	16008.544481
735.050762	15490.334030
735.381320	15141.476102
735.711831	14900.939967
736.042293	14544.444690
736.372707	14564.011929
736.703073	14353.594167
737.033391	14537.515624
737.363661	14508.854144
737.693883	14616.011431
738.024056	14777.895483
738.354182	14969.943280
738.684260	15251.159007
739.014290	15474.030939
739.344272	15666.237532
739.674207	15938.232988
740.004093	16050.431428
740.333931	16042.778957
740.663722	16074.858339
740.993464	16073.003195
741.323159	15894.901750
741.652806	15620.143742
741.982405	15404.155505
742.311956	15070.746193
742.641460	14950.514673
742.970915	14650.800433
743.300323	14317.998580
743.629683	14099.174694
743.958996	13825.931553
744.288260	13554.969534
744.617477	13256.069440
744.946647	13184.235518
745.275768	12903.148341
745.604842	12720.449364
745.933869	12548.356975
746.262847	12514.389680
746.591778	12433.794233
746.920662	12334.175992
747.249498	12335.617762
747.578286	12459.153758
747.907027	12598.760952
748.235720	12822.016011
748.564365	12843.403107
748.892963	12749.493972
749.221514	12813.405721
749.550017	12663.028101
749.878473	12622.708953
750.206881	12402.886919
750.535242	12311.962147
750.863555	12229.153634
751.191821	12132.081175
751.520039	12148.192703
751.848210	12056.022767
752.176334	12090.453848
752.504411	11994.825680
752.832440	11840.846156
753.160421	11904.218501
753.488356	11781.574790
753.816243	11689.104905
754.144082	11553.530634
754.471875	11499.711275
754.799620	11435.023189
755.127318	11407.369940
755.454969	11375.759384
755.782572	11328.992600
756.110129	11336.337561
756.437638	11252.742628
756.765100	11250.068296
757.092515	11258.610531
757.419882	11262.766962
757.747203	11272.635021
758.074477	11345.179745
758.401703	11300.522684
758.728882	11460.526386
759.056014	11500.573312
759.383099	11611.277051
759.710138	11724.513969
760.037129	11792.801439
760.364073	11814.427989
760.690970	11803.387862
761.017820	11798.858386
761.344623	11988.080616
761.671379	12304.738174
761.998088	12931.177157
762.324751	14484.956554
762.651366	17331.607911
762.977935	20998.291161
763.304456	23204.494168
763.630931	23663.813860
763.957359	22485.683603
764.283740	20575.144269
764.610074	18702.612714
764.936362	16583.694764
765.262602	15080.629375
765.588796	13616.118730
765.914943	12587.199065
766.241044	11747.305026
766.567097	11120.677000
766.893104	10571.574358
767.219064	10211.721673
767.544978	9829.380401
767.870845	9517.436322
768.196665	9328.365326
768.522438	9136.330132
768.848165	8973.513466
769.173846	8813.272829
769.499479	8686.087038
769.825066	8534.479377
770.150607	8348.581788
770.476101	8289.098693
770.801548	8179.330089
771.126949	8034.787605
771.452303	7950.116385
771.777611	7789.212837
772.102872	7765.164012
772.428087	7650.495406
772.753256	7521.300715
773.078378	7440.727953
773.403453	7298.978269
773.728482	7187.934253
774.053465	7126.870756
774.378401	7042.005452
774.703291	6947.703107
775.028135	6855.518048
775.352932	6816.083622
775.677683	6730.315951
776.002388	6645.185986
776.327046	6646.274875
776.651658	6560.202214
776.976224	6487.889383
777.300743	6477.461756
777.625216	6401.733543
777.949643	6360.312902
778.274024	6366.203491
778.598359	6302.102699
778.922647	6299.766124
779.246889	6259.880515
779.571086	6271.674294
779.895236	6284.856912
780.219339	6275.165293
780.543397	6273.315190
780.867409	6325.851575
781.191374	6317.478218
781.515294	6283.576458
781.839167	6337.531928
782.162995	6312.248021
782.486776	6266.691114
782.810511	6220.332663
783.134201	6145.176621
783.457844	6137.314941
783.781441	6083.921560
784.104993	6041.149891
784.428498	6014.247773
784.751958	5995.247664
785.075372	5970.626669
785.398739	5936.906391
785.722061	5958.989165
786.045337	5954.966324
786.368568	6061.886677
786.691752	6082.938535
787.014891	6335.835580
787.337983	6616.408559
787.661030	7049.310084
787.984031	7473.712223
788.306987	7734.518838
788.629897	7818.091086
788.952760	7735.292655
789.275579	7554.015283
789.598351	7260.529389
789.921078	6993.489387
790.243759	6717.849177
790.566395	6517.944742
790.888984	6319.683723
791.211529	6183.103742
791.534027	6022.225399
791.856480	5884.750613
792.178888	5821.103525
792.501249	5760.168578
792.823566	5657.003885
793.145836	5651.070447
793.468062	5631.432632
793.790241	5590.450572
794.112375	5638.495289
794.434464	5725.298917
794.756507	5763.372231
795.078505	5876.868769
795.400457	6095.387665
795.722364	6333.413305
796.044226	6528.455548
796.366042	6685.870618
796.687812	6630.498584
797.009538	6662.653584
797.331218	6567.418626
797.652852	6499.516804
797.974442	6376.096755
798.295986	6309.417413
798.617484	6181.384708
798.938938	6072.813378
799.260346	6004.160424
799.581709	5866.156317
799.903026	5814.953318
800.224299	5742.736268
800.545526	5622.787053
800.866708	5562.802364
801.187845	5514.661865
801.508936	5439.243683
801.829983	5411.663530
802.150984	5304.269309
802.471940	5273.624135
802.792851	5256.852216
803.113717	5236.894288
803.434538	5210.201379
803.755314	5180.067882
804.076045	5169.393238
804.396731	5131.798833
804.717372	5145.357017
805.037967	5153.306916
805.358518	5184.917472
805.679024	5238.903188
805.999485	5249.285444
806.319901	5272.270585
806.640272	5287.404129
806.960598	5330.778217
807.280879	5323.922248
807.601115	5357.629923
807.921306	5320.532072
808.241453	5318.414787
808.561554	5328.061035
808.881611	5296.135408
809.201623	5286.642915
809.521590	5241.980813
809.841513	5224.624120
810.161390	5241.363271
810.481223	5157.095343
810.801011	5141.107324
811.120755	5117.194611
811.440453	5062.913987
811.760107	5036.301736
812.079716	5003.849308
812.399281	4956.563285
812.718801	4952.406853
813.038276	4916.844033
813.357707	4883.325402
813.677093	4903.394235
813.996434	4838.058361
814.315731	4863.599367
814.634983	4857.602914
814.954191	4863.632134
815.273354	4920.692954
815.592473	4966.612825
815.911547	5040.183424
816.230577	5095.192495
816.549562	5180.282131
816.868502	5229.352722
817.187399	5287.368841
817.506250	5365.907498
817.825058	5393.359101
818.143821	5545.748140
818.462539	5710.324169
818.781213	5939.684067
819.099843	6300.645805
819.418429	6927.157885
819.736970	7544.888274
820.055466	8247.514215
820.373919	9160.729317
820.692327	10602.189286
821.010691	13287.919450
821.329011	19483.495006
821.647286	29034.064311
821.965517	39377.259277
822.283704	44821.390359
822.601847	46305.367419
822.919945	41710.164125
823.237999	36588.664368
823.556010	31395.948232
823.873976	26709.439559
824.191897	22508.638497
824.509775	19451.685325
824.827609	16693.486054
825.145398	15140.167922
825.463144	14391.894333
825.780845	14681.740515
826.098502	15937.824654
826.416116	18385.561945
826.733685	20667.747744
827.051210	21197.119310
827.368692	19763.271483
827.686129	17210.073253
828.003522	14740.366614
828.320872	12528.915765
828.638177	10883.110104
828.955439	9636.490731
829.272656	8588.313859
829.589830	7749.899398
829.906960	7024.817638
830.224046	6489.742007
830.541088	6080.080201
830.858086	5826.515204
831.175041	5623.470130
831.491952	5567.878806
831.808819	5594.508701
832.125642	5841.273182
832.442421	6387.560339
832.759157	7492.724935
833.075849	9258.598277
833.392497	11097.081879
833.709101	12211.428937
834.025662	11960.883591
834.342179	10902.878989
834.658653	9605.578376
834.975083	8500.804469
835.291469	7600.091429
835.607811	6871.690069
835.924110	6351.677406
836.240366	5867.829980
836.556578	5421.345066
836.872746	5066.568823
837.188871	4790.023726
837.504952	4578.060851
837.820990	4405.333276
838.136984	4290.394968
838.452935	4246.703288
838.768842	4271.810755
839.084706	4552.247623
839.400526	5291.341270
839.716303	6198.486823
840.032037	6757.452482
840.347727	6614.986953
840.663373	6013.625191
840.978977	5437.292757
841.294537	4998.634234
841.610054	4668.625180
841.925527	4430.188685
842.240957	4222.808219
842.556344	4042.949932
842.871687	3888.546951
843.186987	3734.048189
843.502244	3618.404120
843.817458	3528.900954
844.132629	3461.314204
844.447756	3415.512801
844.762840	3368.935060
845.077881	3328.492403
845.392879	3296.029893
845.707833	3270.204062
846.022745	3241.915627
846.337613	3233.048237
846.652438	3209.185936
846.967221	3197.979451
847.281960	3178.170237
847.596656	3169.612878
847.911309	3155.800116
848.225919	3146.277377
848.540485	3135.219606
848.855009	3131.476549
849.169490	3119.377780
849.483928	3108.922427
849.798323	3105.048300
850.112675	3092.687391
850.426984	3095.172680
850.741251	3085.564240
851.055474	3082.647933
851.369654	3088.518357
851.683792	3082.998293
851.997887	3086.852255
852.311938	3085.576843
852.625947	3088.326793
852.939914	3078.531831
853.253837	3085.924683
853.567718	3085.211360
853.881555	3076.991758
854.195350	3083.184816
854.509103	3079.857654
854.822812	3078.083168
855.136479	3076.568301
855.450103	3075.872622
855.763685	3069.437589
856.077224	3073.989751
856.390720	3080.258426
856.704173	3089.443408
857.017584	3097.231991
857.330953	3100.791046
857.644278	3108.899742
857.957561	3112.199177
858.270802	3109.872684
858.584000	3108.042745
858.897155	3104.216510
859.210268	3094.368616
859.523339	3079.847572
859.836367	3079.572829
860.149352	3075.396233
860.462295	3069.392219
860.775195	3063.239491
861.088054	3055.027451
861.400869	3055.019889
861.713642	3053.268088
862.026373	3064.444326
862.339062	3067.363154
862.651708	3074.019998
862.964312	3093.093204
863.276873	3100.934718
863.589392	3131.350520
863.901869	3155.911022
864.214303	3178.250895
864.526696	3195.705890
864.839045	3211.426728
865.151353	3225.715879
865.463619	3227.628997
865.775842	3229.148905
866.088023	3232.778536
866.400162	3228.228894
866.712258	3226.109089
867.024313	3227.016497
867.336325	3223.611197
867.648296	3224.800910
867.960224	3225.080694
868.272110	3226.751836
868.583954	3227.961713
868.895755	3234.812641
869.207515	3232.899523
869.519233	3250.755290
869.830909	3257.654109
870.142542	3266.645007
870.454134	3273.158178
870.765684	3288.712658
871.077191	3303.669762
871.388657	3318.173161
871.700081	3332.931139
872.011463	3353.171372
872.322803	3376.572408
872.634101	3392.371384
872.945357	3414.025660
873.256571	3440.622788
873.567744	3452.988738
873.878874	3456.356229
874.189963	3476.425063
874.501010	3476.563694
874.812015	3476.722491
875.122979	3492.501302
875.433900	3488.861589
875.744780	3490.855366
876.055618	3499.984895
876.366415	3496.350223
876.677169	3499.790811
876.987882	3520.862834
877.298554	3539.293292
877.609183	3577.580856
877.919771	3621.965695
878.230317	3691.856252
878.540822	3794.554638
878.851285	3944.952422
879.161707	4163.935104
879.472087	4540.552146
879.782425	5166.176982
880.092722	6348.110789
880.402977	8282.018392
880.713191	10651.821966
881.023363	13053.992267
881.333494	14385.711358
881.643583	14848.597666
881.953631	14438.237661
882.263637	13588.538577
882.573602	12549.178683
882.883526	11595.820873
883.193408	10644.943311
883.503248	9724.801664
883.813048	8892.315601
884.122806	8126.397973
884.432522	7365.095522
884.742197	6707.449277
885.051831	6142.068749
885.361424	5642.298839
885.670975	5252.484057
885.980485	4926.124798
886.289954	4658.754601
886.599382	4445.289462
886.908768	4264.291874
887.218113	4096.812140
887.527417	3971.373109
887.836680	3846.660004
888.145901	3744.180908
888.455082	3667.121830
888.764221	3601.359978
889.073319	3542.766647
889.382376	3508.328005
889.691392	3486.313286
890.000366	3475.936071
890.309300	3475.084116
890.618193	3473.107983
890.927044	3470.093373
891.235855	3475.999085
891.544625	3490.333606
891.853353	3519.910056
892.162041	3577.936257
892.470687	3671.464784
892.779293	3793.133033
893.087858	3958.923980
893.396381	4238.939911
893.704864	4653.539527
894.013306	5221.586825
894.321707	5790.665038
894.630068	6147.785418
894.938387	6191.073806
895.246665	6010.408934
895.554903	5686.958421
895.863100	5355.842834
896.171256	5084.106998
896.479371	4846.149412
896.787446	4622.314620
897.095480	4425.787758
897.403473	4278.913741
897.711425	4132.138026
898.019336	4013.491949
898.327207	3890.359246
898.635038	3785.362094
898.942827	3679.714633
899.250576	3596.371757
899.558284	3510.228520
899.865952	3458.546611
900.173579	3393.495561
900.481165	3346.194415
900.788711	3306.331491
901.096216	3269.246242
901.403681	3244.801687
901.711105	3232.153432
902.018489	3227.170252
902.325832	3262.549070
902.633135	3320.298008
902.940397	3492.581961
903.247619	3894.709762
903.554800	4651.225637
903.861941	5612.054437
904.169041	6314.801365
904.476101	6529.720877
904.783121	6254.120997
905.090100	5846.828533
905.397039	5437.252427
905.703938	5072.688784
906.010796	4754.249178
906.317614	4499.832226
906.624391	4260.185854
906.931129	4069.017738
907.237826	3886.301117
907.544483	3715.020354
907.851099	3539.867984
908.157675	3386.329561
908.464211	3242.185329
908.770707	3142.703199
909.077163	3062.251424
909.383578	3002.344873
909.689954	2958.028089
909.996289	2929.888368
910.302584	2909.257446
910.608839	2896.455436
910.915054	2884.462531
911.221229	2880.147303
911.527363	2885.621997
911.833458	2892.369581
912.139513	2903.714698
912.445527	2917.656009
912.751502	2952.271092
913.057436	2994.659634
913.363331	3052.569888
913.669186	3136.764719
913.975000	3253.326279
914.280775	3443.637398
914.586510	3711.065568
914.892205	4084.841920
915.197859	4581.889607
915.503475	5168.783259
915.809050	5665.276419
916.114585	5951.931550
916.420081	6020.178691
916.725536	5952.486077
917.030952	5715.667793
917.336328	5509.885372
917.641665	5296.518535
917.946961	5068.408844
918.252218	4867.647413
918.557435	4637.798524
918.862612	4441.357362
919.167750	4270.484931
919.472848	4083.639605
919.777906	3913.495622
920.082925	3753.978391
920.387904	3603.192438
920.692843	3492.672702
920.997743	3389.707134
921.302603	3298.106848
921.607423	3232.163515
921.912204	3168.571880
922.216946	3120.411216
922.521647	3070.644946
922.826310	3027.618698
923.130932	2992.630569
923.435516	2953.309569
923.740059	2925.421906
924.044564	2893.463511
924.349028	2868.988709
924.653454	2836.909327
924.957840	2813.972077
925.262186	2794.571196
925.566493	2771.422218
925.870761	2747.113774
926.174989	2737.679255
926.479178	2720.667881
926.783328	2705.839327
927.087438	2693.513706
927.391509	2679.900070
927.695541	2668.965807
927.999533	2660.262255
928.303486	2650.101809
928.607400	2643.540748
928.911275	2641.574698
929.215110	2632.445168
929.518906	2628.571041
929.822663	2630.345528
930.126381	2627.824951
930.430060	2633.642442
930.733699	2634.988430
931.037299	2637.176291
931.340861	2639.437248
931.644383	2638.431538
931.947866	2641.746097
932.251309	2636.999851
932.554714	2635.668986
932.858080	2632.805611
933.161407	2629.566669
933.464694	2628.344189
933.767943	2621.773045
934.071153	2620.059053
934.374323	2616.457149
934.677455	2610.843824
934.980548	2612.835080
935.283602	2608.829883
935.586617	2605.071703
935.889593	2611.431118
936.192530	2610.432970
936.495428	2617.808178
936.798287	2626.725979
937.101108	2638.302989
937.403890	2661.658655
937.706632	2684.696728
938.009336	2720.304918
938.312002	2749.420102
938.614628	2772.183432
938.917216	2792.181689
939.219765	2796.912812
939.522275	2811.469144
939.824747	2811.862354
940.127179	2805.452527
940.429573	2798.165539
940.731929	2797.497586
941.034246	2789.043571
941.336524	2787.894188
941.638763	2780.690379
941.940964	2772.533792
942.243126	2757.944693
942.545250	2746.357601
942.847335	2735.037690
943.149381	2719.740309
943.451389	2707.996941
943.753359	2693.455732
944.055290	2685.631862
944.357182	2675.524348
944.659036	2672.403874
944.960851	2667.627381
945.262628	2662.266114
945.564367	2667.400529
945.866067	2663.065137
946.167729	2663.100425
946.469352	2658.825526
946.770937	2659.944662
947.072484	2652.246820
947.373992	2649.718682
947.675462	2650.089207
947.976893	2644.894297
948.278286	2639.134779
948.579641	2635.011115
948.880958	2632.551032
949.182236	2631.625981
949.483476	2632.414921
949.784678	2630.179169
950.085841	2630.350569
950.386967	2633.864253
950.688054	2638.030767
950.989103	2648.206336
951.290114	2654.636327
951.591087	2668.451609
951.892021	2679.227076
952.192917	2692.457584
952.493776	2703.409491
952.794596	2707.369317
953.095378	2707.195397
953.396122	2702.930581
953.696828	2703.157433
953.997496	2696.939170
954.298126	2687.151770
954.598718	2678.876716
954.899272	2667.574449
955.199788	2658.124806
955.500266	2645.474030
955.800706	2629.236474
956.101108	2614.125615
956.401472	2599.927205
956.701798	2585.330544
957.002087	2572.397464
957.302337	2565.233984
957.602550	2554.060267
957.902724	2542.579039
958.202861	2533.177287
958.502960	2525.600433
958.803022	2519.399814
959.103045	2509.468741
959.403031	2504.372134
959.702979	2498.247132
960.002889	2495.895434
960.302762	2489.556183
960.602596	2483.290029
960.902393	2481.704586
961.202153	2479.615027
961.501875	2475.529172
961.801559	2473.956332
962.101205	2472.202011
962.400814	2470.593883
962.700385	2467.881742
962.999918	2467.004581
963.299414	2464.340331
963.598873	2465.489714
963.898293	2463.264045
964.197677	2463.087605
964.497022	2458.847994
964.796331	2461.887810
965.095601	2457.333127
965.394835	2457.774228
965.694030	2457.864969
965.993189	2455.223405
966.292309	2455.082252
966.591393	2456.592078
966.890439	2456.171142
967.189447	2453.484207
967.488419	2452.944803
967.787353	2455.566203
968.086249	2458.054012
968.385108	2458.979064
968.683930	2454.797427
968.982714	2457.421348
969.281462	2458.056533
969.580172	2463.707667
969.878844	2465.323356
970.177480	2466.437451
970.476078	2467.942236
970.774639	2472.834676
971.073162	2476.091261
971.371649	2472.786785
971.670098	2475.118318
971.968510	2477.389358
972.266885	2476.633185
972.565223	2481.626448
972.863524	2481.976808
973.161788	2485.785400
973.460014	2484.114257
973.758204	2486.861686
974.056356	2483.521922
974.354471	2488.288333
974.652550	2483.794144
974.950591	2486.433188
975.248595	2487.000318
975.546563	2486.586943
975.844493	2483.847076
976.142386	2484.308342
976.440243	2479.524287
976.738062	2478.707620
977.035845	2474.747793
977.333590	2469.681434
977.631299	2469.827627
977.928971	2469.131948
978.226606	2463.253963
978.524204	2465.056175
978.821765	2465.361165
979.119290	2467.387709
979.416777	2463.793366
979.714228	2464.012656
980.011642	2465.293109
980.309020	2472.181846
980.606360	2471.929788
980.903664	2482.828763
981.200931	2495.857625
981.498162	2511.535614
981.795356	2543.229348
982.092513	2583.561099
982.389633	2625.195989
982.686717	2667.823986
982.983764	2698.897658
983.280775	2719.241234
983.577749	2717.456666
983.874686	2711.800491
984.171587	2695.578058
984.468451	2675.310099
984.765279	2660.358037
985.062070	2640.458082
985.358824	2622.171297
985.655543	2599.274376
985.952224	2577.846951
986.248869	2548.830070
986.545478	2524.622449
986.842050	2501.924654
987.138586	2484.298259
987.435086	2470.263687
987.731549	2460.912347
988.027975	2457.272634
988.324366	2447.351643
988.620719	2445.728391
988.917037	2441.115736
989.213318	2436.891249
989.509563	2436.944181
989.805772	2434.027873
990.101944	2433.861515
990.398080	2432.797832
990.694180	2432.674323
990.990244	2432.782708
991.286271	2434.375713
991.582262	2433.284303
991.878217	2433.264138
992.174136	2436.298913
992.470019	2435.820003
992.765865	2432.782708
993.061676	2438.408636
993.357450	2442.502053
993.653188	2442.378545
993.948890	2447.555810
994.244556	2455.286419
994.540186	2462.533078
994.835780	2475.352732
995.131337	2490.314877
995.426859	2508.281549
995.722345	2529.262831
996.017795	2543.975439
996.313208	2559.540001
996.608586	2568.225909
996.903928	2572.014336
997.199234	2569.534089
997.494504	2569.304716
997.789738	2560.921277
998.084936	2551.625390
998.380099	2538.646939
998.675225	2527.077491
998.970316	2514.154493
999.265371	2499.265445
999.560390	2487.660709
999.855373	2477.558237
1000.150320	2467.758234
1000.445232	2456.657613
1000.740108	2449.279884
1001.034948	2445.660336
1001.329752	2439.807556
1001.624521	2437.672628
1001.919254	2431.383788
1002.213951	2427.436565
1002.508613	2423.582603
1002.803239	2423.418765
1003.097829	2421.503127
1003.392384	2420.484813
1003.686903	2420.779721
1003.981386	2421.901378
1004.275834	2417.104720
1004.570246	2418.773342
1004.864623	2418.556572
1005.158964	2418.440626
1005.453270	2415.872158
1005.747540	2416.895512
1006.041775	2416.552713
1006.335974	2417.392066
1006.630138	2413.734708
1006.924266	2416.073804
1007.218359	2413.822929
1007.512416	2414.337126
1007.806438	2412.507188
1008.100425	2412.875192
1008.394376	2412.116498
1008.688292	2412.035840
1008.982172	2410.836045
1009.276017	2412.308062
1009.569827	2408.663308
1009.863602	2412.058525
1010.157341	2407.692886
1010.451045	2410.296642
1010.744714	2410.087434
1011.038347	2410.730181
1011.331945	2407.627351
1011.625508	2410.120201
1011.919036	2408.191960
1012.212528	2410.717578
1012.505986	2408.948133
1012.799408	2409.033833
1013.092795	2407.670200
1013.386147	2408.496950
1013.679464	2407.029974
1013.972745	2406.125087
1014.265992	2408.040725
1014.559204	2406.687175
1014.852380	2407.546692
1015.145521	2409.376631
1015.438628	2406.639284
1015.731699	2407.418143
1016.024736	2409.721950
1016.317737	2406.104922
1016.610703	2409.910993
1016.903635	2406.213307
1017.196531	2405.986455
1017.489393	2408.076013
1017.782219	2404.743811
1018.075011	2412.315624
1018.367768	2408.479306
1018.660490	2410.836045
1018.953177	2410.836045
1019.245829	2410.836045
