Dividing Wavelength (nm)	Counts (n)	Blue Motor Position (mm): 21.600000	Red Motor Position (mm): 0.000000	
326.493990	1971.960753
326.888308	1971.960753
327.282561	1971.960753
327.676750	1950.135077
328.070874	1948.862186
328.464933	1956.073557
328.858929	1966.153344
329.252859	1979.620786
329.646726	1994.837509
330.040528	2008.531803
330.434265	2026.574093
330.827938	2049.430685
331.221547	2066.313509
331.615091	2091.584813
332.008571	2106.768768
332.401986	2127.906327
332.795338	2149.230407
333.188625	2169.546257
333.581847	2187.028979
333.975006	2204.302493
334.368100	2224.872921
334.761129	2240.755076
335.154095	2257.247211
335.546996	2291.154012
335.939833	2356.358816
336.332606	2371.406660
336.725315	2382.169524
337.117960	2393.252500
337.510540	2401.451937
337.903056	2409.744635
338.295508	2415.612538
338.687896	2421.263672
339.080220	2428.822882
339.472480	2436.755138
339.864676	2436.319078
340.256807	2442.807043
340.648875	2443.583380
341.040879	2445.161262
341.432818	2444.788216
341.824694	2446.960953
342.216506	2446.819801
342.608253	2448.501026
342.999937	2443.628751
343.391557	2442.849892
343.783113	2442.930551
344.174605	2440.689758
344.566033	2438.552309
344.957397	2439.699171
345.348697	2437.909562
345.739934	2434.693306
346.131106	2433.395208
346.522215	2429.442944
346.913260	2428.739703
347.304241	2427.103848
347.695159	2427.181986
348.086012	2423.504465
348.476802	2421.782911
348.867528	2423.383477
349.258191	2416.978691
349.648789	2418.937179
350.039324	2419.466500
350.429796	2419.879875
350.820203	2416.986253
351.210548	2414.569019
351.600828	2414.506005
351.991045	2414.241344
352.381198	2416.028433
352.771288	2413.961560
353.161314	2413.671694
353.551276	2412.731519
353.941175	2409.805129
354.331010	2412.310583
354.720782	2417.301325
355.110490	2417.356778
355.500135	2414.440470
355.889717	2410.815880
356.279235	2415.380645
356.668689	2413.570871
357.058080	2415.607497
357.447408	2413.863258
357.836672	2411.816549
358.225873	2414.130439
358.615010	2411.637588
359.004084	2420.154618
359.393095	2417.999525
359.782043	2416.131777
360.170927	2417.258475
360.559748	2419.635379
360.948505	2418.244021
361.337199	2421.432550
361.725830	2422.571851
362.114398	2420.575554
362.502903	2419.736202
362.891344	2423.786769
363.279722	2422.584454
363.668037	2424.795000
364.056289	2421.177972
364.444478	2423.451533
364.832603	2424.921029
365.220665	2426.844229
365.608665	2426.985381
365.996601	2428.233067
366.384474	2425.909095
366.772284	2429.377409
367.160031	2424.898344
367.547715	2425.551173
367.935336	2423.476738
368.322893	2428.588468
368.710388	2428.598551
369.097820	2427.665937
369.485189	2430.133582
369.872495	2430.723397
370.259738	2429.536205
370.646918	2431.910589
371.034035	2429.243818
371.421090	2431.373706
371.808081	2431.361103
372.195010	2431.991247
372.581875	2432.596186
372.968678	2431.620722
373.355418	2431.978644
373.742096	2430.431010
374.128710	2433.657348
374.515262	2434.600044
374.901751	2432.923861
375.288177	2432.429828
375.674540	2437.047524
376.060841	2434.726073
376.447079	2434.345466
376.833254	2433.803542
377.219367	2429.516041
377.605417	2434.075764
377.991404	2429.324477
378.377329	2433.065013
378.763191	2432.386978
379.148991	2437.244129
379.534727	2438.685899
379.920402	2438.403595
380.306013	2435.023501
380.691563	2439.111877
381.077049	2438.398554
381.462474	2439.371496
381.847835	2437.884356
382.233134	2438.479212
382.618371	2439.207659
383.003545	2438.824531
383.388657	2436.503080
383.773706	2439.694130
384.158693	2440.137752
384.543618	2442.401230
384.928480	2440.881322
385.313280	2441.599686
385.698017	2441.403081
386.082692	2444.281580
386.467305	2441.761003
386.851856	2444.460541
387.236344	2441.027515
387.620770	2445.287290
388.005133	2442.368462
388.389435	2444.205963
388.773674	2443.943823
389.157851	2447.195367
389.541965	2443.598504
389.926018	2447.558330
390.310008	2444.694955
390.693936	2449.789041
391.077802	2446.388783
391.461606	2448.314503
391.845348	2447.550768
392.229027	2446.096396
392.612645	2448.637137
392.996200	2449.098403
393.379694	2451.626541
393.763125	2449.224432
394.146494	2449.053032
394.529801	2448.682507
394.913047	2449.647888
395.296230	2447.180244
395.679351	2451.167796
396.062410	2451.248455
396.445408	2447.913732
396.828343	2452.221398
397.211217	2444.735284
397.594028	2450.391459
397.976778	2446.671087
398.359466	2449.552107
398.742092	2446.628237
399.124656	2453.398507
399.507158	2450.696448
399.889598	2456.100565
400.271977	2452.632252
400.654294	2453.343054
401.036549	2453.025462
401.418742	2453.821964
401.800874	2455.919084
402.182944	2452.387756
402.564952	2455.021758
402.946898	2453.620318
403.328783	2454.295832
403.710606	2455.568724
404.092367	2458.923612
404.474067	2456.093004
404.855705	2456.259362
405.237282	2454.941100
405.618797	2457.693570
406.000250	2457.368416
406.381642	2457.496965
406.762972	2459.586523
407.144240	2459.888993
407.525447	2460.957717
407.906593	2457.315483
408.287677	2457.839763
408.668700	2460.173818
409.049661	2460.103242
409.430560	2457.658282
409.811399	2459.392439
410.192176	2461.035855
410.572891	2460.438478
410.953545	2462.129785
411.334138	2459.407562
411.714669	2461.764302
412.095139	2459.490741
412.475547	2461.993674
412.855894	2462.606174
413.236180	2461.136678
413.616405	2462.361678
413.996568	2462.560804
414.376670	2465.129272
414.756711	2465.683799
415.136691	2463.755557
415.516609	2467.392750
415.896466	2464.723459
416.276262	2463.493417
416.655997	2463.100208
417.035670	2461.033334
417.415283	2468.078347
417.794834	2460.466205
418.174324	2469.111783
418.553753	2465.189766
418.933121	2463.921916
419.312428	2469.121866
419.691674	2467.619602
420.070859	2467.312092
420.449983	2469.028604
420.829045	2467.680096
421.208047	2466.016515
421.586988	2471.105560
421.965867	2466.515589
422.344686	2469.494911
422.723444	2469.988944
423.102141	2468.194293
423.480777	2471.602113
423.859352	2471.067751
424.237866	2474.044553
424.616319	2471.339973
424.994712	2473.459779
425.373044	2473.759727
425.751314	2474.155458
426.129524	2472.890128
426.507673	2475.940026
426.885762	2471.133286
427.263789	2476.116467
427.641756	2477.520428
428.019662	2472.605303
428.397508	2476.479430
428.775292	2475.128401
429.153016	2477.737198
429.530679	2477.258288
429.908282	2476.673514
430.285824	2475.478761
430.663305	2477.288535
431.040726	2478.006899
431.418086	2476.794502
431.795385	2481.649133
432.172624	2480.630820
432.549802	2479.136118
432.926920	2478.296766
433.303977	2481.797847
433.680974	2479.791468
434.057910	2482.160810
434.434786	2480.444297
434.811601	2481.485296
435.188355	2482.559061
435.565050	2482.143166
435.941683	2483.022848
436.318257	2480.792137
436.694770	2483.847076
437.071222	2483.310193
437.447614	2482.475882
437.823946	2484.535194
438.200218	2482.790954
438.576429	2485.324134
438.952580	2484.835142
439.328670	2487.212046
439.704700	2487.149032
440.080670	2484.835142
440.456580	2487.423775
440.832429	2485.019144
441.208218	2488.550473
441.583947	2491.809579
441.959616	2487.572489
442.335224	2487.872438
442.710773	2488.184989
443.086261	2492.064157
443.461689	2489.220946
443.837057	2489.886378
444.212365	2492.885865
444.587612	2492.908550
444.962800	2492.714466
445.337927	2491.817140
445.712995	2490.813951
446.088002	2495.892913
446.462949	2495.587923
446.837837	2496.092039
447.212664	2498.267297
447.587431	2501.627226
447.962139	2505.776095
448.336786	2510.050994
448.711374	2509.365397
449.085901	2505.854233
449.460369	2507.343894
449.834776	2506.824655
450.209124	2512.180881
450.583412	2508.989831
450.957640	2512.894205
451.331808	2513.030316
451.705917	2510.280366
452.079965	2510.764317
452.453954	2510.882784
452.827883	2512.478309
453.201752	2513.005110
453.575562	2516.806140
453.949311	2517.837056
454.323001	2516.123064
454.696632	2520.355112
455.070202	2526.464991
455.443713	2524.468694
455.817164	2527.100176
456.190556	2525.860052
456.563888	2530.313912
456.937160	2529.000691
457.310373	2530.369364
457.683526	2533.043697
458.056619	2534.016639
458.429653	2534.515713
458.802628	2538.793133
459.175542	2540.091230
459.548398	2543.647764
459.921194	2550.939793
460.293930	2555.146636
460.666607	2559.005639
461.039224	2567.318502
461.411782	2572.820921
461.784280	2569.299675
462.156719	2569.027453
462.529099	2571.449727
462.901419	2569.531568
463.273680	2569.937381
463.645882	2569.952504
464.018024	2576.483319
464.390106	2577.108422
464.762130	2591.760536
465.134094	2608.393823
465.505999	2630.738737
465.877845	2650.772283
466.249631	2659.153201
466.621358	2657.023314
466.993026	2651.846049
467.364634	2649.035605
467.736184	2645.141314
468.107674	2645.877322
468.479105	2645.060656
468.850477	2647.172899
469.221790	2642.764410
469.593043	2643.460089
469.964238	2643.313896
470.335373	2646.348670
470.706449	2660.605053
471.077467	2683.643127
471.448425	2714.507591
471.819324	2734.851167
472.190164	2737.477608
472.560945	2722.054198
472.931667	2714.873075
473.302330	2716.748384
473.672934	2721.051009
474.043479	2730.838409
474.413965	2736.151785
474.784393	2742.584297
475.154761	2765.657658
475.525070	2776.213835
475.895321	2783.649537
476.265513	2804.918165
476.635645	2834.925633
477.005719	2847.601614
477.375734	2871.484081
477.745691	2898.665982
478.115588	2934.750561
478.485427	2989.822647
478.855207	3067.582445
479.224928	3139.827220
479.594591	3196.154553
479.964194	3208.497818
480.333739	3240.478898
480.703226	3280.500618
481.072653	3340.455061
481.442022	3408.994589
481.811333	3461.195737
482.180584	3481.723315
482.549777	3520.479706
482.918912	3562.469997
483.287988	3616.488481
483.657005	3648.419150
484.025964	3691.137887
484.394864	3749.151486
484.763706	3806.597954
485.132489	3838.526102
485.501213	3905.449940
485.869879	3983.247547
486.238487	4048.018812
486.607036	4133.279847
486.975527	4197.519271
487.343959	4289.288435
487.712333	4385.675297
488.080648	4472.698215
488.448905	4591.760187
488.817104	4689.460269
489.185244	4856.430846
489.553326	5083.882666
489.921350	5403.340585
490.289315	5755.550881
490.657222	5955.064627
491.025070	6122.861953
491.392861	6190.420977
491.760593	6224.635288
492.128267	6227.123097
492.495883	6236.542493
492.863440	6267.613645
493.230939	6300.434077
493.598380	6354.729824
493.965763	6478.288505
494.333088	6560.933181
494.700354	6666.063924
495.067563	6798.497556
495.434713	6949.573375
495.801805	7130.984338
496.168839	7252.982781
496.535815	7391.387660
496.902733	7566.378713
497.269593	7697.262190
497.636395	7867.728808
498.003139	8109.842824
498.369825	8218.698980
498.736453	8451.922921
499.103023	8577.596366
499.469535	8749.169517
499.835989	8960.555180
500.202385	9105.695040
500.568723	9313.652718
500.935003	9552.676507
501.301226	9736.265248
501.667390	10063.234487
502.033497	10327.877420
502.399546	10433.703842
502.765537	10505.883082
503.131470	10810.240225
503.497345	11115.731628
503.863163	11044.185052
504.228923	11409.401525
504.594625	11745.129768
504.960269	11808.887761
505.325856	12214.713249
505.691385	12292.609158
506.056856	12576.274885
506.422270	12963.629585
506.787625	13092.345366
507.152924	13406.343715
507.518164	13691.320142
507.883347	13710.037947
508.248472	14031.156926
508.613540	14445.733857
508.978550	14802.947497
509.343503	14986.954654
509.708398	15321.692311
510.073236	15778.521672
510.438016	16053.201542
510.802738	16126.308355
511.167403	16626.380735
511.532010	16992.222310
511.896561	17392.714257
512.261053	18034.052370
512.625488	18139.478020
512.989866	18375.303197
513.354186	18605.928424
513.718449	18876.978663
514.082655	19469.084868
514.446803	19612.672053
514.810894	20128.866042
515.174927	20388.601412
515.538904	20629.767691
515.902822	21228.303887
516.266684	21266.457860
516.630488	21763.059405
516.994235	21973.217547
517.357925	22534.260162
517.721558	22910.690681
518.085133	23375.134705
518.448651	23729.162337
518.812112	23893.897162
519.175516	24232.582042
519.538863	24707.057963
519.902152	24962.294103
520.265385	25508.298955
520.628560	25808.308103
520.991678	25965.362731
521.354739	26384.454014
521.717743	26842.944436
522.080690	27061.919556
522.443580	27674.704574
522.806413	27988.740732
523.169189	28211.506800
523.531908	28601.664381
523.894569	28775.231308
524.257174	29145.456167
524.619722	29609.665778
524.982213	29857.118376
525.344647	30064.183771
525.707025	30356.787463
526.069345	30871.605217
526.431608	31057.618753
526.793815	31505.910921
527.155964	31445.056632
527.518057	31794.912709
527.880093	31881.250030
528.242072	32498.693074
528.603995	32498.277179
528.965860	32736.819538
529.327669	33044.947464
529.689421	33178.550643
530.051117	33361.342882
530.412755	33699.909295
530.774337	33950.288283
531.135862	34018.414436
531.497331	34376.916092
531.858743	34513.130589
532.220098	34982.083926
532.581396	34962.148683
532.942638	34886.307044
533.303824	35312.161036
533.664953	35470.080221
534.026025	35443.793124
534.387040	35991.217062
534.747999	36130.708309
535.108902	36424.216889
535.469748	36215.079580
535.830537	36483.052195
536.191270	36825.694381
536.551947	36691.239246
536.912567	37095.900227
537.273131	37368.112453
537.633638	37108.069573
537.994089	37551.096255
538.354483	37356.588375
538.714821	37988.136567
539.075103	38438.795556
539.435328	38378.107626
539.795497	38432.216851
540.155609	38566.084691
540.515665	39098.513716
540.875665	38770.122872
541.235609	39174.088174
541.595496	39299.131475
541.955328	40026.363287
542.315102	39596.723389
542.674821	39541.686592
543.034483	39707.827899
543.394090	39787.548706
543.753640	39883.151668
544.113134	40881.373227
544.472571	40117.131783
544.831953	41349.010822
545.191278	40764.766297
545.550548	40624.937292
545.909761	41141.285037
546.268918	41436.525253
546.628019	41817.291164
546.987064	41527.863399
547.346053	40968.292801
547.704986	41859.105015
548.063863	41579.255442
548.422684	41852.052441
548.781449	41801.789616
549.140158	42259.453289
549.498811	42207.998232
549.857408	41759.970725
550.215949	42630.330977
550.574434	42646.492917
550.932864	42524.890203
551.291237	43272.858802
551.649555	42982.039678
552.007817	43287.142912
552.366022	43054.657499
552.724173	43296.945436
553.082267	43736.697888
553.440305	44083.257051
553.798288	43527.701732
554.156215	43892.217485
554.514086	44159.801931
554.871902	43979.764683
555.229661	44073.386472
555.587365	43957.644100
555.945014	44121.673164
556.302606	44088.393987
556.660143	44380.284356
557.017625	44528.063260
557.375050	44387.687290
557.732421	44796.018231
558.089735	44839.283934
558.446994	44778.210355
558.804197	45314.866388
559.161345	45296.161187
559.518437	44636.354807
559.875474	44988.446635
560.232455	45206.708432
560.589381	45417.131235
560.946251	45160.375187
561.303065	45862.383587
561.659825	45713.644342
562.016528	45474.630636
562.373177	45244.643115
562.729770	45748.004847
563.086307	45321.460217
563.442789	45798.219781
563.799216	45879.122738
564.155587	45713.283900
564.511904	45773.722293
564.868164	45922.151507
565.224370	46174.367995
565.580520	45945.539940
565.936615	46203.687346
566.292654	45953.373893
566.648638	46203.336986
567.004567	46208.554580
567.360441	46272.093283
567.716260	46176.782708
568.072023	46486.085223
568.427732	46503.164652
568.783385	46080.032883
569.138982	46499.333375
569.494525	46457.083465
569.850013	46264.050122
570.205445	46255.825480
570.560823	46244.409787
570.916145	46147.216341
571.271412	46179.769592
571.626625	45963.181458
571.981782	46043.015691
572.336884	45756.635303
572.691931	46093.954030
573.046923	45722.917545
573.401860	45581.079640
573.756743	45580.210041
574.111570	45694.747577
574.466342	45571.604792
574.821059	45706.944649
575.175722	45244.408701
575.530330	45271.298216
575.884882	45022.948292
576.239380	44995.539539
576.593823	44980.950440
576.948211	44918.818218
577.302544	44472.303058
577.656823	44509.658008
578.011047	44748.855717
578.365216	44479.902597
578.719330	44287.207012
579.073389	44159.943083
579.427394	44256.241724
579.781344	44241.261936
580.135239	43900.495059
580.489080	43993.317825
580.842866	43500.585366
581.196597	43957.074449
581.550273	43902.914813
581.903895	43762.337197
582.257463	44198.701994
582.610975	43611.500833
582.964434	43869.257549
583.317837	43553.139395
583.671186	43387.802151
584.024481	43626.636897
584.377721	43180.010831
584.730906	43449.483189
585.084037	43489.923325
585.437113	43215.215729
585.790135	43264.044345
586.143103	42861.258673
586.496016	42997.236237
586.848874	43024.438303
587.201679	43048.640882
587.554428	42542.897205
587.907124	42732.636153
588.259765	42491.298475
588.612352	42751.268258
588.964884	42159.893021
589.317362	42458.473002
589.669786	42401.941502
590.022155	42171.207891
590.374470	42578.770056
590.726731	42141.023982
591.078937	41656.952225
591.431090	41764.611107
591.783188	41422.586462
592.135232	41103.383121
592.487222	41353.555422
592.839157	41446.156377
593.191038	41139.739923
593.542866	40913.384553
593.894639	40325.049132
594.246358	40600.248241
594.598022	40550.819728
594.949633	40187.682731
595.301190	40150.098408
595.652692	40003.683136
596.004141	40328.714051
596.355535	39355.143735
596.706876	39309.060027
597.058162	39150.072117
597.409395	39601.595664
597.760573	39689.405003
598.111698	39269.338255
598.462768	39275.369996
598.813785	39333.156742
599.164748	38801.274682
599.515657	39194.267913
599.866511	38681.917803
600.217312	39301.510899
600.568060	38272.608879
600.918753	39013.207311
601.269392	38972.794901
601.619978	38623.621900
601.970510	38848.979121
602.320988	39025.779948
602.671412	39333.738996
603.021783	39075.087474
603.372100	38718.279646
603.722363	38850.564564
604.072572	38911.935571
604.422728	38931.190258
604.772830	38752.660315
605.122878	38847.832259
605.472872	38792.455184
605.822813	39071.132689
606.172701	38913.319368
606.522534	39120.901480
606.872314	39384.541224
607.222041	39162.173407
607.571714	39548.096419
607.921333	39002.255404
608.270899	39286.276532
608.620411	39627.421495
608.969870	39435.008215
609.319276	39434.494017
609.668627	39485.742387
610.017926	39967.656530
610.367171	40132.151901
610.716362	40216.744983
611.065500	40158.955716
611.414585	40370.966482
611.763616	40643.400518
612.112594	40578.135220
612.461518	40795.396348
612.810389	41082.253125
613.159207	40956.831738
613.507971	41022.739783
613.856682	41499.416168
614.205340	41370.944882
614.553945	42076.812285
614.902496	41537.113916
615.250994	41990.222906
615.599439	42069.472365
615.947830	42276.966257
616.296169	42316.708194
616.644454	42466.927017
616.992686	42629.274856
617.340864	43144.924400
617.688990	42879.560582
618.037063	43468.541271
618.385082	43440.328454
618.733048	43740.193929
619.080961	43739.163013
619.428821	43750.397224
619.776628	43875.357346
620.124382	43681.653530
620.472083	43826.768184
620.819731	43919.782514
621.167326	43614.996873
621.514868	43606.447076
621.862357	43149.133764
622.209793	43184.472252
622.557176	42868.137328
622.904506	42601.296452
623.251783	42267.836728
623.599007	42043.099569
623.946179	41826.327433
624.293297	41777.881944
624.640363	41198.252596
624.987376	41188.329084
625.334336	40934.028078
625.681243	40592.177354
626.028097	40573.421741
626.374899	40409.674982
626.721647	40397.097303
627.068343	40292.296756
627.414987	40058.530890
627.761577	39837.723310
628.108115	40174.227891
628.454600	39617.815577
628.801032	39797.174789
629.147412	39775.094536
629.493739	39793.625817
629.840014	39434.793966
630.186236	39760.354202
630.532405	39394.938603
630.878521	39612.461871
631.224585	39479.330039
631.570597	39185.723157
631.916556	39350.677273
632.262462	39313.639915
632.608316	39324.458232
632.954117	39212.695851
633.299866	39214.422446
633.645562	39130.215012
633.991206	38631.720514
634.336797	38214.388593
634.682336	38218.353460
635.027823	37957.909809
635.373257	37781.051008
635.718639	37549.326810
636.063968	37410.183402
636.409245	36833.762748
636.754470	36888.174442
637.099642	36656.694740
637.444762	36189.069747
637.789829	36335.749680
638.134845	35982.090052
638.479808	35945.894568
638.824719	35837.920614
639.169577	35446.548115
639.514383	35512.531777
639.859137	35215.159153
640.203839	35467.438656
640.548489	35093.564002
640.893086	35169.249365
641.237632	34923.972025
641.582125	35030.219383
641.926566	34954.312209
642.270955	34935.012152
642.615292	34935.251607
642.959576	34930.820432
643.303809	34922.104277
643.647990	35070.767904
643.992118	35027.222417
644.336195	35044.155653
644.680219	35131.964991
645.024192	35416.051655
645.368112	35923.534530
645.711981	35939.028516
646.055797	36823.446027
646.399562	36757.195183
646.743274	37665.127155
647.086935	38108.768858
647.430544	38003.164247
647.774101	38137.715163
648.117606	38370.114876
648.461059	38659.192282
648.804460	38273.221379
649.147810	37665.462392
649.491108	37424.797707
649.834354	37076.854748
650.177548	36235.377786
650.520690	35810.900030
650.863781	35805.942055
651.206820	35665.195560
651.549807	35228.102316
651.892742	34740.501751
652.235626	34556.739091
652.578458	34430.087662
652.921238	33831.264120
653.263967	34165.457332
653.606644	33838.805686
653.949269	33788.968839
654.291843	33401.346958
654.634365	33794.075528
654.976836	33413.808691
655.319255	33401.364602
655.661622	33391.839342
656.003938	33161.241842
656.346203	33032.826009
656.688416	33264.088942
657.030577	33062.329362
657.372687	32909.776485
657.714746	33169.824406
658.056753	33276.180149
658.398708	32738.712491
658.740612	32795.455719
659.082465	33056.489185
659.424266	32901.541760
659.766016	33008.983872
660.107715	32900.984713
660.449362	33021.382590
660.790958	33004.870291
661.132503	33031.913560
661.473996	33043.997206
661.815438	33156.790503
662.156829	33351.084134
662.498168	33131.534322
662.839456	33167.780218
663.180693	33309.245077
663.521879	33453.974084
663.863013	33417.889505
664.204097	33407.008174
664.545129	33884.513828
664.886110	33857.684807
665.227040	33910.707663
665.567918	34022.122205
665.908746	34083.238633
666.249522	34244.575721
666.590248	34242.392901
666.930922	34354.551013
667.271545	34319.368800
667.612118	34403.747633
667.952639	34191.295766
668.293109	34247.451699
668.633528	34142.918333
668.973896	34075.407201
669.314213	34097.673977
669.654480	33830.039120
669.994695	33861.851321
670.334859	33764.468832
670.674973	33665.463091
671.015035	33810.779391
671.355047	33783.400885
671.695008	33716.260277
672.034918	33616.884012
672.374777	33702.820561
672.714585	33536.676733
673.054342	33765.154428
673.394049	33545.034966
673.733705	33802.648010
674.073310	33471.897906
674.412864	33547.227868
674.752368	33142.483708
675.091820	33440.829275
675.431223	33011.635519
675.770574	32743.398243
676.109875	32607.806328
676.449125	32328.559173
676.788324	32249.062697
677.127473	31730.146485
677.466571	31655.207212
677.805619	31297.847378
678.144616	31310.064614
678.483562	31218.928115
678.822458	30901.095967
679.161303	30837.935351
679.500098	30732.555071
679.838842	30626.378289
680.177535	30785.426693
680.516179	31068.610989
680.854771	31300.990537
681.193314	32155.483758
681.531805	33274.405663
681.870247	34056.210487
682.208638	34800.219260
682.546978	35008.131568
682.885268	35091.759269
683.223508	34567.638065
683.561697	34235.330245
683.899836	34047.806883
684.237925	33544.805594
684.575963	33389.659043
684.913951	32923.906839
685.251889	33115.132928
685.589776	33075.007864
685.927614	33067.148705
686.265401	33199.917574
686.603137	33313.835048
686.940824	33804.331756
687.278460	34190.753842
687.616046	34335.505533
687.953582	34939.493738
688.291068	34806.238397
688.628504	35073.028862
688.965889	35009.444788
689.303224	34623.897342
689.640510	34279.573932
689.977745	33555.641554
690.314930	32747.547113
690.652065	32241.201018
690.989150	31477.985449
691.326185	30592.650449
691.663170	29891.746062
692.000105	29139.263110
692.336990	28458.876219
692.673825	28018.062603
693.010610	27488.602818
693.347345	26929.201099
693.684030	26273.246161
694.020665	25998.125189
694.357251	25335.301679
694.693786	25281.273113
695.030272	25049.054881
695.366707	24510.130329
695.703093	24227.382092
696.039429	24210.219484
696.375716	23962.681186
696.711952	23926.352111
697.048139	23771.356795
697.384276	23584.085491
697.720363	23706.552762
698.056400	23509.161342
698.392388	23296.603611
698.728326	23250.613164
699.064214	23058.131828
699.400053	22993.771417
699.735842	22647.373572
700.071581	22360.040405
700.407270	22074.738824
700.742910	21886.020709
701.078501	21622.438939
701.414042	21336.587872
701.749533	21047.006351
702.084974	20691.022752
702.420366	20893.417517
702.755709	20466.454471
703.091002	20173.621406
703.426246	20195.288285
703.761440	20077.635316
704.096584	19823.467901
704.431679	19769.489746
704.766725	19685.660399
705.101721	19620.584144
705.436668	19712.504543
705.771565	19394.190966
706.106413	19733.211083
706.441212	19723.340503
706.775961	19849.528146
707.110661	19924.142264
707.445311	20275.573701
707.779913	20115.423805
708.114465	20360.013028
708.448967	20643.469547
708.783421	21337.535609
709.117825	21618.403495
709.452180	21831.324190
709.786485	22229.787072
710.120742	23022.236292
710.454949	23047.618502
710.789107	23507.182689
711.123216	24209.682601
711.457275	24328.502597
711.791286	24874.890578
712.125247	24936.435504
712.459159	24634.281346
712.793023	25275.836228
713.126837	24182.299053
713.460602	24429.323154
713.794318	24048.186717
714.127985	23653.713908
714.461602	22775.300412
714.795171	22722.259912
715.128691	21721.580791
715.462162	21179.553409
715.795584	20766.839185
716.128957	20499.161477
716.462281	20101.895869
716.795556	19873.103102
717.128782	19376.050374
717.461960	18836.551130
717.795088	18748.701463
718.128167	18350.291513
718.461198	17897.737049
718.794180	17752.324967
719.127113	17393.646871
719.459997	17200.784927
719.792833	16852.050507
720.125619	16821.687638
720.458357	16505.962693
720.791046	16341.636201
721.123686	16177.478588
721.456278	15943.627022
721.788821	15904.719397
722.121315	15639.209386
722.453761	15714.350304
722.786158	15647.292876
723.118506	15655.421736
723.450805	15513.057031
723.783056	15679.581466
724.115259	15585.074955
724.447412	15510.165929
724.779518	15754.805564
725.111574	15773.228461
725.443582	15966.130733
725.775542	15952.645647
726.107453	16423.985969
726.439315	16303.167156
726.771129	16709.527006
727.102895	17068.479845
727.434612	17270.781348
727.766281	17400.197850
728.097901	17664.356832
728.429473	17686.374072
728.760996	17676.674892
729.092471	17760.025329
729.423897	17633.946072
729.755276	17506.324221
730.086606	17613.761292
730.417887	18142.477507
730.749120	18652.743099
731.080305	18823.542433
731.411442	19158.781684
731.742530	19231.444876
732.073570	19334.397840
732.404562	19615.434605
732.735506	19425.811603
733.066401	19135.075658
733.397249	18613.366647
733.728048	17980.227970
734.058798	17167.021799
734.389501	16480.154506
734.720156	16018.296593
735.050762	15502.049672
735.381320	15149.844417
735.711831	14916.310445
736.042293	14558.186875
736.372707	14564.097628
736.703073	14365.599675
737.033391	14554.123705
737.363661	14523.609601
737.693883	14617.894302
738.024056	14788.340754
738.354182	14981.916021
738.684260	15252.351239
739.014290	15479.031763
739.344272	15658.781665
739.674207	15944.242043
740.004093	16057.184054
740.333931	16046.411108
740.663722	16083.415698
740.993464	16080.345635
741.323159	15905.064716
741.652806	15624.484175
741.982405	15411.593728
742.311956	15073.291975
742.641460	14957.794100
742.970915	14661.424665
743.300323	14318.381707
743.629683	14114.645995
743.958996	13831.933047
744.288260	13567.040577
744.617477	13270.310699
744.946647	13194.998382
745.275768	12920.517637
745.604842	12734.766241
745.933869	12562.704099
746.262847	12521.447296
746.591778	12450.319135
746.920662	12346.574710
747.249498	12345.435409
747.578286	12464.293214
747.907027	12612.465328
748.235720	12827.077330
748.564365	12852.474663
748.892963	12757.093512
749.221514	12817.589878
749.550017	12673.669977
749.878473	12631.238585
750.206881	12413.725400
750.535242	12320.930360
750.863555	12238.792320
751.191821	12144.507620
751.520039	12159.205104
751.848210	12071.161352
752.176334	12103.936413
752.504411	12006.369922
752.832440	11846.608195
753.160421	11911.971796
753.488356	11790.933692
753.816243	11698.425998
754.144082	11560.953733
754.471875	11497.157931
754.799620	11446.554828
755.127318	11415.657597
755.454969	11382.769109
755.782572	11331.976963
756.110129	11344.216885
756.437638	11264.614545
756.765100	11256.019378
757.092515	11257.564491
757.419882	11273.333221
757.747203	11279.415373
758.074477	11351.657628
758.401703	11302.251800
758.728882	11463.326747
759.056014	11514.522185
759.383099	11627.668363
759.710138	11726.618651
760.037129	11809.432206
760.364073	11824.099443
760.690970	11810.165694
761.017820	11808.174438
761.344623	11991.117911
761.671379	12324.801966
761.998088	12940.052108
762.324751	14496.417617
762.651366	17340.510588
762.977935	20989.638020
763.304456	23209.353841
763.630931	23671.100848
763.957359	22488.836845
764.283740	20603.604103
764.610074	18728.998113
764.936362	16600.237311
765.262602	15085.637761
765.588796	13629.351759
765.914943	12599.199532
766.241044	11755.592683
766.567097	11120.185487
766.893104	10577.810266
767.219064	10216.399864
767.544978	9837.864663
767.870845	9520.894553
768.196665	9343.473664
768.522438	9143.851533
768.848165	8984.707348
769.173846	8819.823808
769.499479	8694.465436
769.825066	8537.181436
770.150607	8357.570165
770.476101	8291.606667
770.801548	8181.560799
771.126949	8044.632978
771.452303	7954.101417
771.777611	7790.793238
772.102872	7771.082327
772.428087	7651.317114
772.753256	7531.251953
773.078378	7443.278777
773.403453	7302.368445
773.728482	7200.494287
774.053465	7134.646736
774.378401	7045.872017
774.703291	6956.557894
775.028135	6858.058789
775.352932	6817.414486
775.677683	6736.224183
776.002388	6651.989023
776.327046	6654.428941
776.651658	6563.912503
776.976224	6496.310630
777.300743	6474.873123
777.625216	6409.297794
777.949643	6364.897832
778.274024	6372.041147
778.598359	6304.618235
778.922647	6309.167876
779.246889	6268.818481
779.571086	6274.338544
779.895236	6285.030831
780.219339	6274.404079
780.543397	6274.643534
780.867409	6327.517676
781.191374	6327.416853
781.515294	6290.490401
781.839167	6347.069791
782.162995	6318.380585
782.486776	6263.711792
782.810511	6224.282407
783.134201	6151.168032
783.457844	6137.856865
783.781441	6092.572180
784.104993	6049.639194
784.428498	6016.980078
784.751958	5998.300083
785.075372	5977.659078
785.398739	5934.645433
785.722061	5964.053004
786.045337	5960.614937
786.368568	6067.583181
786.691752	6092.408343
787.014891	6338.792217
787.337983	6617.270596
787.661030	7052.375105
787.984031	7476.913356
788.306987	7744.190292
788.629897	7827.160122
788.952760	7739.287769
789.275579	7565.090698
789.598351	7267.755883
789.921078	7002.565985
790.243759	6722.234981
790.566395	6519.832654
790.888984	6326.874929
791.211529	6191.792170
791.534027	6027.264032
791.856480	5892.778651
792.178888	5828.140976
792.501249	5760.004741
792.823566	5658.808618
793.145836	5657.984390
793.468062	5633.532273
793.790241	5596.222693
794.112375	5637.769363
794.434464	5728.464762
794.756507	5763.500781
795.078505	5886.590634
795.400457	6100.698520
795.722364	6337.511763
796.044226	6534.018461
796.366042	6687.365320
796.687812	6635.290201
797.009538	6667.351939
797.331218	6569.823256
797.652852	6504.562999
797.974442	6380.538012
798.295986	6311.930428
798.617484	6183.133989
798.938938	6073.347740
799.260346	6004.717472
799.581709	5869.110433
799.903026	5822.421787
800.224299	5744.326752
800.545526	5633.333147
800.866708	5568.866872
801.187845	5518.268811
801.508936	5444.025217
801.829983	5410.496503
802.150984	5308.415658
802.471940	5279.287872
802.792851	5266.740440
803.113717	5238.210029
803.434538	5216.507862
803.755314	5183.720198
804.076045	5170.182179
804.396731	5138.536336
804.717372	5152.644005
805.037967	5153.977390
805.358518	5186.583573
805.679024	5241.156584
805.999485	5250.626391
806.319901	5268.958547
806.640272	5289.546620
806.960598	5337.183003
807.280879	5327.178833
807.601115	5359.545561
807.921306	5326.296631
808.241453	5321.368903
808.561554	5336.668805
808.881611	5297.342764
809.201623	5295.364111
809.521590	5246.230505
809.841513	5222.854675
810.161390	5244.793776
810.481223	5157.627185
810.801011	5144.298374
811.120755	5117.570177
811.440453	5060.128749
811.760107	5037.037744
812.079716	5010.385164
812.399281	4958.151248
812.718801	4951.028098
813.038276	4923.135393
813.357707	4886.029981
813.677093	4908.420265
813.996434	4843.591027
814.315731	4865.343606
814.634983	4862.366804
814.954191	4869.308473
815.273354	4929.882978
815.592473	4969.181293
815.911547	5044.922109
816.230577	5097.909677
816.549562	5186.586093
816.868502	5240.959979
817.187399	5292.654491
817.506250	5368.390266
817.825058	5397.079472
818.143821	5550.673348
818.462539	5717.265838
818.781213	5947.104645
819.099843	6312.038813
819.418429	6937.298166
819.736970	7550.950262
820.055466	8260.154908
820.373919	9169.342128
820.692327	10613.050452
821.010691	13298.039566
821.329011	19497.476646
821.647286	29044.650734
821.965517	39398.842977
822.283704	44881.531324
822.601847	46386.088895
822.919945	41785.675568
823.237999	36660.263877
823.556010	31456.835288
823.873976	26760.367816
824.191897	22558.271177
824.509775	19491.293671
824.827609	16725.454531
825.145398	15157.804399
825.463144	14413.709927
825.780845	14701.723649
826.098502	15949.469720
826.416116	18401.912928
826.733685	20687.163748
827.051210	21223.875234
827.368692	19796.406987
827.686129	17233.423878
828.003522	14767.598927
828.320872	12547.381512
828.638177	10903.730944
828.955439	9661.872941
829.272656	8599.210313
829.589830	7759.706963
829.906960	7030.622526
830.224046	6498.322051
830.541088	6089.686120
830.858086	5835.173386
831.175041	5632.924814
831.491952	5573.071194
831.808819	5606.844404
832.125642	5847.352813
832.442421	6392.684672
832.759157	7500.884042
833.075849	9259.901416
833.392497	11100.207395
833.709101	12221.538971
834.025662	11980.223977
834.342179	10925.138204
834.658653	9620.129667
834.975083	8514.281994
835.291469	7614.504088
835.607811	6883.317490
835.924110	6360.953129
836.240366	5870.897522
836.556578	5425.478812
836.872746	5069.666612
837.188871	4798.303821
837.504952	4578.897683
837.820990	4412.698402
838.136984	4296.809837
838.452935	4247.502311
838.768842	4284.305255
839.084706	4559.388417
839.400526	5295.916117
839.716303	6198.559919
840.032037	6760.872905
840.347727	6619.425689
840.663373	6025.280338
840.978977	5447.334735
841.294537	5002.573896
841.610054	4673.772198
841.925527	4433.475518
842.240957	4231.536977
842.556344	4049.054769
842.871687	3886.038977
843.186987	3739.248139
843.502244	3619.213225
843.817458	3533.279196
844.132629	3464.011221
844.447756	3416.944488
844.762840	3369.688712
845.077881	3334.410718
845.392879	3299.107517
845.707833	3272.964093
846.022745	3244.078282
846.337613	3234.500090
846.652438	3212.210628
846.967221	3201.462888
847.281960	3183.952440
847.596656	3170.079185
847.911309	3160.929490
848.225919	3149.387769
848.540485	3135.396046
848.855009	3131.385808
849.169490	3120.738891
849.483928	3112.799074
849.798323	3104.839092
850.112675	3096.090170
850.426984	3099.278699
850.741251	3092.248810
851.055474	3086.078438
851.369654	3089.282091
851.683792	3086.663212
851.997887	3087.195054
852.311938	3086.073397
852.625947	3087.762183
852.939914	3081.027202
853.253837	3087.182451
853.567718	3082.834456
853.881555	3079.305648
854.195350	3086.945517
854.509103	3079.986204
854.822812	3079.708940
855.136479	3074.193918
855.450103	3081.430494
855.763685	3074.607293
856.077224	3074.831624
856.390720	3079.784557
856.704173	3093.947679
857.017584	3098.265427
857.330953	3101.181735
857.644278	3106.941253
857.957561	3116.532048
858.270802	3111.188425
858.584000	3111.233796
858.897155	3111.110287
859.210268	3095.880962
859.523339	3084.868561
859.836367	3080.137438
860.149352	3077.115267
860.462295	3069.430028
860.775195	3063.390725
861.088054	3059.193965
861.400869	3058.634397
861.713642	3056.648182
862.026373	3065.951631
862.339062	3069.974472
862.651708	3079.948395
862.964312	3096.682505
863.276873	3103.956890
863.589392	3135.615336
863.901869	3160.236332
864.214303	3179.009589
864.526696	3197.843339
864.839045	3214.711040
865.151353	3229.494224
865.463619	3228.160839
865.775842	3229.481621
866.088023	3237.416397
866.400162	3227.850808
866.712258	3227.598750
867.024313	3228.957341
867.336325	3226.315776
867.648296	3228.617063
867.960224	3225.491548
868.272110	3229.068246
868.583954	3228.508678
868.895755	3239.085019
869.207515	3236.771129
869.519233	3251.035074
869.830909	3261.253493
870.142542	3268.694236
870.454134	3276.964249
870.765684	3290.789613
871.077191	3305.308137
871.388657	3319.625013
871.700081	3338.393229
872.011463	3356.095241
872.322803	3377.210114
872.634101	3393.261148
872.945357	3413.100609
873.256571	3441.129424
873.567744	3456.888071
873.878874	3463.580203
874.189963	3479.437152
874.501010	3478.612923
874.812015	3477.677789
875.122979	3492.718072
875.433900	3491.087259
875.744780	3494.757219
876.055618	3504.156450
876.366415	3501.507324
876.677169	3507.072757
876.987882	3521.611445
877.298554	3545.647667
877.609183	3580.913058
877.919771	3628.486427
878.230317	3695.687529
878.540822	3801.725679
878.851285	3952.287301
879.161707	4170.566742
879.472087	4543.173546
879.782425	5169.350388
880.092722	6351.115317
880.402977	8283.636603
880.713191	10663.933338
881.023363	13054.708111
881.333494	14401.031425
881.643583	14866.138361
881.953631	14465.417042
882.263637	13611.233852
882.573602	12569.547465
882.883526	11610.170518
883.193408	10660.916207
883.503248	9740.209951
883.813048	8909.233713
884.122806	8137.617061
884.432522	7376.405351
884.742197	6714.930349
885.051831	6149.431355
885.361424	5648.396115
885.670975	5256.237196
885.980485	4931.743164
886.289954	4662.679139
886.599382	4448.452786
886.908768	4269.562400
887.218113	4106.218933
887.527417	3969.674240
887.836680	3844.104139
888.145901	3747.326588
888.455082	3671.169877
888.764221	3602.683281
889.073319	3547.132287
889.382376	3513.409488
889.691392	3486.434274
890.000366	3480.843634
890.309300	3474.736276
890.618193	3477.203921
890.927044	3468.545739
891.235855	3482.850013
891.544625	3491.553565
891.853353	3519.632792
892.162041	3581.001279
892.470687	3674.577697
892.779293	3789.120274
893.087858	3963.879434
893.396381	4242.524172
893.704864	4652.460720
894.013306	5223.641095
894.321707	5797.407582
894.630068	6156.090719
894.938387	6194.123704
895.246665	6018.489904
895.554903	5697.678435
895.863100	5363.797775
896.171256	5094.612762
896.479371	4853.471688
896.787446	4625.356956
897.095480	4429.911422
897.403473	4276.677989
897.711425	4134.454436
898.019336	4011.243595
898.327207	3892.458887
898.635038	3786.965181
898.942827	3681.710930
899.250576	3599.116665
899.558284	3514.589118
899.865952	3459.791776
900.173579	3394.899523
900.481165	3352.405116
900.788711	3307.952222
901.096216	3274.572222
901.403681	3247.274373
901.711105	3236.052765
902.018489	3230.373905
902.325832	3265.457815
902.633135	3322.208605
902.940397	3496.110768
903.247619	3895.244124
903.554800	4643.852950
903.861941	5618.335715
904.169041	6322.917623
904.476101	6539.062135
904.783121	6263.608448
905.090100	5855.857240
905.397039	5442.482624
905.703938	5083.653294
906.010796	4758.151031
906.317614	4503.048482
906.624391	4265.433695
906.931129	4067.374322
907.237826	3889.340933
907.544483	3721.036971
907.851099	3550.555230
908.157675	3390.037330
908.464211	3245.220103
908.770707	3147.209990
909.077163	3066.841395
909.383578	3004.736900
909.689954	2959.926084
909.996289	2931.849377
910.302584	2910.434556
910.608839	2899.424676
910.915054	2886.594939
911.221229	2883.124105
911.527363	2885.642161
911.833458	2893.675240
912.139513	2905.733680
912.445527	2918.654157
912.751502	2952.835701
913.057436	2999.536950
913.363331	3055.332441
913.669186	3140.429638
913.975000	3260.464553
914.280775	3444.532203
914.586510	3715.174109
914.892205	4084.007609
915.197859	4582.860029
915.503475	5171.424823
915.809050	5669.344630
916.114585	5963.473272
916.420081	6024.940060
916.725536	5962.969156
917.030952	5720.905551
917.336328	5518.034397
917.641665	5302.204957
917.946961	5073.918826
918.252218	4871.004822
918.557435	4644.891427
918.862612	4449.448413
919.167750	4275.828554
919.472848	4082.843103
919.777906	3913.238523
920.082925	3758.525511
920.387904	3602.995833
920.692843	3492.196313
920.997743	3394.468504
921.302603	3303.878969
921.607423	3236.723238
921.912204	3169.852333
922.216946	3120.078500
922.521647	3073.601582
922.826310	3029.846887
923.130932	2994.286588
923.435516	2954.895012
923.740059	2927.450971
924.044564	2895.172463
924.349028	2870.614482
924.653454	2838.824965
924.957840	2814.932417
925.262186	2794.969447
925.566493	2773.993206
925.870761	2747.335585
926.174989	2738.400140
926.479178	2723.052347
926.783328	2707.598690
927.087438	2695.091587
927.391509	2683.340657
927.695541	2670.208452
927.999533	2661.583037
928.303486	2651.099958
928.607400	2645.791623
928.911275	2642.724081
929.215110	2635.737042
929.518906	2631.923409
929.822663	2631.830147
930.126381	2629.206227
930.430060	2636.281486
930.733699	2636.740231
931.037299	2640.311889
931.340861	2638.860036
931.644383	2640.294245
931.947866	2641.945222
932.251309	2639.490181
932.554714	2639.764923
932.858080	2636.404994
933.161407	2630.227060
933.464694	2631.066413
933.767943	2626.597430
934.071153	2622.814044
934.374323	2617.069649
934.677455	2616.328599
934.980548	2611.395830
935.283602	2612.272991
935.586617	2603.791250
935.889593	2611.607559
936.192530	2611.499174
936.495428	2619.383538
936.798287	2630.456433
937.101108	2638.829789
937.403890	2662.147647
937.706632	2692.359282
938.009336	2718.616131
938.312002	2752.313724
938.614628	2774.893052
938.917216	2794.775363
939.219765	2800.517237
939.522275	2814.088023
939.824747	2812.759679
940.127179	2805.722229
940.429573	2801.633853
940.731929	2798.568831
941.034246	2788.229425
941.336524	2787.697583
941.638763	2779.490585
941.940964	2776.029832
942.243126	2759.764550
942.545250	2750.705596
942.847335	2736.335787
943.149381	2724.647872
943.451389	2710.562888
943.753359	2695.300795
944.055290	2688.154959
944.357182	2678.785975
944.659036	2672.240037
944.960851	2671.509069
945.262628	2665.605878
945.564367	2667.750889
945.866067	2664.239725
946.167729	2663.070178
946.469352	2661.756957
946.770937	2661.847698
947.072484	2654.608601
947.373992	2654.520381
947.675462	2647.059473
947.976893	2645.045532
948.278286	2640.448000
948.579641	2638.570170
948.880958	2635.792494
949.182236	2635.858029
949.483476	2632.177987
949.784678	2632.475415
950.085841	2630.559777
950.386967	2637.909779
950.688054	2640.420273
950.989103	2647.525780
951.290114	2657.991215
951.591087	2669.316167
951.892021	2678.851510
952.192917	2692.921370
952.493776	2703.217927
952.794596	2709.584904
953.095378	2708.067517
953.396122	2710.338557
953.696828	2706.366127
953.997496	2699.419417
954.298126	2691.620752
954.598718	2680.406706
954.899272	2671.632577
955.199788	2660.771412
955.500266	2646.724236
955.800706	2632.916516
956.101108	2615.678290
956.401472	2604.895262
956.701798	2589.076122
957.002087	2581.463979
957.302337	2567.686506
957.602550	2556.830381
957.902724	2545.245809
958.202861	2535.760878
958.502960	2526.177645
958.803022	2524.735875
959.103045	2510.963443
959.403031	2507.613596
959.702979	2502.703512
960.002889	2496.371823
960.302762	2490.014928
960.602596	2489.626759
960.902393	2486.407982
961.202153	2480.809781
961.501875	2480.151910
961.801559	2475.017495
962.101205	2475.067907
962.400814	2473.195118
962.700385	2470.679582
962.999918	2467.627164
963.299414	2467.843933
963.598873	2465.895527
963.898293	2462.926288
964.197677	2464.380661
964.497022	2461.058540
964.796331	2459.866307
965.095601	2460.272120
965.394835	2460.251956
965.694030	2457.134002
965.993189	2459.883951
966.292309	2455.205761
966.591393	2457.973354
966.890439	2457.224743
967.189447	2456.942438
967.488419	2457.050823
967.787353	2460.325052
968.086249	2457.055864
968.385108	2459.400001
968.683930	2459.548715
968.982714	2461.776905
969.281462	2463.443006
969.580172	2463.465691
969.878844	2464.708336
970.177480	2469.268059
970.476078	2467.617081
970.774639	2473.795015
971.073162	2476.786940
971.371649	2477.389358
971.670098	2477.555716
971.968510	2478.206025
972.266885	2478.710140
972.565223	2484.194916
972.863524	2485.636686
973.161788	2486.486120
973.460014	2486.390338
973.758204	2488.210195
974.056356	2485.278764
974.354471	2488.933600
974.652550	2487.454022
974.950591	2488.883189
975.248595	2487.254896
975.546563	2487.756491
975.844493	2485.314052
976.142386	2483.282467
976.440243	2481.480254
976.738062	2476.907928
977.035845	2477.638895
977.333590	2473.792495
977.631299	2471.503811
977.928971	2470.425004
978.226606	2468.411063
978.524204	2467.702781
978.821765	2464.877214
979.119290	2466.601289
979.416777	2463.979889
979.714228	2465.353603
980.011642	2467.869139
980.309020	2471.604634
980.606360	2474.503297
980.903664	2484.298259
981.200931	2497.407780
981.498162	2513.725995
981.795356	2546.357384
982.092513	2581.625296
982.389633	2625.700104
982.686717	2669.422032
982.983764	2701.030066
983.280775	2721.711400
983.577749	2721.696276
983.874686	2711.520707
984.171587	2693.100331
984.468451	2679.595080
984.765279	2660.017759
985.062070	2642.779533
985.358824	2624.548201
985.655543	2601.628595
985.952224	2583.477920
986.248869	2552.479865
986.545478	2522.217819
986.842050	2506.771723
987.138586	2486.433188
987.435086	2474.566312
987.731549	2460.791359
988.027975	2459.374795
988.324366	2450.376335
988.620719	2448.624534
988.917037	2441.975252
989.213318	2442.953236
989.509563	2436.707247
989.805772	2439.119439
990.101944	2437.733121
990.398080	2434.312698
990.694180	2435.409149
990.990244	2434.108532
991.286271	2434.602565
991.582262	2437.120621
991.878217	2435.938471
992.174136	2437.919644
992.470019	2438.716146
992.765865	2442.222269
993.061676	2440.838472
993.357450	2444.228648
993.653188	2446.106478
993.948890	2450.492282
994.244556	2458.913529
994.540186	2468.020374
994.835780	2479.166365
995.131337	2491.063488
995.426859	2506.736435
995.722345	2529.562780
996.017795	2544.577857
996.313208	2563.711556
996.608586	2572.392423
996.903928	2573.443503
997.199234	2574.245047
997.494504	2570.474264
997.789738	2559.708880
998.084936	2551.910215
998.380099	2540.902855
998.675225	2529.656041
998.970316	2520.251769
999.265371	2503.842813
999.560390	2491.726400
999.855373	2480.613176
1000.150320	2470.782926
1000.445232	2462.689353
1000.740108	2455.959413
1001.034948	2445.468772
1001.329752	2445.877105
1001.624521	2438.146496
1001.919254	2431.666093
1002.213951	2430.577203
1002.508613	2423.355751
1002.803239	2426.927408
1003.097829	2422.042530
1003.392384	2423.902716
1003.686903	2422.997829
1003.981386	2422.534042
1004.275834	2423.562438
1004.570246	2422.004721
1004.864623	2418.604463
1005.158964	2421.369536
1005.453270	2418.538928
1005.747540	2415.310069
1006.041775	2416.386355
1006.335974	2416.240162
1006.630138	2417.893660
1006.924266	2416.391397
1007.218359	2415.184040
1007.512416	2417.316448
1007.806438	2415.337795
1008.100425	2415.824267
1008.394376	2414.732857
1008.688292	2413.664132
1008.982172	2415.584812
1009.276017	2412.968453
1009.569827	2414.390058
1009.863602	2415.743608
1010.157341	2415.819226
1010.451045	2413.661612
1010.744714	2412.799574
1011.038347	2411.385531
1011.331945	2409.326219
1011.625508	2413.623803
1011.919036	2412.023237
1012.212528	2409.936199
1012.505986	2409.986611
1012.799408	2410.397465
1013.092795	2410.203380
1013.386147	2412.126580
1013.679464	2411.100706
1013.972745	2409.951323
1014.265992	2411.859399
1014.559204	2409.570715
1014.852380	2409.255643
1015.145521	2410.836045
1015.438628	2407.239182
1015.731699	2409.394275
1016.024736	2410.422670
1016.317737	2410.420150
1016.610703	2412.219842
1016.903635	2410.964594
1017.196531	2407.367731
1017.489393	2409.669018
1017.782219	2406.636764
1018.075011	2414.442991
1018.367768	2412.895356
1018.660490	2413.674215
1018.953177	2413.674215
1019.245829	2413.674215
