Dividing Wavelength (nm)	Counts (n)	Blue Motor Position (mm): 45.000000	Red Motor Position (mm): 0.000000	
326.493990	1973.460496
326.888308	1973.460496
327.282561	1973.460496
327.676750	1948.589964
328.070874	1951.100458
328.464933	1960.061109
328.858929	1966.652418
329.252859	1981.118009
329.646726	1991.454895
330.040528	2008.441063
330.434265	2028.275482
330.827938	2048.707279
331.221547	2067.747717
331.615091	2089.187744
332.008571	2109.647267
332.401986	2128.004629
332.795338	2150.301653
333.188625	2168.908551
333.581847	2188.294308
333.975006	2209.288194
334.368100	2223.937787
334.761129	2241.783471
335.154095	2256.801069
335.546996	2298.730866
335.939833	2383.202960
336.332606	2398.840619
336.725315	2407.602145
337.117960	2418.538928
337.510540	2425.505803
337.903056	2436.795467
338.295508	2441.730756
338.687896	2452.922118
339.080220	2457.479321
339.472480	2459.987295
339.864676	2466.392081
340.256807	2468.043059
340.648875	2470.460292
341.040879	2471.914665
341.432818	2472.852320
341.824694	2477.114615
342.216506	2472.476754
342.608253	2474.389872
342.999937	2470.064562
343.391557	2474.261322
343.783113	2470.024232
344.174605	2468.635394
344.566033	2467.664972
344.957397	2466.112297
345.348697	2462.722121
345.739934	2462.223047
346.131106	2459.909157
346.522215	2460.531740
346.913260	2456.118209
347.304241	2458.779939
347.695159	2455.208281
348.086012	2453.406069
348.476802	2451.361881
348.867528	2451.172837
349.258191	2450.572940
349.648789	2448.722837
350.039324	2447.308793
350.429796	2447.883485
350.820203	2445.274687
351.210548	2444.410130
351.600828	2443.101950
351.991045	2447.323917
352.381198	2442.363421
352.771288	2446.832404
353.161314	2445.259564
353.551276	2443.618668
353.941175	2440.866198
354.331010	2442.391148
354.720782	2444.750408
355.110490	2448.627055
355.500135	2443.749738
355.889717	2443.759821
356.279235	2444.238730
356.668689	2445.534307
357.058080	2445.073041
357.447408	2441.468616
357.836672	2445.665377
358.225873	2444.200922
358.615010	2443.595983
359.004084	2450.401541
359.393095	2449.622683
359.782043	2451.019082
360.170927	2449.761314
360.559748	2454.963785
360.948505	2454.240380
361.337199	2456.660133
361.725830	2455.286419
362.114398	2455.036882
362.502903	2456.899588
362.891344	2458.404373
363.279722	2457.847325
363.668037	2459.047120
364.056289	2461.361009
364.444478	2462.409569
364.832603	2460.226750
365.220665	2461.313118
365.608665	2464.738583
365.996601	2464.788994
366.384474	2463.516103
366.772284	2465.421659
367.160031	2465.950980
367.547715	2463.019549
367.935336	2467.617081
368.322893	2465.131792
368.710388	2469.928450
369.097820	2471.029943
369.485189	2475.025057
369.872495	2472.028091
370.259738	2473.316106
370.646918	2473.991620
371.034035	2473.656384
371.421090	2475.461117
371.808081	2473.545478
372.195010	2476.814667
372.581875	2475.002372
372.968678	2476.870119
373.355418	2478.478247
373.742096	2480.225007
374.128710	2481.543269
374.515262	2483.998311
374.901751	2485.172900
375.288177	2484.767087
375.674540	2484.096613
376.060841	2486.460914
376.447079	2489.289002
376.833254	2487.252376
377.219367	2486.612149
377.605417	2491.060967
377.991404	2489.329331
378.377329	2493.140443
378.763191	2496.361741
379.148991	2501.017246
379.534727	2506.975890
379.920402	2508.909172
380.306013	2514.565347
380.691563	2521.703621
381.077049	2528.335259
381.462474	2535.506300
381.847835	2549.064483
382.233134	2562.988150
382.618371	2573.332598
383.003545	2590.487645
383.388657	2611.189143
383.773706	2637.635036
384.158693	2659.281751
384.543618	2687.134126
384.928480	2716.521532
385.313280	2752.132243
385.698017	2794.573717
386.082692	2840.002075
386.467305	2876.573125
386.851856	2933.684357
387.236344	3000.078874
387.620770	3051.544014
388.005133	3112.940226
388.389435	3191.191537
388.773674	3254.289139
389.157851	3334.539267
389.541965	3418.948347
389.926018	3471.877942
390.310008	3580.764344
390.693936	3671.230371
391.077802	3768.043210
391.461606	3871.661607
391.845348	3973.888645
392.229027	4082.666662
392.612645	4237.959407
392.996200	4352.950647
393.379694	4497.654447
393.763125	4678.576417
394.146494	4794.230569
394.529801	4935.549235
394.913047	5130.664574
395.296230	5206.044947
395.679351	5308.072860
396.062410	5532.956212
396.445408	5549.556732
396.828343	5718.884049
397.211217	5879.744747
397.594028	5884.906889
397.976778	6088.325008
398.359466	6280.740809
398.742092	6340.400345
399.124656	6521.229054
399.507158	6730.542803
399.889598	6816.736451
400.271977	7055.475415
400.654294	7153.397308
401.036549	7380.947431
401.418742	7478.317317
401.800874	7795.897407
402.182944	7944.702186
402.564952	8309.936302
402.946898	8238.772854
403.328783	8360.730969
403.710606	8595.764684
404.092367	8884.542141
404.474067	9253.287422
404.855705	9144.590062
405.237282	9162.496241
405.618797	9604.565104
406.000250	9885.185974
406.381642	10269.208471
406.762972	10284.203383
407.144240	10153.251850
407.525447	10435.380025
407.906593	10428.519015
408.287677	10710.639628
408.668700	10895.052598
409.049661	10913.359548
409.430560	11099.385687
409.811399	11101.407189
410.192176	11289.835438
410.572891	11394.840152
410.953545	11887.378527
411.334138	11410.742472
411.714669	12010.294460
412.095139	11369.183199
412.475547	11866.152748
412.855894	11739.839077
413.236180	12067.040208
413.616405	11774.718820
413.996568	12059.881770
414.376670	12043.704707
414.756711	11938.846187
415.136691	12211.378525
415.516609	12388.839744
415.896466	12476.361736
416.276262	12761.295313
416.655997	13211.006566
417.035670	13250.738420
417.415283	13892.318508
417.794834	13981.557013
418.174324	13728.922109
418.553753	13645.044871
418.933121	14126.560762
419.312428	13948.287918
419.691674	13854.537580
420.070859	14312.158403
420.449983	13973.045025
420.829045	14509.048228
421.208047	14263.266772
421.586988	14720.068408
421.965867	14957.715962
422.344686	14967.871366
422.723444	15514.312278
423.102141	14236.588986
423.480777	15401.849177
423.859352	14917.704324
424.237866	16010.525654
424.616319	15717.271653
424.994712	16373.415635
425.373044	16158.455793
425.751314	16819.824931
426.129524	15969.982175
426.507673	17035.883744
426.885762	16750.619971
427.263789	16929.233093
427.641756	17101.917818
428.019662	17159.576015
428.397508	17211.394036
428.775292	17493.827200
429.153016	17454.503680
429.530679	17529.667284
429.908282	17558.177529
430.285824	17283.328780
430.663305	17988.684506
431.040726	17591.620544
431.418086	17424.607117
431.795385	18053.188590
432.172624	18472.368094
432.549802	18022.477881
432.926920	18228.114108
433.303977	18106.148432
433.680974	18354.712604
434.057910	18635.908166
434.434786	18666.697013
434.811601	18584.132995
435.188355	19598.443396
435.565050	19259.113248
435.941683	19207.869920
436.318257	20080.768393
436.694770	19888.947448
437.071222	20485.585650
437.447614	19562.958714
437.823946	19588.734134
438.200218	19740.402288
438.576429	19516.708648
438.952580	19799.212389
439.328670	19746.466797
439.704700	20163.944911
440.080670	19739.603266
440.456580	20324.946762
440.832429	20499.847074
441.208218	19507.281691
441.583947	19939.260684
441.959616	20050.662623
442.335224	20277.910276
442.710773	20415.823643
443.086261	20938.969383
443.461689	20303.446241
443.837057	20432.381312
444.212365	21074.699930
444.587612	21071.798746
444.962800	20659.119809
445.337927	21073.732028
445.712995	19820.367591
446.088002	21646.515490
446.462949	21836.468687
446.837837	21995.010455
447.212664	21962.457204
447.587431	24715.874941
447.962139	27606.096991
448.336786	30001.693628
448.711374	28498.910543
449.085901	24866.852458
449.460369	24790.655417
449.834776	24687.137844
450.209124	27139.623902
450.583412	26681.725816
450.957640	27229.905926
451.331808	25905.012557
451.705917	24539.447159
452.079965	24556.708070
452.453954	24911.650671
452.827883	24814.469828
453.201752	24628.368072
453.575562	24771.630103
453.949311	25868.247422
454.323001	25927.475939
454.696632	25691.660844
455.070202	27217.073669
455.443713	27357.744546
455.817164	27944.975955
456.190556	28479.393715
456.563888	27922.358818
456.937160	28373.884886
457.310373	26725.518319
457.683526	27140.909396
458.056619	27127.124361
458.429653	27071.775012
458.802628	27640.825499
459.175542	27736.226815
459.548398	29042.931701
459.921194	30591.027197
460.293930	31261.551070
460.666607	33262.422841
461.039224	35011.148698
461.411782	35393.225310
461.784280	34225.772217
462.156719	33742.479318
462.529099	33178.926209
462.901419	31889.527605
463.273680	30843.251248
463.645882	30926.427766
464.018024	30901.894990
464.390106	31713.258620
464.762130	34371.040627
465.134094	38370.150164
465.505999	43640.535358
465.877845	48222.997137
466.249631	49420.102296
466.621358	47704.111171
466.993026	45576.593013
467.364634	43504.275490
467.736184	41557.971690
468.107674	40305.403756
468.479105	39528.831650
468.850477	38839.206845
469.221790	37419.701101
469.593043	35709.981171
469.964238	34819.426056
470.335373	34733.703755
470.706449	36399.164875
471.077467	38891.188703
471.448425	43466.799553
471.819324	46323.933989
472.190164	44541.069437
472.560945	40991.371203
472.931667	37915.801051
473.302330	36801.670762
473.672934	35986.228840
474.043479	36480.395507
474.413965	35696.838883
474.784393	35322.631512
475.154761	36205.279577
475.525070	36238.543631
475.895321	35791.042925
476.265513	36390.201703
476.635645	37347.030347
477.005719	37153.455081
477.375734	37623.945969
477.745691	38299.596696
478.115588	39615.524372
478.485427	41550.299054
478.855207	44882.660542
479.224928	47490.540168
479.594591	49132.287700
479.964194	48144.236669
480.333739	48277.131567
480.703226	48306.897060
481.072653	48921.043189
481.442022	49430.925654
481.811333	49686.078614
482.180584	48387.210202
482.549777	47884.536588
482.918912	47373.451808
483.287988	47071.995849
483.657005	46258.401509
484.025964	45617.570033
484.394864	45628.055632
484.763706	45192.963726
485.132489	44336.509497
485.501213	44163.176983
485.869879	44314.232638
486.238487	43904.487653
486.607036	44097.160553
486.975527	43576.336264
487.343959	43772.003609
487.712333	43849.733161
488.080648	43759.292340
488.448905	44216.323348
488.817104	44022.175910
489.185244	44965.519468
489.553326	46614.551467
489.921350	49316.582202
490.289315	52220.369997
490.657222	52863.515363
491.025070	53164.016023
491.392861	52264.759877
491.760593	50992.339878
492.128267	49317.388787
492.495883	47786.788615
492.863440	46402.223108
493.230939	45066.486218
493.598380	43977.387779
493.965763	43650.930217
494.333088	42850.120244
494.700354	42368.853889
495.067563	42082.092894
495.434713	41966.232055
495.801805	42022.319933
496.168839	41646.219609
496.535815	41317.284320
496.902733	41353.179856
497.269593	40946.565428
497.636395	40873.065405
498.003139	41271.719851
498.369825	40736.994580
498.736453	41044.504965
499.103023	40564.168703
499.469535	40460.298249
499.835989	40534.199043
500.202385	40217.927133
500.568723	40225.685469
500.935003	40420.894070
501.301226	40219.918389
501.667390	40829.623262
502.033497	41093.870464
502.399546	40515.700529
502.765537	39849.325526
503.131470	40205.137726
503.497345	40570.437378
503.863163	39251.835369
504.228923	39853.058500
504.594625	40243.440413
504.960269	39550.344774
505.325856	40225.652702
505.691385	39601.890572
506.056856	39747.274928
506.422270	40168.271768
506.787625	39748.353735
507.152924	39942.528899
507.518164	40024.868585
507.883347	39258.872820
508.248472	39500.923822
508.613540	39972.284309
508.978550	40261.870872
509.343503	40021.750632
509.708398	40214.910003
510.073236	40745.935067
510.438016	40748.561508
510.802738	40215.043593
511.167403	40821.869967
511.532010	41042.231405
511.896561	41352.032994
512.261053	42176.309538
512.625488	41724.972514
512.989866	41599.604059
513.354186	41450.567387
513.718449	41434.334871
514.082655	42111.618932
514.446803	41800.448669
514.810894	42295.656335
515.174927	42243.987029
515.538904	42140.161945
515.902822	42808.626507
516.266684	42250.485076
516.630488	42681.937269
516.994235	42544.636403
517.357925	43098.200466
517.721558	43277.055563
518.085133	43575.317951
518.448651	43723.548039
518.812112	43487.279240
519.175516	43589.773460
519.538863	43944.496771
519.902152	43900.931119
520.265385	44375.979211
520.628560	44419.035706
520.991678	44209.719436
521.354739	44453.643227
521.717743	44758.081028
522.080690	44651.037167
522.443580	45204.308843
522.806413	45263.229849
523.169189	45196.008583
523.531908	45389.374642
523.894569	45256.744405
524.257174	45410.391212
524.619722	45716.290948
524.982213	45710.208796
525.344647	45623.677390
525.707025	45672.863928
526.069345	46062.512353
526.431608	45983.905641
526.793815	46307.688871
527.155964	45853.344798
527.518057	46015.349838
527.880093	45792.581250
528.242072	46327.177971
528.603995	46034.113013
528.965860	46034.468414
529.327669	46142.553273
529.689421	46033.984464
530.051117	45994.837383
530.412755	46132.775956
530.774337	46195.596294
531.135862	46010.467481
531.497331	46217.026239
531.858743	46122.718854
532.220098	46456.831407
532.581396	46169.062181
532.942638	45837.208064
533.303824	46129.244627
533.664953	46096.887981
534.026025	45814.346432
534.387040	46276.247194
534.747999	46242.597492
535.108902	46400.463745
535.469748	45914.473829
535.830537	46046.410908
536.191270	46239.802172
536.551947	45880.493932
536.912567	46193.587394
537.273131	46300.535473
537.633638	45797.579554
537.994089	46138.653941
538.354483	45744.934784
538.714821	46290.206149
539.075103	46655.704926
539.435328	46429.654547
539.795497	46302.758622
540.155609	46300.411965
540.515665	46744.651045
540.875665	46220.066055
541.235609	46536.249745
541.595496	46505.733120
541.955328	47177.048454
542.315102	46550.339770
542.674821	46337.071236
543.034483	46367.355967
543.394090	46331.425143
543.753640	46291.796633
544.113134	47295.147565
544.472571	46322.681262
544.831953	47568.806602
545.191278	46787.400029
545.550548	46499.822367
545.909761	46949.218547
546.268918	47157.251843
546.628019	47472.490317
546.987064	47029.256947
547.346053	46309.682647
547.704986	47185.709157
548.063863	46744.766991
548.422684	46951.114021
548.781449	46788.725853
549.140158	47190.843572
549.498811	47030.731484
549.857408	46466.679301
550.215949	47310.230698
550.574434	47243.601767
550.932864	47009.629214
551.291237	47718.899396
551.649555	47344.671861
552.007817	47581.810258
552.366022	47224.296669
552.724173	47397.699758
553.082267	47789.974624
553.440305	48096.338146
553.798288	47400.966426
554.156215	47725.715036
554.514086	47933.471068
554.871902	47678.371040
555.229661	47698.581025
555.587365	47514.185700
555.945014	47604.934031
556.302606	47527.131383
556.660143	47757.862474
557.017625	47850.481073
557.375050	47637.424267
557.732421	47979.345568
558.089735	47964.050707
558.446994	47903.723219
558.804197	48367.650526
559.161345	48297.472623
559.518437	47560.680262
559.875474	47851.892596
560.232455	48015.513327
560.589381	48185.279223
560.946251	47882.729334
561.303065	48572.039067
561.659825	48368.091627
562.016528	48053.770643
562.373177	47762.248278
562.729770	48259.631202
563.086307	47764.970501
563.442789	48220.060664
563.799216	48266.313251
564.155587	48064.488136
564.511904	48082.714428
564.868164	48182.105817
565.224370	48425.205379
565.580520	48151.342176
565.936615	48368.159682
566.292654	48089.769523
566.648638	48331.855813
567.004567	48268.049928
567.360441	48322.446499
567.716260	48169.669291
568.072023	48452.669585
568.427732	48452.253690
568.783385	47995.489863
569.138982	48392.140451
569.494525	48357.923619
569.850013	48121.579203
570.205445	48093.086602
570.560823	48061.967559
570.916145	47913.397194
571.271412	47956.168863
571.626625	47704.713589
571.981782	47754.212679
572.336884	47449.043910
572.691931	47780.494734
573.046923	47365.438894
573.401860	47217.470946
573.756743	47202.400417
574.111570	47324.776947
574.466342	47176.352775
574.821059	47292.221176
575.175722	46824.291193
575.530330	46839.762494
575.884882	46548.358596
576.239380	46520.440686
576.593823	46487.925244
576.948211	46405.298212
577.302544	45927.825325
577.656823	45963.325131
578.011047	46193.345419
578.365216	45901.369350
578.719330	45706.758126
579.073389	45556.075517
579.427394	45649.863664
579.781344	45593.173368
580.135239	45243.836530
580.489080	45332.583523
580.842866	44830.179610
581.196597	45287.228262
581.550273	45228.834057
581.903895	45091.981853
582.257463	45526.284819
582.610975	44890.131533
582.964434	45171.566549
583.317837	44823.048898
583.671186	44651.460624
584.024481	44887.099278
584.377721	44415.746353
584.730906	44700.770671
585.084037	44733.684364
585.437113	44438.378613
585.790135	44456.688084
586.143103	44083.004993
586.496016	44201.298189
586.848874	44230.678033
587.201679	44234.060648
587.554428	43715.124271
587.907124	43919.001135
588.259765	43671.379658
588.612352	43912.432512
588.964884	43288.859425
589.317362	43582.486472
589.669786	43529.375395
590.022155	43305.583453
590.374470	43728.594234
590.726731	43252.243004
591.078937	42757.090791
591.431090	42859.090977
591.783188	42512.337730
592.135232	42204.935731
592.487222	42443.830970
592.839157	42523.672765
593.191038	42201.154865
593.542866	41983.656803
593.894639	41366.123019
594.246358	41649.433344
594.598022	41632.994142
594.949633	41228.837276
595.301190	41184.119721
595.652692	41011.508093
596.004141	41362.110260
596.355535	40378.374457
596.706876	40337.626811
597.058162	40148.886011
597.409395	40618.280448
597.760573	40708.479294
598.111698	40275.446699
598.462768	40285.518924
598.813785	40324.119039
599.164748	39790.573398
599.515657	40172.763436
599.866511	39648.667438
600.217312	40268.101738
600.568060	39230.100434
600.918753	39984.657822
601.269392	39925.250344
601.619978	39584.455741
601.970510	39797.104213
602.320988	39971.681892
602.671412	40295.414709
603.021783	40031.767404
603.372100	39664.340386
603.722363	39787.089961
604.072572	39849.002892
604.422728	39862.293894
604.772830	39674.218527
605.122878	39783.830855
605.472872	39715.278725
605.822813	39978.263118
606.172701	39829.657464
606.522534	40066.256458
606.872314	40314.011526
607.222041	40063.083052
607.571714	40467.466769
607.921333	39923.594325
608.270899	40216.059386
608.620411	40543.789839
608.969870	40342.355413
609.319276	40329.082055
609.668627	40380.078368
610.017926	40851.390964
610.367171	41012.730572
610.716362	41108.434358
611.065500	41052.175081
611.414585	41244.447209
611.763616	41529.637885
612.112594	41468.332413
612.461518	41685.543129
612.810389	41970.524597
613.159207	41827.980931
613.507971	41898.287383
613.856682	42369.766338
614.205340	42266.750359
614.553945	42968.776402
614.902496	42416.016404
615.250994	42884.954617
615.599439	42958.888179
615.947830	43175.806509
616.296169	43201.513873
616.644454	43310.667456
616.992686	43495.856763
617.340864	44005.371224
617.688990	43742.222993
618.037063	44331.208723
618.385082	44285.225838
618.733048	44598.236122
619.080961	44598.906595
619.428821	44611.322957
619.776628	44748.815387
620.124382	44564.047017
620.472083	44693.314804
620.819731	44831.326473
621.167326	44494.204351
621.514868	44483.713709
621.862357	44037.233837
622.209793	44066.278445
622.557176	43733.821910
622.904506	43479.868744
623.251783	43137.927279
623.599007	42921.233281
623.946179	42718.994791
624.293297	42656.436592
624.640363	42074.707603
624.987376	42044.387583
625.334336	41807.032416
625.681243	41465.806795
626.028097	41422.778026
626.374899	41269.547114
626.721647	41223.332336
627.068343	41127.129477
627.414987	40880.208720
627.761577	40654.939719
628.108115	40983.882569
628.454600	40445.356269
628.801032	40624.801181
629.147412	40586.712743
629.493739	40586.359862
629.840014	40229.846942
630.186236	40566.311193
630.532405	40186.470333
630.878521	40390.649667
631.224585	40268.323548
631.570597	39985.547585
631.916556	40145.062296
632.262462	40082.083161
632.608316	40110.006112
632.954117	39993.590746
633.299866	40009.430052
633.645562	39918.795147
633.991206	39432.170045
634.336797	38992.210905
634.682336	39002.152060
635.027823	38742.497349
635.373257	38566.709794
635.718639	38320.484717
636.063968	38189.823050
636.409245	37611.522046
636.754470	37646.043867
637.099642	37417.387211
637.444762	36921.173835
637.789829	37060.173570
638.134845	36716.739923
638.479808	36673.386000
638.824719	36581.803358
639.169577	36182.793511
639.514383	36244.345999
639.859137	35948.246266
640.203839	36189.195776
640.548489	35817.312377
640.893086	35876.152725
641.237632	35629.942771
641.582125	35740.568372
641.926566	35685.506369
642.270955	35646.235780
642.615292	35655.146020
642.959576	35633.650540
643.303809	35626.905476
643.647990	35765.426301
643.992118	35732.132001
644.336195	35722.568932
644.680219	35811.232746
645.024192	36106.682170
645.368112	36613.323172
645.711981	36619.105376
646.055797	37490.783890
646.399562	37413.578619
646.743274	38369.686378
647.086935	38795.739496
647.430544	38702.334477
647.774101	38811.898914
648.117606	39071.788039
648.461059	39385.209177
648.804460	39002.880507
649.147810	38390.350068
649.491108	38130.400449
649.834354	37786.744992
650.177548	36948.023020
650.520690	36503.158838
650.863781	36506.148242
651.206820	36369.056583
651.549807	35926.899500
651.892742	35426.610351
652.235626	35236.130353
652.578458	35118.227847
652.921238	34491.405737
653.263967	34815.567053
653.606644	34500.076521
653.949269	34447.341011
654.291843	34030.908936
654.634365	34452.845951
654.976836	34053.281577
655.319255	34026.949109
655.661622	34043.199269
656.003938	33807.202693
656.346203	33672.782846
656.688416	33877.405801
657.030577	33702.134964
657.372687	33522.017058
657.714746	33808.031962
658.056753	33932.936631
658.398708	33367.591392
658.740612	33413.967487
659.082465	33695.132802
659.424266	33514.669576
659.766016	33630.865652
660.107715	33506.245808
660.449362	33636.201713
660.790958	33623.356853
661.132503	33636.252125
661.473996	33674.423742
661.815438	33779.599855
662.156829	33981.016636
662.498168	33750.265381
662.839456	33771.286992
663.180693	33921.306689
663.521879	34079.772840
663.863013	34033.958834
664.204097	34023.120353
664.545129	34496.151983
664.886110	34448.472750
665.227040	34519.177453
665.567918	34617.500118
665.908746	34697.551120
666.249522	34858.008527
666.590248	34861.955750
666.930922	34966.020289
667.271545	34942.649500
667.612118	35033.206267
667.952639	34808.769057
668.293109	34865.913056
668.633528	34756.986324
668.973896	34689.162640
669.314213	34716.674737
669.654480	34459.170078
669.994695	34488.103781
670.334859	34372.805031
670.674973	34271.344248
671.015035	34434.728044
671.355047	34385.430601
671.695008	34328.173175
672.034918	34211.967017
672.374777	34290.130108
672.714585	34131.114471
673.054342	34363.183989
673.394049	34116.033860
673.733705	34386.970673
674.073310	34058.736105
674.412864	34129.072804
674.752368	33723.811926
675.091820	34033.921025
675.431223	33613.614823
675.770574	33347.938454
676.109875	33199.415979
676.449125	32937.366720
676.788324	32837.814014
677.127473	32302.382982
677.466571	32225.225601
677.805619	31871.381972
678.144616	31873.847096
678.483562	31784.298560
678.822458	31465.216206
679.161303	31390.750802
679.500098	31292.965021
679.838842	31168.105722
680.177535	31330.025063
680.516179	31590.287233
680.854771	31828.796825
681.193314	32683.053111
681.531805	33789.460352
681.870247	34572.064198
682.208638	35311.881252
682.546978	35542.042692
682.885268	35660.517369
683.223508	35117.322960
683.561697	34798.870751
683.899836	34602.986636
684.237925	34096.554841
684.575963	33924.787606
684.913951	33465.939262
685.251889	33621.519352
685.589776	33598.829119
685.927614	33579.884463
686.265401	33713.220462
686.603137	33806.877538
686.940824	34299.065553
687.278460	34672.713355
687.616046	34812.171835
687.953582	35422.776554
688.291068	35299.669056
688.628504	35586.833344
688.965889	35528.358480
689.303224	35164.621586
689.640510	34830.599773
689.977745	34091.332206
690.314930	33298.996412
690.652065	32789.580254
690.989150	32046.221790
691.326185	31147.416827
691.663170	30445.121082
692.000105	29678.958958
692.336990	28997.977212
692.673825	28541.049547
693.010610	28017.384568
693.347345	27437.079705
693.684030	26769.613292
694.020665	26478.262326
694.357251	25801.346270
694.693786	25744.603042
695.030272	25496.061554
695.366707	24949.323214
695.703093	24663.595655
696.039429	24641.787624
696.375716	24389.016608
696.711952	24350.325752
697.048139	24175.508619
697.384276	23993.255784
697.720363	24113.411686
698.056400	23911.732765
698.392388	23702.623183
698.728326	23667.340147
699.064214	23454.578249
699.400053	23405.883223
699.735842	23049.952556
700.071581	22763.272219
700.407270	22472.611891
700.742910	22269.135798
701.078501	21996.832832
701.414042	21720.317982
701.749533	21415.164337
702.084974	21068.521996
702.420366	21278.531424
702.755709	20831.441571
703.091002	20523.951351
703.426246	20552.874972
703.761440	20442.965215
704.096584	20166.397433
704.431679	20111.126222
704.766725	20028.403408
705.101721	19955.488158
705.436668	20054.912315
705.771565	19721.679443
706.106413	20062.537060
706.441212	20045.717251
706.775961	20172.295583
707.110661	20242.660008
707.445311	20588.977195
707.779913	20433.276117
708.114465	20664.680202
708.448967	20954.536466
708.783421	21649.015902
709.117825	21916.965832
709.452180	22134.635293
709.786485	22520.497812
710.120742	23338.246062
710.454949	23347.045396
710.789107	23800.368635
711.123216	24505.885678
711.457275	24635.040039
711.791286	25192.200965
712.125247	25261.476501
712.459159	24960.645646
712.793023	25640.367104
713.126837	24537.927252
713.460602	24815.054602
713.794318	24448.819816
714.127985	24071.542383
714.461602	23162.844155
714.795171	23139.243993
715.128691	22103.221343
715.462162	21565.541956
715.795584	21147.428656
716.128957	20875.660052
716.462281	20457.413162
716.795556	20226.001515
717.128782	19720.245235
717.461960	19173.083438
717.795088	19094.713660
718.128167	18684.903140
718.461198	18222.881390
718.794180	18070.177278
719.127113	17711.473977
719.459997	17498.094537
719.792833	17142.380639
720.125619	17110.132378
720.458357	16793.149666
720.791046	16629.730581
721.123686	16459.775641
721.456278	16209.868001
721.788821	16171.595561
722.121315	15908.233081
722.453761	15977.697661
722.786158	15905.029428
723.118506	15897.712193
723.450805	15766.490958
723.783056	15919.719350
724.115259	15821.419371
724.447412	15745.754172
724.779518	15994.134343
725.111574	16006.880900
725.443582	16208.907661
725.775542	16178.499421
726.107453	16654.472564
726.439315	16534.835901
726.771129	16939.930422
727.102895	17307.584292
727.434612	17515.955345
727.766281	17637.772307
728.097901	17909.465294
728.429473	17951.420297
728.760996	17931.157379
729.092471	18022.664403
729.423897	17895.032470
729.755276	17756.683044
730.086606	17876.395325
730.417887	18402.510305
730.749120	18911.845804
731.080305	19083.313090
731.411442	19426.121634
731.742530	19498.126955
732.073570	19612.682135
732.404562	19905.759696
732.735506	19724.842767
733.066401	19449.492423
733.397249	18925.968597
733.728048	18297.440056
734.058798	17453.664328
734.389501	16763.666477
734.720156	16299.986188
735.050762	15762.100113
735.381320	15402.743982
735.711831	15149.851979
736.042293	14794.183452
736.372707	14802.521520
736.703073	14585.431791
737.033391	14774.563281
737.363661	14721.752153
737.693883	14818.254961
738.024056	14986.758049
738.354182	15172.925340
738.684260	15450.138390
739.014290	15675.992165
739.344272	15852.097312
739.674207	16138.505427
740.004093	16258.200063
740.333931	16251.714619
740.663722	16297.644572
740.993464	16304.024152
741.323159	16129.232225
741.652806	15858.245000
741.982405	15655.119267
742.311956	15314.662422
742.641460	15191.403689
742.970915	14892.359923
743.300323	14559.815168
743.629683	14342.881715
743.958996	14059.372264
744.288260	13789.844453
744.617477	13495.189011
744.946647	13412.657761
745.275768	13142.401503
745.604842	12960.201600
745.933869	12772.902570
746.262847	12724.862894
746.591778	12653.439827
746.920662	12554.804611
747.249498	12532.908359
747.578286	12655.690702
747.907027	12797.765541
748.235720	13016.637317
748.564365	13048.540259
748.892963	12946.391359
749.221514	13003.195081
749.550017	12855.839633
749.878473	12824.813852
750.206881	12594.886825
750.535242	12501.118843
750.863555	12414.773960
751.191821	12311.594143
751.520039	12328.353459
751.848210	12241.759039
752.176334	12267.511773
752.504411	12175.936693
752.832440	12022.446162
753.160421	12081.223495
753.488356	11945.946652
753.816243	11858.812828
754.144082	11717.403422
754.471875	11661.950729
754.799620	11602.994435
755.127318	11574.401011
755.454969	11532.506502
755.782572	11486.881539
756.110129	11505.977429
756.437638	11418.715056
756.765100	11407.402707
757.092515	11406.361709
757.419882	11421.217989
757.747203	11424.882908
758.074477	11499.998621
758.401703	11450.431476
758.728882	11611.632452
759.056014	11646.338276
759.383099	11764.145000
759.710138	11865.356246
760.037129	11942.168307
760.364073	11962.101029
760.690970	11957.211110
761.017820	11944.169645
761.344623	12142.859162
761.671379	12467.864871
761.998088	13096.932816
762.324751	14632.372495
762.651366	17486.751941
762.977935	21158.816623
763.304456	23401.726792
763.630931	23930.369911
763.957359	22798.507364
764.283740	20890.539018
764.610074	19013.909005
764.936362	16870.198661
765.262602	15342.391288
765.588796	13854.371222
765.914943	12813.872027
766.241044	11945.714759
766.567097	11300.404217
766.893104	10743.250853
767.219064	10378.621674
767.544978	9988.753959
767.870845	9673.238222
768.196665	9479.305034
768.522438	9282.158110
768.848165	9115.429508
769.173846	8946.538251
769.499479	8819.019744
769.825066	8669.010129
770.150607	8476.095254
770.476101	8418.268178
770.801548	8309.192732
771.126949	8165.126638
771.452303	8077.150941
771.777611	7909.459479
772.102872	7888.289154
772.428087	7763.613857
772.753256	7643.082389
773.078378	7547.653347
773.403453	7410.886843
773.728482	7302.900287
774.053465	7237.541727
774.378401	7155.050806
774.703291	7055.500621
775.028135	6954.082687
775.352932	6920.874087
775.677683	6835.953329
776.002388	6750.906543
776.327046	6746.800524
776.651658	6659.507904
776.976224	6582.995791
777.300743	6566.821249
777.625216	6499.504201
777.949643	6452.278672
778.274024	6454.451409
778.598359	6384.941459
778.922647	6390.499332
779.246889	6352.788980
779.571086	6356.106059
779.895236	6364.933120
780.219339	6353.487180
780.543397	6353.041038
780.867409	6405.461476
781.191374	6403.545838
781.515294	6372.358739
781.839167	6419.506131
782.162995	6393.468571
782.486776	6348.980388
782.810511	6309.336755
783.134201	6232.567543
783.457844	6215.805707
783.781441	6169.404406
784.104993	6128.480319
784.428498	6098.092244
784.751958	6077.753709
785.075372	6058.967849
785.398739	6013.201734
785.722061	6038.195774
786.045337	6039.967740
786.368568	6149.489328
786.691752	6164.519528
787.014891	6412.244349
787.337983	6693.253388
787.661030	7120.725590
787.984031	7554.322794
788.306987	7819.767270
788.629897	7911.899398
788.952760	7835.697316
789.275579	7658.304153
789.598351	7364.382199
789.921078	7095.817248
790.243759	6813.101779
790.566395	6613.653568
790.888984	6414.923722
791.211529	6276.022289
791.534027	6110.496003
791.856480	5971.304704
792.178888	5914.695067
792.501249	5841.288305
792.823566	5729.992231
793.145836	5725.440069
793.468062	5711.828954
793.790241	5666.415719
794.112375	5706.896185
794.434464	5802.942768
794.756507	5833.572819
795.078505	5951.072033
795.400457	6162.717316
795.722364	6399.538120
796.044226	6597.446259
796.366042	6758.876608
796.687812	6705.412651
797.009538	6736.519090
797.331218	6646.562221
797.652852	6580.152580
797.974442	6461.680424
798.295986	6390.590072
798.617484	6264.999807
798.938938	6149.146529
799.260346	6084.256797
799.581709	5948.133040
799.903026	5898.313838
800.224299	5818.061189
800.545526	5703.750505
800.866708	5641.366226
801.187845	5586.251291
801.508936	5508.892265
801.829983	5482.983254
802.150984	5375.526019
802.471940	5347.592986
802.792851	5331.524308
803.113717	5304.163445
803.434538	5278.650166
803.755314	5244.430813
804.076045	5234.676181
804.396731	5196.978432
804.717372	5211.507037
805.037967	5210.864290
805.358518	5237.519391
805.679024	5294.411333
805.999485	5308.725689
806.319901	5323.753369
806.640272	5336.651161
806.960598	5386.230909
807.280879	5378.802769
807.601115	5419.857926
807.921306	5379.264035
808.241453	5369.970667
808.561554	5385.941043
808.881611	5353.841496
809.201623	5354.849727
809.521590	5300.070028
809.841513	5288.177946
810.161390	5307.896420
810.481223	5215.991144
810.801011	5207.141398
811.120755	5179.054610
811.440453	5130.125170
811.760107	5099.187609
812.079716	5077.130041
812.399281	5024.205487
812.718801	5017.725084
813.038276	4979.669413
813.357707	4942.100214
813.677093	4970.653310
813.996434	4909.078136
814.315731	4929.976239
814.634983	4923.037091
814.954191	4932.027989
815.273354	4988.957739
815.592473	5028.238410
815.911547	5107.994505
816.230577	5158.927803
816.549562	5250.613788
816.868502	5302.625893
817.187399	5357.370303
817.506250	5443.067398
817.825058	5470.156038
818.143821	5626.744359
818.462539	5794.639988
818.781213	6027.105236
819.099843	6385.581686
819.418429	7019.463932
819.736970	7644.982904
820.055466	8363.183490
820.373919	9284.993759
820.692327	10752.435835
821.010691	13472.932317
821.329011	19730.637573
821.647286	29327.983745
821.965517	39705.602230
822.283704	45250.057314
822.601847	46852.002416
822.919945	42306.255361
823.237999	37230.536844
823.556010	32036.512528
823.873976	27281.088761
824.191897	23017.865612
824.509775	19903.849099
824.827609	17073.629383
825.145398	15483.087372
825.463144	14695.354151
825.780845	14980.169261
826.098502	16229.336937
826.416116	18659.730138
826.733685	20935.790935
827.051210	21451.125408
827.368692	20019.717500
827.686129	17465.813508
828.003522	14990.254089
828.320872	12756.670055
828.638177	11083.979920
828.955439	9824.193054
829.272656	8749.804702
829.589830	7901.131493
829.906960	7158.415776
830.224046	6611.213650
830.541088	6195.479774
830.858086	5929.816008
831.175041	5724.320933
831.491952	5660.734339
831.808819	5692.551582
832.125642	5938.229694
832.442421	6490.909034
832.759157	7599.423477
833.075849	9362.443526
833.392497	11213.444313
833.709101	12346.680574
834.025662	12108.297012
834.342179	11060.266333
834.658653	9760.379608
834.975083	8650.899784
835.291469	7739.315496
835.607811	6986.101576
835.924110	6458.920392
836.240366	5962.505370
836.556578	5505.892778
836.872746	5148.661493
837.188871	4868.698494
837.504952	4642.774143
837.820990	4473.898010
838.136984	4356.476934
838.452935	4306.960200
838.768842	4336.095549
839.084706	4618.919403
839.400526	5357.040108
839.716303	6262.746411
840.032037	6840.306366
840.347727	6705.553803
840.663373	6105.701866
840.978977	5519.259397
841.294537	5074.271706
841.610054	4737.583123
841.925527	4493.258561
842.240957	4282.848361
842.556344	4099.728448
842.871687	3938.446813
843.186987	3781.082154
843.502244	3659.943227
843.817458	3572.103642
844.132629	3496.718227
844.447756	3448.555044
844.762840	3402.118455
845.077881	3363.644369
845.392879	3328.005932
845.707833	3303.969710
846.022745	3275.560288
846.337613	3264.074019
846.652438	3236.322467
846.967221	3229.779049
847.281960	3208.764999
847.596656	3202.672765
847.911309	3188.285312
848.225919	3172.075482
848.540485	3163.969306
848.855009	3156.205929
849.169490	3143.146820
849.483928	3135.443937
849.798323	3133.175418
850.112675	3121.149745
850.426984	3123.524129
850.741251	3115.279322
851.055474	3108.917386
851.369654	3113.530041
851.683792	3107.808332
851.997887	3110.389402
852.311938	3111.556430
852.625947	3111.674897
852.939914	3105.224740
853.253837	3110.311265
853.567718	3108.738425
853.881555	3101.678289
854.195350	3104.551746
854.509103	3105.199535
854.822812	3103.868670
855.136479	3098.071343
855.450103	3099.515634
855.763685	3093.980447
856.077224	3097.010180
856.390720	3102.953701
856.704173	3116.801750
857.017584	3120.980867
857.330953	3123.309880
857.644278	3135.179277
857.957561	3136.487456
858.270802	3134.995274
858.584000	3134.498721
858.897155	3130.223822
859.210268	3116.121194
859.523339	3107.089967
859.836367	3102.232816
860.149352	3100.894389
860.462295	3096.551435
860.775195	3084.170361
861.088054	3079.764393
861.400869	3082.408478
861.713642	3079.487129
862.026373	3086.186823
862.339062	3089.685384
862.651708	3097.680654
862.964312	3117.164713
863.276873	3128.005715
863.589392	3153.483706
863.901869	3179.697706
864.214303	3202.725697
864.526696	3222.484499
864.839045	3238.880852
865.151353	3250.969539
865.463619	3254.326948
865.775842	3253.069180
866.088023	3259.287443
866.400162	3253.464910
866.712258	3252.202101
867.024313	3252.277719
867.336325	3252.731422
867.648296	3252.562544
867.960224	3252.030702
868.272110	3256.834922
868.583954	3255.405755
868.895755	3262.080242
869.207515	3256.955909
869.519233	3281.423150
869.830909	3284.720064
870.142542	3298.868063
870.454134	3303.803352
870.765684	3315.730722
871.077191	3334.783763
871.388657	3349.118284
871.700081	3363.598998
872.011463	3384.413923
872.322803	3402.705749
872.634101	3423.576126
872.945357	3445.628654
873.256571	3470.249649
873.567744	3487.036692
873.878874	3493.234790
874.189963	3508.080988
874.501010	3511.413191
874.812015	3507.448323
875.122979	3526.559338
875.433900	3524.467259
875.744780	3529.248793
876.055618	3536.722304
876.366415	3531.726520
876.677169	3541.718087
876.987882	3559.039492
877.298554	3577.472471
877.609183	3617.640385
877.919771	3668.903878
878.230317	3737.808890
878.540822	3844.920806
878.851285	4003.341586
879.161707	4224.572623
879.472087	4602.913739
879.782425	5243.939301
880.092722	6449.518640
880.402977	8400.838389
880.713191	10800.861159
881.023363	13201.630019
881.333494	14560.810796
881.643583	15043.324836
881.953631	14655.413089
882.263637	13832.600999
882.573602	12791.017956
882.883526	11829.763179
883.193408	10852.686741
883.503248	9926.034444
883.813048	9077.973735
884.122806	8304.028070
884.432522	7523.193669
884.742197	6844.543456
885.051831	6261.266832
885.361424	5755.445017
885.670975	5345.637018
885.980485	5017.455382
886.289954	4738.215788
886.599382	4516.641953
886.908768	4334.235363
887.218113	4162.934435
887.527417	4021.804812
887.836680	3899.977768
888.145901	3794.627735
888.455082	3715.985735
888.764221	3647.597442
889.073319	3582.707709
889.382376	3549.032802
889.691392	3521.198071
890.000366	3517.921321
890.309300	3509.903365
890.618193	3513.931247
890.927044	3507.833972
891.235855	3515.665404
891.544625	3530.428423
891.853353	3561.983526
892.162041	3621.552320
892.470687	3713.344170
892.779293	3835.977799
893.087858	4013.776775
893.396381	4296.300680
893.704864	4712.654617
894.013306	5290.459068
894.321707	5865.213621
894.630068	6223.281738
894.938387	6263.764724
895.246665	6090.558239
895.554903	5775.155928
895.863100	5436.798723
896.171256	5160.603987
896.479371	4920.410650
896.787446	4689.853479
897.095480	4491.370649
897.403473	4334.976413
897.711425	4186.738763
898.019336	4060.462900
898.327207	3939.326494
898.635038	3832.701049
898.942827	3725.072414
899.250576	3638.777943
899.558284	3557.030592
899.865952	3496.561952
900.173579	3428.879420
900.481165	3384.429046
900.788711	3340.933971
901.096216	3308.791574
901.403681	3280.636730
901.711105	3267.121396
902.018489	3262.932197
902.325832	3296.670119
902.633135	3355.901157
902.940397	3526.324924
903.247619	3939.886062
903.554800	4699.285477
903.861941	5687.283576
904.169041	6399.966618
904.476101	6627.143696
904.783121	6354.787798
905.090100	5953.542198
905.397039	5534.564341
905.703938	5163.479965
906.010796	4830.836908
906.317614	4574.711004
906.624391	4331.833253
906.931129	4129.516626
907.237826	3939.719704
907.544483	3766.747633
907.851099	3592.182558
908.157675	3432.128444
908.464211	3284.730147
908.770707	3178.316430
909.077163	3097.509254
909.383578	3033.791590
909.689954	2987.077738
909.996289	2956.793007
910.302584	2935.264759
910.608839	2921.557862
910.915054	2909.665780
911.221229	2904.465830
911.527363	2908.332395
911.833458	2915.642068
912.139513	2928.834767
912.445527	2941.742642
912.751502	2975.057107
913.057436	3025.965199
913.363331	3082.617686
913.669186	3171.450378
913.975000	3289.380611
914.280775	3484.064931
914.586510	3760.521808
914.892205	4142.268224
915.197859	4647.306140
915.503475	5240.276903
915.809050	5734.667901
916.114585	6031.216297
916.420081	6102.193222
916.725536	6038.548655
917.030952	5797.309279
917.336328	5592.630871
917.641665	5381.252770
917.946961	5145.009177
918.252218	4946.836378
918.557435	4713.199062
918.862612	4511.812528
919.167750	4335.147812
919.472848	4138.696567
919.777906	3969.265907
920.082925	3808.858912
920.387904	3648.237668
920.692843	3532.548228
920.997743	3433.368568
921.302603	3335.043383
921.607423	3270.322529
921.912204	3201.500697
922.216946	3150.519508
922.521647	3105.184411
922.826310	3058.672205
923.130932	3022.766587
923.435516	2979.765545
923.740059	2951.467028
924.044564	2917.892943
924.349028	2895.422000
924.653454	2862.195755
924.957840	2838.111642
925.262186	2813.629278
925.566493	2794.823254
925.870761	2768.203441
926.174989	2755.945876
926.479178	2745.273753
926.783328	2722.754919
927.087438	2710.956098
927.391509	2695.855322
927.695541	2685.977181
927.999533	2676.063752
928.303486	2666.709891
928.607400	2664.164108
928.911275	2654.674136
929.215110	2648.163486
929.518906	2644.496046
929.822663	2645.249699
930.126381	2644.700213
930.430060	2646.736839
930.733699	2647.182981
931.037299	2652.544248
931.340861	2653.025679
931.644383	2654.031389
931.947866	2653.270175
932.251309	2649.159114
932.554714	2650.222797
932.858080	2647.283804
933.161407	2644.881695
933.464694	2639.016312
933.767943	2641.970428
934.071153	2634.426342
934.374323	2632.397277
934.677455	2628.313942
934.980548	2624.820423
935.283602	2620.543004
935.586617	2623.542490
935.889593	2623.179527
936.192530	2623.187089
936.495428	2630.910137
936.798287	2639.401960
937.101108	2652.773621
937.403890	2673.870850
937.706632	2698.428831
938.009336	2733.038872
938.312002	2762.937956
938.614628	2788.998201
938.917216	2806.899338
939.219765	2818.723364
939.522275	2831.038903
939.824747	2828.719972
940.127179	2820.449960
940.429573	2821.387614
940.731929	2817.778148
941.034246	2808.159627
941.336524	2805.996972
941.638763	2798.926753
941.940964	2793.941052
942.243126	2775.228289
942.545250	2767.590941
942.847335	2751.368508
943.149381	2737.031466
943.451389	2722.011348
943.753359	2713.733774
944.055290	2703.601055
944.357182	2692.883562
944.659036	2686.057839
944.960851	2684.530370
945.262628	2678.092816
945.564367	2679.627847
945.866067	2676.036025
946.167729	2675.967970
946.469352	2675.468896
946.770937	2673.770027
947.072484	2666.793070
947.373992	2666.838440
947.675462	2661.799807
947.976893	2657.807213
948.278286	2653.066008
948.579641	2652.924856
948.880958	2647.117446
949.182236	2646.076448
949.483476	2646.741880
949.784678	2646.469658
950.085841	2643.583597
950.386967	2648.987714
950.688054	2652.435864
950.989103	2661.048675
951.290114	2672.295489
951.591087	2680.764628
951.892021	2692.097142
952.192917	2706.471992
952.493776	2716.077910
952.794596	2719.972202
953.095378	2723.826164
953.396122	2720.234342
953.696828	2716.178733
953.997496	2710.593135
954.298126	2699.822710
954.598718	2696.062009
954.899272	2684.873168
955.199788	2675.544513
955.500266	2659.775784
955.800706	2644.939668
956.101108	2627.537605
956.401472	2615.963116
956.701798	2601.384099
957.002087	2588.463621
957.302337	2578.562795
957.602550	2566.126269
957.902724	2556.729558
958.202861	2544.121632
958.502960	2537.439583
958.803022	2529.477080
959.103045	2520.027437
959.403031	2515.528207
959.702979	2509.786333
960.002889	2502.643018
960.302762	2501.085302
960.602596	2497.170846
960.902393	2493.001812
961.202153	2489.299084
961.501875	2490.511482
961.801559	2484.562920
962.101205	2481.780203
962.400814	2476.348360
962.700385	2477.490181
962.999918	2476.028247
963.299414	2473.789974
963.598873	2471.420632
963.898293	2471.798718
964.197677	2470.856023
964.497022	2464.231947
964.796331	2468.128758
965.095601	2465.409056
965.394835	2464.206741
965.694030	2465.928295
965.993189	2464.839406
966.292309	2461.056020
966.591393	2464.239508
966.890439	2464.342852
967.189447	2461.149281
967.488419	2464.002574
967.787353	2461.640793
968.086249	2463.193469
968.385108	2461.434106
968.683930	2466.452575
968.982714	2466.003912
969.281462	2465.134313
969.580172	2465.522482
969.878844	2473.600931
970.177480	2476.587815
970.476078	2478.473206
970.774639	2477.021354
971.073162	2481.386993
971.371649	2480.953454
971.670098	2486.460914
971.968510	2486.781028
972.266885	2483.214411
972.565223	2486.987715
972.863524	2493.712614
973.161788	2491.156749
973.460014	2493.024497
973.758204	2493.145484
974.056356	2496.258397
974.354471	2493.768067
974.652550	2496.623881
974.950591	2495.056082
975.248595	2495.676144
975.546563	2494.486431
975.844493	2491.025679
976.142386	2488.805051
976.440243	2487.995946
976.738062	2483.731130
977.035845	2482.899339
977.333590	2480.729122
977.631299	2480.625779
977.928971	2478.664770
978.226606	2471.700416
978.524204	2475.962712
978.821765	2474.140334
979.119290	2474.347022
979.416777	2471.667648
979.714228	2471.725622
980.011642	2471.675210
980.309020	2480.794658
980.606360	2482.763228
980.903664	2492.505258
981.200931	2504.475478
981.498162	2523.543642
981.795356	2554.939948
982.092513	2595.488469
982.389633	2642.484626
982.686717	2682.050122
982.983764	2714.452138
983.280775	2733.056517
983.577749	2734.556260
983.874686	2725.104096
984.171587	2709.413505
984.468451	2696.054447
984.765279	2676.257836
985.062070	2657.908036
985.358824	2635.714356
985.655543	2615.189298
985.952224	2590.280957
986.248869	2560.976730
986.545478	2533.250384
986.842050	2513.436129
987.138586	2494.758654
987.435086	2481.074442
987.731549	2470.339304
988.027975	2461.905454
988.324366	2457.562500
988.620719	2452.702828
988.917037	2448.463217
989.213318	2445.778803
989.509563	2444.165634
989.805772	2441.761003
990.101944	2439.537854
990.398080	2441.385437
990.694180	2439.434511
990.990244	2439.840324
991.286271	2439.084151
991.582262	2440.316713
991.878217	2440.228493
992.174136	2442.464244
992.470019	2442.292845
992.765865	2440.667073
993.061676	2444.737805
993.357450	2449.534462
993.653188	2452.518826
993.948890	2459.831019
994.244556	2463.969807
994.540186	2472.060858
994.835780	2486.755822
995.131337	2501.634788
995.426859	2515.911335
995.722345	2537.179963
996.017795	2555.640669
996.313208	2572.462999
996.608586	2582.068918
996.903928	2583.740060
997.199234	2583.084710
997.494504	2579.291242
997.789738	2573.244378
998.084936	2561.238870
998.380099	2550.844011
998.675225	2538.541075
998.970316	2522.522808
999.265371	2513.221880
999.560390	2495.935763
999.855373	2486.783548
1000.150320	2474.954481
1000.445232	2465.164560
1000.740108	2460.292285
1001.034948	2452.685184
1001.329752	2447.369287
1001.624521	2444.473144
1001.919254	2436.447627
1002.213951	2436.790426
1002.508613	2430.214240
1002.803239	2430.526792
1003.097829	2426.430854
1003.392384	2428.727100
1003.686903	2428.580907
1003.981386	2429.735331
1004.275834	2425.031934
1004.570246	2428.774991
1004.864623	2423.292736
1005.158964	2425.415062
1005.453270	2423.907757
1005.747540	2423.262489
1006.041775	2422.408014
1006.335974	2419.453897
1006.630138	2419.592529
1006.924266	2419.668147
1007.218359	2420.691501
1007.512416	2418.899371
1007.806438	2415.206725
1008.100425	2419.673188
1008.394376	2418.080183
1008.688292	2418.460790
1008.982172	2418.954823
1009.276017	2417.629000
1009.569827	2418.100348
1009.863602	2417.656726
1010.157341	2418.110430
1010.451045	2420.260482
1010.744714	2416.769483
1011.038347	2414.034657
1011.331945	2416.638413
1011.625508	2415.483989
1011.919036	2414.513567
1012.212528	2416.063722
1012.505986	2413.298649
1012.799408	2415.143711
1013.092795	2413.356622
1013.386147	2414.916859
1013.679464	2411.362846
1013.972745	2413.243196
1014.265992	2415.035326
1014.559204	2415.010120
1014.852380	2411.912331
1015.145521	2413.490213
1015.438628	2411.130953
1015.731699	2412.260171
1016.024736	2416.540111
1016.317737	2412.234965
1016.610703	2417.291242
1016.903635	2416.232600
1017.196531	2410.498288
1017.489393	2412.355953
1017.782219	2410.767989
1018.075011	2416.209915
1018.367768	2414.228742
1018.660490	2414.858886
1018.953177	2414.858886
1019.245829	2414.858886
