Dividing Wavelength (nm)	Counts (n)	Blue Motor Position (mm): 12.400000	Red Motor Position (mm): 0.000000	
326.493990	1976.051649
326.888308	1976.051649
327.282561	1976.051649
327.676750	1951.649944
328.070874	1953.812599
328.464933	1959.052878
328.858929	1966.589403
329.252859	1978.524335
329.646726	1996.284320
330.040528	2010.573471
330.434265	2028.560308
330.827938	2045.584284
331.221547	2067.185628
331.615091	2089.311253
332.008571	2106.100816
332.401986	2135.291617
332.795338	2152.340799
333.188625	2168.280928
333.581847	2189.085770
333.975006	2206.351722
334.368100	2228.129506
334.761129	2240.457648
335.154095	2257.055647
335.546996	2286.044802
335.939833	2336.463902
336.332606	2351.756243
336.725315	2364.228057
337.117960	2371.925899
337.510540	2377.319934
337.903056	2389.562376
338.295508	2392.151008
338.687896	2400.940260
339.080220	2407.652556
339.472480	2412.668504
339.864676	2417.525656
340.256807	2420.010945
340.648875	2420.668816
341.040879	2423.690987
341.432818	2423.207037
341.824694	2425.936821
342.216506	2423.922880
342.608253	2425.636873
342.999937	2422.355082
343.391557	2424.192582
343.783113	2422.218970
344.174605	2420.189906
344.566033	2419.469021
344.957397	2417.558424
345.348697	2414.773186
345.739934	2411.826632
346.131106	2410.866292
346.522215	2411.801426
346.913260	2407.060221
347.304241	2405.918399
347.695159	2405.021074
348.086012	2403.123080
348.476802	2401.257853
348.867528	2401.159550
349.258191	2396.378016
349.648789	2395.692419
350.039324	2395.818448
350.429796	2395.878942
350.820203	2394.633777
351.210548	2393.146636
351.600828	2394.848026
351.991045	2393.265103
352.381198	2390.983981
352.771288	2392.287119
353.161314	2390.837788
353.551276	2390.028683
353.941175	2390.850391
354.331010	2390.762170
354.720782	2392.962634
355.110490	2395.402553
355.500135	2392.977758
355.889717	2394.338869
356.279235	2390.938611
356.668689	2391.689743
357.058080	2390.613456
357.447408	2392.425751
357.836672	2392.541698
358.225873	2388.639845
358.615010	2390.623539
359.004084	2395.374826
359.393095	2396.362892
359.782043	2394.593447
360.170927	2398.664179
360.559748	2395.584034
360.948505	2395.974723
361.337199	2398.530588
361.725830	2398.356669
362.114398	2399.732904
362.502903	2398.303737
362.891344	2400.708367
363.279722	2400.345404
363.668037	2403.990158
364.056289	2400.927657
364.444478	2399.977400
364.832603	2403.816238
365.220665	2402.676938
365.608665	2403.783471
365.996601	2401.953532
366.384474	2403.768347
366.772284	2402.702143
367.160031	2403.024777
367.547715	2407.140879
367.935336	2405.452093
368.322893	2403.266753
368.710388	2405.590724
369.097820	2409.951323
369.485189	2404.801784
369.872495	2406.603996
370.259738	2405.648698
370.646918	2405.575601
371.034035	2405.053842
371.421090	2404.164078
371.808081	2406.321692
372.195010	2409.575757
372.581875	2406.961918
372.968678	2407.534089
373.355418	2408.685993
373.742096	2411.965263
374.128710	2407.448390
374.515262	2411.861920
374.901751	2407.314799
375.288177	2410.112639
375.674540	2409.507701
376.060841	2410.125242
376.447079	2411.181364
376.833254	2407.912176
377.219367	2406.719943
377.605417	2410.727660
377.991404	2408.166754
378.377329	2408.890160
378.763191	2406.558626
379.148991	2411.534245
379.534727	2411.478792
379.920402	2411.811508
380.306013	2413.321334
380.691563	2411.299831
381.077049	2413.986766
381.462474	2414.463155
381.847835	2414.115316
382.233134	2413.046591
382.618371	2411.133473
383.003545	2414.148083
383.388657	2416.772004
383.773706	2413.848134
384.158693	2415.105902
384.543618	2414.175809
384.928480	2418.039854
385.313280	2415.491551
385.698017	2415.647826
386.082692	2415.932652
386.467305	2417.805440
386.851856	2419.564803
387.236344	2417.112282
387.620770	2418.417940
388.005133	2415.783938
388.389435	2416.950965
388.773674	2417.991963
389.157851	2421.924063
389.541965	2420.416758
389.926018	2420.235276
390.310008	2418.349885
390.693936	2418.591860
391.077802	2419.791655
391.461606	2421.011614
391.845348	2421.538415
392.229027	2419.257293
392.612645	2420.550348
392.996200	2420.585637
393.379694	2421.334248
393.763125	2422.095462
394.146494	2420.409196
394.529801	2422.158477
394.913047	2424.164856
395.296230	2422.017324
395.679351	2422.602098
396.062410	2422.080339
396.445408	2423.953127
396.828343	2425.324321
397.211217	2417.124884
397.594028	2423.494382
397.976778	2420.084042
398.359466	2421.886254
398.742092	2420.409196
399.124656	2424.764753
399.507158	2422.319793
399.889598	2426.675350
400.271977	2424.137129
400.654294	2423.998498
401.036549	2425.977151
401.418742	2426.095618
401.800874	2424.921029
402.182944	2426.788776
402.564952	2428.424631
402.946898	2427.489497
403.328783	2426.214085
403.710606	2425.248704
404.092367	2426.292223
404.474067	2425.321801
404.855705	2428.928746
405.237282	2426.166194
405.618797	2428.606112
406.000250	2429.276586
406.381642	2430.010074
406.762972	2428.049065
407.144240	2426.962696
407.525447	2429.994950
407.906593	2428.989240
408.287677	2429.281627
408.668700	2428.563262
409.049661	2428.601071
409.430560	2429.647111
409.811399	2431.719025
410.192176	2429.826072
410.572891	2430.920002
410.953545	2431.444282
411.334138	2432.394539
411.714669	2432.513007
412.095139	2429.901689
412.475547	2430.937646
412.855894	2430.935125
413.236180	2431.167018
413.616405	2433.289344
413.996568	2430.514189
414.376670	2429.735331
414.756711	2432.298758
415.136691	2430.357913
415.516609	2433.022163
415.896466	2434.761361
416.276262	2433.881680
416.655997	2429.936977
417.035670	2426.297264
417.415283	2432.150043
417.794834	2427.081163
418.174324	2432.059303
418.553753	2434.282452
418.933121	2434.516865
419.312428	2433.160795
419.691674	2433.448141
420.070859	2435.416711
420.449983	2434.080805
420.829045	2432.528130
421.208047	2432.462595
421.586988	2434.978131
421.965867	2433.584252
422.344686	2435.958635
422.723444	2434.358069
423.102141	2434.310178
423.480777	2436.450148
423.859352	2434.791608
424.237866	2433.775816
424.616319	2436.424942
424.994712	2434.196752
425.373044	2437.675148
425.751314	2434.345466
426.129524	2433.105342
426.507673	2434.499221
426.885762	2438.043152
427.263789	2436.828234
427.641756	2435.948553
428.019662	2438.277566
428.397508	2436.281269
428.775292	2439.109356
429.153016	2436.876125
429.530679	2435.038625
429.908282	2436.117432
430.285824	2436.195569
430.663305	2437.738162
431.040726	2439.474840
431.418086	2436.031732
431.795385	2439.210179
432.172624	2436.626588
432.549802	2438.043152
432.926920	2436.888728
433.303977	2440.104984
433.680974	2436.699685
434.057910	2434.612647
434.434786	2437.077771
434.811601	2436.530806
435.188355	2438.282607
435.565050	2438.327978
435.941683	2440.324274
436.318257	2437.470981
436.694770	2432.782708
437.071222	2437.947370
437.447614	2434.766402
437.823946	2437.677669
438.200218	2438.070879
438.576429	2441.208997
438.952580	2436.775302
439.328670	2442.524738
439.704700	2437.586928
440.080670	2441.219079
440.456580	2440.457865
440.832429	2440.861157
441.208218	2441.347629
441.583947	2438.542227
441.959616	2440.041970
442.335224	2441.014912
442.710773	2440.621703
443.086261	2441.841662
443.461689	2441.002310
443.837057	2442.252516
444.212365	2443.520366
444.587612	2443.573298
444.962800	2443.497681
445.337927	2442.633123
445.712995	2444.952054
446.088002	2444.223607
446.462949	2446.570264
446.837837	2443.512804
447.212664	2443.159923
447.587431	2444.115222
447.962139	2448.465738
448.336786	2447.190326
448.711374	2448.044802
449.085901	2446.202260
449.460369	2446.837445
449.834776	2449.526901
450.209124	2447.034050
450.583412	2449.441201
450.957640	2451.092179
451.331808	2448.478341
451.705917	2447.291149
452.079965	2447.891046
452.453954	2448.614452
452.827883	2447.661674
453.201752	2448.342230
453.575562	2449.184102
453.949311	2448.979936
454.323001	2449.174020
454.696632	2450.414144
455.070202	2450.860286
455.443713	2449.723506
455.817164	2453.131326
456.190556	2449.216870
456.563888	2453.627879
456.937160	2451.394648
457.310373	2450.792230
457.683526	2452.012190
458.056619	2455.102417
458.429653	2451.180399
458.802628	2454.237859
459.175542	2453.305246
459.548398	2456.687860
459.921194	2454.883127
460.293930	2461.086267
460.666607	2458.837912
461.039224	2461.058540
461.411782	2461.320680
461.784280	2462.220526
462.156719	2460.872017
462.529099	2461.701287
462.901419	2461.035855
463.273680	2460.274641
463.645882	2458.727007
464.018024	2458.016204
464.390106	2458.021245
464.762130	2467.727987
465.134094	2464.874694
465.505999	2471.302165
465.877845	2475.783751
466.249631	2473.192597
466.621358	2475.201497
466.993026	2474.815849
467.364634	2476.035808
467.736184	2470.102370
468.107674	2469.746969
468.479105	2471.105560
468.850477	2467.697740
469.221790	2469.973821
469.593043	2465.474591
469.964238	2466.187914
470.335373	2464.070630
470.706449	2468.574901
471.077467	2471.440797
471.448425	2476.630664
471.819324	2478.816005
472.190164	2476.139152
472.560945	2471.576908
472.931667	2468.595065
473.302330	2469.331074
473.672934	2469.759572
474.043479	2470.367031
474.413965	2468.698409
474.784393	2467.702781
475.154761	2471.329891
475.525070	2468.905096
475.895321	2463.690022
476.265513	2468.282514
476.635645	2470.906434
477.005719	2473.406847
477.375734	2472.333081
477.745691	2474.853658
478.115588	2473.691672
478.485427	2474.465489
478.855207	2480.187198
479.224928	2479.274750
479.594591	2483.889926
479.964194	2484.973774
480.333739	2483.020327
480.703226	2482.922024
481.072653	2483.965543
481.442022	2485.709783
481.811333	2485.009062
482.180584	2485.276243
482.549777	2485.538383
482.918912	2486.675163
483.287988	2484.875472
483.657005	2480.857672
484.025964	2481.185347
484.394864	2482.387662
484.763706	2485.525780
485.132489	2485.417396
485.501213	2484.076449
485.869879	2486.045019
486.238487	2484.832622
486.607036	2484.194916
486.975527	2488.137098
487.343959	2486.123157
487.712333	2487.438898
488.080648	2485.306490
488.448905	2485.535863
488.817104	2490.743375
489.185244	2494.776298
489.553326	2494.249497
489.921350	2499.520023
490.289315	2506.708709
490.657222	2507.656446
491.025070	2511.580984
491.392861	2511.994359
491.760593	2511.449914
492.128267	2509.511590
492.495883	2504.972031
492.863440	2507.384223
493.230939	2506.791888
493.598380	2506.577639
493.965763	2504.152844
494.333088	2504.888852
494.700354	2507.714419
495.067563	2512.057373
495.434713	2508.851199
495.801805	2516.430574
496.168839	2515.200533
496.535815	2517.620286
496.902733	2519.747653
497.269593	2520.902077
497.636395	2521.965761
498.003139	2527.145547
498.369825	2525.239990
498.736453	2529.351051
499.103023	2531.271731
499.469535	2538.268852
499.835989	2534.493028
500.202385	2536.519572
500.568723	2540.237423
500.935003	2542.473175
501.301226	2545.392003
501.667390	2548.996428
502.033497	2554.014897
502.399546	2552.888199
502.765537	2553.331820
503.131470	2555.340720
503.497345	2563.456978
503.863163	2561.178376
504.228923	2562.753737
504.594625	2570.088616
504.960269	2570.570046
505.325856	2576.881570
505.691385	2575.465006
506.056856	2578.961046
506.422270	2584.254258
506.787625	2585.043198
507.152924	2590.061667
507.518164	2593.126689
507.883347	2592.862028
508.248472	2594.046699
508.613540	2599.140785
508.978550	2607.098247
509.343503	2607.703185
509.708398	2610.448093
510.073236	2616.255502
510.438016	2618.864300
510.802738	2620.931173
511.167403	2624.964096
511.532010	2628.813017
511.896561	2634.449027
512.261053	2640.644605
512.625488	2638.255098
512.989866	2639.205355
513.354186	2644.732981
513.718449	2641.743576
514.082655	2656.690597
514.446803	2655.798313
514.810894	2661.204951
515.174927	2664.345590
515.538904	2667.521517
515.902822	2673.727177
516.266684	2676.285562
516.630488	2679.761438
516.994235	2680.779751
517.357925	2685.155473
517.721558	2690.277285
518.085133	2694.232070
518.448651	2698.005374
518.812112	2697.528985
519.175516	2703.033925
519.538863	2704.395036
519.902152	2710.852754
520.265385	2713.111191
520.628560	2717.030688
520.991678	2716.125801
521.354739	2722.591081
521.717743	2724.264744
522.080690	2729.162225
522.443580	2731.755899
522.806413	2738.231261
523.169189	2739.688154
523.531908	2741.921386
523.894569	2741.455079
524.257174	2748.792478
524.619722	2751.713827
524.982213	2754.315062
525.344647	2755.582912
525.707025	2758.297574
526.069345	2761.642379
526.431608	2763.449633
526.793815	2770.953391
527.155964	2769.912392
527.518057	2772.616971
527.880093	2775.129987
528.242072	2778.557971
528.603995	2776.256684
528.965860	2782.051491
529.327669	2783.778086
529.689421	2785.807150
530.051117	2784.904784
530.412755	2789.245217
530.774337	2793.618418
531.135862	2794.719910
531.497331	2794.813172
531.858743	2795.034982
532.220098	2800.416414
532.581396	2799.002371
532.942638	2802.725263
533.303824	2807.121149
533.664953	2809.792960
534.026025	2808.731797
534.387040	2816.671615
534.747999	2815.648261
535.108902	2816.722026
535.469748	2818.229331
535.830537	2823.653613
536.191270	2827.764674
536.551947	2824.684529
536.912567	2830.920436
537.273131	2835.475119
537.633638	2834.633246
537.994089	2836.158195
538.354483	2836.906806
538.714821	2843.298989
539.075103	2853.272912
539.435328	2851.823581
539.795497	2854.845752
540.155609	2856.534539
540.515665	2861.742051
540.875665	2861.013604
541.235609	2867.120962
541.595496	2869.931405
541.955328	2879.907849
542.315102	2878.743342
542.674821	2877.871223
543.034483	2882.390617
543.394090	2886.231976
543.753640	2888.687018
544.113134	2902.638411
544.472571	2899.628843
544.831953	2916.209198
545.191278	2915.584094
545.550548	2913.885226
545.909761	2922.790424
546.268918	2931.582196
546.628019	2940.832713
546.987064	2942.425718
547.346053	2938.780964
547.704986	2953.584312
548.063863	2958.386011
548.422684	2963.404480
548.781449	2968.269193
549.140158	2981.978611
549.498811	2985.646051
549.857408	2982.800319
550.215949	3002.569204
550.574434	3009.896521
550.932864	3016.376924
551.291237	3031.187834
551.649555	3040.942467
552.007817	3051.206256
552.366022	3056.570044
552.724173	3072.237950
553.082267	3088.125147
553.440305	3103.258690
553.798288	3104.163577
554.156215	3122.604118
554.514086	3139.396202
554.871902	3149.934734
555.229661	3162.411590
555.587365	3172.471212
555.945014	3193.691949
556.302606	3209.826162
556.660143	3230.285685
557.017625	3249.910897
557.375050	3262.488576
557.732421	3287.404479
558.089735	3305.734114
558.446994	3322.843790
558.804197	3351.815301
559.161345	3368.075543
559.518437	3374.419835
559.875474	3402.194072
560.232455	3429.275151
560.589381	3457.429995
560.946251	3474.799291
561.303065	3515.143645
561.659825	3537.785987
562.016528	3553.048081
562.373177	3575.571956
562.729770	3613.375569
563.086307	3634.266110
563.442789	3675.994261
563.799216	3705.822768
564.155587	3732.971902
564.511904	3767.700411
564.868164	3802.118889
565.224370	3845.470292
565.580520	3873.836864
565.936615	3916.747166
566.292654	3953.078762
566.648638	4000.609281
567.004567	4036.519940
567.360441	4080.093153
567.716260	4124.528404
568.072023	4182.000078
568.427732	4227.156214
568.783385	4256.505812
569.138982	4320.256243
569.494525	4369.541084
569.850013	4406.901075
570.205445	4462.217656
570.560823	4511.063916
570.916145	4566.619952
571.271412	4619.529382
571.626625	4667.556455
571.981782	4731.122885
572.336884	4774.766674
572.691931	4851.203169
573.046923	4891.567688
573.401860	4944.918219
573.756743	5000.454091
574.111570	5072.615687
574.466342	5133.323783
574.821059	5197.827867
575.175722	5236.027210
575.530330	5302.273012
575.884882	5347.245146
576.239380	5413.022121
576.593823	5488.389892
576.948211	5551.144696
577.302544	5596.484833
577.656823	5668.875802
578.011047	5760.513897
578.365216	5812.735210
578.719330	5875.873141
579.073389	5940.654489
579.427394	6028.292428
579.781344	6106.803358
580.135239	6156.947715
580.489080	6246.718062
580.842866	6286.661645
581.196597	6415.410193
581.550273	6496.633264
581.903895	6581.463280
582.257463	6716.125103
582.610975	6750.147850
582.964434	6870.581015
583.317837	6924.115548
583.671186	7003.803588
584.024481	7111.701924
584.377721	7157.614233
584.730906	7267.478619
585.084037	7371.734722
585.437113	7425.102897
585.790135	7526.861108
586.143103	7578.810198
586.496016	7684.066970
586.848874	7785.235366
587.201679	7895.245946
587.554428	7924.522447
587.907124	8057.288795
588.259765	8126.065257
588.612352	8266.589941
588.964884	8284.599463
589.317362	8430.881145
589.669786	8530.070888
590.022155	8602.003112
590.374470	8764.640818
590.726731	8794.124006
591.078937	8812.746028
591.431090	8927.248276
591.783188	8971.708732
592.135232	9036.109473
592.487222	9168.046551
592.839157	9292.525243
593.191038	9339.629784
593.542866	9399.034741
593.894639	9400.511799
594.246358	9550.939830
594.598022	9651.531014
594.949633	9691.726654
595.301190	9782.653946
595.652692	9853.134318
596.004141	10014.156333
596.355535	9934.813613
596.706876	10024.732674
597.058162	10095.034085
597.409395	10292.503643
597.760573	10417.657849
598.111698	10440.859760
598.462768	10545.839268
598.813785	10667.154635
599.164748	10663.023410
599.515657	10856.457524
599.866511	10859.013389
600.217312	11101.303846
600.568060	10985.261525
600.918753	11257.297310
601.269392	11371.035823
601.619978	11404.214177
601.970510	11565.692417
602.320988	11725.300389
602.671412	11920.113259
603.021783	11974.023358
603.372100	11998.331802
603.722363	12141.838329
604.072572	12285.244032
604.422728	12417.004670
604.772830	12476.424751
605.122878	12633.791930
605.472872	12736.528124
605.822813	12945.065536
606.172701	13021.227288
606.522534	13212.879354
606.872314	13424.663268
607.222041	13483.375067
607.571714	13716.215881
607.921333	13675.034695
608.270899	13895.867480
608.620411	14125.013128
608.969870	14203.098081
609.319276	14332.365868
609.668627	14467.887207
610.017926	14764.649852
610.367171	14954.469459
610.716362	15120.918276
611.065500	15238.407408
611.414585	15425.492189
611.763616	15681.280335
612.112594	15790.254958
612.461518	16000.521485
612.810389	16252.304434
613.159207	16346.541243
613.507971	16517.143972
613.856682	16828.120150
614.205340	16927.531704
614.553945	17341.475969
614.902496	17278.716125
615.250994	17608.001773
615.599439	17792.881049
615.947830	18043.605357
616.296169	18201.862299
616.644454	18424.532585
616.992686	18646.381163
617.340864	19023.882928
617.688990	19065.006140
618.037063	19462.735535
618.385082	19608.510580
618.733048	19895.488345
619.080961	20052.230421
619.428821	20195.600837
619.776628	20392.891434
620.124382	20459.144798
620.472083	20641.652211
620.819731	20854.124243
621.167326	20828.716828
621.514868	20972.349383
621.862357	20891.169162
622.209793	21036.298940
622.557176	21016.582987
622.904506	21022.917197
623.251783	20994.676653
623.599007	21022.987773
623.946179	21038.638036
624.293297	21147.388327
624.640363	20991.168010
624.987376	21110.885332
625.334336	21116.516301
625.681243	21076.504663
626.028097	21198.591327
626.374899	21243.560939
626.721647	21355.555213
627.068343	21430.502047
627.414987	21440.952359
627.761577	21465.865742
628.108115	21767.631732
628.454600	21591.703024
628.801032	21821.884629
629.147412	21927.821957
629.493739	22064.638872
629.840014	21994.491216
630.186236	22300.025469
630.532405	22217.642932
630.878521	22457.012041
631.224585	22517.566381
631.570597	22471.465029
631.916556	22689.618441
632.262462	22775.242439
632.608316	22898.899422
632.954117	22959.305048
633.299866	23061.196850
633.645562	23134.202840
633.991206	22968.608498
634.336797	22833.273681
634.682336	22931.510646
635.027823	22883.949880
635.373257	22892.600500
635.718639	22862.698896
636.063968	22895.947827
636.409245	22659.328668
636.754470	22781.541361
637.099642	22751.417946
637.444762	22566.153021
637.789829	22737.791707
638.134845	22637.356799
638.479808	22710.125855
638.824719	22747.697574
639.169577	22611.455350
639.514383	22759.481271
639.859137	22653.531341
640.203839	22899.048136
640.548489	22770.675153
640.893086	22901.120050
641.237632	22846.173994
641.582125	23005.459332
641.926566	23058.497312
642.270955	23124.304534
642.615292	23234.741091
642.959576	23310.791938
643.303809	23402.140167
643.647990	23573.746085
643.992118	23652.874556
644.336195	23734.674839
644.680219	23877.974678
645.024192	24164.660056
645.368112	24600.258598
645.711981	24689.736558
646.055797	25354.510996
646.399562	25392.049948
646.743274	26110.918486
647.086935	26492.637176
647.430544	26507.352304
647.774101	26686.724120
648.117606	26930.385770
648.461059	27220.615079
648.804460	27049.588894
649.147810	26713.122122
649.491108	26630.255635
649.834354	26458.132998
650.177548	25974.676262
650.520690	25736.300262
650.863781	25843.931417
651.206820	25817.621635
651.549807	25609.545489
651.892742	25334.782440
652.235626	25277.726661
652.578458	25252.457877
652.921238	24902.959722
653.263967	25215.513781
653.606644	25056.115017
653.949269	25097.785195
654.291843	24885.519850
654.634365	25251.336220
654.976836	25025.797518
655.319255	25092.892755
655.661622	25159.582179
656.003938	25062.368568
656.346203	25033.434866
656.688416	25257.819144
657.030577	25182.499265
657.372687	25110.136022
657.714746	25385.342693
658.056753	25541.144593
658.398708	25200.176071
658.740612	25315.734440
659.082465	25585.650420
659.424266	25516.165676
659.766016	25667.062534
660.107715	25633.211186
660.449362	25793.091380
660.790958	25834.370868
661.132503	25912.826346
661.473996	25984.385525
661.815438	26132.610571
662.156829	26333.654307
662.498168	26225.377884
662.839456	26306.580790
663.180693	26488.621897
663.521879	26673.261718
663.863013	26698.800204
664.204097	26748.175785
664.545129	27159.705338
664.886110	27205.867184
665.227040	27310.559346
665.567918	27441.997351
665.908746	27550.485502
666.249522	27718.713847
666.590248	27790.204970
666.930922	27938.089739
667.271545	27947.557026
667.612118	28079.310102
667.952639	27966.627711
668.293109	28056.519046
668.633528	28041.239308
668.973896	28034.731179
669.314213	28110.819834
669.654480	27955.398541
669.994695	28025.765487
670.334859	27998.639038
670.674973	27970.522002
671.015035	28141.225554
671.355047	28157.745415
671.695008	28167.779832
672.034918	28126.086969
672.374777	28225.811074
672.714585	28153.959508
673.054342	28401.066787
673.394049	28226.715961
673.733705	28497.650254
674.073310	28275.685730
674.412864	28386.278563
674.752368	28091.113964
675.091820	28383.944508
675.431223	28082.155833
675.770574	27901.125478
676.109875	27839.832609
676.449125	27646.562333
676.788324	27619.894629
677.127473	27215.662146
677.466571	27201.589765
677.805619	26950.023585
678.144616	26992.031520
678.483562	26961.787117
678.822458	26721.939100
679.161303	26703.992592
679.500098	26653.442422
679.838842	26607.119259
680.177535	26776.620496
680.516179	27048.850365
680.854771	27287.455738
681.193314	28055.725064
681.531805	29053.528206
681.870247	29756.927964
682.208638	30416.147050
682.546978	30632.248712
682.885268	30750.594840
683.223508	30318.963686
683.561697	30074.818085
683.899836	29939.248855
684.237925	29521.869043
684.575963	29421.862633
684.913951	29051.257167
685.251889	29213.569718
685.589776	29222.096829
685.927614	29233.686442
686.265401	29400.203315
686.603137	29509.737506
686.940824	29956.902976
687.278460	30311.679219
687.616046	30442.126636
687.953582	30982.739975
688.291068	30880.976723
688.628504	31141.145631
688.965889	31131.552316
689.303224	30817.785859
689.640510	30542.387624
689.977745	29942.868403
690.314930	29263.348591
690.652065	28840.728500
690.989150	28203.108238
691.326185	27442.758565
691.663170	26851.053132
692.000105	26225.120785
692.336990	25647.790203
692.673825	25291.597396
693.010610	24850.060374
693.347345	24360.150961
693.684030	23808.668895
694.020665	23580.775974
694.357251	23016.086084
694.693786	22983.517710
695.030272	22787.358852
695.366707	22324.308707
695.703093	22084.518662
696.039429	22088.191143
696.375716	21862.826360
696.711952	21856.839990
697.048139	21712.511755
697.384276	21576.027556
697.720363	21702.452133
698.056400	21531.718334
698.392388	21343.935354
698.728326	21332.305412
699.064214	21168.709887
699.400053	21128.090790
699.735842	20820.953451
700.071581	20589.987946
700.407270	20339.709781
700.742910	20193.826351
701.078501	19957.890268
701.414042	19720.119206
701.749533	19459.607499
702.084974	19159.253032
702.420366	19372.312358
702.755709	18975.296287
703.091002	18716.886741
703.426246	18754.070292
703.761440	18669.636006
704.096584	18432.777392
704.431679	18405.033402
704.766725	18338.918669
705.101721	18282.765257
705.436668	18381.758395
705.771565	18102.407896
706.106413	18418.349610
706.441212	18424.222554
706.775961	18548.227377
707.110661	18626.995406
707.445311	18966.930492
707.779913	18828.865891
708.114465	19065.600996
708.448967	19338.271967
708.783421	19971.269491
709.117825	20227.458408
709.452180	20450.602563
709.786485	20807.990124
710.120742	21559.605998
710.454949	21573.108728
710.789107	22010.428824
711.123216	22653.453203
711.457275	22764.666098
711.791286	23266.555813
712.125247	23336.436288
712.459159	23056.677455
712.793023	23681.853629
713.126837	22654.784068
713.460602	22909.047265
713.794318	22562.120098
714.127985	22223.750290
714.461602	21424.734968
714.795171	21404.721587
715.128691	20472.667693
715.462162	19991.199692
715.795584	19603.489591
716.128957	19377.678666
716.462281	19027.903248
716.795556	18809.971647
717.128782	18358.138068
717.461960	17858.002675
717.795088	17780.757074
718.128167	17413.761074
718.461198	16997.840676
718.794180	16880.278448
719.127113	16532.385901
719.459997	16368.377001
719.792833	16049.881943
720.125619	16025.477717
720.458357	15740.965076
720.791046	15586.995635
721.123686	15442.987513
721.456278	15230.974227
721.788821	15188.724316
722.121315	14956.120437
722.453761	15029.244894
722.786158	14972.834382
723.118506	14971.342201
723.450805	14851.143449
723.783056	15001.478218
724.115259	14918.452935
724.447412	14859.564696
724.779518	15095.629328
725.111574	15117.258399
725.443582	15306.175639
725.775542	15290.757270
726.107453	15736.201186
726.439315	15635.093283
726.771129	16007.715211
727.102895	16363.663522
727.434612	16553.334415
727.766281	16669.664082
728.097901	16912.317501
728.429473	16942.698015
728.760996	16941.011749
729.092471	17022.706168
729.423897	16914.036535
729.755276	16802.344730
730.086606	16919.803615
730.417887	17418.580417
730.749120	17917.957118
731.080305	18092.988500
731.411442	18418.483201
731.742530	18495.083533
732.073570	18590.310929
732.404562	18869.641264
732.735506	18701.848979
733.066401	18417.548067
733.397249	17926.993386
733.728048	17328.298393
734.058798	16554.640074
734.389501	15913.682568
734.720156	15485.043339
735.050762	14987.496578
735.381320	14657.789993
735.711831	14434.880252
736.042293	14109.899749
736.372707	14116.266726
736.703073	13916.768104
737.033391	14093.710083
737.363661	14075.176281
737.693883	14173.289738
738.024056	14335.166229
738.354182	14519.145659
738.684260	14785.643737
739.014290	14997.825902
739.344272	15186.977556
739.674207	15441.170177
740.004093	15561.358847
740.333931	15555.022116
740.663722	15590.905049
740.993464	15585.279122
741.323159	15427.075111
741.652806	15164.446119
741.982405	14966.043948
742.311956	14648.000072
742.641460	14533.454975
742.970915	14245.030398
743.300323	13928.503910
743.629683	13715.167321
743.958996	13462.262714
744.288260	13198.388558
744.617477	12912.698807
744.946647	12844.338241
745.275768	12575.274216
745.604842	12408.563258
745.933869	12249.827406
746.262847	12211.277702
746.591778	12134.551341
746.920662	12052.118393
747.249498	12046.918443
747.578286	12159.066472
747.907027	12299.560909
748.235720	12503.916683
748.564365	12541.279195
748.892963	12452.499434
749.221514	12508.000018
749.550017	12365.199253
749.878473	12331.282370
750.206881	12126.482974
750.535242	12039.966692
750.863555	11962.282511
751.191821	11874.465611
751.520039	11894.118549
751.848210	11810.584109
752.176334	11834.834580
752.504411	11751.708474
752.832440	11596.932448
753.160421	11661.275215
753.488356	11534.618745
753.816243	11443.636000
754.144082	11307.257665
754.471875	11255.815211
754.799620	11202.310925
755.127318	11179.240084
755.454969	11147.259004
755.782572	11097.039029
756.110129	11112.144847
756.437638	11032.721468
756.765100	11025.051352
757.092515	11025.787361
757.419882	11046.808973
757.747203	11052.873481
758.074477	11123.676486
758.401703	11079.982285
758.728882	11237.616646
759.056014	11280.978130
759.383099	11383.628626
759.710138	11490.828762
760.037129	11576.785476
760.364073	11594.338774
760.690970	11581.756054
761.017820	11583.129768
761.344623	11761.629464
761.671379	12078.486148
761.998088	12694.537833
762.324751	14228.618922
762.651366	17017.710384
762.977935	20583.205074
763.304456	22742.059044
763.630931	23177.776053
763.957359	22032.645189
764.283740	20167.224182
764.610074	18341.444287
764.936362	16275.506345
765.262602	14795.574810
765.588796	13371.693344
765.914943	12354.310360
766.241044	11549.210365
766.567097	10923.139386
766.893104	10401.059850
767.219064	10046.034070
767.544978	9674.861474
767.870845	9367.194813
768.196665	9183.376700
768.522438	8997.108586
768.848165	8833.724790
769.173846	8672.513731
769.499479	8559.299498
769.825066	8403.671517
770.150607	8225.668375
770.476101	8162.374168
770.801548	8061.407418
771.126949	7919.302332
771.452303	7830.005853
771.777611	7667.287490
772.102872	7650.031620
772.428087	7534.072479
772.753256	7409.235865
773.078378	7329.414235
773.403453	7198.664349
773.728482	7094.390602
774.053465	7033.135542
774.378401	6951.403314
774.703291	6856.838830
775.028135	6771.237517
775.352932	6729.980714
775.677683	6647.749412
776.002388	6562.170785
776.327046	6559.456123
776.651658	6475.483103
776.976224	6404.934676
777.300743	6391.500001
777.625216	6321.052396
777.949643	6280.113186
778.274024	6286.636439
778.598359	6217.799483
778.922647	6221.683692
779.246889	6185.236150
779.571086	6186.592220
779.895236	6200.533531
780.219339	6197.181164
780.543397	6195.623447
780.867409	6245.687146
781.191374	6242.279326
781.515294	6211.429985
781.839167	6262.990907
782.162995	6233.573253
782.486776	6182.773546
782.810511	6146.630994
783.134201	6069.629889
783.457844	6063.855248
783.781441	6010.708883
784.104993	5974.591536
784.428498	5940.415034
784.751958	5925.019350
785.075372	5905.074025
785.398739	5865.163210
785.722061	5890.593310
786.045337	5889.058279
786.368568	5994.947716
786.691752	6017.164081
787.014891	6262.653149
787.337983	6536.962495
787.661030	6964.986703
787.984031	7379.346864
788.306987	7633.925133
788.629897	7725.666572
788.952760	7637.572408
789.275579	7461.179915
789.598351	7168.820718
789.921078	6913.433343
790.243759	6633.039325
790.566395	6438.206291
790.888984	6248.971458
791.211529	6111.181600
791.534027	5952.632270
791.856480	5817.632691
792.178888	5756.730511
792.501249	5690.467064
792.823566	5595.106078
793.145836	5586.717598
793.468062	5569.663374
793.790241	5527.224421
794.112375	5567.137756
794.434464	5666.095606
794.756507	5699.548703
795.078505	5816.652186
795.400457	6026.071799
795.722364	6264.853613
796.044226	6456.596420
796.366042	6608.448577
796.687812	6556.650721
797.009538	6582.700884
797.331218	6494.226113
797.652852	6423.039980
797.974442	6304.227545
798.295986	6234.982256
798.617484	6108.482062
798.938938	6001.077759
799.260346	5940.125168
799.581709	5804.127440
799.903026	5751.180201
800.224299	5677.740672
800.545526	5562.542744
800.866708	5500.133260
801.187845	5454.634326
801.508936	5377.343355
801.829983	5349.982493
802.150984	5249.270321
802.471940	5220.258481
802.792851	5207.915215
803.113717	5184.962842
803.434538	5159.895704
803.755314	5123.748111
804.076045	5115.415083
804.396731	5077.561059
804.717372	5098.345737
805.037967	5100.145428
805.358518	5125.116784
805.679024	5185.653480
805.999485	5194.697310
806.319901	5212.663982
806.640272	5231.381787
806.960598	5279.633191
807.280879	5270.090286
807.601115	5304.889371
807.921306	5268.860245
808.241453	5266.921921
808.561554	5274.128251
808.881611	5239.195575
809.201623	5238.688939
809.521590	5188.862174
809.841513	5171.560934
810.161390	5187.178429
810.481223	5102.177013
810.801011	5087.159416
811.120755	5066.450356
811.440453	5009.502962
811.760107	4981.128827
812.079716	4954.214107
812.399281	4906.628135
812.718801	4899.235283
813.038276	4869.608422
813.357707	4833.012166
813.677093	4857.408830
813.996434	4795.269047
814.315731	4815.342921
814.634983	4810.432837
814.954191	4818.939785
815.273354	4880.101584
815.592473	4915.613992
815.911547	4989.787009
816.230577	5041.373136
816.549562	5126.722392
816.868502	5179.974620
817.187399	5234.472014
817.506250	5313.227440
817.825058	5337.621583
818.143821	5487.122042
818.462539	5653.233102
818.781213	5879.346496
819.099843	6237.868317
819.418429	6861.035590
819.736970	7459.465922
820.055466	8164.693098
820.373919	9058.656033
820.692327	10493.212142
821.010691	13142.209939
821.329011	19270.753273
821.647286	28699.220791
821.965517	38880.067917
822.283704	44232.364299
822.601847	45671.575914
822.919945	41130.469241
823.237999	36073.523980
823.556010	30941.029468
823.873976	26319.778531
824.191897	22180.782016
824.509775	19167.926337
824.827609	16464.625231
825.145398	14939.083857
825.463144	14207.327609
825.780845	14505.065717
826.098502	15740.118162
826.416116	18167.922731
826.733685	20401.746220
827.051210	20924.649985
827.368692	19506.835548
827.686129	16984.932802
828.003522	14543.575091
828.320872	12357.531658
828.638177	10748.241595
828.955439	9523.122743
829.272656	8481.131367
829.589830	7646.689335
829.906960	6941.643640
830.224046	6416.683085
830.541088	6011.381877
830.858086	5759.399802
831.175041	5564.458383
831.491952	5510.351679
831.808819	5541.044744
832.125642	5780.338235
832.442421	6325.738149
832.759157	7415.197030
833.075849	9158.062546
833.392497	10976.484876
833.709101	12072.426681
834.025662	11815.509317
834.342179	10782.960021
834.658653	9494.035285
834.975083	8404.236126
835.291469	7512.241762
835.607811	6790.537574
835.924110	6283.473115
836.240366	5803.542666
836.556578	5359.444738
836.872746	5013.432541
837.188871	4746.276593
837.504952	4526.746946
837.820990	4362.833829
838.136984	4254.822066
838.452935	4204.362637
838.768842	4236.270620
839.084706	4512.999719
839.400526	5244.917285
839.716303	6128.084589
840.032037	6688.416400
840.347727	6537.847217
840.663373	5951.787877
840.978977	5380.108428
841.294537	4944.459474
841.610054	4621.616420
841.925527	4386.534813
842.240957	4183.671221
842.556344	4004.997605
842.871687	3849.263760
843.186987	3697.600647
843.502244	3586.659974
843.817458	3499.768126
844.132629	3433.066098
844.447756	3382.568860
844.762840	3336.248218
845.077881	3298.681540
845.392879	3268.772374
845.707833	3244.708426
846.022745	3216.099878
846.337613	3202.574462
846.652438	3181.305834
846.967221	3174.371727
847.281960	3156.992349
847.596656	3145.127994
847.911309	3134.965027
848.225919	3121.870630
848.540485	3113.257819
848.855009	3100.901951
849.169490	3092.674788
849.483928	3085.307142
849.798323	3079.373703
850.112675	3068.935994
850.426984	3069.792991
850.741251	3063.839388
851.055474	3058.452915
851.369654	3061.890982
851.683792	3058.468038
851.997887	3061.636404
852.311938	3063.163873
852.625947	3064.666137
852.939914	3054.946792
853.253837	3061.777556
853.567718	3060.398800
853.881555	3052.925290
854.195350	3058.820919
854.509103	3054.845969
854.822812	3054.157852
855.136479	3045.618137
855.450103	3051.112995
855.763685	3043.747869
856.077224	3048.599980
856.390720	3058.052143
856.704173	3066.939698
857.017584	3074.297262
857.330953	3077.274063
857.644278	3085.118098
857.957561	3090.723861
858.270802	3087.477358
858.584000	3086.438881
858.897155	3078.872109
859.210268	3068.416756
859.523339	3059.796382
859.836367	3053.593243
860.149352	3048.783982
860.462295	3046.361707
860.775195	3036.649925
861.088054	3032.604399
861.400869	3033.078267
861.713642	3029.746064
862.026373	3040.551778
862.339062	3043.200904
862.651708	3051.677604
862.964312	3069.792991
863.276873	3074.516552
863.589392	3107.979731
863.901869	3133.377064
864.214303	3153.937410
864.526696	3169.010460
864.839045	3189.464942
865.151353	3200.820141
865.463619	3202.594627
865.775842	3202.418187
866.088023	3206.042776
866.400162	3198.662527
866.712258	3200.399204
867.024313	3203.252497
867.336325	3199.242260
867.648296	3200.361396
867.960224	3196.144471
868.272110	3202.060265
868.583954	3197.041796
868.895755	3206.675441
869.207515	3206.073023
869.519233	3225.352916
869.830909	3229.990777
870.142542	3241.572828
870.454134	3245.310844
870.765684	3258.264089
871.077191	3277.014661
871.388657	3287.364149
871.700081	3307.858960
872.011463	3324.837567
872.322803	3346.333047
872.634101	3364.337528
872.945357	3383.814025
873.256571	3411.711771
873.567744	3426.131991
873.878874	3429.494441
874.189963	3441.746965
874.501010	3445.258129
874.812015	3441.923406
875.122979	3463.973413
875.433900	3458.304635
875.744780	3462.667754
876.055618	3469.790904
876.366415	3464.840491
876.677169	3470.002633
876.987882	3490.741940
877.298554	3509.842872
877.609183	3546.711350
877.919771	3591.804471
878.230317	3659.832322
878.540822	3758.986777
878.851285	3907.849529
879.161707	4124.624186
879.472087	4495.486751
879.782425	5114.487511
880.092722	6285.401356
880.402977	8186.349895
880.713191	10539.310974
881.023363	12886.993964
881.333494	14216.114340
881.643583	14663.166384
881.953631	14250.827725
882.263637	13409.943099
882.573602	12385.212633
882.883526	11439.824888
883.193408	10497.852524
883.503248	9590.064225
883.813048	8773.654401
884.122806	8020.319493
884.432522	7263.417970
884.742197	6617.973837
885.051831	6060.172685
885.361424	5577.020938
885.670975	5187.296896
885.980485	4870.205799
886.289954	4607.662506
886.599382	4388.286614
886.908768	4219.181109
887.218113	4056.276222
887.527417	3926.955502
887.836680	3805.803973
888.145901	3707.814024
888.455082	3632.347951
888.764221	3567.483425
889.073319	3507.140813
889.382376	3476.614106
889.691392	3453.180302
890.000366	3444.471709
890.309300	3441.066410
890.618193	3446.198304
890.927044	3437.545164
891.235855	3440.670679
891.544625	3457.966878
891.853353	3486.053667
892.162041	3544.480640
892.470687	3638.288951
892.779293	3753.489399
893.087858	3924.371911
893.396381	4199.001370
893.704864	4603.778297
894.013306	5166.134132
894.321707	5731.338219
894.630068	6077.980561
894.938387	6115.164111
895.246665	5935.613335
895.554903	5623.860819
895.863100	5293.266991
896.171256	5026.733626
896.479371	4788.072800
896.787446	4566.637596
897.095480	4374.927557
897.403473	4233.248448
897.711425	4083.969801
898.019336	3964.754074
898.327207	3849.110005
898.635038	3744.254005
898.942827	3642.906648
899.250576	3555.762742
899.558284	3475.016060
899.865952	3421.622679
900.173579	3361.542208
900.481165	3313.457162
900.788711	3273.881583
901.096216	3241.046028
901.403681	3215.386555
901.711105	3204.507745
902.018489	3200.968855
902.325832	3233.917836
902.633135	3293.710962
902.940397	3456.598205
903.247619	3856.578474
903.554800	4601.653451
903.861941	5550.577566
904.169041	6245.984574
904.476101	6442.309790
904.783121	6177.213153
905.090100	5778.122648
905.397039	5365.443711
905.703938	5013.966903
906.010796	4700.576013
906.317614	4448.651911
906.624391	4215.591807
906.931129	4024.373280
907.237826	3843.375692
907.544483	3677.400743
907.851099	3508.358252
908.157675	3350.854962
908.464211	3211.247767
908.770707	3112.841924
909.077163	3037.098587
909.383578	2977.875112
909.689954	2934.891714
909.996289	2903.818041
910.302584	2887.547717
910.608839	2870.785881
910.915054	2862.563759
911.221229	2852.809126
911.527363	2862.654500
911.833458	2867.824203
912.139513	2879.446583
912.445527	2892.891340
912.751502	2925.890733
913.057436	2972.014771
913.363331	3025.939993
913.669186	3113.358642
913.975000	3224.518605
914.280775	3407.701533
914.586510	3673.153571
914.892205	4042.193759
915.197859	4536.783883
915.503475	5113.265031
915.809050	5603.413899
916.114585	5879.611157
916.420081	5947.394511
916.725536	5882.903030
917.030952	5645.411752
917.336328	5445.466987
917.641665	5234.635851
917.946961	5008.346017
918.252218	4811.725893
918.557435	4587.265998
918.862612	4390.310638
919.167750	4224.265112
919.472848	4034.589178
919.777906	3872.359806
920.082925	3714.002041
920.387904	3560.100655
920.692843	3454.790951
920.997743	3358.557845
921.302603	3265.200717
921.607423	3204.812735
921.912204	3138.072899
922.216946	3088.815785
922.521647	3042.774927
922.826310	3004.109277
923.130932	2964.183338
923.435516	2924.849735
923.740059	2897.904768
924.044564	2870.362424
924.349028	2845.272601
924.653454	2816.417037
924.957840	2788.577264
925.262186	2771.086981
925.566493	2750.403127
925.870761	2728.811865
926.174989	2715.377190
926.479178	2697.851619
926.783328	2686.877027
927.087438	2674.664832
927.391509	2661.104128
927.695541	2649.829587
927.999533	2638.224851
928.303486	2630.839561
928.607400	2626.426030
928.911275	2621.470576
929.215110	2615.164093
929.518906	2610.682507
929.822663	2613.051849
930.126381	2609.908690
930.430060	2612.036057
930.733699	2613.792899
931.037299	2620.348919
931.340861	2618.382869
931.644383	2623.766822
931.947866	2619.645678
932.251309	2616.610904
932.554714	2616.300873
932.858080	2614.397837
933.161407	2613.024123
933.464694	2608.330809
933.767943	2603.937443
934.071153	2603.657659
934.374323	2596.531988
934.677455	2594.689446
934.980548	2590.656523
935.283602	2585.857345
935.586617	2585.116295
935.889593	2588.967737
936.192530	2592.811617
936.495428	2594.787749
936.798287	2606.526076
937.101108	2620.434619
937.403890	2640.752990
937.706632	2664.895075
938.009336	2700.788091
938.312002	2729.394118
938.614628	2755.098962
938.917216	2772.546395
939.219765	2782.111985
939.522275	2788.156328
939.824747	2787.972326
940.127179	2783.538631
940.429573	2775.432456
940.731929	2776.627209
941.034246	2766.824686
941.336524	2768.120262
941.638763	2760.288830
941.940964	2753.450504
942.243126	2736.368555
942.545250	2727.803634
942.847335	2712.108002
943.149381	2700.397401
943.451389	2687.126564
943.753359	2673.467557
944.055290	2666.846002
944.357182	2657.487100
944.659036	2651.024341
944.960851	2649.174237
945.262628	2643.336581
945.564367	2646.719195
945.866067	2646.845224
946.167729	2643.921355
946.469352	2643.404637
946.770937	2638.550005
947.072484	2633.634880
947.373992	2630.496762
947.675462	2626.216822
947.976893	2624.775052
948.278286	2621.450412
948.579641	2618.501337
948.880958	2616.825153
949.182236	2615.653085
949.483476	2613.535800
949.784678	2611.194184
950.085841	2610.601848
950.386967	2615.985801
950.688054	2618.796244
950.989103	2627.734210
951.290114	2638.882722
951.591087	2648.498722
951.892021	2659.279230
952.192917	2675.426046
952.493776	2681.576253
952.794596	2686.899712
953.095378	2690.526822
953.396122	2685.001717
953.696828	2684.421985
953.997496	2678.932168
954.298126	2671.370437
954.598718	2663.944818
954.899272	2653.388642
955.199788	2639.444810
955.500266	2625.826133
955.800706	2613.571088
956.101108	2596.017790
956.401472	2586.953796
956.701798	2570.922927
957.002087	2555.955741
957.302337	2547.184133
957.602550	2534.911444
957.902724	2526.878365
958.202861	2516.866634
958.502960	2510.103926
958.803022	2502.554798
959.103045	2496.588593
959.403031	2490.239259
959.702979	2484.515029
960.002889	2483.698362
960.302762	2476.872640
960.602596	2472.151599
960.902393	2468.612709
961.202153	2466.949128
961.501875	2463.284210
961.801559	2461.182048
962.101205	2460.504013
962.400814	2456.980247
962.700385	2453.799279
962.999918	2453.947993
963.299414	2454.134515
963.598873	2450.343568
963.898293	2447.061777
964.197677	2447.865841
964.497022	2444.006837
964.796331	2446.950871
965.095601	2445.125973
965.394835	2444.914245
965.694030	2445.204111
965.993189	2445.108329
966.292309	2442.118925
966.591393	2441.723195
966.890439	2441.660180
967.189447	2443.843000
967.488419	2443.323761
967.787353	2442.557506
968.086249	2440.321754
968.385108	2442.867537
968.683930	2444.755449
968.982714	2443.298555
969.281462	2447.200408
969.580172	2444.609255
969.878844	2447.149997
970.177480	2453.658126
970.476078	2455.626697
970.774639	2460.796400
971.073162	2462.134827
971.371649	2460.919908
971.670098	2462.565845
971.968510	2464.781432
972.266885	2461.809672
972.565223	2465.857719
972.863524	2468.952987
973.161788	2469.200004
973.460014	2472.736373
973.758204	2474.006744
974.056356	2473.384161
974.354471	2469.167236
974.652550	2475.002372
974.950591	2473.732001
975.248595	2469.459623
975.546563	2473.409367
975.844493	2470.414922
976.142386	2470.936681
976.440243	2468.511886
976.738062	2466.455095
977.035845	2461.461832
977.333590	2461.071143
977.631299	2458.462346
977.928971	2458.847994
978.226606	2452.400358
978.524204	2452.970009
978.821765	2450.421706
979.119290	2452.707869
979.416777	2452.055039
979.714228	2449.496654
980.011642	2454.111830
980.309020	2456.415637
980.606360	2461.776905
980.903664	2469.474747
981.200931	2482.982518
981.498162	2498.350476
981.795356	2530.462626
982.092513	2565.473439
982.389633	2609.886005
982.686717	2653.441574
982.983764	2684.235462
983.280775	2702.358410
983.577749	2701.375385
983.874686	2693.790969
984.171587	2676.577949
984.468451	2662.003974
984.765279	2647.341778
985.062070	2627.799745
985.358824	2605.149841
985.655543	2584.256778
985.952224	2564.210630
986.248869	2538.480581
986.545478	2510.088803
986.842050	2491.413848
987.138586	2473.038842
987.435086	2462.500310
987.731549	2448.266612
988.027975	2446.381221
988.324366	2440.578853
988.620719	2435.414191
988.917037	2432.891093
989.213318	2428.817841
989.509563	2425.871286
989.805772	2424.903385
990.101944	2428.830444
990.398080	2423.698549
990.694180	2424.452202
990.990244	2423.842222
991.286271	2421.845925
991.582262	2422.859197
991.878217	2426.090577
992.174136	2428.021338
992.470019	2427.824733
992.765865	2429.765578
993.061676	2428.003694
993.357450	2430.932605
993.653188	2434.658017
993.948890	2441.214038
994.244556	2449.259720
994.540186	2452.677622
994.835780	2467.793522
995.131337	2481.389514
995.426859	2497.125475
995.722345	2517.184227
996.017795	2534.954294
996.313208	2547.705893
996.608586	2558.534291
996.903928	2560.946483
997.199234	2562.239539
997.494504	2554.728220
997.789738	2549.374514
998.084936	2541.154913
998.380099	2530.755013
998.675225	2518.550379
998.970316	2503.568070
999.265371	2492.023828
999.560390	2480.154431
999.855373	2467.642287
1000.150320	2459.329424
1000.445232	2448.601849
1000.740108	2444.770572
1001.034948	2437.541557
1001.329752	2433.085177
1001.624521	2427.232398
1001.919254	2423.207037
1002.213951	2422.871800
1002.508613	2418.440626
1002.803239	2419.847108
1003.097829	2409.230438
1003.392384	2417.560944
1003.686903	2414.737898
1003.981386	2413.780079
1004.275834	2413.706982
1004.570246	2412.940727
1004.864623	2408.323030
1005.158964	2411.095664
1005.453270	2407.574418
1005.747540	2409.404357
1006.041775	2407.854203
1006.335974	2408.842269
1006.630138	2406.664490
1006.924266	2405.648698
1007.218359	2407.690365
1007.512416	2407.886970
1007.806438	2405.497463
1008.100425	2409.842938
1008.394376	2408.751528
1008.688292	2404.922772
1008.982172	2405.447052
1009.276017	2408.570046
1009.569827	2404.539644
1009.863602	2405.545354
1010.157341	2403.337329
1010.451045	2402.450086
1010.744714	2403.392781
1011.038347	2405.968811
1011.331945	2405.021074
1011.625508	2404.968142
1011.919036	2403.261711
1012.212528	2406.049469
1012.505986	2404.635426
1012.799408	2403.564181
1013.092795	2404.642988
1013.386147	2403.584345
1013.679464	2401.986299
1013.972745	2403.836403
1014.265992	2403.481002
1014.559204	2401.525034
1014.852380	2404.249777
1015.145521	2405.053842
1015.438628	2399.760630
1015.731699	2403.118038
1016.024736	2401.701474
1016.317737	2402.954201
1016.610703	2404.821948
1016.903635	2402.908831
1017.196531	2399.160733
1017.489393	2401.998902
1017.782219	2399.594272
1018.075011	2405.192473
1018.367768	2405.815056
1018.660490	2406.304048
1018.953177	2406.304048
1019.245829	2406.304048
