Dividing Wavelength (nm)	Counts (n)	Blue Motor Position (mm): 21.800000	Red Motor Position (mm): 0.000000	
326.493990	1975.146762
326.888308	1975.146762
327.282561	1975.146762
327.676750	1950.583740
328.070874	1951.586930
328.464933	1957.139761
328.858929	1967.610237
329.252859	1979.416619
329.646726	1994.509834
330.040528	2009.434170
330.434265	2030.400329
330.827938	2049.075283
331.221547	2065.859805
331.615091	2087.327559
332.008571	2108.041660
332.401986	2130.535288
332.795338	2148.789306
333.188625	2168.812769
333.581847	2189.010152
333.975006	2204.831814
334.368100	2223.872252
334.761129	2239.315827
335.154095	2256.304515
335.546996	2294.324897
335.939833	2359.075998
336.332606	2370.882380
336.725315	2382.040974
337.117960	2392.060268
337.510540	2399.006977
337.903056	2410.006775
338.295508	2415.211767
338.687896	2422.770977
339.080220	2431.053592
339.472480	2433.884200
339.864676	2437.982658
340.256807	2443.963988
340.648875	2442.943154
341.040879	2445.637651
341.432818	2444.510953
341.824694	2447.858279
342.216506	2444.997424
342.608253	2447.586057
342.999937	2445.095727
343.391557	2445.609924
343.783113	2443.162444
344.174605	2441.277053
344.566033	2439.028698
344.957397	2439.139603
345.348697	2439.021136
345.739934	2433.874118
346.131106	2432.704570
346.522215	2431.098963
346.913260	2428.548139
347.304241	2428.918664
347.695159	2426.882038
348.086012	2425.384815
348.476802	2423.824578
348.867528	2422.234094
349.258191	2420.257962
349.648789	2419.403486
350.039324	2417.250913
350.429796	2419.209402
350.820203	2417.001376
351.210548	2415.025244
351.600828	2416.930800
351.991045	2415.521798
352.381198	2413.893505
352.771288	2414.876530
353.161314	2412.673546
353.551276	2412.066087
353.941175	2410.959553
354.331010	2413.903587
354.720782	2417.064391
355.110490	2414.926941
355.500135	2416.898032
355.889717	2416.835018
356.279235	2416.131777
356.668689	2414.322003
357.058080	2415.925090
357.447408	2411.168761
357.836672	2413.472568
358.225873	2413.785120
358.615010	2412.466858
359.004084	2418.160842
359.393095	2417.553382
359.782043	2420.300811
360.170927	2420.136974
360.559748	2416.403999
360.948505	2420.976326
361.337199	2423.461615
361.725830	2424.099321
362.114398	2423.471697
362.502903	2422.607139
362.891344	2426.090577
363.279722	2421.198137
363.668037	2425.132757
364.056289	2421.825760
364.444478	2426.093097
364.832603	2425.788107
365.220665	2424.416913
365.608665	2426.380443
365.996601	2427.131575
366.384474	2425.679723
366.772284	2433.347318
367.160031	2426.572007
367.547715	2426.388005
367.935336	2427.923036
368.322893	2427.819692
368.710388	2430.163829
369.097820	2429.614343
369.485189	2431.192224
369.872495	2431.950918
370.259738	2429.359765
370.646918	2431.741710
371.034035	2430.090732
371.421090	2432.054262
371.808081	2431.071237
372.195010	2430.410845
372.581875	2432.734817
372.968678	2431.262800
373.355418	2431.030907
373.742096	2431.217430
374.128710	2434.468974
374.515262	2434.088367
374.901751	2435.736824
375.288177	2435.290682
375.674540	2434.252205
376.060841	2436.800508
376.447079	2432.341607
376.833254	2434.436207
377.219367	2431.590475
377.605417	2434.451330
377.991404	2436.016608
378.377329	2433.271700
378.763191	2434.093408
379.148991	2438.799325
379.534727	2434.121135
379.920402	2437.738162
380.306013	2435.603234
380.691563	2438.514500
381.077049	2439.525252
381.462474	2440.049532
381.847835	2440.195725
382.233134	2437.927206
382.618371	2439.348811
383.003545	2439.311003
383.388657	2439.875612
383.773706	2440.518359
384.158693	2440.500715
384.543618	2442.983483
384.928480	2437.740683
385.313280	2439.779830
385.698017	2442.809563
386.082692	2445.289811
386.467305	2442.335695
386.851856	2445.879626
387.236344	2443.785027
387.620770	2445.035233
388.005133	2442.819646
388.389435	2445.554472
388.773674	2445.897270
389.157851	2448.082610
389.541965	2446.262754
389.926018	2444.042125
390.310008	2445.844338
390.693936	2444.067331
391.077802	2448.160748
391.461606	2445.375511
391.845348	2446.872733
392.229027	2446.875254
392.612645	2448.342230
392.996200	2448.314503
393.379694	2451.462704
393.763125	2449.047991
394.146494	2449.151335
394.529801	2451.717282
394.913047	2451.860955
395.296230	2451.513115
395.679351	2449.831891
396.062410	2450.956068
396.445408	2451.129988
396.828343	2450.656119
397.211217	2447.424740
397.594028	2449.320213
397.976778	2447.039091
398.359466	2448.190995
398.742092	2448.185954
399.124656	2454.620987
399.507158	2452.909515
399.889598	2449.955399
400.271977	2452.382714
400.654294	2453.509412
401.036549	2455.351954
401.418742	2454.900771
401.800874	2453.907663
402.182944	2454.431943
402.564952	2455.677108
402.946898	2453.118723
403.328783	2454.346244
403.710606	2455.598971
404.092367	2454.084104
404.474067	2456.355144
404.855705	2457.063426
405.237282	2456.612243
405.618797	2455.452777
406.000250	2457.048302
406.381642	2458.159877
406.762972	2461.721452
407.144240	2461.000567
407.525447	2459.372274
407.906593	2458.318673
408.287677	2461.025773
408.668700	2457.673405
409.049661	2463.153140
409.430560	2462.948973
409.811399	2463.417800
410.192176	2460.763633
410.572891	2461.013170
410.953545	2458.792542
411.334138	2461.608026
411.714669	2463.309415
412.095139	2462.344034
412.475547	2460.579631
412.855894	2462.767491
413.236180	2464.925105
413.616405	2464.118521
413.996568	2461.706328
414.376670	2460.582151
414.756711	2462.679271
415.136691	2463.775722
415.516609	2465.744293
415.896466	2464.108438
416.276262	2467.846454
416.655997	2463.405197
417.035670	2464.312605
417.415283	2466.409725
417.794834	2463.054837
418.174324	2465.444344
418.553753	2465.840075
418.933121	2467.049952
419.312428	2468.292596
419.691674	2467.506176
420.070859	2469.038687
420.449983	2470.112452
420.829045	2472.242340
421.208047	2470.026753
421.586988	2470.790488
421.965867	2470.114973
422.344686	2472.945581
422.723444	2472.088585
423.102141	2472.254943
423.480777	2473.041363
423.859352	2472.207052
424.237866	2472.290231
424.616319	2475.178812
424.994712	2471.944912
425.373044	2474.125211
425.751314	2474.072279
426.129524	2473.369038
426.507673	2476.368524
426.885762	2474.772999
427.263789	2478.576550
427.641756	2476.129070
428.019662	2479.186529
428.397508	2479.267188
428.775292	2475.191415
429.153016	2478.511015
429.530679	2482.586788
429.908282	2477.028916
430.285824	2476.653350
430.663305	2476.290387
431.040726	2481.681901
431.418086	2479.499081
431.795385	2480.272898
432.172624	2480.890439
432.549802	2480.721561
432.926920	2479.552013
433.303977	2481.074442
433.680974	2481.392034
434.057910	2483.864720
434.434786	2481.460090
434.811601	2481.628968
435.188355	2488.016110
435.565050	2482.188537
435.941683	2486.173569
436.318257	2484.898157
436.694770	2480.978660
437.071222	2483.892447
437.447614	2482.536376
437.823946	2482.150728
438.200218	2485.871099
438.576429	2485.987046
438.952580	2486.115595
439.328670	2485.692138
439.704700	2487.479228
440.080670	2485.303970
440.456580	2489.362098
440.832429	2492.661534
441.208218	2491.287819
441.583947	2489.878817
441.959616	2491.267655
442.335224	2490.448467
442.710773	2489.364619
443.086261	2492.104486
443.461689	2492.490134
443.837057	2493.190855
444.212365	2494.481390
444.587612	2497.364930
444.962800	2494.786380
445.337927	2494.617501
445.712995	2496.351658
446.088002	2495.459374
446.462949	2497.889210
446.837837	2496.845691
447.212664	2500.152688
447.587431	2501.725528
447.962139	2507.691734
448.336786	2511.578463
448.711374	2510.227434
449.085901	2509.637619
449.460369	2506.204593
449.834776	2510.638288
450.209124	2510.345901
450.583412	2512.841273
450.957640	2515.097189
451.331808	2513.660460
451.705917	2512.979904
452.079965	2510.776920
452.453954	2515.266068
452.827883	2512.833711
453.201752	2516.601973
453.575562	2519.351923
453.949311	2523.127747
454.323001	2520.403003
454.696632	2522.215298
455.070202	2526.918695
455.443713	2529.585465
455.817164	2530.240815
456.190556	2530.182842
456.563888	2533.021011
456.937160	2530.565969
457.310373	2533.724252
457.683526	2535.115611
458.056619	2537.331198
458.429653	2538.591486
458.802628	2543.572146
459.175542	2543.975439
459.548398	2549.873589
459.921194	2554.526574
460.293930	2562.726010
460.666607	2567.895714
461.039224	2574.875191
461.411782	2575.996848
461.784280	2578.315779
462.156719	2576.246385
462.529099	2576.528690
462.901419	2577.713361
463.273680	2574.295458
463.645882	2573.698082
464.018024	2578.913155
464.390106	2584.632344
464.762130	2598.102307
465.134094	2618.090482
465.505999	2640.306847
465.877845	2660.920126
466.249631	2669.921106
466.621358	2665.164777
466.993026	2663.939777
467.364634	2662.757626
467.736184	2655.221101
468.107674	2652.725730
468.479105	2654.381749
468.850477	2658.270999
469.221790	2657.366112
469.593043	2652.708086
469.964238	2654.827891
470.335373	2660.065650
470.706449	2674.712722
471.077467	2700.941846
471.448425	2736.187073
471.819324	2760.881165
472.190164	2759.477204
472.560945	2745.556057
472.931667	2734.165570
473.302330	2738.926940
473.672934	2745.634195
474.043479	2758.847060
474.413965	2765.755961
474.784393	2772.629574
475.154761	2795.390384
475.525070	2810.362611
475.895321	2822.216884
476.265513	2843.848475
476.635645	2876.116901
477.005719	2892.961917
477.375734	2924.118768
477.745691	2953.652368
478.115588	2998.715242
478.485427	3058.621794
478.855207	3150.670742
479.224928	3233.091087
479.594591	3298.300933
479.964194	3311.816266
480.333739	3350.807071
480.703226	3397.790624
481.072653	3469.813589
481.442022	3539.436965
481.811333	3607.810135
482.180584	3626.984163
482.549777	3675.197759
482.918912	3726.178948
483.287988	3782.680200
483.657005	3823.727795
484.025964	3871.699415
484.394864	3941.600054
484.763706	3995.177437
485.132489	4041.288872
485.501213	4113.581538
485.869879	4204.844067
486.238487	4275.659676
486.607036	4374.824213
486.975527	4446.131334
487.343959	4552.290473
487.712333	4659.883819
488.080648	4760.316207
488.448905	4893.478285
488.817104	5002.183206
489.185244	5183.125341
489.553326	5451.443275
489.921350	5811.658923
490.289315	6205.824222
490.657222	6426.500732
491.025070	6617.061388
491.392861	6690.115269
491.760593	6722.734055
492.128267	6717.587037
492.495883	6732.276959
492.863440	6757.742348
493.230939	6787.732172
493.598380	6847.694177
493.965763	6981.574620
494.333088	7070.487971
494.700354	7185.191865
495.067563	7327.763257
495.434713	7492.573700
495.801805	7696.216151
496.168839	7832.581883
496.535815	7977.573029
496.902733	8170.152668
497.269593	8303.241650
497.636395	8489.671081
498.003139	8756.254858
498.369825	8872.259370
498.736453	9119.066701
499.103023	9252.642154
499.469535	9437.163508
499.835989	9668.368468
500.202385	9827.547942
500.568723	10053.621006
500.935003	10318.326954
501.301226	10502.162711
501.667390	10866.111333
502.033497	11153.699078
502.399546	11254.948132
502.765537	11337.723879
503.131470	11656.092909
503.497345	11986.548105
503.863163	11912.516240
504.228923	12301.063173
504.594625	12674.211901
504.960269	12737.707754
505.325856	13189.732896
505.691385	13272.932099
506.056856	13565.923961
506.422270	13969.271721
506.787625	14090.874434
507.152924	14422.620166
507.518164	14720.191916
507.883347	14741.299227
508.248472	15073.077726
508.613540	15516.550551
508.978550	15905.306691
509.343503	16095.857266
509.708398	16449.342973
510.073236	16932.850121
510.438016	17220.591621
510.802738	17297.154145
511.167403	17843.136312
511.532010	18241.780676
511.896561	18661.015633
512.261053	19315.231373
512.625488	19423.404452
512.989866	19655.242077
513.354186	19886.152128
513.718449	20171.741056
514.082655	20786.129160
514.446803	20928.904719
514.810894	21473.646763
515.174927	21736.333728
515.538904	21977.076550
515.902822	22601.045368
516.266684	22620.375672
516.630488	23135.500937
516.994235	23357.853630
517.357925	23954.065854
517.721558	24345.690411
518.085133	24806.983715
518.448651	25178.252093
518.812112	25327.482849
519.175516	25664.584807
519.538863	26162.149212
519.902152	26399.990851
520.265385	26974.344632
520.628560	27277.978369
520.991678	27423.579495
521.354739	27848.251336
521.717743	28334.236211
522.080690	28532.809782
522.443580	29165.525001
522.806413	29478.557969
523.169189	29711.902899
523.531908	30085.848129
523.894569	30248.213612
524.257174	30639.744908
524.619722	31095.523189
524.982213	31334.552019
525.344647	31531.603161
525.707025	31802.184573
526.069345	32330.729390
526.431608	32518.414068
526.793815	32996.834691
527.155964	32884.747156
527.518057	33245.325767
527.880093	33305.076043
528.242072	33936.934266
528.603995	33933.957465
528.965860	34149.242461
529.327669	34431.476500
529.689421	34580.278758
530.051117	34759.169144
530.412755	35068.464097
530.774337	35316.922405
531.135862	35367.160024
531.497331	35730.770889
531.858743	35837.313155
532.220098	36297.136962
532.581396	36265.730574
532.942638	36169.925965
533.303824	36584.245797
533.664953	36745.885354
534.026025	36692.275203
534.387040	37234.980621
534.747999	37361.541309
535.108902	37653.729106
535.469748	37428.351721
535.830537	37682.720782
536.191270	38015.000876
536.551947	37865.029070
536.912567	38274.718602
537.273131	38517.450159
537.633638	38231.273938
537.994089	38665.592027
538.354483	38460.240625
538.714821	39095.665464
539.075103	39526.469869
539.435328	39465.807144
539.795497	39488.716668
540.155609	39613.800298
540.515665	40141.929219
540.875665	39772.084967
541.235609	40195.927538
541.595496	40284.298965
541.955328	40995.555361
542.315102	40557.864740
542.674821	40470.796452
543.034483	40618.361107
543.394090	40700.368077
543.753640	40765.847624
544.113134	41780.273972
544.472571	40986.125883
544.831953	42222.461302
545.191278	41599.432660
545.550548	41442.907353
545.909761	41942.851183
546.268918	42236.599218
546.628019	42609.823563
546.987064	42286.741055
547.346053	41709.697818
547.704986	42596.477109
548.063863	42287.837506
548.422684	42553.309708
548.781449	42490.353258
549.140158	42928.590845
549.498811	42870.620096
549.857408	42417.995057
550.215949	43276.311993
550.574434	43274.565233
550.932864	43145.239472
551.291237	43895.383329
551.649555	43578.685442
552.007817	43877.968663
552.366022	43616.652892
552.724173	43843.855175
553.082267	44288.749605
553.440305	44630.557480
553.798288	44055.326538
554.156215	44389.653340
554.514086	44649.282846
554.871902	44466.382223
555.229661	44531.516451
555.587365	44411.363069
555.945014	44569.418366
556.302606	44533.628694
556.660143	44802.390250
557.017625	44946.138752
557.375050	44792.678467
557.732421	45174.205593
558.089735	45197.047061
558.446994	45165.696125
558.804197	45662.194326
559.161345	45641.238250
559.518437	44960.168283
559.875474	45293.756556
560.232455	45507.751017
560.589381	45714.584518
560.946251	45437.857939
561.303065	46145.519992
561.659825	45979.124107
562.016528	45716.530403
562.373177	45475.041490
562.729770	45973.901472
563.086307	45524.986722
563.442789	46017.993924
563.799216	46080.657987
564.155587	45910.287151
564.511904	45971.728734
564.868164	46092.076200
565.224370	46336.249528
565.580520	46105.551204
565.936615	46342.959303
566.292654	46098.848990
566.648638	46360.341202
567.004567	46332.337592
567.360441	46366.088117
567.716260	46270.764939
568.072023	46580.001919
568.427732	46597.398941
568.783385	46173.571493
569.138982	46573.408090
569.494525	46567.431802
569.850013	46334.951431
570.205445	46327.906418
570.560823	46286.488298
570.916145	46203.339507
571.271412	46240.276041
571.626625	46025.724533
571.981782	46091.148628
572.336884	45788.984387
572.691931	46119.363966
573.046923	45732.309215
573.401860	45591.030878
573.756743	45594.670591
574.111570	45721.473254
574.466342	45577.802890
574.821059	45719.842441
575.175722	45257.777841
575.530330	45281.085616
575.884882	45031.097317
576.239380	45003.784346
576.593823	44976.615047
576.948211	44905.524696
577.302544	44444.150734
577.656823	44493.962375
578.011047	44719.846397
578.365216	44447.934120
578.719330	44263.440492
579.073389	44135.296882
579.427394	44213.727153
579.781344	44199.485894
580.135239	43857.809089
580.489080	43958.916991
580.842866	43463.593379
581.196597	43911.467131
581.550273	43859.671795
581.903895	43735.530861
582.257463	44156.958720
582.610975	43541.136407
582.964434	43817.013552
583.317837	43502.380017
583.671186	43351.430226
584.024481	43566.634563
584.377721	43126.375475
584.730906	43403.459975
585.084037	43416.282150
585.437113	43153.388498
585.790135	43193.450547
586.143103	42812.964419
586.496016	42932.719550
586.848874	42962.177532
587.201679	42981.326355
587.554428	42478.544356
587.907124	42657.031449
588.259765	42424.697271
588.612352	42702.313613
588.964884	42108.833694
589.317362	42378.656413
589.669786	42335.940196
590.022155	42104.440329
590.374470	42504.045032
590.726731	42061.363669
591.078937	41584.825917
591.431090	41692.482277
591.783188	41352.267407
592.135232	41038.637062
592.487222	41288.557305
592.839157	41365.389531
593.191038	41054.700699
593.542866	40829.822387
593.894639	40255.768555
594.246358	40524.290656
594.598022	40482.320529
594.949633	40108.234146
595.301190	40067.557076
595.652692	39927.944841
596.004141	40242.527964
596.355535	39275.299420
596.706876	39225.941483
597.058162	39068.574303
597.409395	39513.509062
597.760573	39601.719172
598.111698	39171.943163
598.462768	39201.222185
598.813785	39235.953214
599.164748	38700.688540
599.515657	39094.362326
599.866511	38584.532793
600.217312	39169.047020
600.568060	38161.438833
600.918753	38898.957121
601.269392	38867.104590
601.619978	38525.795789
601.970510	38744.725539
602.320988	38927.215308
602.671412	39216.859844
603.021783	38972.081578
603.372100	38628.330338
603.722363	38736.778160
604.072572	38805.305085
604.422728	38819.589194
604.772830	38645.626537
605.122878	38718.894667
605.472872	38673.045373
605.822813	38948.362949
606.172701	38797.524064
606.522534	39011.372331
606.872314	39270.187690
607.222041	39039.055827
607.571714	39430.123337
607.921333	38880.675376
608.270899	39159.715844
608.620411	39504.838278
608.969870	39308.404677
609.319276	39306.907454
609.668627	39363.196978
610.017926	39839.800266
610.367171	40002.138023
610.716362	40089.382752
611.065500	40045.363396
611.414585	40241.088715
611.763616	40527.489268
612.112594	40445.668820
612.461518	40675.540394
612.810389	40947.951745
613.159207	40820.166057
613.507971	40906.926835
613.856682	41378.922508
614.205340	41250.158836
614.553945	41949.268572
614.902496	41407.049626
615.250994	41866.891077
615.599439	41929.653442
615.947830	42153.397494
616.296169	42197.477343
616.644454	42335.511697
616.992686	42511.460570
617.340864	43035.145713
617.688990	42751.850511
618.037063	43334.025643
618.385082	43323.038448
618.733048	43615.402686
619.080961	43623.135816
619.428821	43643.799505
619.776628	43739.019340
620.124382	43564.693719
620.472083	43695.516703
620.819731	43817.719313
621.167326	43492.975744
621.514868	43488.695804
621.862357	43061.730238
622.209793	43066.403388
622.557176	42747.767177
622.904506	42494.247550
623.251783	42151.416321
623.599007	41938.609052
623.946179	41709.223949
624.293297	41667.788185
624.640363	41094.311565
624.987376	41074.036044
625.334336	40835.140805
625.681243	40484.286579
626.028097	40450.362134
626.374899	40314.286269
626.721647	40293.544441
627.068343	40184.960508
627.414987	39949.397471
627.761577	39731.244059
628.108115	40058.576260
628.454600	39518.449393
628.801032	39691.098830
629.147412	39669.124441
629.493739	39685.578767
629.840014	39338.114717
630.186236	39662.482720
630.532405	39307.096498
630.878521	39503.194862
631.224585	39399.977237
631.570597	39090.780586
631.916556	39264.544118
632.262462	39223.514167
632.608316	39226.616997
632.954117	39136.498810
633.299866	39121.738312
633.645562	39029.265906
633.991206	38539.850526
634.336797	38122.223698
634.682336	38115.826473
635.027823	37868.900676
635.373257	37701.252063
635.718639	37446.202446
636.063968	37312.417785
636.409245	36744.927535
636.754470	36797.965514
637.099642	36562.057158
637.444762	36102.240913
637.789829	36239.587150
638.134845	35898.870685
638.479808	35842.082087
638.824719	35745.100369
639.169577	35376.735696
639.514383	35437.221980
639.859137	35141.457484
640.203839	35381.003032
640.548489	35005.424468
640.893086	35074.745375
641.237632	34838.794169
641.582125	34943.657731
641.926566	34874.480497
642.270955	34839.492369
642.615292	34873.731886
642.959576	34849.400757
643.303809	34844.130230
643.647990	34985.446375
643.992118	34954.027384
644.336195	34960.129701
644.680219	35043.802772
645.024192	35336.250189
645.368112	35847.075350
645.711981	35870.725923
646.055797	36739.772955
646.399562	36660.531058
646.743274	37596.146526
647.086935	38045.240237
647.430544	37919.458408
647.774101	38046.306441
648.117606	38282.136659
648.461059	38580.497350
648.804460	38189.712145
649.147810	37580.085410
649.491108	37335.239088
649.834354	36984.644482
650.177548	36157.428945
650.520690	35717.850412
650.863781	35735.423874
651.206820	35592.454231
651.549807	35150.778577
651.892742	34672.801576
652.235626	34487.214017
652.578458	34346.275959
652.921238	33767.937145
653.263967	34087.800877
653.606644	33764.514202
653.949269	33718.564085
654.291843	33338.939994
654.634365	33725.455342
654.976836	33331.267358
655.319255	33329.150073
655.661622	33325.054136
656.003938	33100.374950
656.346203	32962.133909
656.688416	33187.397868
657.030577	32995.372757
657.372687	32835.555577
657.714746	33101.988119
658.056753	33210.430900
658.398708	32684.167206
658.740612	32726.775039
659.082465	32996.043230
659.424266	32820.691735
659.766016	32945.500622
660.107715	32825.311952
660.449362	32952.860706
660.790958	32951.383648
661.132503	32967.162460
661.473996	32990.747498
661.815438	33103.671865
662.156829	33288.528456
662.498168	33065.522933
662.839456	33098.925618
663.180693	33234.484766
663.521879	33399.113727
663.863013	33356.901625
664.204097	33353.753425
664.545129	33810.106397
664.886110	33789.457831
665.227040	33842.074874
665.567918	33964.726148
665.908746	34022.013820
666.249522	34191.066393
666.590248	34190.615210
666.930922	34309.251204
667.271545	34251.398923
667.612118	34345.484497
667.952639	34124.387052
668.293109	34188.298800
668.633528	34089.141824
668.973896	34015.919065
669.314213	34044.590627
669.654480	33775.829072
669.994695	33804.419976
670.334859	33702.661765
670.674973	33593.798047
671.015035	33766.124851
671.355047	33717.707088
671.695008	33657.530835
672.034918	33561.842173
672.374777	33646.732683
672.714585	33487.583457
673.054342	33710.798187
673.394049	33487.777541
673.733705	33744.463012
674.073310	33422.910494
674.412864	33489.244517
674.752368	33089.332303
675.091820	33379.188567
675.431223	32960.722386
675.770574	32697.846377
676.109875	32556.956210
676.449125	32285.366567
676.788324	32197.431200
677.127473	31667.071568
677.466571	31591.073653
677.805619	31260.615936
678.144616	31265.392430
678.483562	31179.796158
678.822458	30862.823528
679.161303	30777.310435
679.500098	30692.767764
679.838842	30588.889748
680.177535	30744.449673
680.516179	31015.310870
680.854771	31265.173139
681.193314	32117.944806
681.531805	33235.563573
681.870247	34006.857591
682.208638	34749.023822
682.546978	34976.977237
682.885268	35057.975976
683.223508	34530.043660
683.561697	34201.194072
683.899836	33996.949203
684.237925	33496.687780
684.575963	33351.996583
684.913951	32899.784918
685.251889	33053.638413
685.589776	33035.008829
685.927614	33034.292985
686.265401	33183.637168
686.603137	33268.915847
686.940824	33781.454999
687.278460	34168.681150
687.616046	34322.340560
687.953582	34919.558495
688.291068	34775.106752
688.628504	35069.842853
688.965889	34995.173282
689.303224	34608.536946
689.640510	34256.888739
689.977745	33528.762122
690.314930	32729.088928
690.652065	32199.213248
690.989150	31456.598354
691.326185	30572.959702
691.663170	29858.834889
692.000105	29104.330434
692.336990	28435.492827
692.673825	27996.917484
693.010610	27465.012738
693.347345	26909.028922
693.684030	26251.770845
694.020665	25986.016338
694.357251	25319.903474
694.693786	25256.793269
695.030272	25032.479567
695.366707	24493.733976
695.703093	24211.406676
696.039429	24196.086609
696.375716	23941.873824
696.711952	23911.866355
697.048139	23741.089707
697.384276	23569.037647
697.720363	23692.626575
698.056400	23495.449404
698.392388	23277.273306
698.728326	23234.483993
699.064214	23037.248848
699.400053	22977.372543
699.735842	22625.603349
700.071581	22341.055420
700.407270	22065.261455
700.742910	21869.389942
701.078501	21592.507088
701.414042	21315.674645
701.749533	21030.723424
702.084974	20674.281080
702.420366	20881.853110
702.755709	20438.561767
703.091002	20153.240021
703.426246	20179.905204
703.761440	20069.967721
704.096584	19794.539240
704.431679	19751.465101
704.766725	19677.894501
705.101721	19604.301217
705.436668	19707.826352
705.771565	19376.604901
706.106413	19718.521160
706.441212	19689.108548
706.775961	19839.468523
707.110661	19906.644419
707.445311	20260.452760
707.779913	20110.584298
708.114465	20349.378714
708.448967	20631.373299
708.783421	21331.423210
709.117825	21595.708221
709.452180	21811.832568
709.786485	22219.167882
710.120742	23010.999560
710.454949	23038.725906
710.789107	23500.253623
711.123216	24203.960892
711.457275	24317.631349
711.791286	24856.248391
712.125247	24933.579691
712.459159	24626.409584
712.793023	25295.181656
713.126837	24175.115409
713.460602	24426.873153
713.794318	24046.490369
714.127985	23656.970493
714.461602	22758.679728
714.795171	22729.408268
715.128691	21710.391950
715.462162	21178.895538
715.795584	20759.816858
716.128957	20493.845581
716.462281	20086.018755
716.795556	19858.584579
717.128782	19360.669813
717.461960	18829.518721
717.795088	18738.687211
718.128167	18340.410851
718.461198	17885.930667
718.794180	17742.209892
719.127113	17376.610291
719.459997	17190.563988
719.792833	16845.113879
720.125619	16818.710836
720.458357	16497.612021
720.791046	16334.283678
721.123686	16173.112948
721.456278	15931.210660
721.788821	15895.327727
722.121315	15634.846267
722.453761	15705.384612
722.786158	15632.756709
723.118506	15644.532844
723.450805	15512.905797
723.783056	15675.598955
724.115259	15573.772688
724.447412	15503.640156
724.779518	15747.064872
725.111574	15766.213695
725.443582	15965.732482
725.775542	15951.491222
726.107453	16417.492963
726.439315	16303.043648
726.771129	16693.720468
727.102895	17061.374338
727.434612	17273.332172
727.766281	17403.025937
728.097901	17651.605233
728.429473	17686.815172
728.760996	17668.188109
729.092471	17752.385461
729.423897	17632.350546
729.755276	17503.362543
730.086606	17616.733052
730.417887	18122.638046
730.749120	18651.878541
731.080305	18817.545980
731.411442	19150.922525
731.742530	19219.656137
732.073570	19322.830913
732.404562	19606.398337
732.735506	19417.798689
733.066401	19135.224372
733.397249	18615.516699
733.728048	17980.064133
734.058798	17150.030590
734.389501	16473.911037
734.720156	16012.426169
735.050762	15491.153218
735.381320	15132.951511
735.711831	14909.164609
736.042293	14556.520774
736.372707	14558.058326
736.703073	14355.482079
737.033391	14543.567529
737.363661	14512.992931
737.693883	14621.665085
738.024056	14784.509477
738.354182	14970.906141
738.684260	15248.719088
739.014290	15474.262832
739.344272	15667.034034
739.674207	15951.629854
740.004093	16063.556072
740.333931	16044.268618
740.663722	16078.954277
740.993464	16073.973617
741.323159	15892.492078
741.652806	15625.568023
741.982405	15409.305044
742.311956	15072.777778
742.641460	14950.396206
742.970915	14650.923942
743.300323	14317.055884
743.629683	14109.362866
743.958996	13824.101614
744.288260	13560.484556
744.617477	13262.018001
744.946647	13186.594778
745.275768	12918.526381
745.604842	12735.381262
745.933869	12569.703741
746.262847	12513.436902
746.591778	12436.934872
746.920662	12341.407527
747.249498	12333.049294
747.578286	12464.842700
747.907027	12608.087086
748.235720	12820.559118
748.564365	12849.883510
748.892963	12756.599478
749.221514	12812.236173
749.550017	12664.469871
749.878473	12627.152730
750.206881	12406.647620
750.535242	12315.944659
750.863555	12234.000703
751.191821	12139.408492
751.520039	12153.248980
751.848210	12071.075652
752.176334	12089.798498
752.504411	11992.993220
752.832440	11845.060561
753.160421	11904.382338
753.488356	11783.916406
753.816243	11700.049250
754.144082	11551.352855
754.471875	11497.364618
754.799620	11445.561721
755.127318	11420.615571
755.454969	11372.863242
755.782572	11324.964718
756.110129	11336.733292
756.437638	11254.154151
756.765100	11256.226065
757.092515	11252.939233
757.419882	11271.715010
757.747203	11274.112079
758.074477	11355.816580
758.401703	11303.963271
758.728882	11463.656943
759.056014	11506.373160
759.383099	11619.436158
759.710138	11721.017929
760.037129	11810.067391
760.364073	11826.115904
760.690970	11809.911115
761.017820	11805.563120
761.344623	11990.880977
761.671379	12309.849904
761.998088	12944.367336
762.324751	14491.507533
762.651366	17351.525510
762.977935	20997.713949
763.304456	23209.868038
763.630931	23685.982334
763.957359	22486.507832
764.283740	20587.497616
764.610074	18722.469819
764.936362	16595.140704
765.262602	15081.158696
765.588796	13630.407880
765.914943	12593.944129
766.241044	11746.284192
766.567097	11121.130704
766.893104	10570.114944
767.219064	10211.724194
767.544978	9836.790897
767.870845	9525.968474
768.196665	9338.205658
768.522438	9141.411615
768.848165	8974.168816
769.173846	8812.584711
769.499479	8690.477883
769.825066	8537.156230
770.150607	8352.962551
770.476101	8295.407697
770.801548	8178.924276
771.126949	8045.273205
771.452303	7953.783824
771.777611	7789.341386
772.102872	7767.997141
772.428087	7651.859038
772.753256	7528.895214
773.078378	7437.564629
773.403453	7296.878628
773.728482	7195.649739
774.053465	7135.957436
774.378401	7042.796913
774.703291	6953.777698
775.028135	6856.264138
775.352932	6820.487069
775.677683	6739.470686
776.002388	6653.854250
776.327046	6650.431306
776.651658	6563.484005
776.976224	6494.165619
777.300743	6470.628472
777.625216	6406.847793
777.949643	6362.795671
778.274024	6371.990735
778.598359	6299.955167
778.922647	6304.575385
779.246889	6268.233707
779.571086	6268.130363
779.895236	6279.447753
780.219339	6278.056395
780.543397	6280.836591
780.867409	6326.133879
781.191374	6321.864022
781.515294	6287.793384
781.839167	6341.864800
782.162995	6309.442619
782.486776	6261.350011
782.810511	6219.344597
783.134201	6148.501262
783.457844	6136.957019
783.781441	6087.480615
784.104993	6041.883378
784.428498	6013.153843
784.751958	5998.955433
785.075372	5975.514068
785.398739	5938.138953
785.722061	5963.634588
786.045337	5954.928516
786.368568	6066.751390
786.691752	6094.482778
787.014891	6338.537638
787.337983	6613.809844
787.661030	7048.780762
787.984031	7475.098540
788.306987	7736.421873
788.629897	7823.618712
788.952760	7741.626865
789.275579	7556.558545
789.598351	7267.642457
789.921078	7004.189236
790.243759	6720.888993
790.566395	6518.642942
790.888984	6324.442572
791.211529	6183.663310
791.534027	6023.757910
791.856480	5885.857146
792.178888	5825.322971
792.501249	5763.689824
792.823566	5658.380120
793.145836	5648.806969
793.468062	5633.502026
793.790241	5593.281180
794.112375	5637.081245
794.434464	5733.619341
794.756507	5761.627992
795.078505	5887.893773
795.400457	6093.623261
795.722364	6332.236196
796.044226	6532.576691
796.366042	6688.905392
796.687812	6635.844728
797.009538	6661.226937
797.331218	6570.511374
797.652852	6503.547207
797.974442	6377.188165
798.295986	6310.375232
798.617484	6183.917888
798.938938	6074.020734
799.260346	6007.669067
799.581709	5870.055650
799.903026	5817.299975
800.224299	5744.334314
800.545526	5629.199401
800.866708	5565.431326
801.187845	5515.798645
801.508936	5443.246359
801.829983	5417.201238
802.150984	5304.402900
802.471940	5278.400628
802.792851	5265.923773
803.113717	5238.575513
803.434538	5216.391916
803.755314	5178.792470
804.076045	5173.453888
804.396731	5139.509278
804.717372	5151.522348
805.037967	5150.234333
805.358518	5181.764230
805.679024	5243.677161
805.999485	5249.129169
806.319901	5271.267396
806.640272	5286.123676
806.960598	5333.197971
807.280879	5325.585828
807.601115	5361.201580
807.921306	5325.421991
808.241453	5318.034180
808.561554	5328.786961
808.881611	5296.720182
809.201623	5292.984687
809.521590	5241.958127
809.841513	5228.611673
810.161390	5244.161112
810.481223	5155.262884
810.801011	5140.273013
811.120755	5116.488849
811.440453	5062.674532
811.760107	5032.646899
812.079716	5005.270913
812.399281	4956.901042
812.718801	4952.149754
813.038276	4921.449128
813.357707	4885.596441
813.677093	4909.544443
813.996434	4847.974310
814.315731	4865.832598
814.634983	4861.214901
814.954191	4866.808061
815.273354	4927.586732
815.592473	4971.197754
815.911547	5044.065113
816.230577	5094.338019
816.549562	5182.911092
816.868502	5232.493361
817.187399	5287.590652
817.506250	5365.574781
817.825058	5394.969749
818.143821	5551.293410
818.462539	5716.413883
818.781213	5942.171876
819.099843	6304.361136
819.418429	6930.316168
819.736970	7547.585292
820.055466	8255.214578
820.373919	9164.069081
820.692327	10607.457291
821.010691	13291.193679
821.329011	19493.433641
821.647286	29043.766012
821.965517	39364.288388
822.283704	44813.921889
822.601847	46296.283260
822.919945	41707.406613
823.237999	36607.447708
823.556010	31416.259041
823.873976	26714.027009
824.191897	22517.916741
824.509775	19452.302867
824.827609	16700.097527
825.145398	15149.700744
825.463144	14398.503286
825.780845	14685.365105
826.098502	15941.907989
826.416116	18392.470847
826.733685	20665.779174
827.051210	21186.903411
827.368692	19787.247211
827.686129	17218.340746
828.003522	14741.626902
828.320872	12531.421218
828.638177	10889.580425
828.955439	9647.583790
829.272656	8595.532791
829.589830	7756.510872
829.906960	7025.881321
830.224046	6495.919941
830.541088	6084.718063
830.858086	5828.370348
831.175041	5621.884687
831.491952	5566.525256
831.808819	5601.886430
832.125642	5846.639490
832.442421	6392.472943
832.759157	7493.241653
833.075849	9258.260520
833.392497	11102.715369
833.709101	12208.336189
834.025662	11968.215949
834.342179	10913.014229
834.658653	9606.306823
834.975083	8507.955346
835.291469	7599.688137
835.607811	6872.373145
835.924110	6359.029929
836.240366	5870.763932
836.556578	5421.340025
836.872746	5069.071756
837.188871	4800.143842
837.504952	4574.539605
837.820990	4408.660438
838.136984	4296.197337
838.452935	4243.550046
838.768842	4274.127165
839.084706	4559.380855
839.400526	5295.505263
839.716303	6201.667791
840.032037	6759.113542
840.347727	6621.348890
840.663373	6018.555439
840.978977	5441.907933
841.294537	4999.294625
841.610054	4670.480324
841.925527	4428.131894
842.240957	4224.640678
842.556344	4046.060324
842.871687	3887.447980
843.186987	3738.282758
843.502244	3620.513843
843.817458	3531.567724
844.132629	3459.461580
844.447756	3413.574477
844.762840	3369.744165
845.077881	3330.148422
845.392879	3296.095428
845.707833	3269.808331
846.022745	3242.817993
846.337613	3230.872979
846.652438	3208.785164
846.967221	3201.162939
847.281960	3183.503777
847.596656	3169.890141
847.911309	3160.301867
848.225919	3143.403919
848.540485	3137.044503
848.855009	3130.163328
849.169490	3119.647482
849.483928	3110.717078
849.798323	3107.195832
850.112675	3095.855756
850.426984	3099.959255
850.741251	3088.720003
851.055474	3083.976277
851.369654	3088.079776
851.683792	3085.153386
851.997887	3085.672625
852.311938	3087.212698
852.625947	3087.500043
852.939914	3078.756162
853.253837	3086.582553
853.567718	3081.929568
853.881555	3076.671645
854.195350	3083.298242
854.509103	3079.098961
854.822812	3079.285483
855.136479	3074.566963
855.450103	3076.830441
855.763685	3073.105029
856.077224	3075.166861
856.390720	3080.565936
856.704173	3091.119592
857.017584	3096.627052
857.330953	3103.470419
857.644278	3108.975359
857.957561	3114.714712
858.270802	3107.722632
858.584000	3107.152982
858.897155	3103.936726
859.210268	3096.286775
859.523339	3082.148859
859.836367	3079.393868
860.149352	3073.243660
860.462295	3066.422979
860.775195	3061.873338
861.088054	3057.371587
861.400869	3057.114489
861.713642	3056.277657
862.026373	3066.438103
862.339062	3067.456416
862.651708	3077.649629
862.964312	3092.626897
863.276873	3099.649224
863.589392	3131.637866
863.901869	3161.035355
864.214303	3179.372552
864.526696	3199.610264
864.839045	3218.151628
865.151353	3224.319479
865.463619	3231.225860
865.775842	3227.639079
866.088023	3237.638208
866.400162	3228.002042
866.712258	3229.653020
867.024313	3228.606981
867.336325	3225.156311
867.648296	3224.929459
867.960224	3227.157649
868.272110	3227.944069
868.583954	3226.817371
868.895755	3237.769278
869.207515	3232.899523
869.519233	3252.494488
869.830909	3254.614293
870.142542	3267.045779
870.454134	3273.546347
870.765684	3286.161834
871.077191	3307.246460
871.388657	3322.299346
871.700081	3336.497755
872.011463	3354.903008
872.322803	3377.333622
872.634101	3389.132443
872.945357	3413.753438
873.256571	3439.677572
873.567744	3454.579223
873.878874	3459.080973
874.189963	3478.282728
874.501010	3475.805001
874.812015	3478.736432
875.122979	3489.698421
875.433900	3492.120695
875.744780	3493.333093
876.055618	3500.431037
876.366415	3496.703104
876.677169	3505.147037
876.987882	3519.574819
877.298554	3539.585679
877.609183	3576.895259
877.919771	3624.486272
878.230317	3691.435315
878.540822	3791.658495
878.851285	3946.323616
879.161707	4165.893592
879.472087	4536.448647
879.782425	5159.686497
880.092722	6341.484193
880.402977	8267.353676
880.713191	10645.649073
881.023363	13030.999565
881.333494	14371.671745
881.643583	14824.687473
881.953631	14421.780814
882.263637	13571.398654
882.573602	12540.044112
882.883526	11588.317116
883.193408	10637.247990
883.503248	9712.712978
883.813048	8888.922904
884.122806	8122.138198
884.432522	7362.118721
884.742197	6699.874943
885.051831	6136.767976
885.361424	5644.368233
885.670975	5246.984158
885.980485	4922.903500
886.289954	4657.390968
886.599382	4440.709573
886.908768	4261.549486
887.218113	4099.448664
887.527417	3965.313642
887.836680	3845.009026
888.145901	3743.828027
888.455082	3672.205834
888.764221	3599.401490
889.073319	3541.491235
889.382376	3506.422449
889.691392	3483.843121
890.000366	3476.699806
890.309300	3471.888024
890.618193	3473.226451
890.927044	3467.746716
891.235855	3477.292141
891.544625	3488.551558
891.853353	3521.944161
892.162041	3580.078747
892.470687	3670.690967
892.779293	3789.016930
893.087858	3960.622848
893.396381	4241.352103
893.704864	4651.422242
894.013306	5218.715888
894.321707	5787.063134
894.630068	6148.055120
894.938387	6185.442837
895.246665	6006.892730
895.554903	5693.451427
895.863100	5356.190673
896.171256	5087.068675
896.479371	4842.986088
896.787446	4620.557778
897.095480	4423.766255
897.403473	4276.894758
897.711425	4128.851193
898.019336	4006.179756
898.327207	3889.325810
898.635038	3790.630100
898.942827	3678.940816
899.250576	3590.236672
899.558284	3510.334384
899.865952	3457.412351
900.173579	3390.017165
900.481165	3342.637881
900.788711	3302.175059
901.096216	3274.615071
901.403681	3241.855133
901.711105	3234.999164
902.018489	3230.346179
902.325832	3263.842126
902.633135	3321.321362
902.940397	3489.995849
903.247619	3892.116088
903.554800	4641.539060
903.861941	5605.548828
904.169041	6309.735006
904.476101	6522.005391
904.783121	6244.988946
905.090100	5841.971382
905.397039	5429.700779
905.703938	5069.185182
906.010796	4744.983537
906.317614	4498.793748
906.624391	4257.824073
906.931129	4062.938107
907.237826	3885.360942
907.544483	3714.246537
907.851099	3542.474260
908.157675	3386.848800
908.464211	3244.242119
908.770707	3142.708240
909.077163	3064.691343
909.383578	3001.888648
909.689954	2958.708645
909.996289	2931.506579
910.302584	2911.634350
910.608839	2896.160529
910.915054	2886.657954
911.221229	2878.645040
911.527363	2884.235679
911.833458	2891.802451
912.139513	2904.917013
912.445527	2916.604928
912.751502	2948.654064
913.057436	2995.073008
913.363331	3051.901936
913.669186	3137.853609
913.975000	3256.923142
914.280775	3442.578756
914.586510	3708.882749
914.892205	4085.111622
915.197859	4581.902210
915.503475	5164.185726
915.809050	5654.432897
916.114585	5946.575324
916.420081	6011.880951
916.725536	5947.328976
917.030952	5709.855342
917.336328	5505.980998
917.641665	5291.737001
917.946961	5066.319286
918.252218	4865.320921
918.557435	4634.980519
918.862612	4439.212351
919.167750	4269.060805
919.472848	4076.914706
919.777906	3907.700815
920.082925	3749.869850
920.387904	3600.029114
920.692843	3491.964419
920.997743	3390.244017
921.302603	3298.404276
921.607423	3234.391705
921.912204	3164.828823
922.216946	3117.688993
922.521647	3070.687795
922.826310	3030.471991
923.130932	2990.609067
923.435516	2951.580453
923.740059	2925.126999
924.044564	2892.966958
924.349028	2867.453678
924.653454	2841.711026
924.957840	2812.580718
925.262186	2793.872997
925.566493	2774.593104
925.870761	2746.660070
926.174989	2736.681106
926.479178	2719.654609
926.783328	2706.285469
927.087438	2695.356247
927.391509	2685.848631
927.695541	2671.186435
927.999533	2661.182266
928.303486	2651.258754
928.607400	2644.145686
928.911275	2640.561426
929.215110	2633.627319
929.518906	2629.677575
929.822663	2635.200159
930.126381	2630.716052
930.430060	2637.279635
930.733699	2635.842906
931.037299	2639.175108
931.340861	2638.373565
931.644383	2643.697023
931.947866	2642.174595
932.251309	2637.083030
932.554714	2638.703761
932.858080	2637.108235
933.161407	2630.610188
933.464694	2628.936525
933.767943	2626.065588
934.071153	2621.379835
934.374323	2617.571244
934.677455	2616.101747
934.980548	2610.629575
935.283602	2612.204935
935.586617	2606.974738
935.889593	2612.439349
936.192530	2612.613269
936.495428	2614.511263
936.798287	2628.374436
937.101108	2638.791981
937.403890	2660.068171
937.706632	2688.845597
938.009336	2722.283571
938.312002	2749.556213
938.614628	2774.404060
938.917216	2791.054992
939.219765	2803.272228
939.522275	2811.320430
939.824747	2811.829587
940.127179	2804.517393
940.429573	2800.237453
940.731929	2800.572690
941.034246	2790.886113
941.336524	2788.884775
941.638763	2781.988476
941.940964	2774.613268
942.243126	2759.076432
942.545250	2750.272057
942.847335	2732.703636
943.149381	2721.063612
943.451389	2707.507949
943.753359	2695.479756
944.055290	2683.386028
944.357182	2677.369411
944.659036	2674.014523
944.960851	2667.287103
945.262628	2665.091680
945.564367	2662.651762
945.866067	2661.676299
946.167729	2662.223264
946.469352	2663.377688
946.770937	2659.838798
947.072484	2655.228663
947.373992	2652.327479
947.675462	2651.430153
947.976893	2641.736015
948.278286	2639.923720
948.579641	2638.650828
948.880958	2634.275107
949.182236	2635.144706
949.483476	2630.305198
949.784678	2630.597585
950.085841	2633.060189
950.386967	2632.203193
950.688054	2641.393216
950.989103	2650.006027
951.290114	2656.940135
951.591087	2666.546053
951.892021	2679.128773
952.192917	2689.269054
952.493776	2701.423276
952.794596	2706.398895
953.095378	2706.691282
953.396122	2705.166333
953.696828	2701.304809
953.997496	2698.680888
954.298126	2690.857018
954.598718	2681.170441
954.899272	2668.673420
955.199788	2661.527585
955.500266	2647.019144
955.800706	2630.816875
956.101108	2614.173506
956.401472	2603.587083
956.701798	2588.897161
957.002087	2577.317630
957.302337	2567.341187
957.602550	2555.716286
957.902724	2541.633823
958.202861	2538.011754
958.502960	2526.505320
958.803022	2520.884433
959.103045	2515.200533
959.403031	2508.657115
959.702979	2503.472288
960.002889	2496.911226
960.302762	2493.805876
960.602596	2486.337406
960.902393	2486.798672
961.202153	2477.979173
961.501875	2479.075624
961.801559	2475.438432
962.101205	2473.061528
962.400814	2471.594552
962.700385	2469.366362
962.999918	2468.761423
963.299414	2468.892493
963.598873	2468.658080
963.898293	2463.722790
964.197677	2461.978551
964.497022	2462.419652
964.796331	2460.854373
965.095601	2460.826647
965.394835	2457.844805
965.694030	2459.402521
965.993189	2459.561318
966.292309	2459.009311
966.591393	2459.281533
966.890439	2456.140895
967.189447	2457.375977
967.488419	2458.333797
967.787353	2458.800103
968.086249	2458.442181
968.385108	2457.867490
968.683930	2457.746502
968.982714	2460.365382
969.281462	2460.806482
969.580172	2461.282872
969.878844	2466.414766
970.177480	2468.897534
970.476078	2472.446507
970.774639	2474.306693
971.073162	2477.049080
971.371649	2477.157465
971.670098	2476.449183
971.968510	2480.593011
972.266885	2478.936992
972.565223	2483.852117
972.863524	2483.363125
973.161788	2487.295225
973.460014	2488.684063
973.758204	2486.286995
974.056356	2487.431337
974.354471	2490.120792
974.652550	2484.933445
974.950591	2487.146511
975.248595	2485.273723
975.546563	2487.040647
975.844493	2484.416727
976.142386	2482.569144
976.440243	2480.096458
976.738062	2480.212404
977.035845	2476.338278
977.333590	2474.064717
977.631299	2472.050776
977.928971	2470.394757
978.226606	2467.251598
978.524204	2469.041207
978.821765	2464.489045
979.119290	2465.409056
979.416777	2464.662965
979.714228	2466.918882
980.011642	2468.902576
980.309020	2471.118163
980.606360	2472.968266
980.903664	2483.635348
981.200931	2496.376864
981.498162	2515.911335
981.795356	2543.748587
982.092513	2583.268712
982.389633	2624.770011
982.686717	2667.110662
982.983764	2701.052751
983.280775	2716.445915
983.577749	2720.070504
983.874686	2710.762014
984.171587	2695.797348
984.468451	2675.390758
984.765279	2660.189158
985.062070	2641.942702
985.358824	2622.118364
985.655543	2599.589448
985.952224	2578.930799
986.248869	2553.480534
986.545478	2525.567665
986.842050	2505.944974
987.138586	2487.743888
987.435086	2474.977166
987.731549	2461.310598
988.027975	2458.099383
988.324366	2451.293825
988.620719	2447.638989
988.917037	2444.233689
989.213318	2439.691610
989.509563	2438.811928
989.805772	2438.101126
990.101944	2436.084664
990.398080	2432.306319
990.694180	2433.506114
990.990244	2435.699016
991.286271	2433.738007
991.582262	2437.735642
991.878217	2436.457709
992.174136	2438.920313
992.470019	2435.978800
992.765865	2440.944336
993.061676	2442.088678
993.357450	2443.946343
993.653188	2447.974225
993.948890	2450.633434
994.244556	2457.935545
994.540186	2469.759572
994.835780	2477.112095
995.131337	2494.594816
995.426859	2509.151148
995.722345	2529.088911
996.017795	2545.626417
996.313208	2559.240052
996.608586	2571.787484
996.903928	2574.902917
997.199234	2570.975859
997.494504	2568.087277
997.789738	2560.810372
998.084936	2552.739485
998.380099	2542.216076
998.675225	2527.881555
998.970316	2517.882426
999.265371	2503.200066
999.560390	2490.166162
999.855373	2479.539410
1000.150320	2471.518934
1000.445232	2460.138530
1000.740108	2453.368260
1001.034948	2449.615121
1001.329752	2442.406271
1001.624521	2435.920827
1001.919254	2430.683068
1002.213951	2434.526947
1002.508613	2425.122675
1002.803239	2428.757347
1003.097829	2419.572365
1003.392384	2425.765422
1003.686903	2421.861048
1003.981386	2420.293250
1004.275834	2421.314083
1004.570246	2420.744433
1004.864623	2422.455905
1005.158964	2419.390883
1005.453270	2418.334761
1005.747540	2416.892991
1006.041775	2417.387024
1006.335974	2419.254772
1006.630138	2416.918197
1006.924266	2416.610687
1007.218359	2413.888464
1007.512416	2416.532549
1007.806438	2415.536921
1008.100425	2414.984915
1008.394376	2414.851324
1008.688292	2416.114133
1008.982172	2412.751683
1009.276017	2415.751170
1009.569827	2413.656571
1009.863602	2414.664801
1010.157341	2413.618762
1010.451045	2413.517939
1010.744714	2412.323185
1011.038347	2412.250089
1011.331945	2415.640265
1011.625508	2412.658422
1011.919036	2408.839748
1012.212528	2413.485171
1012.505986	2413.233114
1012.799408	2409.905952
1013.092795	2409.742115
1013.386147	2414.359812
1013.679464	2407.869326
1013.972745	2410.052146
1014.265992	2409.036353
1014.559204	2409.956364
1014.852380	2410.778072
1015.145521	2410.616755
1015.438628	2411.390572
1015.731699	2411.655232
1016.024736	2412.930644
1016.317737	2411.700603
1016.610703	2412.076169
1016.903635	2409.447207
1017.196531	2407.193811
1017.489393	2409.714388
1017.782219	2406.364542
1018.075011	2412.093813
1018.367768	2413.444842
1018.660490	2411.851838
1018.953177	2411.851838
1019.245829	2411.851838
