Dividing Wavelength (nm)	Counts (n)	Blue Motor Position (mm): 37.200000	Red Motor Position (mm): 0.000000	
326.493990	1969.989662
326.888308	1969.989662
327.282561	1969.989662
327.676750	1950.059460
328.070874	1946.936465
328.464933	1955.856787
328.858929	1964.167129
329.252859	1977.591722
329.646726	1989.125882
330.040528	2008.055414
330.434265	2025.633918
330.827938	2046.199305
331.221547	2066.363920
331.615091	2085.575758
332.008571	2104.459920
332.401986	2125.862139
332.795338	2146.820736
333.188625	2164.263128
333.581847	2184.498320
333.975006	2203.092616
334.368100	2219.259596
334.761129	2239.361197
335.154095	2254.126737
335.546996	2293.145267
335.939833	2374.370859
336.332606	2389.136398
336.725315	2400.262225
337.117960	2409.590880
337.510540	2413.787641
337.903056	2429.604261
338.295508	2432.243305
338.687896	2440.271342
339.080220	2447.520522
339.472480	2450.643516
339.864676	2454.711727
340.256807	2461.814713
340.648875	2462.281020
341.040879	2462.767491
341.432818	2467.186063
341.824694	2462.376802
342.216506	2464.395784
342.608253	2465.106587
342.999937	2464.511731
343.391557	2463.279168
343.783113	2464.315126
344.174605	2461.955866
344.566033	2458.346399
344.957397	2455.135184
345.348697	2456.208950
345.739934	2451.742488
346.131106	2450.056222
346.522215	2451.193002
346.913260	2448.143104
347.304241	2448.385079
347.695159	2444.319389
348.086012	2443.225458
348.476802	2442.098761
348.867528	2441.161106
349.258191	2438.348142
349.648789	2438.849737
350.039324	2435.666248
350.429796	2439.152206
350.820203	2436.490477
351.210548	2433.876639
351.600828	2433.947215
351.991045	2434.315219
352.381198	2434.307657
352.771288	2436.989551
353.161314	2432.283634
353.551276	2430.980496
353.941175	2432.089550
354.331010	2434.403439
354.720782	2437.672627
355.110490	2441.879470
355.500135	2435.845209
355.889717	2433.271700
356.279235	2434.889911
356.668689	2436.089705
357.058080	2434.589962
357.447408	2430.942687
357.836672	2433.412853
358.225873	2435.656166
358.615010	2436.067020
359.004084	2438.302772
359.393095	2437.418049
359.782043	2441.143462
360.170927	2439.038780
360.559748	2441.564398
360.948505	2440.389809
361.337199	2442.875098
361.725830	2443.643874
362.114398	2443.341405
362.502903	2443.734615
362.891344	2444.755449
363.279722	2444.407609
363.668037	2445.070521
364.056289	2445.816612
364.444478	2445.620007
364.832603	2446.756787
365.220665	2446.005655
365.608665	2450.068825
365.996601	2449.118567
366.384474	2448.140583
366.772284	2450.830039
367.160031	2450.663681
367.547715	2452.062601
367.935336	2454.459670
368.322893	2451.477827
368.710388	2451.845832
369.097820	2455.644341
369.485189	2454.857921
369.872495	2454.825153
370.259738	2456.203909
370.646918	2455.825822
371.034035	2455.200719
371.421090	2455.977057
371.808081	2456.481172
372.195010	2457.723817
372.581875	2459.147943
372.968678	2461.461833
373.355418	2457.776749
373.742096	2458.719445
374.128710	2456.445884
374.515262	2464.506689
374.901751	2460.549384
375.288177	2461.474435
375.674540	2463.745475
376.060841	2462.880917
376.447079	2463.712708
376.833254	2462.616257
377.219367	2460.002418
377.605417	2464.675568
377.991404	2463.417800
378.377329	2465.996350
378.763191	2464.746144
379.148991	2468.073306
379.534727	2469.310909
379.920402	2471.385344
380.306013	2470.185549
380.691563	2472.234778
381.077049	2471.370220
381.462474	2471.022381
381.847835	2473.681589
382.233134	2475.650160
382.618371	2474.571353
383.003545	2476.129070
383.388657	2475.882053
383.773706	2480.340954
384.158693	2477.006230
384.543618	2479.393217
384.928480	2482.475882
385.313280	2479.340285
385.698017	2480.464462
386.082692	2482.117960
386.467305	2483.211891
386.851856	2485.677015
387.236344	2484.305821
387.620770	2485.210708
388.005133	2487.176758
388.389435	2489.659527
388.773674	2490.188848
389.157851	2491.126502
389.541965	2492.512820
389.926018	2490.859321
390.310008	2494.791421
390.693936	2492.003663
391.077802	2495.910557
391.461606	2498.161433
391.845348	2498.174035
392.229027	2496.719663
392.612645	2499.167143
392.996200	2501.302071
393.379694	2502.602689
393.763125	2505.201404
394.146494	2507.311127
394.529801	2508.195849
394.913047	2509.163751
395.296230	2511.119718
395.679351	2510.726508
396.062410	2511.994359
396.445408	2512.629544
396.828343	2518.358815
397.211217	2516.143228
397.594028	2519.455266
397.976778	2520.329907
398.359466	2527.982378
398.742092	2527.327028
399.124656	2536.859850
399.507158	2541.880839
399.889598	2545.422250
400.271977	2550.823846
400.654294	2561.952193
401.036549	2572.735221
401.418742	2582.565471
401.800874	2595.574169
402.182944	2611.342898
402.564952	2628.089611
402.946898	2643.608803
403.328783	2661.497338
403.710606	2685.289063
404.092367	2718.361553
404.474067	2750.899681
404.855705	2778.021088
405.237282	2807.897487
405.618797	2861.041330
406.000250	2915.788261
406.381642	2981.323261
406.762972	3030.431661
407.144240	3069.409863
407.525447	3142.635143
407.906593	3202.629915
408.287677	3286.381124
408.668700	3373.630895
409.049661	3449.028912
409.430560	3546.608007
409.811399	3623.755304
410.192176	3728.036613
410.572891	3826.787776
410.953545	3987.509842
411.334138	4009.176722
411.714669	4202.688974
412.095139	4192.583981
412.475547	4384.823342
412.855894	4466.878203
413.236180	4649.975431
413.616405	4703.759502
413.996568	4875.882138
414.376670	4998.155324
414.756711	5089.690075
415.136691	5291.081651
415.516609	5468.847859
415.896466	5625.806705
416.276262	5850.064954
416.655997	6130.506863
417.035670	6291.869157
417.415283	6663.843296
417.794834	6855.114755
418.174324	6922.731752
418.553753	7038.096037
418.933121	7397.179946
419.312428	7484.661609
419.691674	7609.399920
420.070859	7978.223338
420.449983	7993.878642
420.829045	8409.773834
421.208047	8462.204354
421.586988	8849.652316
421.965867	9144.448910
422.344686	9322.741919
422.723444	9796.980905
423.102141	9248.405064
423.480777	10071.504500
423.859352	9952.417322
424.237866	10772.597930
424.616319	10770.515933
424.994712	11338.590957
425.373044	11380.984540
425.751314	11980.987712
426.129524	11590.532703
426.507673	12464.895632
426.885762	12435.490581
427.263789	12738.773958
427.641756	13029.862784
428.019662	13223.783370
428.397508	13412.478800
428.775292	13774.055559
429.153016	13910.282660
429.530679	14116.380152
429.908282	14272.910500
430.285824	14207.168813
430.663305	14882.728798
431.040726	14706.230440
431.418086	14697.158884
431.795385	15322.254399
432.172624	15790.328054
432.549802	15558.981943
432.926920	15818.394678
433.303977	15840.124572
433.680974	16147.924823
434.057910	16504.888927
434.434786	16635.858104
434.811601	16664.670819
435.188355	17670.663316
435.565050	17450.248946
435.941683	17490.313516
436.318257	18379.389052
436.694770	18287.415721
437.071222	18914.003418
437.447614	18136.574316
437.823946	18231.650477
438.200218	18439.519936
438.576429	18294.460734
438.952580	18612.481924
439.328670	18632.283576
439.704700	19069.989321
440.080670	18722.374037
440.456580	19308.176278
440.832429	19531.746410
441.208218	18627.184449
441.583947	19067.544361
441.959616	19212.346464
442.335224	19465.760227
442.710773	19616.311766
443.086261	20156.415948
443.461689	19577.998997
443.837057	19721.152643
444.212365	20350.475165
444.587612	20367.486539
444.962800	19993.022069
445.337927	20416.605021
445.712995	19222.617815
446.088002	21005.989003
446.462949	21196.907581
446.837837	21375.467771
447.212664	21357.521263
447.587431	24084.929167
447.962139	26921.992249
448.336786	29242.805889
448.711374	27729.794303
449.085901	24191.083264
449.460369	24134.214007
449.834776	24057.336411
450.209124	26468.555584
450.583412	26044.218980
450.957640	26558.126806
451.331808	25267.304075
451.705917	23941.445326
452.079965	23971.694769
452.453954	24319.141175
452.827883	24229.985848
453.201752	24038.011148
453.575562	24187.526730
453.949311	25268.342553
454.323001	25330.545350
454.696632	25114.481496
455.070202	26617.292308
455.443713	26770.828210
455.817164	27318.456314
456.190556	27850.131687
456.563888	27310.100601
456.937160	27727.303973
457.310373	26117.033406
457.683526	26543.058797
458.056619	26520.610539
458.429653	26466.123227
458.802628	27027.296912
459.175542	27151.619327
459.548398	28424.142669
459.921194	29965.694748
460.293930	30643.583747
460.666607	32638.096101
461.039224	34354.132597
461.411782	34703.867686
461.784280	33500.256917
462.156719	32992.370750
462.529099	32427.360747
462.901419	31155.916212
463.273680	30139.952313
463.645882	30229.112680
464.018024	30226.529089
464.390106	31049.560469
464.762130	33705.784760
465.134094	37743.890143
465.505999	42991.973272
465.877845	47504.930142
466.249631	48597.300289
466.621358	46787.387427
466.993026	44627.832736
467.364634	42537.193139
467.736184	40618.421601
468.107674	39405.101570
468.479105	38644.807349
468.850477	37959.885941
469.221790	36557.865439
469.593043	34888.371396
469.964238	34013.060731
470.335373	33926.859520
470.706449	35581.666161
471.077467	38085.945034
471.448425	42595.378137
471.819324	45456.253109
472.190164	43639.343125
472.560945	40135.930246
472.931667	37074.692093
473.302330	35983.844374
473.672934	35182.918454
474.043479	35691.580959
474.413965	34920.710398
474.784393	34549.643667
475.154761	35427.232934
475.525070	35461.341381
475.895321	35010.707597
476.265513	35599.927741
476.635645	36538.918262
477.005719	36375.471452
477.375734	36818.659451
477.745691	37505.912393
478.115588	38790.085842
478.485427	40738.075908
478.855207	44052.541300
479.224928	46658.197777
479.594591	48272.140825
479.964194	47212.820482
480.333739	47313.399063
480.703226	47332.346240
481.072653	47991.051128
481.442022	48471.926793
481.811333	48743.871837
482.180584	47450.581462
482.549777	46929.371525
482.918912	46420.446879
483.287988	46126.093906
483.657005	45309.686602
484.025964	44656.325338
484.394864	44663.498900
484.763706	44234.426131
485.132489	43377.820667
485.501213	43217.900143
485.869879	43360.683264
486.238487	42957.973210
486.607036	43171.080427
486.975527	42637.706185
487.343959	42832.274559
487.712333	42922.959876
488.080648	42826.406656
488.448905	43258.662913
488.817104	43084.238990
489.185244	44012.138973
489.553326	45682.553026
489.921350	48396.420391
490.289315	51313.136224
490.657222	51953.171199
491.025070	52236.448757
491.392861	51315.145124
491.760593	50010.239930
492.128267	48297.379362
492.495883	46757.871471
492.863440	45378.321912
493.230939	44059.167897
493.598380	42984.464473
493.965763	42677.848893
494.333088	41883.378171
494.700354	41419.090422
495.067563	41155.753148
495.434713	41027.412933
495.801805	41075.165263
496.168839	40704.700949
496.535815	40395.600080
496.902733	40429.753898
497.269593	40028.614163
497.636395	39967.449843
498.003139	40353.730777
498.369825	39832.611580
498.736453	40120.484150
499.103023	39685.354435
499.469535	39548.787057
499.835989	39621.513263
500.202385	39312.230913
500.568723	39325.779014
500.935003	39520.402840
501.301226	39327.682049
501.667390	39926.334192
502.033497	40168.768322
502.399546	39599.334707
502.765537	38957.114392
503.131470	39321.201646
503.497345	39646.756841
503.863163	38350.620734
504.228923	38957.366450
504.594625	39344.637970
504.960269	38656.452415
505.325856	39316.203342
505.691385	38692.262251
506.056856	38835.448664
506.422270	39251.046429
506.787625	38834.276596
507.152924	39036.326042
507.518164	39121.176223
507.883347	38349.052936
508.248472	38611.974314
508.613540	39069.141433
508.978550	39365.493224
509.343503	39118.083475
509.708398	39312.941716
510.073236	39827.189819
510.438016	39826.471455
510.802738	39286.062283
511.167403	39903.502806
511.532010	40116.040373
511.896561	40409.165825
512.261053	41223.919630
512.625488	40785.936622
512.989866	40652.373772
513.354186	40513.134582
513.718449	40493.305203
514.082655	41155.632160
514.446803	40835.685249
514.810894	41351.934691
515.174927	41288.297686
515.538904	41175.973216
515.902822	41821.989520
516.266684	41286.634105
516.630488	41690.675024
516.994235	41554.757954
517.357925	42104.364711
517.721558	42255.581683
518.085133	42578.989346
518.448651	42715.551683
518.812112	42493.060358
519.175516	42580.070673
519.538863	42919.839402
519.902152	42877.065211
520.265385	43331.699150
520.628560	43370.062331
520.991678	43165.658666
521.354739	43400.586517
521.717743	43721.440836
522.080690	43612.952685
522.443580	44156.930994
522.806413	44206.941760
523.169189	44146.087472
523.531908	44319.596425
523.894569	44192.375346
524.257174	44341.590980
524.619722	44649.141693
524.982213	44623.290657
525.344647	44564.904013
525.707025	44604.431700
526.069345	44980.612682
526.431608	44922.767963
526.793815	45231.415127
527.155964	44763.815341
527.518057	44937.722545
527.880093	44734.710239
528.242072	45244.176808
528.603995	44959.623838
528.965860	44956.805833
529.327669	45053.674125
529.689421	44961.597450
530.051117	44925.565803
530.412755	45047.382765
530.774337	45113.222755
531.135862	44941.072392
531.497331	45145.445810
531.858743	45058.954734
532.220098	45380.550102
532.581396	45101.282782
532.942638	44777.335715
533.303824	45066.992853
533.664953	45025.095824
534.026025	44771.465292
534.387040	45230.691722
534.747999	45195.864910
535.108902	45342.610378
535.469748	44878.778854
535.830537	45006.604872
536.191270	45185.485175
536.551947	44847.407754
536.912567	45162.968861
537.273131	45265.203461
537.633638	44770.399087
537.994089	45130.108100
538.354483	44740.729377
538.714821	45289.824456
539.075103	45631.642413
539.435328	45408.200831
539.795497	45300.942721
540.155609	45284.140555
540.515665	45750.964004
540.875665	45236.118524
541.235609	45532.510644
541.595496	45517.051945
541.955328	46172.056626
542.315102	45569.089256
542.674821	45367.284306
543.034483	45387.249796
543.394090	45366.145005
543.753640	45331.855077
544.113134	46319.540623
544.472571	45374.251180
544.831953	46572.757781
545.191278	45821.933368
545.550548	45540.599175
545.909761	45991.674059
546.268918	46188.823504
546.628019	46503.731782
546.987064	46068.866728
547.346053	45381.270987
547.704986	46231.315390
548.063863	45803.641542
548.422684	46006.411873
548.781449	45859.915942
549.140158	46248.611589
549.498811	46099.277488
549.857408	45552.927317
550.215949	46369.178345
550.574434	46315.026270
550.932864	46084.423728
551.291237	46785.640667
551.649555	46405.031031
552.007817	46656.413208
552.366022	46305.246432
552.724173	46477.333780
553.082267	46890.932727
553.440305	47164.349788
553.798288	46495.892788
554.156215	46807.123544
554.514086	47015.953342
554.871902	46753.100019
555.229661	46765.019827
555.587365	46604.753984
555.945014	46693.621965
556.302606	46630.116029
556.660143	46851.447889
557.017625	46940.414172
557.375050	46735.405569
557.732421	47087.409177
558.089735	47058.876246
558.446994	46987.075092
558.804197	47447.962582
559.161345	47363.286321
559.518437	46646.033473
559.875474	46962.224724
560.232455	47110.240563
560.589381	47283.898231
560.946251	46984.874628
561.303065	47655.322884
561.659825	47460.358780
562.016528	47142.899678
562.373177	46852.272118
562.729770	47341.100203
563.086307	46863.957512
563.442789	47311.201120
563.799216	47350.345679
564.155587	47152.515679
564.511904	47181.444340
564.868164	47260.426618
565.224370	47501.159358
565.580520	47227.545692
565.936615	47446.306563
566.292654	47180.834361
566.648638	47417.894620
567.004567	47372.428454
567.360441	47400.847959
567.716260	47251.171060
568.072023	47557.847133
568.427732	47532.154893
568.783385	47093.012420
569.138982	47485.418356
569.494525	47441.572920
569.850013	47200.570478
570.205445	47174.512754
570.560823	47125.139693
570.916145	47018.529372
571.271412	47042.714307
571.626625	46794.606359
571.981782	46861.741925
572.336884	46536.768984
572.691931	46855.296810
573.046923	46458.469782
573.401860	46307.565362
573.756743	46285.205324
574.111570	46420.361180
574.466342	46259.951664
574.821059	46367.595422
575.175722	45909.553663
575.530330	45920.871054
575.884882	45648.429456
576.239380	45600.977075
576.593823	45572.955821
576.948211	45489.519684
577.302544	45028.314601
577.656823	45058.246452
578.011047	45280.765503
578.365216	44991.244476
578.719330	44808.739583
579.073389	44653.756870
579.427394	44725.605915
579.781344	44708.382813
580.135239	44370.280186
580.489080	44451.745232
580.842866	43957.671826
581.196597	44388.824071
581.550273	44342.773130
581.903895	44190.479873
582.257463	44624.077077
582.610975	44014.004200
582.964434	44304.848530
583.317837	43946.165392
583.671186	43782.073314
584.024481	43995.724976
584.377721	43540.365111
584.730906	43809.403930
585.084037	43849.319786
585.437113	43554.830702
585.790135	43592.631794
586.143103	43196.157647
586.496016	43336.178215
586.848874	43336.001775
587.201679	43349.073487
587.554428	42858.112993
587.907124	43038.848441
588.259765	42804.971670
588.612352	43032.965414
588.964884	42440.957512
589.317362	42724.477046
589.669786	42670.698017
590.022155	42432.972325
590.374470	42855.973023
590.726731	42386.208061
591.078937	41915.104672
591.431090	42003.748322
591.783188	41663.477999
592.135232	41350.046779
592.487222	41574.690677
592.839157	41663.276353
593.191038	41343.044616
593.542866	41113.500717
593.894639	40515.874449
594.246358	40802.602677
594.598022	40765.991297
594.949633	40383.304706
595.301190	40348.223316
595.652692	40183.594355
596.004141	40504.128561
596.355535	39533.580417
596.706876	39488.457048
597.058162	39324.622069
597.409395	39780.949836
597.760573	39858.815498
598.111698	39434.539388
598.462768	39449.632602
598.813785	39502.516827
599.164748	38957.479876
599.515657	39335.377371
599.866511	38819.793361
600.217312	39433.800858
600.568060	38408.798170
600.918753	39146.162702
601.269392	39097.288716
601.619978	38751.904142
601.970510	38967.352975
602.320988	39155.970267
602.671412	39457.708531
603.021783	39198.318480
603.372100	38855.920790
603.722363	38951.581726
604.072572	39017.867857
604.422728	39049.959843
604.772830	38861.410607
605.122878	38956.706058
605.472872	38895.506451
605.822813	39173.188328
606.172701	39001.584931
606.522534	39232.658820
606.872314	39503.106642
607.222041	39260.917008
607.571714	39643.296089
607.921333	39104.787432
608.270899	39375.101663
608.620411	39720.576977
608.969870	39524.949961
609.319276	39510.764154
609.668627	39584.269218
610.017926	40050.623840
610.367171	40202.050019
610.716362	40288.866250
611.065500	40243.964693
611.414585	40437.292943
611.763616	40704.592564
612.112594	40645.880766
612.461518	40882.578062
612.810389	41166.831084
613.159207	41020.521676
613.507971	41097.484971
613.856682	41567.214646
614.205340	41455.631226
614.553945	42147.030517
614.902496	41617.895886
615.250994	42066.356932
615.599439	42132.060811
615.947830	42352.429810
616.296169	42397.913620
616.644454	42518.747558
616.992686	42690.482025
617.340864	43193.135475
617.688990	42945.995428
618.037063	43532.044686
618.385082	43495.584541
618.733048	43798.489832
619.080961	43817.580681
619.428821	43819.481196
619.776628	43936.529227
620.124382	43745.958488
620.472083	43880.884971
620.819731	43989.413451
621.167326	43662.565201
621.514868	43636.489832
621.862357	43200.795508
622.209793	43224.418355
622.557176	42902.591094
622.904506	42640.801454
623.251783	42294.890080
623.599007	42083.433841
623.946179	41856.851619
624.293297	41824.931033
624.640363	41255.726791
624.987376	41232.696279
625.334336	40995.883036
625.681243	40632.957768
626.028097	40601.458118
626.374899	40455.405809
626.721647	40427.704668
627.068343	40334.531543
627.414987	40088.568605
627.761577	39865.537877
628.108115	40212.404549
628.454600	39674.382364
628.801032	39841.355462
629.147412	39817.558695
629.493739	39816.938633
629.840014	39481.606120
630.186236	39822.214201
630.532405	39443.835275
630.878521	39649.491667
631.224585	39535.284327
631.570597	39223.917459
631.916556	39402.366744
632.262462	39335.246301
632.608316	39365.427689
632.954117	39260.813664
633.299866	39246.264894
633.645562	39166.554170
633.991206	38674.940847
634.336797	38244.786751
634.682336	38242.316585
635.027823	38001.762806
635.373257	37826.159253
635.718639	37582.522808
636.063968	37440.130377
636.409245	36865.847172
636.754470	36915.046312
637.099642	36679.579058
637.444762	36218.615950
637.789829	36348.113110
638.134845	36019.167739
638.479808	35968.088248
638.824719	35871.719030
639.169577	35481.866439
639.514383	35546.126027
639.859137	35251.654587
640.203839	35490.035628
640.548489	35126.696986
640.893086	35194.437490
641.237632	34949.936488
641.582125	35056.602262
641.926566	35008.739027
642.270955	34965.924507
642.615292	34975.719469
642.959576	34967.394003
643.303809	34951.869770
643.647990	35102.701093
643.992118	35063.904373
644.336195	35070.604067
644.680219	35159.933313
645.024192	35456.655628
645.368112	35975.922201
645.711981	35992.381568
646.055797	36862.724177
646.399562	36778.796527
646.743274	37732.663493
647.086935	38168.100718
647.430544	38053.399345
647.774101	38158.396497
648.117606	38407.346318
648.461059	38701.487563
648.804460	38298.951428
649.147810	37707.550985
649.491108	37444.352343
649.834354	37090.160874
650.177548	36275.424712
650.520690	35815.348848
650.863781	35826.648594
651.206820	35686.968303
651.549807	35246.419348
651.892742	34791.513187
652.235626	34582.138944
652.578458	34463.092096
652.921238	33850.634754
653.263967	34183.764282
653.606644	33863.915673
653.949269	33818.121832
654.291843	33428.808644
654.634365	33826.313707
654.976836	33419.943775
655.319255	33422.116512
655.661622	33426.461987
656.003938	33206.803790
656.346203	33059.687797
656.688416	33280.903711
657.030577	33088.346757
657.372687	32924.922632
657.714746	33187.821325
658.056753	33321.900894
658.398708	32764.734927
658.740612	32824.926304
659.082465	33085.148145
659.424266	32931.292130
659.766016	33032.271482
660.107715	32919.160593
660.449362	33040.208779
660.790958	33029.098076
661.132503	33052.536921
661.473996	33089.425564
661.815438	33188.882488
662.156829	33387.360277
662.498168	33154.053156
662.839456	33183.125491
663.180693	33333.185517
663.521879	33490.860207
663.863013	33450.732622
664.204097	33445.378917
664.545129	33911.841923
664.886110	33872.717528
665.227040	33933.874286
665.567918	34062.428750
665.908746	34115.302892
666.249522	34289.467196
666.590248	34282.512924
666.930922	34404.662603
667.271545	34349.532544
667.612118	34435.776604
667.952639	34225.681476
668.293109	34291.161024
668.633528	34169.966644
668.973896	34094.941672
669.314213	34110.549084
669.654480	33856.419478
669.994695	33898.487907
670.334859	33782.430463
670.674973	33685.189126
671.015035	33842.266438
671.355047	33806.232271
671.695008	33733.130499
672.034918	33641.333608
672.374777	33708.864905
672.714585	33558.313366
673.054342	33786.092861
673.394049	33547.941192
673.733705	33840.801983
674.073310	33492.435567
674.412864	33565.043306
674.752368	33169.461443
675.091820	33459.093376
675.431223	33030.315515
675.770574	32774.043418
676.109875	32628.984216
676.449125	32353.407020
676.788324	32277.038581
677.127473	31745.388414
677.466571	31662.252225
677.805619	31312.910346
678.144616	31318.896716
678.483562	31234.724570
678.822458	30918.876117
679.161303	30854.135099
679.500098	30762.746541
679.838842	30643.578706
680.177535	30806.965022
680.516179	31074.073079
680.854771	31322.997695
681.193314	32181.720444
681.531805	33325.167562
681.870247	34098.523412
682.208638	34837.105382
682.546978	35055.478085
682.885268	35118.096777
683.223508	34602.157366
683.561697	34262.305459
683.899836	34064.808175
684.237925	33559.513160
684.575963	33411.126797
684.913951	32963.013590
685.251889	33122.959319
685.589776	33104.380147
685.927614	33106.631022
686.265401	33237.988368
686.603137	33347.799822
686.940824	33861.682442
687.278460	34228.980912
687.616046	34384.182915
687.953582	34985.476622
688.291068	34845.687947
688.628504	35122.336388
688.965889	35051.765275
689.303224	34663.198177
689.640510	34302.821212
689.977745	33572.531940
690.314930	32771.986627
690.652065	32228.847670
690.989150	31498.830620
691.326185	30611.217018
691.663170	29903.612938
692.000105	29152.533947
692.336990	28471.811820
692.673825	28010.435338
693.010610	27513.581735
693.347345	26943.807842
693.684030	26280.628930
694.020665	26007.637847
694.357251	25344.499264
694.693786	25288.623115
695.030272	25056.089811
695.366707	24528.676734
695.703093	24242.750050
696.039429	24221.123500
696.375716	23964.700168
696.711952	23936.487351
697.048139	23761.740794
697.384276	23606.117854
697.720363	23728.169230
698.056400	23528.211863
698.392388	23318.399039
698.728326	23276.323049
699.064214	23062.898239
699.400053	23011.226412
699.735842	22651.043532
700.071581	22377.805431
700.407270	22086.421698
700.742910	21891.518087
701.078501	21621.690328
701.414042	21343.615240
701.749533	21043.331350
702.084974	20706.552026
702.420366	20900.452447
702.755709	20460.291661
703.091002	20169.520427
703.426246	20190.461380
703.761440	20088.788869
704.096584	19819.117385
704.431679	19780.078690
704.766725	19694.542912
705.101721	19617.904771
705.436668	19722.876717
705.771565	19396.257839
706.106413	19741.760879
706.441212	19729.609178
706.775961	19860.326297
707.110661	19935.459654
707.445311	20278.560585
707.779913	20135.855602
708.114465	20371.963083
708.448967	20662.885551
708.783421	21355.650995
709.117825	21619.872992
709.452180	21841.618226
709.786485	22239.130851
710.120742	23041.652296
710.454949	23066.351429
710.789107	23525.759341
711.123216	24234.293514
711.457275	24369.686304
711.791286	24893.184925
712.125247	24959.123217
712.459159	24658.657845
712.793023	25310.105992
713.126837	24195.980745
713.460602	24454.405415
713.794318	24073.246293
714.127985	23681.304143
714.461602	22783.673769
714.795171	22737.726172
715.128691	21726.662274
715.462162	21187.092455
715.795584	20766.239287
716.128957	20511.333343
716.462281	20088.723334
716.795556	19861.747903
717.128782	19369.310351
717.461960	18837.206480
717.795088	18751.005270
718.128167	18352.350824
718.461198	17899.897184
718.794180	17755.705060
719.127113	17390.561684
719.459997	17196.547837
719.792833	16857.197525
720.125619	16817.937019
720.458357	16510.184659
720.791046	16340.627970
721.123686	16182.403795
721.456278	15948.895028
721.788821	15913.755665
722.121315	15648.621220
722.453761	15721.659977
722.786158	15636.144364
723.118506	15650.057949
723.450805	15523.832498
723.783056	15678.999213
724.115259	15585.873978
724.447412	15510.289438
724.779518	15747.889101
725.111574	15781.528720
725.443582	15978.988196
725.775542	15961.061853
726.107453	16431.162052
726.439315	16306.698484
726.771129	16710.459619
727.102895	17074.803972
727.434612	17288.228782
727.766281	17409.357627
728.097901	17679.939039
728.429473	17702.934262
728.760996	17685.675872
729.092471	17767.735774
729.423897	17633.462121
729.755276	17501.439343
730.086606	17621.282693
730.417887	18140.637486
730.749120	18665.086364
731.080305	18845.617645
731.411442	19163.906017
731.742530	19228.672241
732.073570	19337.273818
732.404562	19610.680797
732.735506	19427.021480
733.066401	19146.435898
733.397249	18615.529302
733.728048	17980.646386
734.058798	17144.485321
734.389501	16471.478680
734.720156	16013.852816
735.050762	15487.248844
735.381320	15132.943949
735.711831	14900.571962
736.042293	14555.361309
736.372707	14564.579058
736.703073	14361.818810
737.033391	14549.216142
737.363661	14512.546789
737.693883	14623.384118
738.024056	14793.641527
738.354182	14983.735877
738.684260	15267.371357
739.014290	15491.702703
739.344272	15670.525033
739.674207	15963.930269
740.004093	16069.822227
740.333931	16055.051646
740.663722	16095.055722
740.993464	16085.124649
741.323159	15905.498255
741.652806	15628.607839
741.982405	15414.888122
742.311956	15083.099540
742.641460	14959.520695
742.970915	14652.181709
743.300323	14315.026820
743.629683	14103.091671
743.958996	13828.500021
744.288260	13558.490780
744.617477	13268.364814
744.946647	13188.041589
745.275768	12915.506730
745.604842	12728.936147
745.933869	12559.732338
746.262847	12512.075791
746.591778	12445.482148
746.920662	12344.235614
747.249498	12349.596882
747.578286	12464.794809
747.907027	12609.483486
748.235720	12829.330726
748.564365	12850.135567
748.892963	12754.300712
749.221514	12813.801451
749.550017	12668.565809
749.878473	12634.825366
750.206881	12406.390521
750.535242	12319.786018
750.863555	12228.460475
751.191821	12139.015283
751.520039	12156.545895
751.848210	12066.105074
752.176334	12097.312337
752.504411	12003.677946
752.832440	11847.452588
753.160421	11912.831312
753.488356	11782.666199
753.816243	11693.268898
754.144082	11550.455530
754.471875	11500.704382
754.799620	11445.667585
755.127318	11414.863615
755.454969	11375.976154
755.782572	11329.640388
756.110129	11338.371667
756.437638	11270.737026
756.765100	11257.282187
757.092515	11256.644481
757.419882	11273.305494
757.747203	11270.152252
758.074477	11349.126969
758.401703	11307.915536
758.728882	11472.110958
759.056014	11514.388595
759.383099	11623.965635
759.710138	11729.781975
760.037129	11808.577730
760.364073	11824.293527
760.690970	11813.870942
761.017820	11810.329531
761.344623	11996.148982
761.671379	12318.528250
761.998088	12947.644086
762.324751	14511.263815
762.651366	17370.197943
762.977935	21028.810306
763.304456	23222.138207
763.630931	23687.766902
763.957359	22493.348677
764.283740	20579.663663
764.610074	18706.514567
764.936362	16586.061586
765.262602	15068.868363
765.588796	13615.105458
765.914943	12589.560846
766.241044	11744.938204
766.567097	11117.543923
766.893104	10576.277755
767.219064	10214.741324
767.544978	9833.609929
767.870845	9526.417137
768.196665	9337.293209
768.522438	9140.123600
768.848165	8976.986821
769.173846	8815.102768
769.499479	8694.556176
769.825066	8533.307309
770.150607	8351.775359
770.476101	8288.128271
770.801548	8182.705141
771.126949	8042.941671
771.452303	7953.365409
771.777611	7791.776263
772.102872	7771.223479
772.428087	7654.430027
772.753256	7530.566356
773.078378	7436.165709
773.403453	7302.872560
773.728482	7203.317334
774.053465	7131.843854
774.378401	7048.838736
774.703291	6957.626619
775.028135	6857.113573
775.352932	6817.364075
775.677683	6742.533187
776.002388	6654.801987
776.327046	6653.418190
776.651658	6567.912659
776.976224	6488.290154
777.300743	6476.425799
777.625216	6412.942548
777.949643	6368.635847
778.274024	6372.893102
778.598359	6305.782741
778.922647	6304.172092
779.246889	6268.029540
779.571086	6280.859277
779.895236	6288.327746
780.219339	6283.624349
780.543397	6277.867352
780.867409	6326.494322
781.191374	6324.558519
781.515294	6292.353107
781.839167	6345.350758
782.162995	6316.785059
782.486776	6267.459890
782.810511	6231.045115
783.134201	6153.575183
783.457844	6143.203009
783.781441	6093.116625
784.104993	6045.611312
784.428498	6018.116859
784.751958	6001.901987
785.075372	5980.071271
785.398739	5936.530825
785.722061	5962.001255
786.045337	5964.574764
786.368568	6067.933541
786.691752	6094.699547
787.014891	6341.549728
787.337983	6628.262832
787.661030	7064.000006
787.984031	7487.030952
788.306987	7747.769511
788.629897	7833.607758
788.952760	7740.840445
789.275579	7564.624392
789.598351	7271.143538
789.921078	7007.488671
790.243759	6719.159877
790.566395	6521.511358
790.888984	6335.613769
791.211529	6187.963414
791.534027	6027.712695
791.856480	5890.981479
792.178888	5833.522408
792.501249	5765.582777
792.823566	5660.817518
793.145836	5658.705275
793.468062	5640.380680
793.790241	5594.531386
794.112375	5641.310773
794.434464	5734.398200
794.756507	5768.151245
795.078505	5892.206480
795.400457	6102.586433
795.722364	6343.788000
796.044226	6539.039450
796.366042	6695.458892
796.687812	6640.628783
797.009538	6668.851682
797.331218	6582.947900
797.652852	6510.541807
797.974442	6386.214351
798.295986	6317.211037
798.617484	6188.543147
798.938938	6081.932825
799.260346	6008.205950
799.581709	5879.275920
799.903026	5824.760882
800.224299	5749.430920
800.545526	5634.699300
800.866708	5571.105144
801.187845	5517.449623
801.508936	5445.701401
801.829983	5414.201751
802.150984	5312.874559
802.471940	5282.425990
802.792851	5265.533083
803.113717	5243.790587
803.434538	5221.009612
803.755314	5189.154561
804.076045	5178.890772
804.396731	5142.972551
804.717372	5159.288245
805.037967	5162.136497
805.358518	5187.364952
805.679024	5247.548767
805.999485	5261.328761
806.319901	5279.527326
806.640272	5296.304286
806.960598	5339.370864
807.280879	5329.394420
807.601115	5371.273806
807.921306	5334.170913
808.241453	5331.955326
808.561554	5337.125030
808.881611	5305.519516
809.201623	5302.769566
809.521590	5252.027832
809.841513	5237.395883
810.161390	5248.083129
810.481223	5160.583822
810.801011	5148.439682
811.120755	5125.643585
811.440453	5068.527312
811.760107	5041.564700
812.079716	5012.436913
812.399281	4962.123677
812.718801	4953.699909
813.038276	4918.978962
813.357707	4891.189602
813.677093	4910.232560
813.996434	4850.063868
814.315731	4872.527250
814.634983	4867.160942
814.954191	4873.064133
815.273354	4930.621507
815.592473	4974.061130
815.911547	5049.186925
816.230577	5101.025110
816.549562	5185.897976
816.868502	5238.492334
817.187399	5293.448473
817.506250	5376.493921
817.825058	5400.850255
818.143821	5557.433535
818.462539	5727.033074
818.781213	5954.033711
819.099843	6318.156253
819.418429	6946.906605
819.736970	7563.391829
820.055466	8276.883977
820.373919	9189.973050
820.692327	10642.458023
821.010691	13347.692411
821.329011	19587.771273
821.647286	29204.130157
821.965517	39543.337570
822.283704	44997.762688
822.601847	46466.238200
822.919945	41834.423526
823.237999	36680.839346
823.556010	31469.803656
823.873976	26766.898630
824.191897	22541.476573
824.509775	19479.688935
824.827609	16723.813636
825.145398	15171.377706
825.463144	14427.709211
825.780845	14721.512698
826.098502	15988.546224
826.416116	18453.299930
826.733685	20735.848692
827.051210	21271.085639
827.368692	19829.171967
827.686129	17261.298938
828.003522	14775.982366
828.320872	12553.587172
828.638177	10906.070039
828.955439	9664.133898
829.272656	8604.705171
829.589830	7762.416583
829.906960	7031.081271
830.224046	6499.209294
830.541088	6092.073106
830.858086	5837.812430
831.175041	5633.832222
831.491952	5577.187296
831.808819	5606.587306
832.125642	5856.936047
832.442421	6412.990439
832.759157	7526.427569
833.075849	9305.281883
833.392497	11147.304374
833.709101	12261.888366
834.025662	11999.518994
834.342179	10944.224012
834.658653	9632.057037
834.975083	8529.087863
835.291469	7624.120089
835.607811	6888.663634
835.924110	6367.453697
836.240366	5885.511827
836.556578	5427.104585
836.872746	5079.675823
837.188871	4803.869255
837.504952	4581.438424
837.820990	4416.552364
838.136984	4302.753357
838.452935	4251.918362
838.768842	4286.919093
839.084706	4568.049119
839.400526	5309.912881
839.716303	6216.461057
840.032037	6781.153467
840.347727	6628.290558
840.663373	6028.027767
840.978977	5454.737669
841.294537	5009.069423
841.610054	4677.835368
841.925527	4440.086991
842.240957	4232.658633
842.556344	4052.354204
842.871687	3895.407962
843.186987	3741.418356
843.502244	3626.285964
843.817458	3538.159033
844.132629	3466.410811
844.447756	3418.620672
844.762840	3372.960421
845.077881	3334.511541
845.392879	3301.088691
845.707833	3277.672531
846.022745	3251.231679
846.337613	3237.497056
846.652438	3215.525187
846.967221	3205.621840
847.281960	3190.954603
847.596656	3177.056142
847.911309	3166.517609
848.225919	3149.357522
848.540485	3144.026502
848.855009	3133.855974
849.169490	3123.198974
849.483928	3114.777727
849.798323	3109.043414
850.112675	3098.882969
850.426984	3102.421859
850.741251	3092.347113
851.055474	3090.794438
851.369654	3092.521033
851.683792	3089.521546
851.997887	3090.945672
852.311938	3091.409458
852.625947	3090.938110
852.939914	3087.353850
853.253837	3094.797114
853.567718	3089.995415
853.881555	3081.569126
854.195350	3089.171186
854.509103	3086.149014
854.822812	3084.293870
855.136479	3078.796491
855.450103	3081.919486
855.763685	3075.905390
856.077224	3075.683579
856.390720	3084.727409
856.704173	3096.170828
857.017584	3103.230964
857.330953	3106.323712
857.644278	3114.782768
857.957561	3117.971298
858.270802	3117.560444
858.584000	3112.415946
858.897155	3110.618775
859.210268	3096.717793
859.523339	3086.149014
859.836367	3085.914601
860.149352	3077.866398
860.462295	3071.993454
860.775195	3069.344328
861.088054	3063.166394
861.400869	3063.161353
861.713642	3059.947617
862.026373	3071.272569
862.339062	3074.035122
862.651708	3083.905701
862.964312	3099.485387
863.276873	3107.130297
863.589392	3140.059113
863.901869	3166.351251
864.214303	3186.311700
864.526696	3202.408104
864.839045	3220.445353
865.151353	3236.743403
865.463619	3234.835326
865.775842	3235.788104
866.088023	3240.960328
866.400162	3233.065881
866.712258	3235.208372
867.024313	3233.806931
867.336325	3228.354923
867.648296	3234.429513
867.960224	3230.875500
868.272110	3233.103690
868.583954	3235.715008
868.895755	3239.677355
869.207515	3239.616861
869.519233	3259.673091
869.830909	3264.467229
870.142542	3277.798560
870.454134	3281.897018
870.765684	3296.571817
871.077191	3313.570588
871.388657	3323.657937
871.700081	3342.756348
872.011463	3364.894575
872.322803	3384.895353
872.634101	3399.529823
872.945357	3425.794234
873.256571	3451.375569
873.567744	3466.821665
873.878874	3470.496666
874.189963	3483.969149
874.501010	3489.842094
874.812015	3484.190960
875.122979	3502.820544
875.433900	3502.608816
875.744780	3503.007067
876.055618	3511.708098
876.366415	3506.740041
876.677169	3511.266997
876.987882	3531.136705
877.298554	3553.179151
877.609183	3588.532762
877.919771	3635.060092
878.230317	3706.558777
878.540822	3807.772543
878.851285	3965.623673
879.161707	4187.063918
879.472087	4570.446188
879.782425	5195.496333
880.092722	6392.553602
880.402977	8343.480140
880.713191	10740.185831
881.023363	13133.957570
881.333494	14489.992667
881.643583	14940.056800
881.953631	14533.976734
882.263637	13688.040872
882.573602	12641.033547
882.883526	11675.821464
883.193408	10705.149812
883.503248	9783.702506
883.813048	8943.808467
884.122806	8172.627875
884.432522	7406.806029
884.742197	6739.982363
885.051831	6166.861144
885.361424	5671.464435
885.670975	5277.851143
885.980485	4946.352428
886.289954	4677.306047
886.599382	4459.291266
886.908768	4280.226961
887.218113	4115.393833
887.527417	3983.373576
887.836680	3857.783310
888.145901	3761.673712
888.455082	3681.045497
888.764221	3613.181484
889.073319	3554.567988
889.382376	3520.525077
889.691392	3497.565141
890.000366	3490.091631
890.309300	3484.057370
890.618193	3485.216835
890.927044	3481.020074
891.235855	3490.290756
891.544625	3504.937829
891.853353	3534.829351
892.162041	3591.852362
892.470687	3687.180582
892.779293	3805.556956
893.087858	3980.109429
893.396381	4263.608798
893.704864	4679.372920
894.013306	5249.313171
894.321707	5827.465461
894.630068	6193.375093
894.938387	6232.194498
895.246665	6055.570111
895.554903	5732.729578
895.863100	5388.958173
896.171256	5111.730000
896.479371	4872.348289
896.787446	4644.657014
897.095480	4447.552940
897.403473	4300.313439
897.711425	4152.214421
898.019336	4030.868807
898.327207	3907.045465
898.635038	3802.633087
898.942827	3695.238866
899.250576	3609.874487
899.558284	3523.532125
899.865952	3467.333342
900.173579	3406.995771
900.481165	3360.818802
900.788711	3316.295331
901.096216	3283.762245
901.403681	3258.916918
901.711105	3244.831934
902.018489	3238.590986
902.325832	3276.069444
902.633135	3335.673527
902.940397	3504.484125
903.247619	3916.752207
903.554800	4678.594062
903.861941	5655.564636
904.169041	6365.434715
904.476101	6580.583599
904.783121	6296.988448
905.090100	5888.881839
905.397039	5469.054546
905.703938	5108.891830
906.010796	4781.131131
906.317614	4530.568141
906.624391	4284.229637
906.931129	4084.738577
907.237826	3904.338366
907.544483	3731.245307
907.851099	3559.646951
908.157675	3398.720717
908.464211	3253.963985
908.770707	3153.924807
909.077163	3077.400092
909.383578	3012.467510
909.689954	2967.245839
909.996289	2939.191818
910.302584	2918.094589
910.608839	2903.704615
910.915054	2894.643141
911.221229	2888.276164
911.527363	2894.456619
911.833458	2898.227402
912.139513	2909.320461
912.445527	2925.691608
912.751502	2961.534212
913.057436	3005.233454
913.363331	3062.773184
913.669186	3152.150321
913.975000	3269.296654
914.280775	3462.410655
914.586510	3727.928228
914.892205	4110.970221
915.197859	4614.173157
915.503475	5204.522519
915.809050	5710.046906
916.114585	6002.143963
916.420081	6068.263737
916.725536	6003.686556
917.030952	5761.683445
917.336328	5553.771137
917.641665	5338.430688
917.946961	5103.558290
918.252218	4902.544801
918.557435	4671.511240
918.862612	4471.848781
919.167750	4300.633552
919.472848	4103.670630
919.777906	3934.706277
920.082925	3774.354734
920.387904	3619.291363
920.692843	3503.785925
920.997743	3411.419384
921.302603	3313.684014
921.607423	3245.688931
921.912204	3178.346677
922.216946	3131.287506
922.521647	3082.325299
922.826310	3039.069678
923.130932	3000.913185
923.435516	2960.616722
923.740059	2929.280909
924.044564	2900.213616
924.349028	2874.657487
924.653454	2845.638085
924.957840	2819.809733
925.262186	2800.754172
925.566493	2779.341871
925.870761	2752.467479
926.174989	2745.104874
926.479178	2729.767164
926.783328	2712.581870
927.087438	2701.105683
927.391509	2686.221677
927.695541	2675.176509
927.999533	2666.072185
928.303486	2658.437357
928.607400	2650.542910
928.911275	2646.820018
929.215110	2637.037659
929.518906	2634.350724
929.822663	2635.147227
930.126381	2636.780560
930.430060	2640.115284
930.733699	2639.162506
931.037299	2646.043681
931.340861	2644.901859
931.644383	2647.530821
931.947866	2645.088382
932.251309	2642.371200
932.554714	2642.535037
932.858080	2637.829120
933.161407	2632.873666
933.464694	2631.653707
933.767943	2628.261010
934.071153	2625.044754
934.374323	2623.416462
934.677455	2619.355812
934.980548	2614.975049
935.283602	2611.214349
935.586617	2609.603700
935.889593	2617.619135
936.192530	2616.570575
936.495428	2620.606018
936.798287	2630.232102
937.101108	2643.492857
937.403890	2664.453974
937.706632	2693.002029
938.009336	2726.384549
938.312002	2756.850763
938.614628	2780.541665
938.917216	2798.556228
939.219765	2809.465285
939.522275	2821.019610
939.824747	2820.031544
940.127179	2813.904021
940.429573	2807.232054
940.731929	2807.524441
941.034246	2796.065898
941.336524	2798.483132
941.638763	2785.890329
941.940964	2781.529731
942.243126	2762.963162
942.545250	2758.133736
942.847335	2741.175295
943.149381	2729.605847
943.451389	2715.276367
943.753359	2700.714994
944.055290	2690.625125
944.357182	2681.155317
944.659036	2675.214317
944.960851	2675.045439
945.262628	2671.050324
945.564367	2671.824141
945.866067	2669.099398
946.167729	2669.837927
946.469352	2666.987154
946.770937	2664.428769
947.072484	2655.170690
947.373992	2658.926349
947.675462	2653.968374
947.976893	2650.873106
948.278286	2646.124339
948.579641	2644.304482
948.880958	2640.082516
949.182236	2639.452372
949.483476	2635.197638
949.784678	2636.105046
950.085841	2634.378451
950.386967	2638.121507
950.688054	2644.249030
950.989103	2654.477531
951.290114	2659.957265
951.591087	2671.713236
951.892021	2686.892150
952.192917	2699.605940
952.493776	2709.637836
952.794596	2714.245451
953.095378	2712.128166
953.396122	2713.282591
953.696828	2708.553988
953.997496	2704.135417
954.298126	2691.814837
954.598718	2686.423323
954.899272	2677.611386
955.199788	2663.760816
955.500266	2651.770431
955.800706	2637.640077
956.101108	2617.636779
956.401472	2608.908021
956.701798	2591.407655
957.002087	2577.526838
957.302337	2568.011660
957.602550	2558.980433
957.902724	2544.550130
958.202861	2538.669624
958.502960	2530.170239
958.803022	2521.116327
959.103045	2513.307579
959.403031	2508.402537
959.702979	2501.894407
960.002889	2499.787205
960.302762	2493.863849
960.602596	2488.643734
960.902393	2485.160297
961.202153	2484.003352
961.501875	2478.006899
961.801559	2477.102012
962.101205	2474.450365
962.400814	2472.075982
962.700385	2471.503811
962.999918	2470.702268
963.299414	2467.957359
963.598873	2466.911320
963.898293	2464.531895
964.197677	2463.301854
964.497022	2462.187759
964.796331	2462.238170
965.095601	2458.737089
965.394835	2460.130968
965.694030	2459.468056
965.993189	2463.037193
966.292309	2457.002932
966.591393	2455.142746
966.890439	2455.147787
967.189447	2456.304732
967.488419	2458.210288
967.787353	2457.325566
968.086249	2458.167438
968.385108	2459.031996
968.683930	2459.528550
968.982714	2462.248252
969.281462	2460.977882
969.580172	2464.778912
969.878844	2463.385033
970.177480	2469.545323
970.476078	2469.192442
970.774639	2475.521611
971.073162	2474.289048
971.371649	2476.295428
971.670098	2480.295583
971.968510	2479.012610
972.266885	2480.275419
972.565223	2487.602736
972.863524	2485.992087
973.161788	2487.365802
973.460014	2484.729278
973.758204	2488.714310
974.056356	2491.522233
974.354471	2490.723210
974.652550	2489.868734
974.950591	2486.478558
975.248595	2488.893271
975.546563	2487.353199
975.844493	2485.808085
976.142386	2485.114926
976.440243	2481.329020
976.738062	2480.976139
977.035845	2478.319451
977.333590	2473.903400
977.631299	2474.440283
977.928971	2474.455407
978.226606	2469.318471
978.524204	2469.091619
978.821765	2468.070785
979.119290	2468.998357
979.416777	2465.610702
979.714228	2466.876032
980.011642	2468.527010
980.309020	2474.772999
980.606360	2477.054121
980.903664	2484.179792
981.200931	2497.286792
981.498162	2517.494257
981.795356	2550.274360
982.092513	2584.786100
982.389633	2631.951135
982.686717	2674.259019
982.983764	2707.109698
983.280775	2724.398335
983.577749	2727.702811
983.874686	2716.582026
984.171587	2697.624767
984.468451	2685.576409
984.765279	2666.939263
985.062070	2646.721716
985.358824	2627.653551
985.655543	2605.795108
985.952224	2583.417426
986.248869	2553.294012
986.545478	2525.918026
986.842050	2504.820797
987.138586	2487.128867
987.435086	2472.645632
987.731549	2461.444188
988.027975	2456.518981
988.324366	2451.966819
988.620719	2449.657971
988.917037	2441.256888
989.213318	2439.749583
989.509563	2439.348811
989.805772	2436.966866
990.101944	2434.683223
990.398080	2436.167843
990.694180	2433.344797
990.990244	2436.331681
991.286271	2434.048038
991.582262	2432.071906
991.878217	2434.463933
992.174136	2435.986362
992.470019	2438.746393
992.765865	2437.622216
993.061676	2442.197063
993.357450	2443.825356
993.653188	2446.093875
993.948890	2451.228290
994.244556	2456.461008
994.540186	2468.229582
994.835780	2479.078145
995.131337	2493.742861
995.426859	2508.359687
995.722345	2532.234591
996.017795	2549.508105
996.313208	2562.771381
996.608586	2575.661611
996.903928	2580.112950
997.199234	2578.542631
997.494504	2572.062227
997.789738	2563.383881
998.084936	2557.521019
998.380099	2544.479554
998.675225	2529.855167
998.970316	2521.020545
999.265371	2507.890859
999.560390	2490.445947
999.855373	2481.722230
1000.150320	2471.922227
1000.445232	2459.359671
1000.740108	2452.922118
1001.034948	2448.140583
1001.329752	2443.590942
1001.624521	2438.796805
1001.919254	2429.374888
1002.213951	2430.337749
1002.508613	2430.325146
1002.803239	2427.514702
1003.097829	2420.704104
1003.392384	2425.662078
1003.686903	2421.813158
1003.981386	2422.420617
1004.275834	2421.500606
1004.570246	2420.041192
1004.864623	2420.986408
1005.158964	2418.382652
1005.453270	2418.269226
1005.747540	2418.397776
1006.041775	2415.945254
1006.335974	2417.613876
1006.630138	2415.317631
1006.924266	2415.526839
1007.218359	2415.428536
1007.512416	2414.100192
1007.806438	2412.978535
1008.100425	2415.564647
1008.394376	2412.431570
1008.688292	2416.371232
1008.982172	2414.659760
1009.276017	2414.143042
1009.569827	2413.442322
1009.863602	2411.889646
1010.157341	2411.577095
1010.451045	2412.552558
1010.744714	2411.473751
1011.038347	2409.033833
1011.331945	2410.904101
1011.625508	2411.967784
1011.919036	2408.575087
1012.212528	2409.437125
1012.505986	2409.734553
1012.799408	2411.249420
1013.092795	2409.974008
1013.386147	2409.414440
1013.679464	2410.520973
1013.972745	2409.704306
1014.265992	2408.680952
1014.559204	2408.406209
1014.852380	2409.207752
1015.145521	2407.483678
1015.438628	2410.626837
1015.731699	2411.226734
1016.024736	2409.091806
1016.317737	2411.050294
1016.610703	2407.992834
1016.903635	2409.064079
1017.196531	2405.898235
1017.489393	2411.297311
1017.782219	2408.733884
1018.075011	2412.434091
1018.367768	2413.104564
1018.660490	2414.400141
1018.953177	2414.400141
1019.245829	2414.400141
