Dividing Wavelength (nm)	Counts (n)	Blue Motor Position (mm): 25.200000	Red Motor Position (mm): 0.000000	
326.493990	1971.151648
326.888308	1971.151648
327.282561	1971.151648
327.676750	1948.181630
328.070874	1948.103492
328.464933	1955.352672
328.858929	1962.654783
329.252859	1977.919397
329.646726	1992.016983
330.040528	2007.422750
330.434265	2025.311284
330.827938	2046.471527
331.221547	2064.528940
331.615091	2085.099369
332.008571	2105.879005
332.401986	2126.830040
332.795338	2144.753863
333.188625	2167.169353
333.581847	2186.517302
333.975006	2202.109591
334.368100	2223.398383
334.761129	2239.880436
335.154095	2251.868300
335.546996	2290.365071
335.939833	2358.302181
336.332606	2374.663246
336.725315	2386.099103
337.117960	2394.248128
337.510540	2400.476474
337.903056	2410.536096
338.295508	2418.730492
338.687896	2430.741041
339.080220	2433.642225
339.472480	2438.930395
339.864676	2442.620520
340.256807	2444.889039
340.648875	2447.437343
341.040879	2446.580346
341.432818	2450.769545
341.824694	2448.064966
342.216506	2450.580502
342.608253	2449.524380
342.999937	2447.969184
343.391557	2447.598659
343.783113	2446.267795
344.174605	2445.408278
344.566033	2442.242433
344.957397	2442.582711
345.348697	2438.585076
345.739934	2434.647935
346.131106	2438.227154
346.522215	2431.794642
346.913260	2431.855136
347.304241	2432.208017
347.695159	2427.232398
348.086012	2429.997471
348.476802	2426.022521
348.867528	2426.604774
349.258191	2423.990936
349.648789	2424.268199
350.039324	2421.188054
350.429796	2421.203178
350.820203	2418.758218
351.210548	2420.247879
351.600828	2417.697055
351.991045	2416.676222
352.381198	2417.944072
352.771288	2417.414751
353.161314	2416.787127
353.551276	2419.290060
353.941175	2416.136818
354.331010	2415.990625
354.720782	2419.607653
355.110490	2422.914650
355.500135	2416.517425
355.889717	2418.417940
356.279235	2419.204360
356.668689	2419.186716
357.058080	2418.740574
357.447408	2418.551531
357.836672	2416.817374
358.225873	2419.320307
358.615010	2416.716551
359.004084	2419.698393
359.393095	2421.850966
359.782043	2419.267375
360.170927	2421.898857
360.559748	2423.867428
360.948505	2425.657037
361.337199	2426.488828
361.725830	2425.268868
362.114398	2426.660227
362.502903	2428.013777
362.891344	2427.749116
363.279722	2427.497058
363.668037	2426.002356
364.056289	2427.706266
364.444478	2427.365988
364.832603	2430.340269
365.220665	2428.774991
365.608665	2431.167018
365.996601	2430.297419
366.384474	2431.373706
366.772284	2431.323294
367.160031	2432.674323
367.547715	2429.400094
367.935336	2431.610640
368.322893	2434.897472
368.710388	2431.466967
369.097820	2434.615168
369.485189	2432.323963
369.872495	2436.800508
370.259738	2434.458892
370.646918	2434.559715
371.034035	2432.147523
371.421090	2436.419901
371.808081	2436.223296
372.195010	2436.056938
372.581875	2439.729418
372.968678	2436.460230
373.355418	2437.355035
373.742096	2434.731114
374.128710	2438.184305
374.515262	2439.094233
374.901751	2442.088678
375.288177	2439.363935
375.674540	2440.833431
376.060841	2441.140941
376.447079	2438.653132
376.833254	2437.377720
377.219367	2437.927206
377.605417	2440.846034
377.991404	2436.089705
378.377329	2436.263625
378.763191	2435.436876
379.148991	2445.002465
379.534727	2444.415171
379.920402	2444.379883
380.306013	2442.847372
380.691563	2445.128494
381.077049	2443.550613
381.462474	2446.245110
381.847835	2445.602362
382.233134	2445.098247
382.618371	2445.488937
383.003545	2447.853238
383.388657	2445.824173
383.773706	2445.065480
384.158693	2448.871551
384.543618	2447.943978
384.928480	2447.515480
385.313280	2448.732919
385.698017	2448.632096
386.082692	2447.812908
386.467305	2450.477158
386.851856	2451.513115
387.236344	2449.889864
387.620770	2452.279371
388.005133	2452.975050
388.389435	2453.615277
388.773674	2453.305246
389.157851	2451.384566
389.541965	2452.286932
389.926018	2452.380194
390.310008	2451.986984
390.693936	2452.662498
391.077802	2453.746347
391.461606	2454.041254
391.845348	2453.726182
392.229027	2455.319187
392.612645	2451.538321
392.996200	2456.829012
393.379694	2454.502520
393.763125	2456.733230
394.146494	2457.781790
394.529801	2456.700463
394.913047	2458.167438
395.296230	2458.119547
395.679351	2460.224229
396.062410	2458.784980
396.445408	2458.041410
396.828343	2459.639455
397.211217	2455.800617
397.594028	2457.615432
397.976778	2453.819443
398.359466	2464.113479
398.742092	2454.656275
399.124656	2461.723973
399.507158	2460.521657
399.889598	2463.821092
400.271977	2461.035855
400.654294	2463.470732
401.036549	2463.327059
401.418742	2460.277161
401.800874	2463.203551
402.182944	2461.310598
402.564952	2465.371247
402.946898	2466.576083
403.328783	2464.068109
403.710606	2464.100877
404.092367	2463.894189
404.474067	2468.030456
404.855705	2466.845785
405.237282	2468.274952
405.618797	2466.777729
406.000250	2467.143213
406.381642	2468.005250
406.762972	2470.508183
407.144240	2470.145220
407.525447	2470.704788
407.906593	2468.101032
408.287677	2470.074644
408.668700	2469.245374
409.049661	2472.050776
409.430560	2468.562298
409.811399	2469.840230
410.192176	2468.683285
410.572891	2470.664459
410.953545	2471.241671
411.334138	2471.899542
411.714669	2468.552215
412.095139	2472.716208
412.475547	2472.650673
412.855894	2472.953143
413.236180	2475.309882
413.616405	2475.660242
413.996568	2472.073461
414.376670	2474.198308
414.756711	2475.299800
415.136691	2477.354070
415.516609	2476.141673
415.896466	2475.224182
416.276262	2475.854327
416.655997	2474.581435
417.035670	2473.313585
417.415283	2476.988586
417.794834	2473.734522
418.174324	2480.398927
418.553753	2480.615697
418.933121	2479.647795
419.312428	2482.662405
419.691674	2480.272898
420.070859	2482.692652
420.449983	2484.227683
420.829045	2481.472693
421.208047	2484.845225
421.586988	2483.950420
421.965867	2484.159628
422.344686	2485.099803
422.723444	2486.435709
423.102141	2482.997642
423.480777	2486.733137
423.859352	2486.042499
424.237866	2486.448312
424.616319	2486.208857
424.994712	2487.585092
425.373044	2487.577530
425.751314	2490.698004
426.129524	2486.644917
426.507673	2491.648262
426.885762	2489.127685
427.263789	2492.245638
427.641756	2491.630618
428.019662	2490.672798
428.397508	2493.979795
428.775292	2491.406286
429.153016	2494.166318
429.530679	2497.690085
429.908282	2496.177738
430.285824	2493.944507
430.663305	2495.635814
431.040726	2496.495331
431.418086	2495.066164
431.795385	2499.489777
432.172624	2499.106649
432.549802	2500.142606
432.926920	2497.861484
433.303977	2499.716628
433.680974	2499.323418
434.057910	2501.629746
434.434786	2504.054541
434.811601	2500.777791
435.188355	2505.294665
435.565050	2506.502022
435.941683	2505.123266
436.318257	2507.578308
436.694770	2504.777947
437.071222	2511.399503
437.447614	2504.490601
437.823946	2508.452948
438.200218	2510.557630
438.576429	2513.352950
438.952580	2512.891684
439.328670	2511.427229
439.704700	2514.761952
440.080670	2515.613907
440.456580	2516.397807
440.832429	2519.961902
441.208218	2521.292767
441.583947	2521.736388
441.959616	2519.041892
442.335224	2524.440968
442.710773	2522.792510
443.086261	2525.045906
443.461689	2525.270237
443.837057	2530.530681
444.212365	2527.150588
444.587612	2533.971269
444.962800	2533.920857
445.337927	2534.949253
445.712995	2533.757020
446.088002	2540.781868
446.462949	2544.724050
446.837837	2545.702034
447.212664	2550.891902
447.587431	2559.789538
447.962139	2573.042732
448.336786	2582.971284
448.711374	2582.951120
449.085901	2576.561457
449.460369	2577.967939
449.834776	2582.991449
450.209124	2598.913933
450.583412	2604.423914
450.957640	2610.311982
451.331808	2612.693927
451.705917	2614.102930
452.079965	2621.873868
452.453954	2630.153964
452.827883	2643.732312
453.201752	2648.261788
453.575562	2660.216885
453.949311	2679.269926
454.323001	2695.333562
454.696632	2708.909390
455.070202	2738.437948
455.443713	2753.989908
455.817164	2778.308434
456.190556	2804.502269
456.563888	2821.743016
456.937160	2846.474916
457.310373	2852.002542
457.683526	2884.223076
458.056619	2914.008734
458.429653	2943.711212
458.802628	2987.599498
459.175542	3022.713655
459.548398	3093.400714
459.921194	3176.788960
460.293930	3253.265785
460.666607	3366.595964
461.039224	3474.108653
461.411782	3543.298489
461.784280	3560.635017
462.156719	3599.547684
462.529099	3636.877428
462.901419	3659.857528
463.273680	3688.208977
463.645882	3760.148763
464.018024	3838.594158
464.390106	3961.636120
464.762130	4202.971278
465.134094	4562.834046
465.505999	5025.221279
465.877845	5450.707267
466.249631	5641.532584
466.621358	5624.949708
466.993026	5590.803453
467.364634	5567.145318
467.736184	5563.238424
468.107674	5601.836018
468.479105	5672.170197
468.850477	5751.991827
469.221790	5758.941057
469.593043	5735.431636
469.964238	5785.273524
470.335373	5907.556793
470.706449	6237.933852
471.077467	6696.504932
471.448425	7411.325424
471.819324	7943.819984
472.190164	7888.374853
472.560945	7593.726973
472.931667	7350.907195
473.302330	7369.312447
473.672934	7424.376971
474.043479	7669.470309
474.413965	7727.486428
474.784393	7830.688930
475.154761	8144.455386
475.525070	8332.185435
475.895321	8435.708050
476.265513	8715.683652
476.635645	9081.787368
477.005719	9257.340509
477.375734	9543.647801
477.745691	9880.187670
478.115588	10370.233194
478.485427	11032.880264
478.855207	12037.559541
479.224928	12952.062657
479.594591	13631.751348
479.964194	13645.758194
480.333739	13938.855920
480.703226	14242.517383
481.072653	14730.153236
481.442022	15187.272464
481.811333	15569.061730
482.180584	15480.634850
482.549777	15627.360153
482.918912	15783.772034
483.287988	15991.828015
483.657005	16025.039136
484.025964	16118.918024
484.394864	16419.819456
484.763706	16579.722335
485.132489	16571.749750
485.501213	16822.017833
485.869879	17189.580963
486.238487	17345.866814
486.607036	17738.857524
486.975527	17849.122682
487.343959	18242.047857
487.712333	18581.002439
488.080648	18858.442341
488.448905	19350.889975
488.817104	19591.335369
489.185244	20335.487815
489.553326	21436.185948
489.921350	23068.909815
490.289315	24909.465331
490.657222	25629.589117
491.025070	26153.029765
491.392861	26026.998398
491.760593	25697.052358
492.128267	25144.937627
492.495883	24687.410066
492.863440	24297.650736
493.230939	23919.347428
493.598380	23684.248177
493.965763	23814.400687
494.333088	23687.230019
494.700354	23744.489965
495.067563	23883.714032
495.434713	24102.684111
495.801805	24454.349962
496.168839	24519.839592
496.535815	24622.376661
496.902733	24919.567803
497.269593	24975.466638
497.636395	25205.912904
498.003139	25738.896456
498.369825	25667.697719
498.736453	26121.020958
499.103023	26104.533865
499.469535	26306.006099
499.835989	26627.392259
500.202385	26666.617477
500.568723	26935.704187
500.935003	27350.258433
501.301226	27453.216438
501.667390	28138.079874
502.033497	28576.108252
502.399546	28434.555172
502.765537	28213.629126
503.131470	28731.474093
503.497345	29216.584327
503.863163	28504.740637
504.228923	29186.972590
504.594625	29725.632481
504.960269	29425.593087
505.325856	30168.127322
505.691385	29925.451217
506.056856	30240.263713
506.422270	30790.661931
506.787625	30691.802383
507.152924	31044.289942
507.518164	31340.482937
507.883347	30944.051639
508.248472	31324.076502
508.613540	31924.949272
508.978550	32351.826618
509.343503	32360.036138
509.708398	32703.134548
510.073236	33341.447968
510.438016	33532.230436
510.802738	33266.717904
511.167403	33950.989003
511.532010	34348.058007
511.896561	34762.571923
512.261053	35653.812635
512.625488	35435.986898
512.989866	35495.555692
513.354186	35544.031427
513.718449	35679.686357
514.082655	36432.454134
514.446803	36302.465462
514.810894	36916.621673
515.174927	37006.361773
515.538904	37059.258601
515.902822	37789.623490
516.266684	37444.559030
516.630488	37956.037020
516.994235	37942.599824
517.357925	38588.296015
517.721558	38869.657934
518.085133	39266.195096
518.448651	39526.926093
518.812112	39427.638048
519.175516	39643.255760
519.538863	40056.602649
519.902152	40113.703798
520.265385	40645.389253
520.628560	40777.749789
520.991678	40683.422238
521.354739	40998.983346
521.717743	41386.779147
522.080690	41382.534495
522.443580	41964.931437
522.806413	42098.824483
523.169189	42143.973057
523.531908	42398.916810
523.894569	42329.243023
524.257174	42547.136815
524.619722	42920.865276
524.982213	42961.456647
525.344647	42938.416053
525.707025	43046.304307
526.069345	43496.547402
526.431608	43476.586953
526.793815	43813.555320
527.155964	43438.662352
527.518057	43642.587108
527.880093	43482.699352
528.242072	44045.511411
528.603995	43797.736179
528.965860	43839.837376
529.327669	43966.072909
529.689421	43925.385756
530.051117	43909.569136
530.412755	44080.441566
530.774337	44175.527810
531.135862	44028.805028
531.497331	44239.152213
531.858743	44175.356411
532.220098	44556.200461
532.581396	44279.869612
532.942638	43978.897604
533.303824	44285.921518
533.664953	44280.028409
534.026025	44037.112849
534.387040	44521.290470
534.747999	44479.156506
535.108902	44657.825081
535.469748	44213.172627
535.830537	44332.542108
536.191270	44553.576540
536.551947	44218.357453
536.912567	44532.653231
537.273131	44652.867106
537.633638	44175.971432
537.994089	44535.597265
538.354483	44146.326927
538.714821	44718.760028
539.075103	45070.856898
539.435328	44855.667684
539.795497	44748.548206
540.155609	44760.349547
540.515665	45217.723353
540.875665	44693.342530
541.235609	45024.236307
541.595496	44987.390514
541.955328	45682.658890
542.315102	45047.864195
542.674821	44859.874527
543.034483	44925.442295
543.394090	44889.773611
543.753640	44856.007962
544.113134	45841.089753
544.472571	44880.084513
544.831953	46108.709487
545.191278	45350.628333
545.550548	45076.681951
545.909761	45537.090532
546.268918	45741.509320
546.628019	46044.611216
546.987064	45615.359487
547.346053	44940.601044
547.704986	45794.809440
548.063863	45380.020781
548.422684	45579.395895
548.781449	45430.817968
549.140158	45826.324213
549.498811	45667.492579
549.857408	45134.418286
550.215949	45953.620910
550.574434	45907.998467
550.932864	45691.788420
551.291237	46402.187820
551.649555	46003.508168
552.007817	46251.701816
552.366022	45919.492298
552.724173	46102.087932
553.082267	46491.459093
553.440305	46790.621327
553.798288	46129.378218
554.156215	46428.729495
554.514086	46645.809141
554.871902	46378.353245
555.229661	46409.255518
555.587365	46246.353152
555.945014	46339.155753
556.302606	46278.845909
556.660143	46489.278794
557.017625	46583.765140
557.375050	46398.328817
557.732421	46748.883093
558.089735	46740.209788
558.446994	46647.976838
558.804197	47111.785677
559.161345	47029.509005
559.518437	46323.434915
559.875474	46620.184956
560.232455	46791.027140
560.589381	46955.242726
560.946251	46657.930596
561.303065	47333.619131
561.659825	47139.131416
562.016528	46841.663009
562.373177	46562.804023
562.729770	47040.753298
563.086307	46560.696820
563.442789	47002.715272
563.799216	47058.185608
564.155587	46858.140021
564.511904	46878.050058
564.868164	46969.365519
565.224370	47211.966006
565.580520	46948.679144
565.936615	47159.038932
566.292654	46887.338384
566.648638	47132.635889
567.004567	47089.128211
567.360441	47116.214330
567.716260	46979.155439
568.072023	47283.709187
568.427732	47260.277904
568.783385	46808.905592
569.138982	47203.718679
569.494525	47172.095521
569.850013	46936.648430
570.205445	46890.284938
570.560823	46865.167389
570.916145	46749.833351
571.271412	46770.998635
571.626625	46534.684467
571.981782	46590.111953
572.336884	46284.156764
572.691931	46590.273270
573.046923	46200.534104
573.401860	46052.117494
573.756743	46034.460853
574.111570	46152.229768
574.466342	45988.001579
574.821059	46119.182484
575.175722	45653.417677
575.530330	45666.070974
575.884882	45399.973668
576.239380	45354.694024
576.593823	45336.593761
576.948211	45240.895017
577.302544	44795.665351
577.656823	44810.554398
578.011047	45029.824426
578.365216	44771.654335
578.719330	44555.209874
579.073389	44425.916881
579.427394	44505.433521
579.781344	44477.306403
580.135239	44132.289834
580.489080	44223.012959
580.842866	43709.437849
581.196597	44161.717569
581.550273	44117.390703
581.903895	43960.141992
582.257463	44392.751129
582.610975	43792.750478
582.964434	44061.484307
583.317837	43732.289399
583.671186	43568.285541
584.024481	43792.679902
584.377721	43321.959641
584.730906	43614.757418
585.084037	43634.226354
585.437113	43347.299001
585.790135	43397.254315
586.143103	42990.586955
586.496016	43136.730005
586.848874	43139.863082
587.201679	43176.361036
587.554428	42645.759429
587.907124	42855.257180
588.259765	42609.768111
588.612352	42863.413767
588.964884	42269.517953
589.317362	42543.824777
589.669786	42490.512055
590.022155	42279.106227
590.374470	42686.620501
590.726731	42230.340625
591.078937	41741.817530
591.431090	41843.167407
591.783188	41489.946360
592.135232	41193.042563
592.487222	41418.576224
592.839157	41513.594413
593.191038	41206.530170
593.542866	40945.620212
593.894639	40379.637267
594.246358	40657.893835
594.598022	40634.094548
594.949633	40244.577193
595.301190	40205.341893
595.652692	40045.426411
596.004141	40381.540302
596.355535	39409.933516
596.706876	39355.519301
597.058162	39190.141728
597.409395	39648.773303
597.760573	39729.066280
598.111698	39311.809977
598.462768	39321.909928
598.813785	39374.806756
599.164748	38837.107204
599.515657	39221.522911
599.866511	38689.625728
600.217312	39302.730858
600.568060	38292.297105
600.918753	39019.158393
601.269392	38993.723251
601.619978	38652.608535
601.970510	38863.275834
602.320988	39046.123525
602.671412	39324.995114
603.021783	39086.261192
603.372100	38736.314374
603.722363	38852.076910
604.072572	38916.180223
604.422728	38937.947925
604.772830	38748.715613
605.122878	38853.347281
605.472872	38795.931059
605.822813	39072.874408
606.172701	38904.736803
606.522534	39118.242272
606.872314	39392.844004
607.222041	39178.151344
607.571714	39545.898476
607.921333	39004.423100
608.270899	39290.314497
608.620411	39627.303028
608.969870	39416.413919
609.319276	39417.417108
609.668627	39472.637908
610.017926	39954.080703
610.367171	40110.774888
610.716362	40198.266633
611.065500	40156.848513
611.414585	40330.433084
611.763616	40634.500361
612.112594	40571.158263
612.461518	40768.756370
612.810389	41061.110526
613.159207	40929.559096
613.507971	41001.778666
613.856682	41470.427012
614.205340	41363.625127
614.553945	42046.270454
614.902496	41497.102278
615.250994	41972.520894
615.599439	42059.153123
615.947830	42271.242027
616.296169	42309.133860
616.644454	42436.304527
616.992686	42606.526649
617.340864	43118.997746
617.688990	42843.503729
618.037063	43435.027681
618.385082	43403.901076
618.733048	43704.361407
619.080961	43720.712390
619.428821	43727.984254
619.776628	43822.475642
620.124382	43656.437678
620.472083	43786.481803
620.819731	43907.290535
621.167326	43573.440121
621.514868	43559.803800
621.862357	43121.094866
622.209793	43142.975994
622.557176	42836.194056
622.904506	42568.082810
623.251783	42221.954666
623.599007	42001.028619
623.946179	41779.908488
624.293297	41741.270564
624.640363	41147.962045
624.987376	41141.796714
625.334336	40906.019428
625.681243	40552.097660
626.028097	40511.375219
626.374899	40380.700950
626.721647	40360.770748
627.068343	40257.391806
627.414987	40025.133246
627.761577	39821.636988
628.108115	40130.730295
628.454600	39575.953835
628.801032	39762.559707
629.147412	39724.123429
629.493739	39750.387841
629.840014	39393.658150
630.186236	39724.718285
630.532405	39354.899239
630.878521	39570.993340
631.224585	39447.661511
631.570597	39166.130713
631.916556	39323.293725
632.262462	39276.458885
632.608316	39289.258375
632.954117	39177.027167
633.299866	39169.508286
633.645562	39094.470711
633.991206	38602.570042
634.336797	38178.810650
634.682336	38164.065275
635.027823	37931.557177
635.373257	37745.173116
635.718639	37514.767180
636.063968	37383.863538
636.409245	36817.346230
636.754470	36860.743003
637.099642	36614.742257
637.444762	36158.628740
637.789829	36300.643085
638.134845	35962.069110
638.479808	35909.053816
638.824719	35806.327703
639.169577	35428.435249
639.514383	35488.913972
639.859137	35199.392945
640.203839	35445.635666
640.548489	35071.672791
640.893086	35143.302546
641.237632	34889.677055
641.582125	35018.206314
641.926566	34942.026917
642.270955	34911.527937
642.615292	34928.259526
642.959576	34892.903394
643.303809	34903.872944
643.647990	35056.413219
643.992118	35015.055593
644.336195	35009.830437
644.680219	35105.125888
645.024192	35413.142909
645.368112	35909.416779
645.711981	35937.155728
646.055797	36803.127656
646.399562	36726.817190
646.743274	37663.355189
647.086935	38100.607230
647.430544	38003.585183
647.774101	38121.200343
648.117606	38359.152887
648.461059	38657.566510
648.804460	38263.078577
649.147810	37658.215733
649.491108	37401.799963
649.834354	37054.197282
650.177548	36225.597948
650.520690	35784.043283
650.863781	35793.863450
651.206820	35646.187889
651.549807	35217.712498
651.892742	34738.356740
652.235626	34548.706012
652.578458	34423.082979
652.921238	33816.748117
653.263967	34160.544727
653.606644	33822.752132
653.949269	33778.808394
654.291843	33409.604368
654.634365	33783.436173
654.976836	33389.971595
655.319255	33399.779159
655.661622	33392.996287
656.003938	33167.593696
656.346203	33030.607902
656.688416	33267.915178
657.030577	33069.545774
657.372687	32899.605957
657.714746	33156.997190
658.056753	33283.406643
658.398708	32740.746597
658.740612	32797.202478
659.082465	33069.180290
659.424266	32884.449728
659.766016	33003.766278
660.107715	32889.987436
660.449362	33034.101421
660.790958	33004.910620
661.132503	33041.789181
661.473996	33057.809968
661.815438	33160.654547
662.156829	33365.930332
662.498168	33132.966010
662.839456	33177.335725
663.180693	33309.482012
663.521879	33469.337000
663.863013	33426.441822
664.204097	33428.995167
664.545129	33890.666556
664.886110	33859.799571
665.227040	33910.997530
665.567918	34039.201634
665.908746	34102.425265
666.249522	34251.441773
666.590248	34262.350829
666.930922	34364.093917
667.271545	34344.733366
667.612118	34406.464815
667.952639	34207.772777
668.293109	34258.713637
668.633528	34146.686596
668.973896	34087.808439
669.314213	34118.269611
669.654480	33858.496433
669.994695	33884.728077
670.334859	33765.512350
670.674973	33674.844678
671.015035	33832.993236
671.355047	33774.573824
671.695008	33718.889239
672.034918	33635.722803
672.374777	33712.938157
672.714585	33546.017991
673.054342	33786.571771
673.394049	33539.441806
673.733705	33831.233873
674.073310	33487.807788
674.412864	33571.511106
674.752368	33156.218332
675.091820	33461.003973
675.431223	33028.813251
675.770574	32753.553648
676.109875	32630.922539
676.449125	32352.643285
676.788324	32269.103804
677.127473	31739.661663
677.466571	31662.526968
677.805619	31326.352582
678.144616	31315.710707
678.483562	31244.927866
678.822458	30921.608422
679.161303	30855.899503
679.500098	30759.401736
679.838842	30656.791570
680.177535	30812.379222
680.516179	31083.217733
680.854771	31322.690184
681.193314	32188.415096
681.531805	33300.203768
681.870247	34088.148717
682.208638	34827.033157
682.546978	35043.091970
682.885268	35138.977236
683.223508	34603.057212
683.561697	34251.010754
683.899836	34062.703493
684.237925	33561.411155
684.575963	33416.306582
684.913951	32961.612149
685.251889	33120.663074
685.589776	33110.616054
685.927614	33100.069960
686.265401	33243.858792
686.603137	33350.264946
686.940824	33849.384548
687.278460	34241.740072
687.616046	34387.308430
687.953582	34974.691074
688.291068	34843.091752
688.628504	35122.376717
688.965889	35049.577414
689.303224	34675.982544
689.640510	34329.483875
689.977745	33592.711679
690.314930	32785.602783
690.652065	32264.869235
690.989150	31510.740346
691.326185	30619.688678
691.663170	29915.893189
692.000105	29160.302365
692.336990	28487.946033
692.673825	28045.466316
693.010610	27513.977466
693.347345	26942.892873
693.684030	26301.363196
694.020665	26021.042275
694.357251	25355.856984
694.693786	25309.637165
695.030272	25073.633027
695.366707	24535.557909
695.703093	24249.197686
696.039429	24238.228135
696.375716	23977.814730
696.711952	23941.659575
697.048139	23794.281442
697.384276	23618.458599
697.720363	23742.153391
698.056400	23527.503580
698.392388	23317.771416
698.728326	23274.989664
699.064214	23072.287388
699.400053	23015.836547
699.735842	22671.797962
700.071581	22380.426831
700.407270	22092.886978
700.742910	21911.118093
701.078501	21637.504427
701.414042	21359.981346
701.749533	21057.570089
702.084974	20712.185515
702.420366	20921.690828
702.755709	20483.793520
703.091002	20190.015238
703.426246	20211.704803
703.761440	20109.450038
704.096584	19838.379634
704.431679	19786.717889
704.766725	19697.953252
705.101721	19642.198091
705.436668	19733.964735
705.771565	19404.734539
706.106413	19756.740668
706.441212	19747.187682
706.775961	19866.340394
707.110661	19940.215983
707.445311	20289.714138
707.779913	20138.754265
708.114465	20381.687469
708.448967	20659.250879
708.783421	21359.386490
709.117825	21636.274386
709.452180	21859.501719
709.786485	22261.566506
710.120742	23065.943096
710.454949	23074.099683
710.789107	23540.983626
711.123216	24246.480504
711.457275	24370.843248
711.791286	24903.826801
712.125247	24974.317255
712.459159	24662.993237
712.793023	25320.261396
713.126837	24208.467683
713.460602	24467.923269
713.794318	24078.955400
714.127985	23699.691752
714.461602	22802.754536
714.795171	22758.311724
715.128691	21744.603741
715.462162	21205.671627
715.795584	20784.011875
716.128957	20519.747029
716.462281	20122.703232
716.795556	19881.481499
717.128782	19397.326563
717.461960	18848.549076
717.795088	18770.325492
718.128167	18376.001397
718.461198	17908.628462
718.794180	17767.589581
719.127113	17414.381136
719.459997	17212.334211
719.792833	16876.986575
720.125619	16835.639031
720.458357	16528.191661
720.791046	16358.456011
721.123686	16187.691965
721.456278	15960.955989
721.788821	15913.440593
722.121315	15651.252702
722.453761	15736.755713
722.786158	15653.644730
723.118506	15661.738302
723.450805	15525.717889
723.783056	15691.682756
724.115259	15599.666575
724.447412	15525.541449
724.779518	15778.718277
725.111574	15796.334589
725.443582	15998.527708
725.775542	15972.711959
726.107453	16431.217505
726.439315	16322.237841
726.771129	16717.257615
727.102895	17090.855006
727.434612	17292.571736
727.766281	17421.015295
728.097901	17684.581941
728.429473	17713.140078
728.760996	17695.029733
729.092471	17773.825488
729.423897	17669.501330
729.755276	17520.560439
730.086606	17642.596692
730.417887	18161.033994
730.749120	18678.836112
731.080305	18851.694756
731.411442	19174.416823
731.742530	19247.014479
732.073570	19348.326548
732.404562	19637.333378
732.735506	19439.974725
733.066401	19160.775460
733.397249	18643.951327
733.728048	17998.454262
734.058798	17175.511103
734.389501	16489.445352
734.720156	16046.146447
735.050762	15516.230437
735.381320	15158.638710
735.711831	14928.222691
736.042293	14581.560185
736.372707	14579.400051
736.703073	14374.872877
737.033391	14566.126693
737.363661	14528.320559
737.693883	14636.970028
738.024056	14801.447754
738.354182	14997.243649
738.684260	15278.088850
739.014290	15500.791904
739.344272	15687.034812
739.674207	15978.055583
740.004093	16087.254537
740.333931	16066.232925
740.663722	16104.245746
740.993464	16096.477328
741.323159	15916.891263
741.652806	15636.623274
741.982405	15432.620380
742.311956	15092.770994
742.641460	14974.946626
742.970915	14667.602599
743.300323	14337.989275
743.629683	14124.007418
743.958996	13851.318804
744.288260	13575.698758
744.617477	13277.237245
744.946647	13201.388044
745.275768	12932.873505
745.604842	12748.029517
745.933869	12582.215885
746.262847	12530.609593
746.591778	12456.771812
746.920662	12356.228519
747.249498	12355.555525
747.578286	12478.486582
747.907027	12617.135957
748.235720	12840.154083
748.564365	12864.563350
748.892963	12766.187753
749.221514	12831.584121
749.550017	12689.050538
749.878473	12645.336172
750.206881	12426.003130
750.535242	12332.593070
750.863555	12245.297929
751.191821	12159.081595
751.520039	12169.599963
751.848210	12084.001171
752.176334	12111.291457
752.504411	12013.793021
752.832440	11860.925072
753.160421	11922.558219
753.488356	11791.188270
753.816243	11716.392670
754.144082	11566.451111
754.471875	11508.964313
754.799620	11457.138731
755.127318	11430.859196
755.454969	11390.035932
755.782572	11345.267965
756.110129	11356.076199
756.437638	11271.581420
756.765100	11264.589339
757.092515	11273.930597
757.419882	11286.770416
757.747203	11287.387957
758.074477	11365.576254
758.401703	11317.549181
758.728882	11472.181534
759.056014	11527.112467
759.383099	11636.697069
759.710138	11742.647000
760.037129	11818.274390
760.364073	11835.225269
760.690970	11822.995430
761.017820	11823.343270
761.344623	12006.339675
761.671379	12327.476298
761.998088	12954.805045
762.324751	14513.789433
762.651366	17371.203654
762.977935	21026.342661
763.304456	23250.096446
763.630931	23712.007291
763.957359	22523.194829
764.283740	20616.806885
764.610074	18738.835925
764.936362	16610.397756
765.262602	15105.084012
765.588796	13635.577584
765.914943	12612.987088
766.241044	11761.458065
766.567097	11130.209822
766.893104	10586.032388
767.219064	10220.198373
767.544978	9843.772895
767.870845	9532.411069
768.196665	9343.846709
768.522438	9152.297987
768.848165	8988.778079
769.173846	8820.118716
769.499479	8696.202113
769.825066	8547.016727
770.150607	8359.876493
770.476101	8300.539592
770.801548	8185.815533
771.126949	8048.955768
771.452303	7961.148950
771.777611	7797.397150
772.102872	7773.885208
772.428087	7658.538567
772.753256	7534.374948
773.078378	7443.286339
773.403453	7306.204763
773.728482	7204.887653
774.053465	7140.605380
774.378401	7051.850825
774.703291	6962.574511
775.028135	6861.176743
775.352932	6831.466703
775.677683	6742.361788
776.002388	6659.238202
776.327046	6658.696278
776.651658	6573.773000
776.976224	6492.885166
777.300743	6478.089380
777.625216	6413.025727
777.949643	6368.628286
778.274024	6372.983842
778.598359	6308.031096
778.922647	6310.518905
779.246889	6270.197236
779.571086	6274.784686
779.895236	6285.053517
780.219339	6281.912878
780.543397	6281.013032
780.867409	6334.292987
781.191374	6327.837789
781.515294	6294.362007
781.839167	6347.750347
782.162995	6312.555531
782.486776	6271.477689
782.810511	6226.117387
783.134201	6153.585265
783.457844	6140.689994
783.781441	6093.053611
784.104993	6046.808586
784.428498	6013.312639
784.751958	6000.051884
785.075372	5971.309745
785.398739	5939.716834
785.722061	5966.455114
786.045337	5961.608045
786.368568	6074.487041
786.691752	6095.450679
787.014891	6342.318504
787.337983	6623.254446
787.661030	7058.031280
787.984031	7487.456929
788.306987	7745.511074
788.629897	7833.887542
788.952760	7747.847649
789.275579	7569.345432
789.598351	7274.074969
789.921078	7002.666808
790.243759	6726.741773
790.566395	6518.968096
790.888984	6331.379200
791.211529	6190.456265
791.534027	6026.585997
791.856480	5889.804370
792.178888	5828.458569
792.501249	5763.833497
792.823566	5663.416233
793.145836	5656.625799
793.468062	5644.055682
793.790241	5598.057673
794.112375	5642.656761
794.434464	5736.558334
794.756507	5771.216267
795.078505	5889.030553
795.400457	6102.286484
795.722364	6338.250292
796.044226	6537.040633
796.366042	6694.417894
796.687812	6639.247506
797.009538	6669.675911
797.331218	6574.511529
797.652852	6509.442836
797.974442	6385.279217
798.295986	6315.756664
798.617484	6190.262180
798.938938	6079.434933
799.260346	6014.462022
799.581709	5875.573193
799.903026	5822.406663
800.224299	5754.593062
800.545526	5630.424402
800.866708	5566.058949
801.187845	5519.564387
801.508936	5443.057316
801.829983	5415.202420
802.150984	5308.030010
802.471940	5282.955311
802.792851	5265.999390
803.113717	5244.700515
803.434538	5219.043563
803.755314	5185.653480
804.076045	5174.918343
804.396731	5138.717817
804.717372	5158.753883
805.037967	5159.394110
805.358518	5185.776988
805.679024	5246.243108
805.999485	5253.948512
806.319901	5272.583137
806.640272	5289.783554
806.960598	5338.556717
807.280879	5324.076003
807.601115	5367.056881
807.921306	5332.351057
808.241453	5320.847144
808.561554	5333.437426
808.881611	5300.551458
809.201623	5295.664060
809.521590	5249.257718
809.841513	5234.209874
810.161390	5244.390484
810.481223	5162.081045
810.801011	5145.767871
811.120755	5119.828614
811.440453	5064.539759
811.760107	5036.294174
812.079716	5010.526316
812.399281	4961.100323
812.718801	4953.009271
813.038276	4918.071554
813.357707	4888.938726
813.677093	4908.853805
813.996434	4845.786449
814.315731	4867.992732
814.634983	4863.042319
814.954191	4870.067167
815.273354	4931.486065
815.592473	4968.026868
815.911547	5045.615267
816.230577	5097.168627
816.549562	5189.492319
816.868502	5242.290843
817.187399	5294.305469
817.506250	5374.500144
817.825058	5397.195419
818.143821	5554.136620
818.462539	5719.632660
818.781213	5946.298060
819.099843	6312.800027
819.418429	6938.563495
819.736970	7559.235398
820.055466	8268.137575
820.373919	9175.396554
820.692327	10625.935641
821.010691	13313.641937
821.329011	19515.501292
821.647286	29074.943028
821.965517	39418.261502
822.283704	44880.621396
822.601847	46361.004114
822.919945	41768.792744
823.237999	36665.592376
823.556010	31441.003544
823.873976	26753.474038
824.191897	22542.454557
824.509775	19481.254213
824.827609	16722.752473
825.145398	15167.057437
825.463144	14418.778807
825.780845	14704.798753
826.098502	15962.642255
826.416116	18409.804854
826.733685	20709.100329
827.051210	21228.349258
827.368692	19805.985179
827.686129	17237.988643
828.003522	14765.272434
828.320872	12546.350596
828.638177	10907.703373
828.955439	9654.795161
829.272656	8606.882949
829.589830	7759.706963
829.906960	7030.592279
830.224046	6492.638150
830.541088	6088.604792
830.858086	5831.652140
831.175041	5629.055728
831.491952	5574.422223
831.808819	5605.707624
832.125642	5847.836764
832.442421	6400.135497
832.759157	7498.943198
833.075849	9267.934494
833.392497	11124.848555
833.709101	12235.354253
834.025662	11982.399235
834.342179	10934.451736
834.658653	9621.899112
834.975083	8513.556068
835.291469	7615.671115
835.607811	6879.428240
835.924110	6366.828594
836.240366	5873.531525
836.556578	5426.174492
836.872746	5068.935645
837.188871	4802.707269
837.504952	4578.018001
837.820990	4415.276952
838.136984	4300.071463
838.452935	4245.201024
838.768842	4280.630253
839.084706	4561.452770
839.400526	5298.834946
839.716303	6200.241144
840.032037	6763.713595
840.347727	6621.734538
840.663373	6025.585328
840.978977	5445.998829
841.294537	5005.459956
841.610054	4672.761447
841.925527	4431.769087
842.240957	4230.362388
842.556344	4048.704409
842.871687	3890.986870
843.186987	3740.226123
843.502244	3623.142804
843.817458	3531.013197
844.132629	3463.411324
844.447756	3415.434663
844.762840	3372.317674
845.077881	3331.065912
845.392879	3296.239101
845.707833	3273.359824
846.022745	3245.149527
846.337613	3233.363309
846.652438	3213.181050
846.967221	3204.164946
847.281960	3181.935978
847.596656	3171.460461
847.911309	3164.843946
848.225919	3150.398520
848.540485	3138.561891
848.855009	3130.037300
849.169490	3118.346864
849.483928	3112.375617
849.798323	3107.208434
850.112675	3095.636466
850.426984	3098.467074
850.741251	3090.862493
851.055474	3086.995928
851.369654	3091.817792
851.683792	3082.126173
851.997887	3088.472986
852.311938	3086.701021
852.625947	3093.771239
852.939914	3084.742532
853.253837	3085.889395
853.567718	3086.116247
853.881555	3077.316913
854.195350	3086.887543
854.509103	3084.808067
854.822812	3078.476378
855.136479	3074.478743
855.450103	3077.200966
855.763685	3071.330543
856.077224	3074.685430
856.390720	3083.373859
856.704173	3091.530446
857.017584	3095.762495
857.330953	3104.629884
857.644278	3108.902262
857.957561	3115.780917
858.270802	3110.528034
858.584000	3110.301182
858.897155	3108.904783
859.210268	3097.325252
859.523339	3084.813108
859.836367	3077.553847
860.149352	3072.699216
860.462295	3072.575708
860.775195	3064.184707
861.088054	3059.355282
861.400869	3058.687329
861.713642	3057.122050
862.026373	3067.781570
862.339062	3069.548495
862.651708	3079.477047
862.964312	3096.185952
863.276873	3103.236005
863.589392	3135.108700
863.901869	3159.008811
864.214303	3181.131914
864.526696	3202.050182
864.839045	3215.348746
865.151353	3229.272413
865.463619	3229.879872
865.775842	3232.468505
866.088023	3235.099987
866.400162	3228.904409
866.712258	3227.230746
867.024313	3230.416755
867.336325	3229.854666
867.648296	3228.622104
867.960224	3228.808627
868.272110	3228.969944
868.583954	3230.557907
868.895755	3236.821541
869.207515	3235.651993
869.519233	3251.012389
869.830909	3258.725354
870.142542	3274.972993
870.454134	3278.184208
870.765684	3289.680560
871.077191	3310.162768
871.388657	3317.154848
871.700081	3337.934484
872.011463	3359.684543
872.322803	3379.808829
872.634101	3394.067732
872.945357	3417.287287
873.256571	3443.362655
873.567744	3458.413020
873.878874	3463.086170
874.189963	3478.267604
874.501010	3479.379179
874.812015	3478.628047
875.122979	3494.676560
875.433900	3493.232270
875.744780	3496.022548
876.055618	3501.285513
876.366415	3501.149402
876.677169	3508.693488
876.987882	3519.516846
877.298554	3542.585166
877.609183	3581.112184
877.919771	3628.514154
878.230317	3694.165100
878.540822	3801.599650
878.851285	3953.325778
879.161707	4171.753933
879.472087	4545.391653
879.782425	5173.113610
880.092722	6362.571339
880.402977	8295.788304
880.713191	10671.658906
881.023363	13071.293507
881.333494	14412.941151
881.643583	14875.381317
881.953631	14471.620182
882.263637	13616.040592
882.573602	12579.864186
882.883526	11614.747885
883.193408	10664.140025
883.503248	9739.849509
883.813048	8912.334022
884.122806	8142.428843
884.432522	7382.066567
884.742197	6716.881276
885.051831	6146.625953
885.361424	5657.558412
885.670975	5258.876240
885.980485	4934.281385
886.289954	4667.095190
886.599382	4448.394812
886.908768	4266.275568
887.218113	4105.929067
887.527417	3972.971155
887.836680	3847.146475
888.145901	3749.005292
888.455082	3675.782533
888.764221	3607.127058
889.073319	3546.240002
889.382376	3512.355887
889.691392	3490.071466
890.000366	3479.563181
890.309300	3477.045125
890.618193	3479.316164
890.927044	3474.821976
891.235855	3481.254488
891.544625	3498.701922
891.853353	3522.622197
892.162041	3584.719130
892.470687	3673.380423
892.779293	3795.930873
893.087858	3967.093169
893.396381	4246.763782
893.704864	4659.596473
894.013306	5228.447835
894.321707	5803.867820
894.630068	6161.492315
894.938387	6203.885898
895.246665	6024.035173
895.554903	5702.825453
895.863100	5366.595615
896.171256	5098.121405
896.479371	4858.003686
896.787446	4631.824757
897.095480	4431.040640
897.403473	4286.198208
897.711425	4141.007936
898.019336	4015.979759
898.327207	3895.871748
898.635038	3793.644710
898.942827	3688.622352
899.250576	3601.095318
899.558284	3514.180784
899.865952	3460.033751
900.173579	3396.343813
900.481165	3346.771627
900.788711	3308.683189
901.096216	3273.642129
901.403681	3248.252357
901.711105	3238.301120
902.018489	3234.903382
902.325832	3265.420007
902.633135	3329.445181
902.940397	3497.723938
903.247619	3899.261924
903.554800	4654.575484
903.861941	5623.633967
904.169041	6324.770247
904.476101	6541.123967
904.783121	6265.304796
905.090100	5859.005440
905.397039	5445.351041
905.703938	5087.038428
906.010796	4758.879478
906.317614	4508.059389
906.624391	4267.550980
906.931129	4073.343048
907.237826	3890.966705
907.544483	3717.412381
907.851099	3549.209242
908.157675	3388.078842
908.464211	3245.482243
908.770707	3146.897439
909.077163	3065.003894
909.383578	3008.152282
909.689954	2963.230560
909.996289	2934.135541
910.302584	2912.519073
910.608839	2899.369223
910.915054	2885.952192
911.221229	2878.214021
911.527363	2886.854559
911.833458	2893.377812
912.139513	2904.992630
912.445527	2917.983684
912.751502	2953.491051
913.057436	2996.204747
913.363331	3054.311607
913.669186	3142.786378
913.975000	3262.367588
914.280775	3448.912966
914.586510	3714.352401
914.892205	4089.971294
915.197859	4589.040484
915.503475	5179.641904
915.809050	5677.702863
916.114585	5968.310259
916.420081	6032.741246
916.725536	5969.618438
917.030952	5727.615327
917.336328	5522.291652
917.641665	5305.693435
917.946961	5079.370833
918.252218	4876.174525
918.557435	4650.817304
918.862612	4449.518990
919.167750	4277.247639
919.472848	4087.642281
919.777906	3924.066921
920.082925	3759.899226
920.387904	3606.144033
920.692843	3495.253772
920.997743	3396.154770
921.302603	3300.488793
921.607423	3237.955801
921.912204	3172.236798
922.216946	3124.696197
922.521647	3071.494380
922.826310	3031.961652
923.130932	2993.457318
923.435516	2953.054991
923.740059	2926.490631
924.044564	2895.661454
924.349028	2871.728577
924.653454	2841.711026
924.957840	2815.759166
925.262186	2796.544808
925.566493	2774.646036
925.870761	2752.134763
926.174989	2740.651015
926.479178	2722.553272
926.783328	2707.301262
927.087438	2693.304498
927.391509	2684.381656
927.695541	2673.465037
927.999533	2662.843326
928.303486	2653.328148
928.607400	2645.053094
928.911275	2642.968577
929.215110	2634.731331
929.518906	2630.660600
929.822663	2633.571866
930.126381	2630.360651
930.430060	2635.852988
930.733699	2636.631846
931.037299	2639.777526
931.340861	2638.018164
931.644383	2641.257105
931.947866	2640.697537
932.251309	2641.819194
932.554714	2640.768113
932.858080	2635.714356
933.161407	2631.041207
933.464694	2627.149436
933.767943	2624.984260
934.071153	2621.803292
934.374323	2616.575616
934.677455	2615.509412
934.980548	2613.520677
935.283602	2607.592280
935.586617	2606.682351
935.889593	2612.638475
936.192530	2612.003289
936.495428	2619.670884
936.798287	2628.371916
937.101108	2638.423977
937.403890	2661.502379
937.706632	2690.080680
938.009336	2721.605536
938.312002	2753.314393
938.614628	2774.512445
938.917216	2792.794190
939.219765	2802.493370
939.522275	2816.369146
939.824747	2813.200780
940.127179	2806.992599
940.429573	2801.028914
940.731929	2801.512865
941.034246	2792.237142
941.336524	2791.763274
941.638763	2781.164248
941.940964	2776.838938
942.243126	2759.557862
942.545250	2750.191398
942.847335	2735.980386
943.149381	2721.449260
943.451389	2711.540872
943.753359	2694.587472
944.055290	2689.788293
944.357182	2678.092816
944.659036	2671.899759
944.960851	2668.895231
945.262628	2663.188645
945.564367	2668.809531
945.866067	2663.430620
946.167729	2664.678306
946.469352	2663.029848
946.770937	2660.350475
947.072484	2652.967705
947.373992	2652.153559
947.675462	2648.597025
947.976893	2644.256592
948.278286	2638.718884
948.579641	2636.974645
948.880958	2632.150261
949.182236	2633.382823
949.483476	2630.267390
949.784678	2631.101701
950.085841	2632.465333
950.386967	2636.669655
950.688054	2641.325161
950.989103	2649.353198
951.290114	2655.682367
951.591087	2669.928667
951.892021	2681.044412
952.192917	2693.715352
952.493776	2702.950746
952.794596	2708.836293
953.095378	2709.814277
953.396122	2706.918134
953.696828	2702.708770
953.997496	2697.740713
954.298126	2690.743592
954.598718	2682.332427
954.899272	2671.201559
955.199788	2662.422389
955.500266	2645.957981
955.800706	2628.676906
956.101108	2616.003445
956.401472	2601.053903
956.701798	2590.306163
957.002087	2575.127249
957.302337	2568.296485
957.602550	2554.271995
957.902724	2543.642723
958.202861	2534.056968
958.502960	2529.209899
958.803022	2521.214629
959.103045	2512.916890
959.403031	2506.028153
959.702979	2500.828203
960.002889	2498.053048
960.302762	2492.837974
960.602596	2488.434526
960.902393	2481.646612
961.202153	2483.499237
961.501875	2477.341467
961.801559	2474.672176
962.101205	2473.424491
962.400814	2471.145889
962.700385	2470.422483
962.999918	2467.198666
963.299414	2467.773357
963.598873	2465.146916
963.898293	2460.829168
964.197677	2461.807152
964.497022	2460.372943
964.796331	2458.696760
965.095601	2456.355144
965.394835	2460.022583
965.694030	2457.655761
965.993189	2456.627366
966.292309	2455.934207
966.591393	2458.845474
966.890439	2455.568724
967.189447	2456.818930
967.488419	2455.220884
967.787353	2454.343723
968.086249	2455.190637
968.385108	2460.256997
968.683930	2458.719445
968.982714	2458.928653
969.281462	2459.780608
969.580172	2461.640793
969.878844	2464.116000
970.177480	2467.410394
970.476078	2470.606486
970.774639	2472.043214
971.073162	2476.698720
971.371649	2475.236785
971.670098	2475.995479
971.968510	2476.434059
972.266885	2477.638895
972.565223	2480.595532
972.863524	2482.143166
973.161788	2485.208188
973.460014	2486.539052
973.758204	2484.020996
974.056356	2489.185658
974.354471	2485.641727
974.652550	2487.466625
974.950591	2487.617859
975.248595	2486.281953
975.546563	2486.465956
975.844493	2484.590646
976.142386	2481.318938
976.440243	2478.327013
976.738062	2478.470686
977.035845	2477.769965
977.333590	2472.194449
977.631299	2471.070272
977.928971	2469.194963
978.226606	2468.249746
978.524204	2465.721608
978.821765	2462.954014
979.119290	2461.970989
979.416777	2464.168932
979.714228	2463.004426
980.011642	2467.649849
980.309020	2468.584983
980.606360	2473.179995
980.903664	2485.485451
981.200931	2492.016266
981.498162	2513.736077
981.795356	2543.705737
982.092513	2584.496233
982.389633	2626.534415
982.686717	2672.035870
982.983764	2703.119624
983.280775	2722.752398
983.577749	2719.551265
983.874686	2711.064483
984.171587	2695.076463
984.468451	2680.230265
984.765279	2662.644200
985.062070	2645.274905
985.358824	2622.488889
985.655543	2601.868049
985.952224	2578.076324
986.248869	2552.820143
986.545478	2523.276461
986.842050	2503.305930
987.138586	2486.576861
987.435086	2474.767958
987.731549	2459.140381
988.027975	2456.241718
988.324366	2452.294494
988.620719	2447.389452
988.917037	2440.904007
989.213318	2438.454006
989.509563	2439.000972
989.805772	2436.407298
990.101944	2436.432504
990.398080	2435.083995
990.694180	2434.791608
990.990244	2433.470826
991.286271	2432.689447
991.582262	2434.806732
991.878217	2435.114242
992.174136	2434.857143
992.470019	2438.229675
992.765865	2437.297062
993.061676	2437.075251
993.357450	2442.897783
993.653188	2445.153700
993.948890	2452.392797
994.244556	2459.629373
994.540186	2466.629015
994.835780	2475.987917
995.131337	2493.974754
995.426859	2508.273987
995.722345	2526.971627
996.017795	2545.127342
996.313208	2562.700805
996.608586	2570.580128
996.903928	2573.670355
997.199234	2573.990469
997.494504	2570.900241
997.789738	2561.087635
998.084936	2553.162942
998.380099	2539.662732
998.675225	2532.317770
998.970316	2515.727333
999.265371	2504.435148
999.560390	2489.951913
999.855373	2479.083186
1000.150320	2468.882411
1000.445232	2459.364712
1000.740108	2453.484207
1001.034948	2445.443566
1001.329752	2441.327464
1001.624521	2436.727411
1001.919254	2430.390681
1002.213951	2428.154929
1002.508613	2425.551173
1002.803239	2425.876327
1003.097829	2420.900709
1003.392384	2422.375246
1003.686903	2421.056984
1003.981386	2419.549679
1004.275834	2421.402303
1004.570246	2418.123033
1004.864623	2417.901222
1005.158964	2416.093968
1005.453270	2416.461973
1005.747540	2417.883578
1006.041775	2414.425347
1006.335974	2413.981725
1006.630138	2413.288566
1006.924266	2415.501633
1007.218359	2414.405182
1007.512416	2412.250089
1007.806438	2414.193453
1008.100425	2413.417116
1008.394376	2410.715057
1008.688292	2411.294790
1008.982172	2409.545510
1009.276017	2410.979718
1009.569827	2409.142217
1009.863602	2411.446025
1010.157341	2411.617424
1010.451045	2410.336971
1010.744714	2409.590880
1011.038347	2408.381003
1011.331945	2411.269584
1011.625508	2407.690365
1011.919036	2409.482495
1012.212528	2409.522824
1012.505986	2408.925448
1012.799408	2412.429050
1013.092795	2407.571898
1013.386147	2407.506363
1013.679464	2406.742628
1013.972745	2407.892011
1014.265992	2407.415622
1014.559204	2407.171126
1014.852380	2409.174985
1015.145521	2409.479975
1015.438628	2409.989131
1015.731699	2406.341856
1016.024736	2408.471744
1016.317737	2410.745304
1016.610703	2408.050808
1016.903635	2405.941085
1017.196531	2405.840262
1017.489393	2409.459810
1017.782219	2405.673903
1018.075011	2409.686662
1018.367768	2409.124573
1018.660490	2411.645150
1018.953177	2411.645150
1019.245829	2411.645150
