Dividing Wavelength (nm)	Counts (n)	Blue Motor Position (mm): 48.800000	Red Motor Position (mm): 0.000000	
326.493990	1976.268419
326.888308	1976.268419
327.282561	1976.268419
327.676750	1951.589450
328.070874	1953.938628
328.464933	1958.490790
328.858929	1969.442697
329.252859	1977.495940
329.646726	1995.187869
330.040528	2010.795282
330.434265	2030.544002
330.827938	2048.719882
331.221547	2069.653273
331.615091	2090.803434
332.008571	2109.581732
332.401986	2129.138889
332.795338	2151.902219
333.188625	2170.874601
333.581847	2188.911850
333.975006	2205.300641
334.368100	2226.145812
334.761129	2242.065776
335.154095	2256.922056
335.546996	2299.678603
335.939833	2382.862682
336.332606	2399.959756
336.725315	2411.289749
337.117960	2418.725451
337.510540	2428.099476
337.903056	2438.547268
338.295508	2444.120263
338.687896	2450.207457
339.080220	2458.444702
339.472480	2462.185238
339.864676	2467.798563
340.256807	2472.239819
340.648875	2470.906434
341.040879	2469.993985
341.432818	2476.169399
341.824694	2477.391879
342.216506	2473.311065
342.608253	2475.738380
342.999937	2473.174953
343.391557	2472.615385
343.783113	2473.200159
344.174605	2471.105560
344.566033	2469.300827
344.957397	2467.281845
345.348697	2467.639767
345.739934	2463.344703
346.131106	2464.473922
346.522215	2459.921760
346.913260	2461.058540
347.304241	2457.565021
347.695159	2458.928653
348.086012	2455.301542
348.476802	2452.957406
348.867528	2453.884978
349.258191	2451.613938
349.648789	2449.443722
350.039324	2446.872733
350.429796	2450.336006
350.820203	2447.913732
351.210548	2447.074379
351.600828	2446.797116
351.991045	2445.877105
352.381198	2444.331992
352.771288	2447.220573
353.161314	2446.570264
353.551276	2444.586570
353.941175	2444.296704
354.331010	2446.202260
354.720782	2449.118567
355.110490	2448.463217
355.500135	2447.054215
355.889717	2449.237034
356.279235	2448.916921
356.668689	2450.595625
357.058080	2450.015893
357.447408	2446.635799
357.836672	2448.727878
358.225873	2449.254678
358.615010	2448.311983
359.004084	2450.835080
359.393095	2455.130143
359.782043	2455.026800
360.170927	2454.235338
360.559748	2456.196347
360.948505	2458.958900
361.337199	2461.585341
361.725830	2457.222222
362.114398	2461.285392
362.502903	2463.667337
362.891344	2463.879066
363.279722	2459.296657
363.668037	2467.097843
364.056289	2465.023408
364.444478	2464.088274
364.832603	2465.724128
365.220665	2465.474591
365.608665	2467.143213
365.996601	2468.620271
366.384474	2467.133131
366.772284	2469.641105
367.160031	2469.517596
367.547715	2473.885756
367.935336	2471.322329
368.322893	2472.897690
368.710388	2474.372228
369.097820	2476.081179
369.485189	2475.342650
369.872495	2478.856334
370.259738	2475.566981
370.646918	2479.609986
371.034035	2480.479585
371.421090	2485.094762
371.808081	2481.455049
372.195010	2485.271202
372.581875	2487.436378
372.968678	2492.409476
373.355418	2495.096411
373.742096	2497.596823
374.128710	2503.905827
374.515262	2509.685510
374.901751	2518.706655
375.288177	2528.221833
375.674540	2533.719211
376.060841	2550.639844
376.447079	2565.985116
376.833254	2578.436766
377.219367	2595.949735
377.605417	2620.648868
377.991404	2638.413894
378.377329	2666.697288
378.763191	2688.986750
379.148991	2726.016545
379.534727	2763.671444
379.920402	2797.784932
380.306013	2837.332784
380.691563	2887.706514
381.077049	2933.777619
381.462474	2978.621203
381.847835	3041.928013
382.233134	3098.819954
382.618371	3152.820794
383.003545	3227.684450
383.388657	3295.535860
383.773706	3374.354300
384.158693	3442.157819
384.543618	3527.156714
384.928480	3597.261520
385.313280	3694.396993
385.698017	3789.384935
386.082692	3898.543559
386.467305	3961.547900
386.851856	4079.987289
387.236344	4219.128177
387.620770	4287.317344
388.005133	4406.001229
388.389435	4548.320564
388.773674	4627.862410
389.157851	4761.442904
389.541965	4898.214449
389.926018	4930.772742
390.310008	5105.945276
390.693936	5226.764090
391.077802	5349.690106
391.461606	5479.058716
391.845348	5599.572540
392.229027	5725.747580
392.612645	5942.691115
392.996200	6069.156021
393.379694	6244.741930
393.763125	6467.744932
394.146494	6575.905408
394.529801	6721.640125
394.913047	6963.920499
395.296230	6982.073694
395.679351	7050.998870
396.062410	7315.188099
396.445408	7231.401602
396.828343	7394.162815
397.211217	7539.726133
397.594028	7442.961185
397.976778	7656.144019
398.359466	7829.912592
398.742092	7821.042682
399.124656	7970.661607
399.507158	8167.352307
399.889598	8198.617543
400.271977	8417.824557
400.654294	8458.075649
401.036549	8666.310591
401.418742	8691.796145
401.800874	8995.422320
402.182944	9084.933048
402.564952	9452.690262
402.946898	9284.645919
403.328783	9343.244292
403.710606	9547.196773
404.092367	9802.271596
404.474067	10164.186113
404.855705	9963.202871
405.237282	9908.849150
405.618797	10335.812196
406.000250	10585.029198
406.381642	10947.871287
406.762972	10898.120140
407.144240	10702.455315
407.525447	10958.303955
407.906593	10894.377083
408.287677	11158.707464
408.668700	11304.124588
409.049661	11286.755293
409.430560	11438.751122
409.811399	11416.161712
410.192176	11573.017214
410.572891	11646.290385
410.953545	12128.590176
411.334138	11601.865217
411.714669	12198.949561
412.095139	11522.847651
412.475547	12017.636901
412.855894	11857.791995
413.236180	12183.102693
413.616405	11869.429498
413.996568	12142.586940
414.376670	12113.791869
414.756711	12003.783810
415.136691	12274.612239
415.516609	12447.851491
415.896466	12517.827747
416.276262	12798.252012
416.655997	13241.843304
417.035670	13281.643213
417.415283	13916.906736
417.794834	14019.400955
418.174324	13750.021858
418.553753	13658.300585
418.933121	14141.590963
419.312428	13958.322335
419.691674	13871.080127
420.070859	14314.782324
420.449983	13978.633144
420.829045	14511.997303
421.208047	14265.384057
421.586988	14718.062028
421.965867	14956.606908
422.344686	14960.395335
422.723444	15515.703637
423.102141	14222.922418
423.480777	15402.547377
423.859352	14897.872424
424.237866	15992.140566
424.616319	15704.383943
424.994712	16340.360789
425.373044	16148.418856
425.751314	16813.808314
426.129524	15946.843278
426.507673	17013.566556
426.885762	16715.306688
427.263789	16916.526865
427.641756	17077.876555
428.019662	17138.130947
428.397508	17192.706478
428.775292	17467.008262
429.153016	17434.175227
429.530679	17509.132143
429.908282	17533.362449
430.285824	17263.199453
430.663305	17952.942725
431.040726	17561.151810
431.418086	17389.717291
431.795385	18024.678344
432.172624	18446.764074
432.549802	17995.069127
432.926920	18197.448769
433.303977	18073.960664
433.680974	18332.506322
434.057910	18622.927195
434.434786	18638.224576
434.811601	18560.318585
435.188355	19582.793134
435.565050	19229.428414
435.941683	19184.191620
436.318257	20048.167251
436.694770	19864.641525
437.071222	20453.866710
437.447614	19537.846206
437.823946	19555.318846
438.200218	19709.391631
438.576429	19478.902515
438.952580	19762.132182
439.328670	19719.126099
439.704700	20128.051896
440.080670	19702.361742
440.456580	20294.740168
440.832429	20462.406425
441.208218	19473.659715
441.583947	19910.405120
441.959616	20016.453352
442.335224	20249.851214
442.710773	20377.954495
443.086261	20905.349928
443.461689	20272.899369
443.837057	20401.421066
444.212365	21039.048890
444.587612	21034.360617
444.962800	20621.467431
445.337927	21033.992612
445.712995	19778.951992
446.088002	21613.435438
446.462949	21793.792799
446.837837	21965.408800
447.212664	21918.699989
447.587431	24683.147770
447.962139	27570.871928
448.336786	29958.601844
448.711374	28446.429610
449.085901	24805.602438
449.460369	24738.671039
449.834776	24644.968592
450.209124	27082.527793
450.583412	26655.267320
450.957640	27192.369494
451.331808	25859.949683
451.705917	24506.107488
452.079965	24518.927143
452.453954	24877.053233
452.827883	24762.500573
453.201752	24572.086110
453.575562	24731.235337
453.949311	25836.407495
454.323001	25871.675407
454.696632	25650.068804
455.070202	27173.510538
455.443713	27325.229104
455.817164	27893.634324
456.190556	28441.406101
456.563888	27877.895841
456.937160	28317.466813
457.310373	26670.289958
457.683526	27100.902799
458.056619	27075.833141
458.429653	27020.889605
458.802628	27581.483557
459.175542	27693.901288
459.548398	28985.971704
459.921194	30542.798478
460.293930	31217.388042
460.666607	33214.032805
461.039224	34975.626208
461.411782	35356.072006
461.784280	34177.982079
462.156719	33686.164589
462.529099	33124.196923
462.901419	31839.980624
463.273680	30788.521961
463.645882	30880.316331
464.018024	30843.568840
464.390106	31649.034320
464.762130	34306.997808
465.134094	38313.981628
465.505999	43597.443575
465.877845	48190.471612
466.249631	49379.969671
466.621358	47643.035072
466.993026	45527.000662
467.364634	43437.780151
467.736184	41488.086174
468.107674	40236.665102
468.479105	39466.979212
468.850477	38771.751165
469.221790	37358.463684
469.593043	35634.472248
469.964238	34760.610914
470.335373	34664.269423
470.706449	36335.805133
471.077467	38816.708175
471.448425	43396.609047
471.819324	46253.935047
472.190164	44464.607736
472.560945	40921.876377
472.931667	37849.731688
473.302330	36728.221151
473.672934	35923.925219
474.043479	36412.208860
474.413965	35640.120861
474.784393	35263.339981
475.154761	36144.208519
475.525070	36172.607859
475.895321	35726.397688
476.265513	36320.059089
476.635645	37280.688763
477.005719	37090.944773
477.375734	37537.742238
477.745691	38237.756862
478.115588	39540.179287
478.485427	41491.312513
478.855207	44803.080888
479.224928	47414.839681
479.594591	49076.033464
479.964194	48072.692614
480.333739	48206.404179
480.703226	48215.203513
481.072653	48847.112147
481.442022	49355.618377
481.811333	49634.505090
482.180584	48344.733440
482.549777	47808.707552
482.918912	47295.664284
483.287988	47003.791558
483.657005	46174.791452
484.025964	45541.625050
484.394864	45534.564914
484.763706	45113.552950
485.132489	44247.086989
485.501213	44087.272330
485.869879	44213.974170
486.238487	43823.148636
486.607036	44022.561558
486.975527	43490.661854
487.343959	43702.307137
487.712333	43778.158858
488.080648	43674.782437
488.448905	44132.975431
488.817104	43936.057879
489.185244	44870.022370
489.553326	46509.057761
489.921350	49240.634699
490.289315	52154.585459
490.657222	52792.447697
491.025070	53081.154578
491.392861	52177.096732
491.760593	50912.455234
492.128267	49236.526158
492.495883	47694.127166
492.863440	46312.455282
493.230939	44976.322660
493.598380	43885.873193
493.965763	43565.041559
494.333088	42747.152156
494.700354	42283.587813
495.067563	41991.775581
495.434713	41854.159643
495.801805	41928.766199
496.168839	41567.204563
496.535815	41238.591909
496.902733	41266.567792
497.269593	40873.693029
497.636395	40808.518471
498.003139	41204.710314
498.369825	40656.971304
498.736453	40959.183436
499.103023	40485.514100
499.469535	40375.748016
499.835989	40463.315379
500.202385	40149.102781
500.568723	40160.510912
500.935003	40349.135765
501.301226	40143.136575
501.667390	40756.856727
502.033497	41008.309480
502.399546	40456.618206
502.765537	39764.707238
503.131470	40157.582001
503.497345	40502.780052
503.863163	39179.434318
504.228923	39803.458588
504.594625	40208.250639
504.960269	39488.681380
505.325856	40166.139360
505.691385	39548.968539
506.056856	39676.660966
506.422270	40105.824475
506.787625	39686.776041
507.152924	39874.417869
507.518164	39982.306123
507.883347	39217.489988
508.248472	39467.299326
508.613540	39930.858628
508.978550	40230.895502
509.343503	39976.050051
509.708398	40176.814003
510.073236	40715.234440
510.438016	40702.308921
510.802738	40165.015183
511.167403	40788.522734
511.532010	41022.308765
511.896561	41311.862559
512.261053	42143.554641
512.625488	41703.434184
512.989866	41591.195414
513.354186	41412.675554
513.718449	41410.769998
514.082655	42082.564242
514.446803	41760.159768
514.810894	42274.332254
515.174927	42206.982439
515.538904	42108.652213
515.902822	42766.240485
516.266684	42218.292268
516.630488	42642.780107
516.994235	42488.908968
517.357925	43060.192686
517.721558	43228.622678
518.085133	43540.052559
518.448651	43667.654245
518.812112	43449.107623
519.175516	43554.192996
519.538863	43884.915373
519.902152	43846.489178
520.265385	44322.142208
520.628560	44343.622565
520.991678	44143.955064
521.354739	44388.788783
521.717743	44697.914857
522.080690	44591.372591
522.443580	45135.655889
522.806413	45197.137802
523.169189	45138.252084
523.531908	45326.750908
523.894569	45172.017732
524.257174	45327.270147
524.619722	45650.977759
524.982213	45627.652340
525.344647	45538.867539
525.707025	45592.296208
526.069345	45980.734756
526.431608	45926.451611
526.793815	46234.075422
527.155964	45767.526715
527.518057	45924.692248
527.880093	45723.595580
528.242072	46239.993736
528.603995	45946.893490
528.965860	45940.133302
529.327669	46044.686833
529.689421	45945.938191
530.051117	45903.219453
530.412755	46055.966415
530.774337	46112.873480
531.135862	45912.475012
531.497331	46118.708616
531.858743	46035.111162
532.220098	46381.483801
532.581396	46088.512104
532.942638	45751.994920
533.303824	46032.635955
533.664953	46006.989085
534.026025	45721.465693
534.387040	46188.352156
534.747999	46153.774882
535.108902	46327.767786
535.469748	45858.388472
535.830537	45979.792060
536.191270	46153.200190
536.551947	45816.622513
536.912567	46123.890922
537.273131	46235.479383
537.633638	45726.630355
537.994089	46073.986019
538.354483	45680.281986
538.714821	46227.862199
539.075103	46590.479957
539.435328	46354.145624
539.795497	46236.215391
540.155609	46238.239415
540.515665	46701.430712
540.875665	46161.008938
541.235609	46479.135992
541.595496	46431.721420
541.955328	47109.305429
542.315102	46484.978690
542.674821	46283.748431
543.034483	46306.539488
543.394090	46285.172557
543.753640	46239.396359
544.113134	47231.414778
544.472571	46265.461645
544.831953	47500.829163
545.191278	46708.238791
545.550548	46432.452387
545.909761	46889.664876
546.268918	47090.103674
546.628019	47401.737722
546.987064	46961.466031
547.346053	46234.627428
547.704986	47118.923950
548.063863	46680.121755
548.422684	46873.364305
548.781449	46721.244967
549.140158	47110.590923
549.498811	46970.358626
549.857408	46398.714465
550.215949	47231.891167
550.574434	47172.849173
550.932864	46923.440607
551.291237	47650.881628
551.649555	47270.859286
552.007817	47490.764499
552.366022	47133.150087
552.724173	47318.825865
553.082267	47721.674551
553.440305	48018.701856
553.798288	47338.688011
554.156215	47635.846386
554.514086	47837.840380
554.871902	47582.896627
555.229661	47606.648023
555.587365	47435.523535
555.945014	47513.255607
556.302606	47443.148281
556.660143	47671.053805
557.017625	47756.594624
557.375050	47551.704488
557.732421	47877.494096
558.089735	47865.982621
558.446994	47807.124629
558.804197	48266.353580
559.161345	48209.441474
559.518437	47442.908826
559.875474	47756.350128
560.232455	47906.387469
560.589381	48086.644007
560.946251	47781.704611
561.303065	48460.674938
561.659825	48259.827807
562.016528	47944.299467
562.373177	47660.197680
562.729770	48157.648659
563.086307	47649.515475
563.442789	48103.846945
563.799216	48166.851286
564.155587	47954.792628
564.511904	47980.434458
564.868164	48065.135924
565.224370	48320.190583
565.580520	48050.992967
565.936615	48254.968134
566.292654	47988.165067
566.648638	48201.012665
567.004567	48164.580246
567.360441	48199.991831
567.716260	48065.919824
568.072023	48353.885655
568.427732	48330.645936
568.783385	47881.355620
569.138982	48290.808217
569.494525	48237.535824
569.850013	48014.346299
570.205445	47979.017893
570.560823	47950.255590
570.916145	47824.385540
571.271412	47825.832351
571.626625	47594.392978
571.981782	47647.423396
572.336884	47337.175665
572.691931	47654.990168
573.046923	47260.731608
573.401860	47109.267620
573.756743	47098.192205
574.111570	47217.221409
574.466342	47057.789878
574.821059	47190.588993
575.175722	46715.649287
575.530330	46732.983294
575.884882	46452.861498
576.239380	46413.790036
576.593823	46395.369659
576.948211	46310.219530
577.302544	45829.139698
577.656823	45850.574684
578.011047	46076.373006
578.365216	45804.992571
578.719330	45590.405775
579.073389	45462.355426
579.427394	45539.154884
579.781344	45495.256517
580.135239	45156.077604
580.489080	45240.153967
580.842866	44727.329990
581.196597	45184.182036
581.550273	45133.800745
581.903895	44986.278939
582.257463	45403.068936
582.610975	44800.656093
582.964434	45069.475622
583.317837	44714.898504
583.671186	44566.224795
584.024481	44791.483713
584.377721	44323.954503
584.730906	44597.996667
585.084037	44640.135672
585.437113	44347.360580
585.790135	44385.824584
586.143103	43984.203419
586.496016	44112.929282
586.848874	44132.181449
587.201679	44139.770906
587.554428	43642.284639
587.907124	43835.703629
588.259765	43587.429323
588.612352	43830.627188
588.964884	43214.131881
589.317362	43516.767470
589.669786	43457.478459
590.022155	43226.613778
590.374470	43643.113908
590.726731	43173.563195
591.078937	42683.109337
591.431090	42783.448464
591.783188	42449.643421
592.135232	42117.577576
592.487222	42356.351828
592.839157	42451.054944
593.191038	42121.013122
593.542866	41889.190621
593.894639	41283.266614
594.246358	41570.380490
594.598022	41552.560011
594.949633	41150.865749
595.301190	41120.417180
595.652692	40947.132558
596.004141	41274.797476
596.355535	40303.828395
596.706876	40245.101473
597.058162	40076.477398
597.409395	40545.352596
597.760573	40622.434359
598.111698	40195.488958
598.462768	40209.344569
598.813785	40251.019788
599.164748	39694.572185
599.515657	40084.850754
599.866511	39562.113347
600.217312	40189.353873
600.568060	39143.173298
600.918753	39885.415146
601.269392	39847.142706
601.619978	39485.578550
601.970510	39704.190707
602.320988	39879.269980
602.671412	40202.203775
603.021783	39950.231782
603.372100	39577.045245
603.722363	39707.666582
604.072572	39774.660996
604.422728	39780.128128
604.772830	39579.462478
605.122878	39677.669196
605.472872	39603.191189
605.822813	39891.184747
606.172701	39727.558975
606.522534	39956.051794
606.872314	40227.079348
607.222041	39974.099125
607.571714	40372.763653
607.921333	39818.115742
608.270899	40109.007963
608.620411	40447.201331
608.969870	40245.650959
609.319276	40240.526626
609.668627	40300.551645
610.017926	40762.281008
610.367171	40924.954002
610.716362	41020.204083
611.065500	40953.736469
611.414585	41145.756540
611.763616	41438.811416
612.112594	41355.897038
612.461518	41584.137799
612.810389	41870.699669
613.159207	41731.793195
613.507971	41819.000116
613.856682	42293.745738
614.205340	42164.336798
614.553945	42872.117319
614.902496	42311.112513
615.250994	42787.423413
615.599439	42851.592261
615.947830	43055.181779
616.296169	43099.354890
616.644454	43233.787340
616.992686	43394.353131
617.340864	43909.526286
617.688990	43646.110874
618.037063	44229.808434
618.385082	44210.089961
618.733048	44517.776786
619.080961	44527.785997
619.428821	44533.336307
619.776628	44654.397096
620.124382	44484.636241
620.472083	44612.550478
620.819731	44744.583339
621.167326	44435.573211
621.514868	44383.157814
621.862357	43947.098006
622.209793	43972.124814
622.557176	43658.670909
622.904506	43404.526179
623.251783	43069.286928
623.599007	42840.829397
623.946179	42620.793114
624.293297	42563.570977
624.640363	41981.012718
624.987376	41965.738022
625.334336	41722.562842
625.681243	41365.737370
626.028097	41321.163488
626.374899	41170.543893
626.721647	41143.230922
627.068343	41032.333099
627.414987	40808.089973
627.761577	40560.350029
628.108115	40905.195199
628.454600	40353.135921
628.801032	40541.032328
629.147412	40502.681750
629.493739	40515.309840
629.840014	40140.217747
630.186236	40483.769861
630.532405	40108.309764
630.878521	40309.729066
631.224585	40194.737826
631.570597	39899.064070
631.916556	40062.415099
632.262462	40029.209019
632.608316	40031.059122
632.954117	39938.780801
633.299866	39936.749216
633.645562	39838.764309
633.991206	39336.372999
634.336797	38928.929301
634.682336	38925.554248
635.027823	38669.839199
635.373257	38479.618820
635.718639	38245.409333
636.063968	38113.532748
636.409245	37538.296765
636.754470	37576.607014
637.099642	37331.291865
637.444762	36859.941460
637.789829	36999.460434
638.134845	36643.126474
638.479808	36598.683662
638.824719	36501.827973
639.169577	36116.366226
639.514383	36172.300349
639.859137	35862.725612
640.203839	36100.219411
640.548489	35731.708544
640.893086	35811.177293
641.237632	35554.244805
641.582125	35665.372000
641.926566	35616.722345
642.270955	35557.597172
642.615292	35572.622331
642.959576	35547.315739
643.303809	35543.716355
643.647990	35682.385895
643.992118	35652.408673
644.336195	35654.475546
644.680219	35735.721302
645.024192	36016.107759
645.368112	36545.058388
645.711981	36532.624382
646.055797	37422.834178
646.399562	37338.273863
646.743274	38293.259965
647.086935	38738.134231
647.430544	38627.927046
647.774101	38750.840459
648.117606	38997.534363
648.461059	39312.704781
648.804460	38937.647976
649.147810	38313.238058
649.491108	38054.921773
649.834354	37703.167702
650.177548	36876.642802
650.520690	36432.065965
650.863781	36441.550896
651.206820	36289.237474
651.549807	35860.600765
651.892742	35365.196495
652.235626	35179.646745
652.578458	35031.396493
652.921238	34418.465282
653.263967	34744.728759
653.606644	34423.017444
653.949269	34379.091350
654.291843	33980.510000
654.634365	34385.123090
654.976836	33962.959223
655.319255	33962.157680
655.661622	33973.099504
656.003938	33750.532562
656.346203	33604.671816
656.688416	33814.724094
657.030577	33622.051194
657.372687	33453.946357
657.714746	33721.984507
658.056753	33856.658933
658.398708	33304.042607
658.740612	33348.992055
659.082465	33640.748834
659.424266	33443.959832
659.766016	33555.036616
660.107715	33432.539098
660.449362	33560.566761
660.790958	33545.897004
661.132503	33576.340532
661.473996	33599.484469
661.815438	33701.449367
662.156829	33914.382665
662.498168	33668.152546
662.839456	33702.228226
663.180693	33850.768344
663.521879	34005.675440
663.863013	33945.191676
664.204097	33956.619972
664.545129	34414.618881
664.886110	34382.131165
665.227040	34436.900781
665.567918	34558.256478
665.908746	34619.992968
666.249522	34787.901200
666.590248	34799.566430
666.930922	34899.096451
667.271545	34862.681676
667.612118	34952.809945
667.952639	34742.956793
668.293109	34798.490144
668.633528	34695.194381
668.973896	34613.192452
669.314213	34637.155577
669.654480	34394.358484
669.994695	34408.745937
670.334859	34300.673681
670.674973	34216.176381
671.015035	34370.251686
671.355047	34303.085873
671.695008	34237.417282
672.034918	34136.359792
672.374777	34221.940940
672.714585	34050.488777
673.054342	34288.753873
673.394049	34044.424269
673.733705	34323.235365
674.073310	33975.143692
674.412864	34066.580140
674.752368	33657.969415
675.091820	33960.259685
675.431223	33543.857857
675.770574	33276.966569
676.109875	33129.094404
676.449125	32850.774820
676.788324	32768.112500
677.127473	32233.389750
677.466571	32152.038130
677.805619	31790.489097
678.144616	31790.557152
678.483562	31718.193909
678.822458	31379.814019
679.161303	31308.965643
679.500098	31208.666846
679.838842	31109.547679
680.177535	31253.064288
680.516179	31517.142612
680.854771	31755.596750
681.193314	32611.269601
681.531805	33717.969228
681.870247	34497.306407
682.208638	35234.802009
682.546978	35470.544007
682.885268	35586.765288
683.223508	35040.563831
683.561697	34716.556270
683.899836	34550.414963
684.237925	34025.237638
684.575963	33863.847618
684.913951	33396.719179
685.251889	33564.932401
685.589776	33531.151629
685.927614	33524.875392
686.265401	33658.254241
686.603137	33758.484982
686.940824	34255.358749
687.278460	34618.858709
687.616046	34774.075836
687.953582	35383.286675
688.291068	35255.405205
688.628504	35549.740534
688.965889	35487.822562
689.303224	35125.219928
689.640510	34768.959065
689.977745	34044.830082
690.314930	33254.707355
690.652065	32719.661971
690.989150	31997.743534
691.326185	31092.470770
691.663170	30397.519986
692.000105	29636.890529
692.336990	28946.217164
692.673825	28485.662390
693.010610	27970.282547
693.347345	27368.207461
693.684030	26710.165485
694.020665	26419.278305
694.357251	25749.765183
694.693786	25695.212337
695.030272	25445.541631
695.366707	24904.741770
695.703093	24606.255051
696.039429	24590.750982
696.375716	24334.544420
696.711952	24281.703046
697.048139	24128.527586
697.384276	23942.816519
697.720363	24076.210491
698.056400	23865.293656
698.392388	23654.767509
698.728326	23623.653508
699.064214	23411.582248
699.400053	23360.696841
699.735842	22993.002641
700.071581	22717.168347
700.407270	22430.893823
700.742910	22231.617011
701.078501	21959.072069
701.414042	21674.927433
701.749533	21368.967203
702.084974	21025.883916
702.420366	21231.250442
702.755709	20780.261257
703.091002	20491.304839
703.426246	20506.715646
703.761440	20400.528782
704.096584	20129.607092
704.431679	20084.718137
704.766725	19972.431477
705.101721	19908.988555
705.436668	20004.931795
705.771565	19676.064563
706.106413	20021.121461
706.441212	20002.156640
706.775961	20126.831937
707.110661	20197.062771
707.445311	20551.942358
707.779913	20394.479397
708.114465	20627.625201
708.448967	20912.145403
708.783421	21600.482193
709.117825	21869.495807
709.452180	22095.669695
709.786485	22479.961893
710.120742	23296.119660
710.454949	23307.432009
710.789107	23759.946143
711.123216	24479.699404
711.457275	24606.461738
711.791286	25147.490972
712.125247	25232.555402
712.459159	24947.251300
712.793023	25615.156293
713.126837	24513.374312
713.460602	24782.294664
713.794318	24420.193624
714.127985	24026.812225
714.461602	23135.700062
714.795171	23103.192182
715.128691	22071.893092
715.462162	21536.280579
715.795584	21111.255857
716.128957	20845.027481
716.462281	20428.602968
716.795556	20195.091680
717.128782	19686.214926
717.461960	19134.790833
717.795088	19061.953722
718.128167	18648.659765
718.461198	18185.118107
718.794180	18050.678095
719.127113	17677.035334
719.459997	17466.610011
719.792833	17119.342566
720.125619	17083.081547
720.458357	16759.517608
720.791046	16590.901094
721.123686	16426.188954
721.456278	16181.640060
721.788821	16138.202958
722.121315	15873.333173
722.453761	15945.613237
722.786158	15874.595982
723.118506	15867.913933
723.450805	15747.511014
723.783056	15903.207051
724.115259	15798.446833
724.447412	15725.130812
724.779518	15964.159642
725.111574	15973.977289
725.443582	16186.217428
725.775542	16153.071841
726.107453	16630.756456
726.439315	16507.129720
726.771129	16899.558341
727.102895	17278.385929
727.434612	17488.665059
727.766281	17613.705839
728.097901	17887.805976
728.429473	17923.842665
728.760996	17909.752640
729.092471	17993.846648
729.423897	17882.729534
729.755276	17738.665960
730.086606	17864.704889
730.417887	18382.441471
730.749120	18889.546260
731.080305	19070.687521
731.411442	19407.333254
731.742530	19482.514502
732.073570	19570.858202
732.404562	19877.045284
732.735506	19706.583708
733.066401	19421.342620
733.397249	18910.953520
733.728048	18264.178522
734.058798	17427.846058
734.389501	16746.554281
734.720156	16272.660613
735.050762	15739.669499
735.381320	15376.829931
735.711831	15126.708042
736.042293	14770.933650
736.372707	14775.112767
736.703073	14564.445468
737.033391	14740.585904
737.363661	14704.347569
737.693883	14802.781139
738.024056	14967.261387
738.354182	15142.791843
738.684260	15427.100317
739.014290	15649.841179
739.344272	15832.668706
739.674207	16126.376411
740.004093	16241.957466
740.333931	16244.679689
740.663722	16282.997499
740.993464	16278.692354
741.323159	16111.152126
741.652806	15838.302195
741.982405	15637.916330
742.311956	15305.164888
742.641460	15181.956567
742.970915	14867.252456
743.300323	14530.790725
743.629683	14326.757585
743.958996	14049.663002
744.288260	13778.466569
744.617477	13469.390906
744.946647	13398.227458
745.275768	13122.945170
745.604842	12933.831324
745.933869	12750.804672
746.262847	12705.217518
746.591778	12637.663536
746.920662	12522.505938
747.249498	12519.294723
747.578286	12640.549596
747.907027	12774.392231
748.235720	13001.090399
748.564365	13023.440354
748.892963	12928.306220
749.221514	12983.889982
749.550017	12840.517046
749.878473	12801.372486
750.206881	12575.362436
750.535242	12483.799959
750.863555	12395.504149
751.191821	12300.985035
751.520039	12315.188486
751.848210	12217.692571
752.176334	12252.642890
752.504411	12151.449288
752.832440	11999.672749
753.160421	12060.292624
753.488356	11931.455855
753.816243	11843.323883
754.144082	11700.255937
754.471875	11644.798203
754.799620	11583.802762
755.127318	11558.896942
755.454969	11521.675582
755.782572	11471.921915
756.110129	11486.538740
756.437638	11405.645865
756.765100	11395.871068
757.092515	11397.002807
757.419882	11414.167936
757.747203	11407.082594
758.074477	11486.148051
758.401703	11439.257758
758.728882	11603.274219
759.056014	11636.006431
759.383099	11759.471851
759.710138	11852.244205
760.037129	11936.388624
760.364073	11961.392747
760.690970	11938.447936
761.017820	11936.784355
761.344623	12128.242337
761.671379	12453.996657
761.998088	13075.525556
762.324751	14621.251710
762.651366	17480.868914
762.977935	21144.149386
763.304456	23394.676738
763.630931	23917.756944
763.957359	22768.830091
764.283740	20867.695029
764.610074	18991.128031
764.936362	16850.712081
765.262602	15321.178113
765.588796	13837.422863
765.914943	12805.216366
766.241044	11929.477202
766.567097	11297.956737
766.893104	10738.587785
767.219064	10371.790911
767.544978	9978.719543
767.870845	9657.177106
768.196665	9473.227923
768.522438	9272.796687
768.848165	9107.046069
769.173846	8934.215151
769.499479	8816.325247
769.825066	8660.843460
770.150607	8472.465623
770.476101	8400.823265
770.801548	8292.244373
771.126949	8153.121130
771.452303	8062.375319
771.777611	7900.667707
772.102872	7879.656178
772.428087	7764.322139
772.753256	7641.428891
773.078378	7544.943727
773.403453	7405.291163
773.728482	7292.845705
774.053465	7229.349852
774.378401	7143.879609
774.703291	7046.814712
775.028135	6949.953983
775.352932	6911.308497
775.677683	6829.120045
776.002388	6739.513536
776.327046	6740.241983
776.651658	6654.287789
776.976224	6576.054122
777.300743	6557.210289
777.625216	6488.227140
777.949643	6448.028979
778.274024	6452.497962
778.598359	6385.826182
778.922647	6388.482870
779.246889	6347.853691
779.571086	6343.546025
779.895236	6358.908941
780.219339	6353.507345
780.543397	6351.702612
780.867409	6396.883953
781.191374	6394.292800
781.515294	6365.729622
781.839167	6418.041676
782.162995	6388.634105
782.486776	6337.221897
782.810511	6298.495753
783.134201	6226.205607
783.457844	6211.503082
783.781441	6164.368293
784.104993	6122.703157
784.428498	6094.833138
784.751958	6071.651392
785.075372	6051.920316
785.398739	6013.317680
785.722061	6034.089755
786.045337	6032.138828
786.368568	6145.206868
786.691752	6161.736811
787.014891	6409.925418
787.337983	6681.830133
787.661030	7124.123327
787.984031	7551.376239
788.306987	7816.175448
788.629897	7903.210969
788.952760	7826.129206
789.275579	7647.972309
789.598351	7351.812082
789.921078	7090.357679
790.243759	6809.139432
790.566395	6606.913546
790.888984	6411.145377
791.211529	6267.311176
791.534027	6102.536021
791.856480	5966.311441
792.178888	5904.703500
792.501249	5832.645247
792.823566	5731.776800
793.145836	5721.800356
793.468062	5704.093303
793.790241	5660.575543
794.112375	5697.312951
794.434464	5796.301048
794.756507	5825.421273
795.078505	5943.255724
795.400457	6161.585577
795.722364	6399.449900
796.044226	6597.695796
796.366042	6755.332677
796.687812	6702.992897
797.009538	6735.314255
797.331218	6640.177599
797.652852	6580.109731
797.974442	6457.523992
798.295986	6386.365585
798.617484	6258.900010
798.938938	6147.246014
799.260346	6082.038689
799.581709	5942.625580
799.903026	5887.709770
800.224299	5816.644625
800.545526	5699.042067
800.866708	5632.667715
801.187845	5586.074851
801.508936	5506.280947
801.829983	5477.455629
802.150984	5372.786152
802.471940	5340.550494
802.792851	5323.087937
803.113717	5300.735461
803.434538	5273.717397
803.755314	5241.766563
804.076045	5234.421602
804.396731	5189.832597
804.717372	5212.658941
805.037967	5206.546542
805.358518	5235.570985
805.679024	5295.976611
805.999485	5303.107323
806.319901	5316.337832
806.640272	5339.859856
806.960598	5386.626640
807.280879	5376.045258
807.601115	5412.989354
807.921306	5381.300661
808.241453	5371.674578
808.561554	5382.281165
808.881611	5354.224623
809.201623	5351.051217
809.521590	5299.671777
809.841513	5288.374551
810.161390	5302.131860
810.481223	5211.743972
810.801011	5203.436150
811.120755	5179.314229
811.440453	5123.007061
811.760107	5096.102423
812.079716	5069.265841
812.399281	5020.419580
812.718801	5011.277448
813.038276	4981.721163
813.357707	4945.071974
813.677093	4966.237259
813.996434	4903.366509
814.315731	4925.051032
814.634983	4923.495836
814.954191	4926.278553
815.273354	4987.727698
815.592473	5027.298235
815.911547	5104.621973
816.230577	5157.549047
816.549562	5247.684878
816.868502	5301.703362
817.187399	5356.437690
817.506250	5437.711172
817.825058	5465.533300
818.143821	5622.782012
818.462539	5792.005985
818.781213	6024.025091
819.099843	6386.219392
819.418429	7008.474217
819.736970	7636.498643
820.055466	8352.677725
820.373919	9278.296586
820.692327	10734.806920
821.010691	13453.407928
821.329011	19715.904801
821.647286	29320.704319
821.965517	39742.803425
822.283704	45262.917298
822.601847	46860.655557
822.919945	42320.589882
823.237999	37222.256748
823.556010	32027.672864
823.873976	27258.897602
824.191897	23004.816585
824.509775	19897.378778
824.827609	17076.104590
825.145398	15465.760926
825.463144	14685.196226
825.780845	14959.379542
826.098502	16211.554267
826.416116	18657.196959
826.733685	20921.060684
827.051210	21447.609203
827.368692	20020.546769
827.686129	17469.523798
828.003522	14971.511079
828.320872	12755.586207
828.638177	11082.361710
828.955439	9820.722219
829.272656	8743.369669
829.589830	7894.469608
829.906960	7151.025445
830.224046	6610.676767
830.541088	6188.391912
830.858086	5924.641263
831.175041	5719.945212
831.491952	5657.755017
831.808819	5688.543864
832.125642	5936.538387
832.442421	6483.445606
832.759157	7594.720080
833.075849	9358.357671
833.392497	11210.628828
833.709101	12346.453722
834.025662	12111.835902
834.342179	11065.927548
834.658653	9753.473227
834.975083	8645.039443
835.291469	7729.825524
835.607811	6980.158056
835.924110	6456.049455
836.240366	5959.705009
836.556578	5502.991594
836.872746	5145.795597
837.188871	4866.021641
837.504952	4640.402280
837.820990	4472.378102
838.136984	4351.972663
838.452935	4300.830157
838.768842	4334.237883
839.084706	4615.514103
839.400526	5353.523903
839.716303	6267.555672
840.032037	6842.025399
840.347727	6697.608944
840.663373	6104.038285
840.978977	5522.084964
841.294537	5072.741716
841.610054	4739.876848
841.925527	4493.412316
842.240957	4279.735449
842.556344	4095.151080
842.871687	3933.698046
843.186987	3780.199952
843.502244	3660.359122
843.817458	3572.154054
844.132629	3501.489680
844.447756	3452.250209
844.762840	3402.985533
845.077881	3366.691746
845.392879	3326.309583
845.707833	3301.151705
846.022745	3275.908127
846.337613	3263.471601
846.652438	3236.461098
846.967221	3227.477762
847.281960	3209.216183
847.596656	3200.031200
847.911309	3189.064170
848.225919	3174.301151
848.540485	3162.794717
848.855009	3154.436484
849.169490	3145.057417
849.483928	3136.784884
849.798323	3131.721045
850.112675	3118.722430
850.426984	3121.016155
850.741251	3113.943416
851.055474	3111.092643
851.369654	3110.674228
851.683792	3109.350925
851.997887	3111.730349
852.311938	3112.375617
852.625947	3110.848147
852.939914	3105.353290
853.253837	3110.749845
853.567718	3109.991151
853.881555	3101.272476
854.195350	3108.912344
854.509103	3105.136520
854.822812	3102.406735
855.136479	3095.762495
855.450103	3101.769029
855.763685	3093.967844
856.077224	3097.652927
856.390720	3106.467385
856.704173	3114.777727
857.017584	3121.265692
857.330953	3123.846763
857.644278	3136.643732
857.957561	3135.590131
858.270802	3130.191055
858.584000	3135.199441
858.897155	3130.422948
859.210268	3115.622120
859.523339	3105.643156
859.836367	3102.860439
860.149352	3099.384564
860.462295	3093.937597
860.775195	3085.874271
861.088054	3082.985690
861.400869	3079.086358
861.713642	3078.778847
862.026373	3088.772935
862.339062	3090.681012
862.651708	3099.624018
862.964312	3119.405506
863.276873	3126.790797
863.589392	3154.547390
863.901869	3182.067048
864.214303	3202.244267
864.526696	3222.398800
864.839045	3241.857654
865.151353	3254.596649
865.463619	3252.711258
865.775842	3253.379211
866.088023	3257.109665
866.400162	3255.078080
866.712258	3253.739653
867.024313	3253.974067
867.336325	3252.698655
867.648296	3253.774941
867.960224	3250.147831
868.272110	3256.383738
868.583954	3257.661671
868.895755	3266.118207
869.207515	3259.942793
869.519233	3280.072120
869.830909	3285.004889
870.142542	3297.065850
870.454134	3299.929225
870.765684	3313.615958
871.077191	3336.364165
871.388657	3346.960670
871.700081	3364.745861
872.011463	3383.158675
872.322803	3402.183990
872.634101	3421.589912
872.945357	3442.021708
873.256571	3470.993219
873.567744	3488.143225
873.878874	3495.621777
874.189963	3509.369003
874.501010	3513.744725
874.812015	3509.701719
875.122979	3528.601005
875.433900	3524.689070
875.744780	3526.115716
876.055618	3533.753064
876.366415	3533.201058
876.677169	3541.397974
876.987882	3558.742064
877.298554	3577.117070
877.609183	3616.979994
877.919771	3662.511695
878.230317	3735.079105
878.540822	3840.318232
878.851285	3992.929083
879.161707	4219.675142
879.472087	4602.553297
879.782425	5236.395214
880.092722	6435.242092
880.402977	8395.179693
880.713191	10800.402414
881.023363	13214.071587
881.333494	14588.663171
881.643583	15069.596810
881.953631	14673.014278
882.263637	13837.649715
882.573602	12809.208960
882.883526	11833.614621
883.193408	10856.999448
883.503248	9926.004197
883.813048	9076.320237
884.122806	8300.514386
884.432522	7516.804006
884.742197	6839.209915
885.051831	6262.471668
885.361424	5751.840592
885.670975	5344.545608
885.980485	5011.779043
886.289954	4734.392073
886.599382	4513.264380
886.908768	4327.230680
887.218113	4158.442767
887.527417	4026.480482
887.836680	3901.081780
888.145901	3791.262764
888.455082	3715.448852
888.764221	3645.109632
889.073319	3579.569591
889.382376	3551.276115
889.691392	3523.574975
890.000366	3513.691792
890.309300	3510.203314
890.618193	3509.994106
890.927044	3507.075278
891.235855	3514.362266
891.544625	3529.601674
891.853353	3558.540418
892.162041	3618.444449
892.470687	3711.506669
892.779293	3831.884382
893.087858	4009.544726
893.396381	4297.054333
893.704864	4711.306109
894.013306	5283.247698
894.321707	5862.927458
894.630068	6226.344239
894.938387	6266.544920
895.246665	6089.212251
895.554903	5770.092089
895.863100	5433.194298
896.171256	5160.414943
896.479371	4914.956121
896.787446	4684.668652
897.095480	4483.100636
897.403473	4333.033048
897.711425	4184.316489
898.019336	4059.187488
898.327207	3939.744910
898.635038	3831.463446
898.942827	3723.464286
899.250576	3636.527068
899.558284	3552.785941
899.865952	3496.566993
900.173579	3431.405038
900.481165	3381.956360
900.788711	3338.347859
901.096216	3307.238898
901.403681	3276.109773
901.711105	3268.270779
902.018489	3262.027310
902.325832	3297.244811
902.633135	3361.085983
902.940397	3529.543701
903.247619	3938.134261
903.554800	4697.594170
903.861941	5678.920302
904.169041	6398.335805
904.476101	6622.420135
904.783121	6353.010791
905.090100	5953.368279
905.397039	5532.255492
905.703938	5165.022558
906.010796	4836.641796
906.317614	4572.616405
906.624391	4328.349816
906.931129	4126.065956
907.237826	3941.889921
907.544483	3766.016666
907.851099	3590.216508
908.157675	3424.438164
908.464211	3282.164199
908.770707	3179.054959
909.077163	3099.066971
909.383578	3034.252856
909.689954	2988.448932
909.996289	2958.791824
910.302584	2933.918771
910.608839	2922.800506
910.915054	2906.762075
911.221229	2904.468350
911.527363	2907.261149
911.833458	2914.144845
912.139513	2929.540529
912.445527	2941.205759
912.751502	2977.900318
913.057436	3023.426978
913.363331	3079.966039
913.669186	3168.879390
913.975000	3288.866413
914.280775	3481.887153
914.586510	3756.093155
914.892205	4139.737565
915.197859	4643.242970
915.503475	5233.423454
915.809050	5736.581019
916.114585	6027.735380
916.420081	6097.673828
916.725536	6036.731319
917.030952	5793.258712
917.336328	5583.967648
917.641665	5373.769177
917.946961	5140.348630
918.252218	4937.842960
918.557435	4711.374164
918.862612	4508.906303
919.167750	4333.635466
919.472848	4141.479284
919.777906	3967.786328
920.082925	3809.032832
920.387904	3646.725322
920.692843	3534.375647
920.997743	3431.891510
921.302603	3337.092612
921.607423	3271.250101
921.912204	3200.144626
922.216946	3151.527738
922.521647	3099.263576
922.826310	3058.281516
923.130932	3019.772142
923.435516	2981.045998
923.740059	2950.781431
924.044564	2920.579878
924.349028	2892.286402
924.653454	2860.391022
924.957840	2836.561487
925.262186	2815.386121
925.566493	2791.561627
925.870761	2767.230498
926.174989	2752.991759
926.479178	2738.473236
926.783328	2725.857749
927.087438	2714.207642
927.391509	2699.999150
927.695541	2687.381142
927.999533	2675.421005
928.303486	2669.742145
928.607400	2660.463901
928.911275	2657.045999
929.215110	2648.453352
929.518906	2644.478402
929.822663	2645.768938
930.126381	2646.618372
930.430060	2647.218269
930.733699	2648.302117
931.037299	2651.369660
931.340861	2653.892757
931.644383	2653.696152
931.947866	2654.361584
932.251309	2652.077942
932.554714	2650.643733
932.858080	2648.768424
933.161407	2645.199287
933.464694	2644.422950
933.767943	2640.755510
934.071153	2637.047742
934.374323	2632.094808
934.677455	2627.731689
934.980548	2626.622635
935.283602	2622.582151
935.586617	2619.363374
935.889593	2624.011318
936.192530	2624.414610
936.495428	2627.106586
936.798287	2636.518420
937.101108	2649.622900
937.403890	2676.174657
937.706632	2701.435879
938.009336	2732.194479
938.312002	2763.187493
938.614628	2786.691873
938.917216	2806.491005
939.219765	2818.113385
939.522275	2828.483038
939.824747	2833.574604
940.127179	2823.278047
940.429573	2818.365442
940.731929	2814.098106
941.034246	2806.201138
941.336524	2805.102167
941.638763	2798.359623
941.940964	2791.503654
942.243126	2776.390275
942.545250	2766.398708
942.847335	2753.122829
943.149381	2738.178329
943.451389	2724.441185
943.753359	2710.383927
944.055290	2702.676003
944.357182	2695.220136
944.659036	2688.394414
944.960851	2681.861079
945.262628	2678.591890
945.564367	2679.494257
945.866067	2676.693896
946.167729	2678.173475
946.469352	2674.027126
946.770937	2673.654080
947.072484	2667.899603
947.373992	2668.880107
947.675462	2664.141423
947.976893	2657.585402
948.278286	2651.646923
948.579641	2651.286481
948.880958	2645.348001
949.182236	2647.125008
949.483476	2643.442445
949.784678	2644.755666
950.085841	2643.560912
950.386967	2648.072745
950.688054	2651.977119
950.989103	2660.773932
951.290114	2669.164933
951.591087	2681.344360
951.892021	2692.870959
952.192917	2706.235057
952.493776	2716.939948
952.794596	2722.444888
953.095378	2720.425906
953.396122	2718.094372
953.696828	2714.374000
953.997496	2713.779144
954.298126	2704.886549
954.598718	2696.462781
954.899272	2683.938034
955.199788	2673.792712
955.500266	2661.121772
955.800706	2645.587456
956.101108	2628.684467
956.401472	2615.267436
956.701798	2602.772937
957.002087	2587.420102
957.302337	2579.475244
957.602550	2564.624005
957.902724	2556.167469
958.202861	2547.216901
958.502960	2536.527134
958.803022	2533.444468
959.103045	2522.134640
959.403031	2516.112981
959.702979	2511.966632
960.002889	2509.461179
960.302762	2499.494818
960.602596	2495.101452
960.902393	2493.596668
961.202153	2493.566421
961.501875	2485.850935
961.801559	2483.589977
962.101205	2481.515543
962.400814	2480.235089
962.700385	2477.671663
962.999918	2476.975983
963.299414	2473.976497
963.598873	2473.918524
963.898293	2468.290075
964.197677	2469.845271
964.497022	2469.835189
964.796331	2469.368882
965.095601	2464.249591
965.394835	2468.569859
965.694030	2464.839406
965.993189	2464.703294
966.292309	2464.970476
966.591393	2462.255814
966.890439	2461.431586
967.189447	2462.651545
967.488419	2463.203551
967.787353	2463.798407
968.086249	2464.141206
968.385108	2466.722277
968.683930	2465.812348
968.982714	2466.676906
969.281462	2467.160857
969.580172	2468.554736
969.878844	2469.850312
970.177480	2475.214100
970.476078	2480.111581
970.774639	2479.952785
971.073162	2484.648620
971.371649	2484.875472
971.670098	2483.267343
971.968510	2486.559217
972.266885	2484.273054
972.565223	2488.510143
972.863524	2492.482573
973.161788	2491.224805
973.460014	2496.817965
973.758204	2496.752430
974.056356	2494.262100
974.354471	2497.445589
974.652550	2495.867708
974.950591	2494.267141
975.248595	2496.800321
975.546563	2494.347800
975.844493	2493.914260
976.142386	2490.113230
976.440243	2486.143322
976.738062	2487.212046
977.035845	2485.346819
977.333590	2481.694503
977.631299	2480.285501
977.928971	2477.187712
978.226606	2473.968935
978.524204	2475.932465
978.821765	2472.113791
979.119290	2473.880715
979.416777	2470.382154
979.714228	2472.504480
980.011642	2476.870119
980.309020	2479.410861
980.606360	2483.552169
980.903664	2492.742192
981.200931	2505.501353
981.498162	2526.888448
981.795356	2556.827860
982.092513	2594.326483
982.389633	2638.570170
982.686717	2681.276305
982.983764	2715.354505
983.280775	2732.317987
983.577749	2736.144223
983.874686	2726.424879
984.171587	2709.287476
984.468451	2694.786597
984.765279	2674.127949
985.062070	2656.972902
985.358824	2638.189563
985.655543	2615.418671
985.952224	2592.594847
986.248869	2563.141906
986.545478	2534.172915
986.842050	2516.342354
987.138586	2494.153715
987.435086	2479.292394
987.731549	2469.961218
988.027975	2467.264201
988.324366	2457.650720
988.620719	2454.618466
988.917037	2448.891715
989.213318	2448.753084
989.509563	2446.240068
989.805772	2444.004317
990.101944	2442.691096
990.398080	2443.527928
990.694180	2441.070365
990.990244	2440.805705
991.286271	2439.716815
991.582262	2440.490632
991.878217	2438.905190
992.174136	2443.563216
992.470019	2444.160592
992.765865	2447.243258
993.061676	2446.988680
993.357450	2450.005810
993.653188	2453.484207
993.948890	2456.113168
994.244556	2461.890331
994.540186	2475.937506
994.835780	2486.992756
995.131337	2502.007833
995.426859	2517.751356
995.722345	2539.244316
996.017795	2556.318704
996.313208	2572.755386
996.608586	2583.140163
996.903928	2585.572520
997.199234	2583.762745
997.494504	2580.249061
997.789738	2574.910479
998.084936	2561.924467
998.380099	2550.687735
998.675225	2539.662732
998.970316	2527.412728
999.265371	2510.907990
999.560390	2498.297544
999.855373	2487.685915
1000.150320	2476.517238
1000.445232	2467.029787
1000.740108	2463.342183
1001.034948	2452.450770
1001.329752	2449.968002
1001.624521	2446.597990
1001.919254	2436.553491
1002.213951	2434.842020
1002.508613	2433.548964
1002.803239	2432.049220
1003.097829	2430.831782
1003.392384	2431.822368
1003.686903	2428.830444
1003.981386	2426.022521
1004.275834	2424.850453
1004.570246	2428.454878
1004.864623	2425.198292
1005.158964	2421.094793
1005.453270	2421.331727
1005.747540	2420.499937
1006.041775	2422.261820
1006.335974	2422.206368
1006.630138	2421.316604
1006.924266	2423.476738
1007.218359	2420.993970
1007.512416	2419.526994
1007.806438	2418.415420
1008.100425	2421.445153
1008.394376	2422.196285
1008.688292	2420.320976
1008.982172	2420.058836
1009.276017	2418.465831
1009.569827	2418.249062
1009.863602	2421.661923
1010.157341	2417.775193
1010.451045	2418.181006
1010.744714	2414.687487
1011.038347	2416.298135
1011.331945	2417.734864
1011.625508	2417.722261
1011.919036	2414.223700
1012.212528	2417.041705
1012.505986	2414.100192
1012.799408	2413.636406
1013.092795	2412.035840
1013.386147	2414.944585
1013.679464	2416.751839
1013.972745	2413.462486
1014.265992	2414.127918
1014.559204	2414.987435
1014.852380	2415.335275
1015.145521	2414.677404
1015.438628	2415.413413
1015.731699	2411.783782
1016.024736	2412.010634
1016.317737	2413.114647
1016.610703	2415.922569
1016.903635	2415.466345
1017.196531	2409.603483
1017.489393	2413.195305
1017.782219	2412.260171
1018.075011	2417.288722
1018.367768	2416.046078
1018.660490	2416.116654
1018.953177	2416.116654
1019.245829	2416.116654
