Dividing Wavelength (nm)	Counts (n)	Blue Motor Position (mm): 14.200000	Red Motor Position (mm): 0.000000	
326.493990	1977.465693
326.888308	1977.465693
327.282561	1977.465693
327.676750	1951.649944
328.070874	1950.863524
328.464933	1959.057920
328.858929	1966.465895
329.252859	1978.305045
329.646726	1995.450009
330.040528	2010.777637
330.434265	2030.664989
330.827938	2047.930941
331.221547	2067.223437
331.615091	2089.732189
332.008571	2111.083996
332.401986	2130.053858
332.795338	2149.618576
333.188625	2171.166988
333.581847	2187.434792
333.975006	2205.580425
334.368100	2225.165308
334.761129	2242.262381
335.154095	2256.347365
335.546996	2288.431788
335.939833	2343.433298
336.332606	2355.993332
336.725315	2368.618902
337.117960	2378.212218
337.510540	2384.395193
337.903056	2392.836605
338.295508	2400.098387
338.687896	2405.401681
339.080220	2413.480130
339.472480	2416.993814
339.864676	2423.958168
340.256807	2425.727613
340.648875	2425.709969
341.040879	2427.302974
341.432818	2431.845054
341.824694	2431.875301
342.216506	2428.684250
342.608253	2430.148705
342.999937	2431.330856
343.391557	2430.370516
343.783113	2424.626121
344.174605	2423.721234
344.566033	2421.971954
344.957397	2421.586306
345.348697	2419.842066
345.739934	2418.034813
346.131106	2415.060532
346.522215	2416.668660
346.913260	2415.995666
347.304241	2412.711354
347.695159	2409.212793
348.086012	2409.185067
348.476802	2408.900242
348.867528	2403.806156
349.258191	2404.912689
349.648789	2401.199879
350.039324	2399.435476
350.429796	2401.817421
350.820203	2398.994375
351.210548	2403.402864
351.600828	2400.889848
351.991045	2395.009343
352.381198	2398.553274
352.771288	2401.073851
353.161314	2395.914230
353.551276	2397.063613
353.941175	2392.796276
354.331010	2399.130486
354.720782	2396.551936
355.110490	2401.875394
355.500135	2397.882800
355.889717	2399.891700
356.279235	2399.785836
356.668689	2399.322050
357.058080	2399.795918
357.447408	2397.923129
357.836672	2395.352141
358.225873	2397.973541
358.615010	2397.955897
359.004084	2402.044273
359.393095	2403.680127
359.782043	2403.722977
360.170927	2400.718449
360.559748	2403.100394
360.948505	2404.877401
361.337199	2404.133831
361.725830	2404.522000
362.114398	2405.580642
362.502903	2406.414953
362.891344	2405.094171
363.279722	2405.338667
363.668037	2409.464851
364.056289	2406.140210
364.444478	2408.529717
364.832603	2407.425704
365.220665	2410.526014
365.608665	2409.278328
365.996601	2409.401837
366.384474	2409.643812
366.772284	2412.360994
367.160031	2405.565519
367.547715	2411.907290
367.935336	2410.367218
368.322893	2411.456107
368.710388	2411.370407
369.097820	2412.560120
369.485189	2411.753535
369.872495	2412.441653
370.259738	2413.674215
370.646918	2413.434760
371.034035	2412.749163
371.421090	2411.614903
371.808081	2412.534914
372.195010	2416.608166
372.581875	2414.064904
372.968678	2413.916190
373.355418	2415.884761
373.742096	2416.492220
374.128710	2415.930131
374.515262	2417.273598
374.901751	2418.251582
375.288177	2418.309556
375.674540	2416.335944
376.060841	2419.713517
376.447079	2416.333423
376.833254	2415.471386
377.219367	2414.417785
377.605417	2413.855696
377.991404	2413.674215
378.377329	2417.850811
378.763191	2413.477610
379.148991	2420.870462
379.534727	2421.583785
379.920402	2418.546490
380.306013	2417.039185
380.691563	2423.310380
381.077049	2418.286870
381.462474	2420.812488
381.847835	2421.354413
382.233134	2422.392890
382.618371	2419.373239
383.003545	2420.462128
383.388657	2420.973805
383.773706	2421.482962
384.158693	2419.048085
384.543618	2423.111255
384.928480	2420.212591
385.313280	2422.665113
385.698017	2422.660071
386.082692	2426.350196
386.467305	2424.343817
386.851856	2424.472366
387.236344	2423.509506
387.620770	2424.096800
388.005133	2426.128385
388.389435	2424.152253
388.773674	2424.089238
389.157851	2428.472522
389.541965	2426.153591
389.926018	2422.372726
390.310008	2423.398600
390.693936	2425.311718
391.077802	2427.928077
391.461606	2425.097469
391.845348	2426.778694
392.229027	2428.533016
392.612645	2428.497728
392.996200	2426.856832
393.379694	2428.404466
393.763125	2426.960176
394.146494	2427.267686
394.529801	2430.347831
394.913047	2429.916812
395.296230	2428.830444
395.679351	2430.488983
396.062410	2425.163004
396.445408	2429.687440
396.828343	2434.572318
397.211217	2422.957499
397.594028	2429.301792
397.976778	2427.083684
398.359466	2430.100814
398.742092	2425.856163
399.124656	2430.940167
399.507158	2426.554363
399.889598	2433.642225
400.271977	2426.388005
400.654294	2432.623912
401.036549	2430.640218
401.418742	2432.908737
401.800874	2433.412853
402.182944	2432.160126
402.564952	2432.152564
402.946898	2434.849581
403.328783	2431.754313
403.710606	2433.203645
404.092367	2434.756320
404.474067	2435.290682
404.855705	2434.796649
405.237282	2434.650456
405.618797	2432.928902
406.000250	2437.355035
406.381642	2433.458223
406.762972	2436.213213
407.144240	2437.203800
407.525447	2436.127514
407.906593	2434.416042
408.287677	2436.805549
408.668700	2435.840168
409.049661	2435.991403
409.430560	2437.113059
409.811399	2438.615323
410.192176	2438.010385
410.572891	2436.180446
410.953545	2436.540888
411.334138	2439.152206
411.714669	2438.660694
412.095139	2439.391661
412.475547	2439.552978
412.855894	2438.670776
413.236180	2439.489963
413.616405	2440.155396
413.996568	2439.694130
414.376670	2439.744542
414.756711	2438.489294
415.136691	2440.475509
415.516609	2438.864860
415.896466	2441.629933
416.276262	2440.848554
416.655997	2437.125662
417.035670	2436.883687
417.415283	2439.114397
417.794834	2435.951073
418.174324	2438.832093
418.553753	2441.443411
418.933121	2444.132866
419.312428	2440.243616
419.691674	2441.937444
420.070859	2440.609100
420.449983	2443.958946
420.829045	2442.320571
421.208047	2438.965683
421.586988	2443.742177
421.965867	2443.469954
422.344686	2442.539862
422.723444	2441.105653
423.102141	2442.512135
423.480777	2442.963318
423.859352	2445.138576
424.237866	2441.511466
424.616319	2440.518359
424.994712	2445.594801
425.373044	2443.525407
425.751314	2442.928030
426.129524	2443.618668
426.507673	2442.013061
426.885762	2444.258895
427.263789	2442.418874
427.641756	2446.794595
428.019662	2445.761159
428.397508	2441.294697
428.775292	2445.705706
429.153016	2442.877619
429.530679	2445.337702
429.908282	2443.774944
430.285824	2444.263936
430.663305	2447.001283
431.040726	2445.630089
431.418086	2445.554472
431.795385	2446.270315
432.172624	2440.568770
432.549802	2446.938268
432.926920	2443.719492
433.303977	2444.115222
433.680974	2446.020778
434.057910	2448.417847
434.434786	2444.717640
434.811601	2445.529266
435.188355	2447.888526
435.565050	2448.196036
435.941683	2448.440532
436.318257	2446.134204
436.694770	2442.771755
437.071222	2445.952723
437.447614	2445.448607
437.823946	2445.287290
438.200218	2448.579164
438.576429	2448.070007
438.952580	2448.276695
439.328670	2448.261571
439.704700	2449.531942
440.080670	2449.678135
440.456580	2447.071859
440.832429	2449.524380
441.208218	2446.517332
441.583947	2448.667384
441.959616	2450.111675
442.335224	2447.117229
442.710773	2449.756273
443.086261	2453.063270
443.461689	2451.271140
443.837057	2451.881120
444.212365	2451.298866
444.587612	2451.124947
444.962800	2453.277519
445.337927	2452.665019
445.712995	2448.901798
446.088002	2452.627210
446.462949	2451.190482
446.837837	2451.714762
447.212664	2454.542849
447.587431	2456.498817
447.962139	2456.806327
448.336786	2459.175669
448.711374	2455.682150
449.085901	2454.540328
449.460369	2457.491924
449.834776	2455.861111
450.209124	2460.640124
450.583412	2459.084928
450.957640	2458.323714
451.331808	2459.571400
451.705917	2458.318673
452.079965	2459.495783
452.453954	2458.883282
452.827883	2457.476800
453.201752	2457.038220
453.575562	2457.799434
453.949311	2458.651389
454.323001	2460.688015
454.696632	2461.078705
455.070202	2463.778243
455.443713	2462.054168
455.817164	2461.565176
456.190556	2458.732048
456.563888	2461.030814
456.937160	2459.498303
457.310373	2466.376957
457.683526	2463.621967
458.056619	2464.052986
458.429653	2463.531226
458.802628	2465.048613
459.175542	2464.058027
459.548398	2466.480301
459.921194	2469.752010
460.293930	2469.598255
460.666607	2471.650004
461.039224	2474.233596
461.411782	2474.120170
461.784280	2473.961373
462.156719	2472.549850
462.529099	2472.398616
462.901419	2473.273256
463.273680	2473.411888
463.645882	2471.415591
464.018024	2472.355766
464.390106	2471.612196
464.762130	2478.427836
465.134094	2480.565285
465.505999	2486.198774
465.877845	2489.094917
466.249631	2489.707417
466.621358	2488.653816
466.993026	2490.229177
467.364634	2489.815802
467.736184	2488.711790
468.107674	2483.947899
468.479105	2485.283805
468.850477	2484.630976
469.221790	2480.600573
469.593043	2477.938844
469.964238	2480.098978
470.335373	2477.490181
470.706449	2481.848259
471.077467	2484.383959
471.448425	2488.323621
471.819324	2493.395022
472.190164	2491.892758
472.560945	2485.435040
472.931667	2483.665595
473.302330	2483.884885
473.672934	2484.903198
474.043479	2484.421768
474.413965	2482.720378
474.784393	2480.328351
475.154761	2480.686273
475.525070	2480.250213
475.895321	2481.142497
476.265513	2479.380614
476.635645	2486.952427
477.005719	2486.576861
477.375734	2487.769094
477.745691	2490.294712
478.115588	2487.602736
478.485427	2494.030207
478.855207	2498.292502
479.224928	2502.958090
479.594591	2505.786178
479.964194	2505.370283
480.333739	2506.388596
480.703226	2506.542351
481.072653	2508.180726
481.442022	2508.873884
481.811333	2510.381189
482.180584	2510.010665
482.549777	2507.580828
482.918912	2510.068638
483.287988	2512.178361
483.657005	2509.415808
484.025964	2511.883453
484.394864	2512.742970
484.763706	2516.370080
485.132489	2514.088958
485.501213	2514.456962
485.869879	2515.470234
486.238487	2519.455266
486.607036	2521.489372
486.975527	2519.430061
487.343959	2522.875689
487.712333	2524.514064
488.080648	2526.288550
488.448905	2529.729138
488.817104	2528.456247
489.185244	2535.032432
489.553326	2539.360262
489.921350	2549.389638
490.289315	2558.451112
490.657222	2561.306926
491.025070	2565.750703
491.392861	2567.434448
491.760593	2565.246587
492.128267	2564.409756
492.495883	2559.887841
492.863440	2563.257852
493.230939	2562.794066
493.598380	2559.998746
493.965763	2558.327604
494.333088	2561.503531
494.700354	2560.376833
495.067563	2564.301371
495.434713	2563.656103
495.801805	2568.286403
496.168839	2574.595407
496.535815	2576.400140
496.902733	2581.196798
497.269593	2584.012282
497.636395	2584.430698
498.003139	2585.045719
498.369825	2587.964547
498.736453	2593.429158
499.103023	2588.786255
499.469535	2596.587441
499.835989	2599.029880
500.202385	2601.830241
500.568723	2603.095570
500.935003	2609.344081
501.301226	2612.807353
501.667390	2618.319855
502.033497	2622.141050
502.399546	2623.340844
502.765537	2620.850514
503.131470	2628.649179
503.497345	2630.343007
503.863163	2627.167080
504.228923	2632.082205
504.594625	2637.340128
504.960269	2639.412043
505.325856	2647.916469
505.691385	2646.262971
506.056856	2650.288332
506.422270	2654.560710
506.787625	2657.282933
507.152924	2660.594971
507.518164	2664.600168
507.883347	2663.549087
508.248472	2667.060251
508.613540	2670.798267
508.978550	2676.696417
509.343503	2679.390913
509.708398	2679.842097
510.073236	2688.676719
510.438016	2690.914991
510.802738	2691.860207
511.167403	2695.983871
511.532010	2700.631815
511.896561	2708.743032
512.261053	2715.457848
512.625488	2712.508773
512.989866	2711.177909
513.354186	2719.233673
513.718449	2715.997252
514.082655	2729.686505
514.446803	2727.506206
514.810894	2738.354769
515.174927	2738.296796
515.538904	2741.502970
515.902822	2745.498084
516.266684	2747.209556
516.630488	2750.919845
516.994235	2752.878333
517.357925	2758.111051
517.721558	2762.728748
518.085133	2765.256887
518.448651	2770.663524
518.812112	2771.712084
519.175516	2774.744338
519.538863	2777.910183
519.902152	2781.562499
520.265385	2787.843777
520.628560	2793.797379
520.991678	2793.802420
521.354739	2798.475570
521.717743	2803.073102
522.080690	2805.051755
522.443580	2812.742035
522.806413	2814.743373
523.169189	2820.041626
523.531908	2822.121102
523.894569	2825.591937
524.257174	2829.902123
524.619722	2835.139882
524.982213	2841.189267
525.344647	2840.692713
525.707025	2847.664629
526.069345	2852.035309
526.431608	2855.894312
526.793815	2861.636187
527.155964	2862.301619
527.518057	2870.248998
527.880093	2871.042980
528.242072	2881.359701
528.603995	2882.020092
528.965860	2888.712224
529.327669	2893.360168
529.689421	2896.440313
530.051117	2901.947773
530.412755	2908.150913
530.774337	2916.655340
531.135862	2918.961668
531.497331	2924.758994
531.858743	2926.636824
532.220098	2942.027467
532.581396	2940.391613
532.942638	2945.102571
533.303824	2957.007256
533.664953	2965.662917
534.026025	2969.882363
534.387040	2986.382059
534.747999	2990.193171
535.108902	3001.223216
535.469748	3006.511386
535.830537	3017.548993
536.191270	3029.282278
536.551947	3034.426776
536.912567	3048.547048
537.273131	3062.296795
537.633638	3066.208730
537.994089	3080.545772
538.354483	3088.150352
538.714821	3110.482664
539.075103	3130.677526
539.435328	3140.711943
539.795497	3150.852224
540.155609	3166.416786
540.515665	3186.689787
540.875665	3197.104810
541.235609	3216.283880
541.595496	3234.978999
541.955328	3263.201899
542.315102	3271.008126
542.674821	3285.319962
543.034483	3304.919968
543.394090	3320.960919
543.753640	3343.653673
544.113134	3388.885426
544.472571	3392.048750
544.831953	3434.270934
545.191278	3445.815177
545.550548	3463.209678
545.909761	3500.494052
546.268918	3531.668547
546.628019	3565.398907
546.987064	3584.409099
547.346053	3593.367229
547.704986	3644.456803
548.063863	3664.150070
548.422684	3701.373950
548.781449	3729.727920
549.140158	3775.824231
549.498811	3807.981751
549.857408	3824.181499
550.215949	3885.900346
550.574434	3920.338988
550.932864	3949.736477
551.291237	4014.583359
551.649555	4045.699881
552.007817	4096.557562
552.366022	4129.826657
552.724173	4180.424718
553.082267	4244.444851
553.440305	4302.786125
553.798288	4329.103468
554.156215	4389.657808
554.514086	4451.580822
554.871902	4496.225280
555.229661	4551.622520
555.587365	4598.613635
555.945014	4658.520187
556.302606	4712.606727
556.660143	4787.871153
557.017625	4850.368858
557.375050	4902.509512
557.732421	4984.140917
558.089735	5049.691040
558.446994	5105.771356
558.804197	5202.571592
559.161345	5269.802941
559.518437	5295.578360
559.875474	5378.762440
560.232455	5464.951047
560.589381	5550.355755
560.946251	5602.773673
561.303065	5729.092385
561.659825	5790.208814
562.016528	5847.589747
562.373177	5906.861114
562.729770	6031.939702
563.086307	6073.892185
563.442789	6199.870619
563.799216	6291.249095
564.155587	6362.858685
564.511904	6458.355783
564.868164	6552.111162
565.224370	6671.904101
565.580520	6746.281285
565.936615	6862.426949
566.292654	6933.086282
566.648638	7058.464819
567.004567	7162.103380
567.360441	7274.150586
567.716260	7360.097218
568.072023	7503.616348
568.427732	7618.098431
568.783385	7677.785693
569.138982	7834.421904
569.494525	7946.491795
569.850013	8032.743417
570.205445	8152.511150
570.560823	8268.024149
570.916145	8367.599541
571.271412	8493.948500
571.626625	8583.005524
571.981782	8719.620793
572.336884	8795.880848
572.691931	8974.743507
573.046923	9042.340339
573.401860	9143.513776
573.756743	9269.580431
574.111570	9414.188450
574.466342	9527.624493
574.821059	9675.012708
575.175722	9731.735772
575.530330	9870.357420
575.884882	9960.185740
576.239380	10089.879505
576.593823	10222.981090
576.948211	10344.482980
577.302544	10394.150949
577.656823	10538.154029
578.011047	10733.818854
578.365216	10826.268574
578.719330	10926.295149
579.073389	11046.574559
579.427394	11219.808770
579.781344	11361.699606
580.135239	11440.412183
580.489080	11612.600354
580.842866	11646.043368
581.196597	11911.329048
581.550273	12057.149465
581.903895	12192.234744
582.257463	12459.645270
582.610975	12477.841315
582.964434	12717.021380
583.317837	12799.388792
583.671186	12932.611365
584.024481	13147.278819
584.377721	13192.608875
584.730906	13429.346500
585.084037	13604.579529
585.437113	13689.449874
585.790135	13859.737531
586.143103	13915.898505
586.496016	14110.817239
586.848874	14291.008242
587.201679	14464.232371
587.554428	14492.188089
587.907124	14713.230083
588.259765	14819.006093
588.612352	15077.634929
588.964884	15052.434201
589.317362	15320.958823
589.669786	15471.394415
590.022155	15574.115487
590.374470	15883.362549
590.726731	15891.393107
591.078937	15896.018365
591.431090	16095.963130
591.783188	16155.486554
592.135232	16205.126796
592.487222	16458.318748
592.839157	16665.109399
593.191038	16717.489508
593.542866	16789.777134
593.894639	16733.381746
594.246358	17010.398191
594.598022	17173.078746
594.949633	17183.450920
595.301190	17329.674628
595.652692	17443.138398
596.004141	17742.277947
596.355535	17508.418820
596.706876	17647.768915
597.058162	17752.019977
597.409395	18118.466491
597.760573	18319.968972
598.111698	18312.679464
598.462768	18471.105285
598.813785	18658.540426
599.164748	18579.706862
599.515657	18925.043545
599.866511	18858.195324
600.217312	19298.557757
600.568060	18994.435028
600.918753	19490.134206
601.269392	19651.902312
601.619978	19638.843203
601.970510	19909.686755
602.320988	20157.242697
602.671412	20463.611260
603.021783	20503.280100
603.372100	20498.843885
603.722363	20717.816484
604.072572	20904.293806
604.422728	21091.103844
604.772830	21140.993623
605.122878	21345.372082
605.472872	21474.642391
605.822813	21785.253085
606.172701	21856.542562
606.522534	22141.022435
606.872314	22435.834153
607.222041	22466.035706
607.571714	22849.438141
607.921333	22688.239685
608.270899	23017.590869
608.620411	23374.469273
608.969870	23418.629781
609.319276	23561.670001
609.668627	23754.826851
610.017926	24180.277551
610.367171	24448.477018
610.716362	24650.786083
611.065500	24770.644557
611.414585	25043.887698
611.763616	25375.741815
612.112594	25485.709545
612.461518	25772.659584
612.810389	26116.168848
613.159207	26178.417016
613.507971	26373.799536
613.856682	26828.836767
614.205340	26896.158856
614.553945	27507.272731
614.902496	27292.365822
615.250994	27748.509587
615.599439	27947.380585
615.947830	28258.266023
616.296169	28432.823536
616.644454	28663.085800
616.992686	28934.178889
617.340864	29430.833366
617.688990	29385.273938
618.037063	29939.657188
618.385082	30063.132690
618.733048	30391.974717
619.080961	30547.779138
619.428821	30680.464828
619.776628	30907.588974
620.124382	30931.035380
620.472083	31147.830201
620.819731	31380.953320
621.167326	31284.148043
621.514868	31401.372513
621.862357	31223.225698
622.209793	31374.034336
622.557176	31274.219490
622.904506	31217.700594
623.251783	31093.237026
623.599007	31052.701108
623.946179	31012.303821
624.293297	31117.532867
624.640363	30794.553702
624.987376	30912.408317
625.334336	30844.014982
625.681243	30696.074761
626.028097	30797.686779
626.374899	30787.014656
626.721647	30884.717259
627.068343	30914.439902
627.414987	30845.227380
627.761577	30774.336154
628.108115	31131.418725
628.454600	30808.502574
628.801032	31057.701932
629.147412	31110.278646
629.493739	31229.690978
629.840014	31073.624417
630.186236	31423.301533
630.532405	31216.609184
630.878521	31467.164612
631.224585	31465.823665
631.570597	31323.426193
631.916556	31532.626516
632.262462	31594.680599
632.608316	31682.779803
632.954117	31696.224561
633.299866	31775.920162
633.645562	31787.726544
633.991206	31487.419968
634.336797	31233.857492
634.682336	31326.728148
635.027823	31207.149459
635.373257	31143.164613
635.718639	31037.726360
636.063968	31012.865910
636.409245	30613.437647
636.754470	30747.456722
637.099642	30615.552411
637.444762	30295.562650
637.789829	30488.018780
638.134845	30275.834094
638.479808	30318.570476
638.824719	30290.680292
639.169577	30043.174762
639.514383	30166.927527
639.859137	29974.736057
640.203839	30235.187271
640.548489	30006.951551
640.893086	30125.350611
641.237632	29972.961571
641.582125	30125.758944
641.926566	30143.914660
642.270955	30176.886327
642.615292	30256.060168
642.959576	30298.158844
643.303809	30349.906288
643.647990	30532.990914
643.992118	30544.484744
644.336195	30605.712078
644.680219	30743.164179
645.024192	31061.760061
645.368112	31542.832332
645.711981	31614.633486
646.055797	32421.722217
646.399562	32394.094173
646.743274	33262.606843
647.086935	33690.086607
647.430544	33645.840399
647.774101	33801.516271
648.117606	34064.266251
648.461059	34386.688368
648.804460	34099.060295
649.147810	33619.734784
649.491108	33449.308496
649.834354	33181.121632
650.177548	32489.533298
650.520690	32134.048772
650.863781	32210.727243
651.206820	32115.502367
651.549807	31783.597839
651.892742	31387.673178
652.235626	31280.049584
652.578458	31189.248321
652.921238	30691.371365
653.263967	31013.596877
653.606644	30783.437957
653.949269	30774.376483
654.291843	30459.069954
654.634365	30856.196931
654.976836	30519.097494
655.319255	30556.313812
655.661622	30592.368144
656.003938	30418.312225
656.346203	30339.448415
656.688416	30572.705124
657.030577	30426.168864
657.372687	30310.673508
657.714746	30584.231722
658.056753	30722.815562
658.398708	30272.806881
658.740612	30342.722644
659.082465	30631.532868
659.424266	30493.818628
659.766016	30632.715019
660.107715	30551.068491
660.449362	30698.673476
660.790958	30709.421216
661.132503	30749.463101
661.473996	30804.880505
661.815438	30922.790573
662.156829	31140.457514
662.498168	30963.583590
662.839456	31016.903874
663.180693	31175.085200
663.521879	31358.232839
663.863013	31346.681035
664.204097	31366.495291
664.545129	31816.745946
664.886110	31825.499910
665.227040	31896.728893
665.567918	32017.431760
665.908746	32102.286982
666.249522	32286.349592
666.590248	32295.862249
666.930922	32440.286266
667.271545	32408.942892
667.612118	32523.036806
667.952639	32343.218848
668.293109	32415.077976
668.633528	32347.687831
668.973896	32294.806127
669.314213	32361.079656
669.654480	32129.453761
669.994695	32182.839580
670.334859	32097.732300
670.674973	32026.112627
671.015035	32187.779911
671.355047	32172.124607
671.695008	32142.253250
672.034918	32059.555642
672.374777	32170.113187
672.714585	32039.622920
673.054342	32274.911214
673.394049	32052.636658
673.733705	32328.909533
674.073310	32028.635725
674.412864	32120.871196
674.752368	31750.595926
675.091820	32063.901117
675.431223	31675.001303
675.770574	31444.338268
676.109875	31324.668837
676.449125	31083.298391
676.788324	31025.284792
677.127473	30535.098116
677.466571	30475.143673
677.805619	30168.253351
678.144616	30167.043474
678.483562	30122.063778
678.822458	29817.457098
679.161303	29777.725244
679.500098	29702.551558
679.838842	29599.674211
680.177535	29765.722257
680.516179	30044.009073
680.854771	30289.951846
681.193314	31141.627062
681.531805	32218.997256
681.870247	32981.953205
682.208638	33697.912998
682.546978	33925.894139
682.885268	34026.976836
683.223508	33532.018707
683.561697	33208.144737
683.899836	33041.408574
684.237925	32552.769531
684.575963	32431.073557
684.913951	31995.734634
685.251889	32160.106497
685.589776	32159.385612
685.927614	32155.965189
686.265401	32313.092913
686.603137	32411.851637
686.940824	32914.679007
687.278460	33294.996256
687.616046	33421.635082
687.953582	34013.320350
688.291068	33883.538365
688.628504	34170.863969
688.965889	34126.290087
689.303224	33748.569032
689.640510	33427.540794
689.977745	32733.257962
690.314930	31968.761941
690.652065	31474.610397
690.989150	30759.336201
691.326185	29893.157585
691.663170	29215.639111
692.000105	28496.505912
692.336990	27843.076592
692.673825	27410.051559
693.010610	26928.719669
693.347345	26370.540430
693.684030	25749.203095
694.020665	25487.171480
694.357251	24845.805640
694.693786	24804.954650
695.030272	24582.934673
695.366707	24059.650301
695.703093	23774.023565
696.039429	23781.071098
696.375716	23513.995809
696.711952	23496.528211
697.048139	23358.201470
697.384276	23187.467671
697.720363	23303.961175
698.056400	23110.763995
698.392388	22902.297160
698.728326	22861.466334
699.064214	22677.358355
699.400053	22626.576291
699.735842	22287.278911
700.071581	22012.951922
700.407270	21739.877659
700.742910	21555.641130
701.078501	21297.917181
701.414042	21015.637771
701.749533	20733.668392
702.084974	20398.908051
702.420366	20605.983527
702.755709	20179.433856
703.091002	19890.946266
703.426246	19922.143446
703.761440	19829.101390
704.096584	19553.935049
704.431679	19520.444143
704.766725	19429.642880
705.101721	19379.470797
705.436668	19465.223344
705.771565	19159.931067
706.106413	19508.098358
706.441212	19488.216047
706.775961	19626.109248
707.110661	19700.360403
707.445311	20045.253464
707.779913	19897.913140
708.114465	20134.963318
708.448967	20417.759446
708.783421	21094.438567
709.117825	21372.816124
709.452180	21600.981268
709.786485	21995.799396
710.120742	22779.290485
710.454949	22803.190596
710.789107	23262.916100
711.123216	23966.520025
711.457275	24075.683691
711.791286	24601.753300
712.125247	24677.000083
712.459159	24377.820205
712.793023	25022.064543
713.126837	23936.331075
713.460602	24181.051368
713.794318	23816.422190
714.127985	23417.755141
714.461602	22550.969066
714.795171	22496.330520
715.128691	21514.475068
715.462162	20983.107205
715.795584	20573.962118
716.128957	20314.778755
716.462281	19920.016079
716.795556	19682.406334
717.128782	19202.871616
717.461960	18664.683072
717.795088	18582.267768
718.128167	18194.449282
718.461198	17737.892143
718.794180	17601.566740
719.127113	17239.145587
719.459997	17047.569138
719.792833	16713.068416
720.125619	16684.122111
720.458357	16369.143257
720.791046	16205.451950
721.123686	16043.446910
721.456278	15813.164481
721.788821	15778.377999
722.121315	15518.859399
722.453761	15590.476551
722.786158	15528.374577
723.118506	15532.611667
723.450805	15394.778959
723.783056	15562.583847
724.115259	15458.529391
724.447412	15396.828188
724.779518	15637.452543
725.111574	15659.777293
725.443582	15856.944382
725.775542	15835.695918
726.107453	16301.155735
726.439315	16172.692012
726.771129	16581.854743
727.102895	16954.877443
727.434612	17135.938045
727.766281	17263.595184
728.097901	17525.200821
728.429473	17560.919917
728.760996	17533.914456
729.092471	17630.762583
729.423897	17499.785844
729.755276	17374.745064
730.086606	17484.856467
730.417887	18013.252569
730.749120	18527.697278
731.080305	18705.317293
731.411442	19032.208393
731.742530	19095.757179
732.073570	19200.179639
732.404562	19487.951386
732.735506	19292.611716
733.066401	19018.579634
733.397249	18494.997834
733.728048	17862.632975
734.058798	17046.598716
734.389501	16371.656272
734.720156	15909.626960
735.050762	15396.727365
735.381320	15039.165884
735.711831	14807.514783
736.042293	14468.245129
736.372707	14477.508249
736.703073	14273.638947
737.033391	14455.649806
737.363661	14424.525722
737.693883	14533.747362
738.024056	14702.404205
738.354182	14885.481268
738.684260	15171.939794
739.014290	15383.511980
739.344272	15568.391256
739.674207	15851.023547
740.004093	15959.615042
740.333931	15952.174299
740.663722	15981.508773
740.993464	15979.222610
741.323159	15806.656352
741.652806	15528.929104
741.982405	15324.827908
742.311956	14988.577906
742.641460	14861.243401
742.970915	14560.914140
743.300323	14234.784253
743.629683	14021.876162
743.958996	13755.708280
744.288260	13482.775169
744.617477	13183.126464
744.946647	13109.717182
745.275768	12827.533554
745.604842	12655.481494
745.933869	12494.613234
746.262847	12439.921756
746.591778	12370.557999
746.920662	12263.594797
747.249498	12271.852207
747.578286	12392.643294
747.907027	12528.210003
748.235720	12755.548398
748.564365	12780.217284
748.892963	12679.913446
749.221514	12733.962177
749.550017	12596.820107
749.878473	12556.561453
750.206881	12334.854027
750.535242	12245.330697
750.863555	12163.336329
751.191821	12070.531208
751.520039	12092.487953
751.848210	11999.118222
752.176334	12026.743745
752.504411	11934.974581
752.832440	11780.155705
753.160421	11844.445540
753.488356	11718.603216
753.816243	11627.867488
754.144082	11493.177940
754.471875	11440.386977
754.799620	11380.430013
755.127318	11350.087308
755.454969	11314.897534
755.782572	11275.760536
756.110129	11279.501072
756.437638	11195.323885
756.765100	11194.028309
757.092515	11193.665346
757.419882	11215.463295
757.747203	11218.024201
758.074477	11290.833586
758.401703	11246.592420
758.728882	11403.447922
759.056014	11445.236567
759.383099	11559.295193
759.710138	11665.792089
760.037129	11751.615212
760.364073	11757.962025
760.690970	11751.080850
761.017820	11740.055847
761.344623	11932.028026
761.671379	12250.588620
761.998088	12881.093293
762.324751	14423.958593
762.651366	17263.900173
762.977935	20893.843494
763.304456	23082.289037
763.630931	23549.329256
763.957359	22356.982945
764.283740	20473.108794
764.610074	18600.456252
764.936362	16500.175448
765.262602	14997.357075
765.588796	13538.109395
765.914943	12518.026873
766.241044	11688.401664
766.567097	11060.886395
766.893104	10514.805925
767.219064	10164.511268
767.544978	9782.580849
767.870845	9470.314136
768.196665	9285.976784
768.522438	9100.648845
768.848165	8932.531405
769.173846	8768.237681
769.499479	8644.956264
769.825066	8498.397318
770.150607	8308.292886
770.476101	8249.452539
770.801548	8132.195300
771.126949	8003.421546
771.452303	7909.575426
771.777611	7748.608863
772.102872	7729.026501
772.428087	7606.314734
772.753256	7484.817885
773.078378	7399.582056
773.403453	7260.791529
773.728482	7156.416959
774.053465	7101.012157
774.378401	7005.862899
774.703291	6921.221926
775.028135	6822.193500
775.352932	6789.085722
775.677683	6708.354164
776.002388	6616.189269
776.327046	6614.192972
776.651658	6532.637185
776.976224	6457.017357
777.300743	6437.261075
777.625216	6373.445108
777.949643	6333.345250
778.274024	6334.262740
778.598359	6265.970229
778.922647	6272.496002
779.246889	6239.083235
779.571086	6236.134160
779.895236	6254.471357
780.219339	6242.294450
780.543397	6243.779069
780.867409	6293.794877
781.191374	6291.070134
781.515294	6260.430001
781.839167	6309.215767
782.162995	6282.238032
782.486776	6235.607359
782.810511	6192.543302
783.134201	6115.648062
783.457844	6106.752946
783.781441	6057.442900
784.104993	6010.469428
784.428498	5986.171067
784.751958	5965.366225
785.075372	5947.777639
785.398739	5903.970012
785.722061	5928.202839
786.045337	5923.998516
786.368568	6033.048756
786.691752	6057.014402
787.014891	6302.155631
787.337983	6583.439413
787.661030	7020.661206
787.984031	7440.009589
788.306987	7702.870474
788.629897	7784.529605
788.952760	7700.927109
789.275579	7521.351127
789.598351	7227.678710
789.921078	6962.912268
790.243759	6686.349527
790.566395	6485.391491
790.888984	6287.576614
791.211529	6150.011087
791.534027	5991.257591
791.856480	5856.888156
792.178888	5796.006141
792.501249	5732.961471
792.823566	5630.157220
793.145836	5625.322754
793.468062	5604.815340
793.790241	5567.616666
794.112375	5606.262151
794.434464	5700.972829
794.756507	5734.221759
795.078505	5854.085274
795.400457	6064.147634
795.722364	6309.248534
796.044226	6496.381206
796.366042	6650.222098
796.687812	6601.617813
797.009538	6630.463296
797.331218	6535.861003
797.652852	6467.918852
797.974442	6345.146591
798.295986	6279.548577
798.617484	6149.113762
798.938938	6042.269027
799.260346	5975.214119
799.581709	5836.075752
799.903026	5787.189163
800.224299	5715.539243
800.545526	5597.989618
800.866708	5531.143918
801.187845	5488.515921
801.508936	5410.128499
801.829983	5379.420310
802.150984	5274.695380
802.471940	5249.766875
802.792851	5233.194081
803.113717	5211.048293
803.434538	5187.574160
803.755314	5151.184591
804.076045	5143.703518
804.396731	5109.095997
804.717372	5124.910097
805.037967	5123.649808
805.358518	5154.085775
805.679024	5213.029466
805.999485	5225.009768
806.319901	5240.607098
806.640272	5261.056539
806.960598	5303.024144
807.280879	5298.776972
807.601115	5332.393907
807.921306	5296.715140
808.241453	5293.876971
808.561554	5306.946162
808.881611	5269.145070
809.201623	5265.318834
809.521590	5218.115990
809.841513	5201.817940
810.161390	5210.861770
810.481223	5129.716837
810.801011	5118.026401
811.120755	5090.022792
811.440453	5035.031365
811.760107	5005.533053
812.079716	4982.525227
812.399281	4932.630407
812.718801	4926.296197
813.038276	4893.783275
813.357707	4861.310683
813.677093	4879.705853
813.996434	4819.587573
814.315731	4838.580120
814.634983	4836.407383
814.954191	4840.437785
815.273354	4902.476745
815.592473	4941.601140
815.911547	5016.462275
816.230577	5068.345830
816.549562	5152.901103
816.868502	5202.972364
817.187399	5259.100571
817.506250	5337.767777
817.825058	5367.313979
818.143821	5519.773595
818.462539	5683.485066
818.781213	5907.904633
819.099843	6269.773779
819.418429	6893.067082
819.736970	7500.037128
820.055466	8209.355201
820.373919	9109.851471
820.692327	10550.877901
821.010691	13220.037793
821.329011	19382.308966
821.647286	28874.821823
821.965517	39121.148497
822.283704	44514.724367
822.601847	45945.555063
822.919945	41388.263766
823.237999	36301.767262
823.556010	31162.694043
823.873976	26493.443761
824.191897	22334.128874
824.509775	19302.000865
824.827609	16562.302628
825.145398	15026.817578
825.463144	14287.698725
825.780845	14592.706176
826.098502	15831.993191
826.416116	18271.432743
826.733685	20535.367044
827.051210	21046.945857
827.368692	19628.909609
827.686129	17077.926967
828.003522	14637.985820
828.320872	12434.058894
828.638177	10807.901130
828.955439	9576.604344
829.272656	8526.365640
829.589830	7691.016201
829.906960	6977.145966
830.224046	6452.263548
830.541088	6041.354057
830.858086	5786.332167
831.175041	5589.149954
831.491952	5536.313621
831.808819	5567.336882
832.125642	5802.622655
832.442421	6348.992991
832.759157	7443.669467
833.075849	9204.055513
833.392497	11031.388083
833.709101	12134.931948
834.025662	11883.305274
834.342179	10829.275622
834.658653	9541.301144
834.975083	8440.151827
835.291469	7553.785911
835.607811	6822.647204
835.924110	6309.445139
836.240366	5829.678528
836.556578	5382.586155
836.872746	5033.846694
837.188871	4764.157566
837.504952	4547.060275
837.820990	4377.029718
838.136984	4267.102317
838.452935	4223.208991
838.768842	4250.451386
839.084706	4530.858007
839.400526	5264.532414
839.716303	6154.472508
840.032037	6720.800773
840.347727	6567.504325
840.663373	5973.358974
840.978977	5399.683228
841.294537	4966.789265
841.610054	4639.925891
841.925527	4405.030807
842.240957	4201.826937
842.556344	4022.235831
842.871687	3862.574927
843.186987	3714.606979
843.502244	3596.102055
843.817458	3510.266328
844.132629	3441.235288
844.447756	3396.789955
844.762840	3349.786237
845.077881	3313.946154
845.392879	3278.224538
845.707833	3251.564395
846.022745	3226.577916
846.337613	3213.964949
846.652438	3194.405272
846.967221	3181.068900
847.281960	3165.038031
847.596656	3154.537307
847.911309	3144.502891
848.225919	3128.774491
848.540485	3117.522635
848.855009	3110.187756
849.169490	3100.155860
849.483928	3094.882813
849.798323	3089.125816
850.112675	3077.500915
850.426984	3081.853951
850.741251	3073.160481
851.055474	3070.370203
851.369654	3073.662076
851.683792	3066.458267
851.997887	3070.894483
852.311938	3068.764595
852.625947	3073.692323
852.939914	3065.329049
853.253837	3070.355079
853.567718	3068.411714
853.881555	3063.415931
854.195350	3069.364493
854.509103	3062.851322
854.822812	3059.594736
855.136479	3056.413768
855.450103	3061.465004
855.763685	3055.791186
856.077224	3058.367215
856.390720	3063.272258
856.704173	3073.107549
857.017584	3081.012078
857.330953	3086.035588
857.644278	3092.536156
857.957561	3096.581682
858.270802	3090.761670
858.584000	3093.093204
858.897155	3090.580188
859.210268	3076.865729
859.523339	3065.117320
859.836367	3063.080694
860.149352	3057.391752
860.462295	3052.834549
860.775195	3045.091337
861.088054	3039.687220
861.400869	3042.633774
861.713642	3038.883156
862.026373	3049.691390
862.339062	3053.557955
862.651708	3060.532391
862.964312	3077.647108
863.276873	3085.531473
863.589392	3113.497274
863.901869	3141.057262
864.214303	3163.266065
864.526696	3179.974970
864.839045	3196.638504
865.151353	3210.022767
865.463619	3209.523693
865.775842	3211.177191
866.088023	3217.735732
866.400162	3209.453117
866.712258	3209.067468
867.024313	3210.978066
867.336325	3208.500339
867.648296	3209.569063
867.960224	3205.710060
868.272110	3208.182746
868.583954	3210.340360
868.895755	3218.532235
869.207515	3214.254816
869.519233	3233.030593
869.830909	3239.800863
870.142542	3250.604056
870.454134	3256.320724
870.765684	3271.776902
871.077191	3289.554531
871.388657	3295.871097
871.700081	3316.350784
872.011463	3334.960203
872.322803	3353.841845
872.634101	3369.960935
872.945357	3393.034296
873.256571	3418.003131
873.567744	3433.698763
873.878874	3441.124383
874.189963	3456.552834
874.501010	3457.130046
874.812015	3452.625775
875.122979	3468.334011
875.433900	3467.219916
875.744780	3468.654124
876.055618	3480.591576
876.366415	3476.878767
876.677169	3483.785147
876.987882	3497.313084
877.298554	3521.135056
877.609183	3553.554717
877.919771	3599.411572
878.230317	3667.981347
878.540822	3767.077829
878.851285	3915.958225
879.161707	4136.848984
879.472087	4505.564017
879.782425	5124.544613
880.092722	6292.274969
880.402977	8208.800674
880.713191	10551.263549
881.023363	12912.829877
881.333494	14234.590169
881.643583	14681.889229
881.953631	14273.724646
882.263637	13437.671966
882.573602	12405.626786
882.883526	11464.851696
883.193408	10517.142500
883.503248	9616.240416
883.813048	8791.631155
884.122806	8037.585445
884.432522	7287.401259
884.742197	6637.818339
885.051831	6079.003915
885.361424	5586.702474
885.670975	5203.395821
885.980485	4880.658631
886.289954	4617.512921
886.599382	4408.100870
886.908768	4231.272316
887.218113	4067.303746
887.527417	3936.498407
887.836680	3818.328719
888.145901	3717.913976
888.455082	3642.647028
888.764221	3574.117583
889.073319	3515.183974
889.382376	3483.044098
889.691392	3459.454018
890.000366	3451.176444
890.309300	3445.411884
890.618193	3452.260292
890.927044	3444.988427
891.235855	3452.028399
891.544625	3468.036583
891.853353	3494.172445
892.162041	3554.472207
892.470687	3645.286072
892.779293	3762.961727
893.087858	3930.449022
893.396381	4206.825241
893.704864	4618.261532
894.013306	5178.542933
894.321707	5738.010186
894.630068	6090.885914
894.938387	6128.341687
895.246665	5949.814265
895.554903	5634.459845
895.863100	5303.208147
896.171256	5037.317528
896.479371	4799.614521
896.787446	4579.399277
897.095480	4382.890059
897.403473	4238.420672
897.711425	4095.350206
898.019336	3977.372082
898.327207	3857.624514
898.635038	3753.418823
898.942827	3649.833193
899.250576	3565.267837
899.558284	3488.135663
899.865952	3431.717590
900.173579	3368.660317
900.481165	3321.815395
900.788711	3281.090433
901.096216	3249.976432
901.403681	3223.326372
901.711105	3210.907490
902.018489	3208.180225
902.325832	3240.735997
902.633135	3300.168680
902.940397	3465.533650
903.247619	3865.294629
903.554800	4606.107310
903.861941	5562.459565
904.169041	6249.566314
904.476101	6457.418128
904.783121	6184.878228
905.090100	5787.358041
905.397039	5375.336976
905.703938	5025.536352
906.010796	4707.217733
906.317614	4458.277994
906.624391	4219.869226
906.931129	4033.243190
907.237826	3851.474306
907.544483	3685.726209
907.851099	3517.833100
908.157675	3359.152701
908.464211	3220.364694
908.770707	3120.680918
909.077163	3041.744011
909.383578	2984.804178
909.689954	2940.613423
909.996289	2912.032602
910.302584	2893.493758
910.608839	2880.900956
910.915054	2866.553832
911.221229	2861.689119
911.527363	2868.676158
911.833458	2873.785367
912.139513	2887.333468
912.445527	2900.243863
912.751502	2933.248298
913.057436	2976.198928
913.363331	3031.457536
913.669186	3117.694034
913.975000	3231.293916
914.280775	3416.952050
914.586510	3681.289993
914.892205	4050.307496
915.197859	4538.659193
915.503475	5115.294096
915.809050	5608.281133
916.114585	5888.034925
916.420081	5949.804183
916.725536	5882.282968
917.030952	5648.144057
917.336328	5446.875990
917.641665	5241.779166
917.946961	5017.112583
918.252218	4818.002130
918.557435	4592.589456
918.862612	4399.898912
919.167750	4229.457501
919.472848	4040.381464
919.777906	3879.485477
920.082925	3720.313565
920.387904	3572.106163
920.692843	3462.448464
920.997743	3361.695963
921.302603	3270.529216
921.607423	3207.683672
921.912204	3143.713950
922.216946	3097.161415
922.521647	3049.202398
922.826310	3006.660100
923.130932	2972.181129
923.435516	2933.351641
923.740059	2907.114956
924.044564	2876.565564
924.349028	2852.904908
924.653454	2824.881134
924.957840	2797.472380
925.262186	2778.164761
925.566493	2756.996956
925.870761	2737.528020
926.174989	2720.655278
926.479178	2707.507949
926.783328	2689.750484
927.087438	2681.795544
927.391509	2667.655107
927.695541	2656.446102
927.999533	2643.213073
928.303486	2637.400622
928.607400	2632.009108
928.911275	2626.458798
929.215110	2621.089969
929.518906	2617.271295
929.822663	2616.338682
930.126381	2618.617283
930.430060	2620.948817
930.733699	2623.033334
931.037299	2625.679940
931.340861	2626.846967
931.644383	2628.903757
931.947866	2626.904940
932.251309	2622.357819
932.554714	2624.157511
932.858080	2622.488889
933.161407	2620.371605
933.464694	2613.412292
933.767943	2609.575974
934.071153	2606.873915
934.374323	2604.605396
934.677455	2601.283276
934.980548	2596.680702
935.283602	2597.734303
935.586617	2594.150043
935.889593	2595.112903
936.192530	2597.643562
936.495428	2602.568770
936.798287	2612.787189
937.101108	2626.806637
937.403890	2649.701038
937.706632	2674.251457
938.009336	2706.585418
938.312002	2735.957701
938.614628	2759.184817
938.917216	2778.207611
939.219765	2784.907304
939.522275	2796.544808
939.824747	2794.563635
940.127179	2788.521812
940.429573	2781.262550
940.731929	2782.845472
941.034246	2771.283586
941.336524	2775.629061
941.638763	2766.660848
941.940964	2759.764550
942.243126	2740.976169
942.545250	2733.409397
942.847335	2720.388097
943.149381	2706.419060
943.451389	2695.031093
943.753359	2679.403516
944.055290	2671.093174
944.357182	2663.864159
944.659036	2658.898623
944.960851	2653.444094
945.262628	2650.215235
945.564367	2649.456542
945.866067	2649.912766
946.167729	2650.089207
946.469352	2646.230203
946.770937	2648.934782
947.072484	2640.342136
947.373992	2638.507156
947.675462	2638.663431
947.976893	2629.407873
948.278286	2623.681122
948.579641	2624.187758
948.880958	2620.215329
949.182236	2620.225411
949.483476	2618.193826
949.784678	2615.824484
950.085841	2614.861623
950.386967	2618.329937
950.688054	2625.677419
950.989103	2634.932977
951.290114	2640.453041
951.591087	2654.142294
951.892021	2664.237205
952.192917	2680.210101
952.493776	2689.800896
952.794596	2691.517409
953.095378	2693.579241
953.396122	2691.149405
953.696828	2686.584640
953.997496	2682.377797
954.298126	2673.845644
954.598718	2665.862977
954.899272	2654.475010
955.199788	2647.666932
955.500266	2633.869294
955.800706	2615.443877
956.101108	2603.256887
956.401472	2590.926225
956.701798	2575.686817
957.002087	2564.137533
957.302337	2555.131512
957.602550	2544.262784
957.902724	2532.723583
958.202861	2524.798889
958.502960	2512.768176
958.803022	2509.801457
959.103045	2502.920282
959.403031	2495.192193
959.702979	2490.889568
960.002889	2486.914618
960.302762	2479.983032
960.602596	2476.340798
960.902393	2473.767289
961.202153	2471.231589
961.501875	2467.947277
961.801559	2467.987606
962.101205	2464.063068
962.400814	2463.826134
962.700385	2461.078705
962.999918	2459.798252
963.299414	2456.592078
963.598873	2455.883796
963.898293	2452.710389
964.197677	2452.241562
964.497022	2452.912036
964.796331	2448.347271
965.095601	2451.208126
965.394835	2449.486572
965.694030	2447.555810
965.993189	2448.208639
966.292309	2445.083124
966.591393	2450.595625
966.890439	2443.805191
967.189447	2450.313321
967.488419	2447.732250
967.787353	2450.479679
968.086249	2446.668567
968.385108	2450.930862
968.683930	2447.984308
968.982714	2449.610080
969.281462	2454.308435
969.580172	2454.124433
969.878844	2457.265072
970.177480	2462.338993
970.476078	2461.343365
970.774639	2465.335959
971.073162	2464.773871
971.371649	2465.202369
971.670098	2465.472070
971.968510	2469.174798
972.266885	2470.114973
972.565223	2476.577732
972.863524	2476.529841
973.161788	2476.890284
973.460014	2478.919348
973.758204	2478.299286
974.056356	2477.127218
974.354471	2479.088227
974.652550	2478.977322
974.950591	2480.285501
975.248595	2476.678555
975.546563	2476.020685
975.844493	2476.431539
976.142386	2471.899542
976.440243	2474.210911
976.738062	2472.696044
977.035845	2467.543985
977.333590	2465.461988
977.631299	2464.872173
977.928971	2460.882100
978.226606	2456.932356
978.524204	2460.708180
978.821765	2455.926646
979.119290	2458.172480
979.416777	2456.806327
979.714228	2456.977726
980.011642	2457.565021
980.309020	2464.226905
980.606360	2466.989458
980.903664	2474.972125
981.200931	2485.780359
981.498162	2503.202586
981.795356	2535.392874
982.092513	2572.891497
982.389633	2615.121243
982.686717	2656.279743
982.983764	2685.518436
983.280775	2705.889738
983.577749	2705.662887
983.874686	2697.392874
984.171587	2680.678928
984.468451	2667.196362
984.765279	2648.365132
985.062070	2631.724283
985.358824	2612.567898
985.655543	2591.455546
985.952224	2567.983934
986.248869	2537.870601
986.545478	2513.471417
986.842050	2495.875269
987.138586	2477.631333
987.435086	2467.024746
987.731549	2453.658126
988.027975	2451.137549
988.324366	2443.611107
988.620719	2442.857454
988.917037	2437.413008
989.213318	2434.852102
989.509563	2430.766247
989.805772	2429.339600
990.101944	2427.633170
990.398080	2428.240629
990.694180	2428.858170
990.990244	2430.665424
991.286271	2426.370361
991.582262	2428.525454
991.878217	2429.692481
992.174136	2428.409507
992.470019	2427.486976
992.765865	2435.530137
993.061676	2432.087029
993.357450	2437.700354
993.653188	2440.021805
993.948890	2443.948864
994.244556	2450.114195
994.540186	2459.505865
994.835780	2470.203193
995.131337	2485.296408
995.426859	2500.797956
995.722345	2523.064733
996.017795	2536.312885
996.313208	2549.878630
996.608586	2561.682492
996.903928	2566.673234
997.199234	2562.647872
997.494504	2562.773901
997.789738	2554.418189
998.084936	2545.762528
998.380099	2532.237112
998.675225	2523.936852
998.970316	2509.703154
999.265371	2495.083808
999.560390	2481.913794
999.855373	2472.549850
1000.150320	2462.548201
1000.445232	2453.600153
1000.740108	2446.106478
1001.034948	2442.565067
1001.329752	2434.826896
1001.624521	2429.266503
1001.919254	2426.080494
1002.213951	2427.003025
1002.508613	2419.849628
1002.803239	2419.688311
1003.097829	2416.403999
1003.392384	2420.688980
1003.686903	2418.115471
1003.981386	2417.679411
1004.275834	2416.144380
1004.570246	2418.062539
1004.864623	2414.488361
1005.158964	2413.091961
1005.453270	2411.647671
1005.747540	2412.812177
1006.041775	2412.429050
1006.335974	2413.376787
1006.630138	2409.132135
1006.924266	2412.360994
1007.218359	2409.769841
1007.512416	2410.720098
1007.806438	2409.051477
1008.100425	2413.091961
1008.394376	2412.338309
1008.688292	2409.520304
1008.982172	2410.604152
1009.276017	2413.154976
1009.569827	2408.368400
1009.863602	2410.309244
1010.157341	2410.387382
1010.451045	2408.749007
1010.744714	2407.128276
1011.038347	2407.219017
1011.331945	2408.663308
1011.625508	2407.869326
1011.919036	2407.970149
1012.212528	2405.938564
1012.505986	2407.234141
1012.799408	2407.302196
1013.092795	2407.397978
1013.386147	2407.178688
1013.679464	2404.602658
1013.972745	2403.828841
1014.265992	2405.333626
1014.559204	2405.255488
1014.852380	2406.833369
1015.145521	2409.026271
1015.438628	2407.687844
1015.731699	2405.729356
1016.024736	2405.787329
1016.317737	2409.104409
1016.610703	2406.046949
1016.903635	2404.814387
1017.196531	2406.540982
1017.489393	2406.790519
1017.782219	2403.531413
1018.075011	2407.408060
1018.367768	2408.749007
1018.660490	2409.200191
1018.953177	2409.200191
1019.245829	2409.200191
