Dividing Wavelength (nm)	Counts (n)	Blue Motor Position (mm): 49.800000	Red Motor Position (mm): 0.000000	
326.493990	1976.044087
326.888308	1976.044087
327.282561	1976.044087
327.676750	1952.227156
328.070874	1954.664554
328.464933	1960.862653
328.858929	1966.954887
329.252859	1978.647843
329.646726	1995.069402
330.040528	2011.289315
330.434265	2028.550225
330.827938	2049.407999
331.221547	2070.875753
331.615091	2088.466859
332.008571	2109.541403
332.401986	2131.609054
332.795338	2149.726961
333.188625	2170.897287
333.581847	2193.022911
333.975006	2208.857175
334.368100	2228.444578
334.761129	2242.305231
335.154095	2257.605133
335.546996	2297.803293
335.939833	2383.399565
336.332606	2397.958418
336.725315	2410.278998
337.117960	2420.270564
337.510540	2423.486821
337.903056	2437.279417
338.295508	2441.115736
338.687896	2451.626541
339.080220	2459.105093
339.472480	2463.087605
339.864676	2470.210755
340.256807	2470.193111
340.648875	2473.631178
341.040879	2475.990438
341.432818	2474.843575
341.824694	2477.868268
342.216506	2473.444655
342.608253	2477.709471
342.999937	2475.037660
343.391557	2471.758389
343.783113	2472.081023
344.174605	2471.423152
344.566033	2467.980044
344.957397	2468.892493
345.348697	2466.739921
345.739934	2464.715897
346.131106	2460.037707
346.522215	2462.674230
346.913260	2459.841102
347.304241	2458.162397
347.695159	2455.402366
348.086012	2458.376646
348.476802	2453.900102
348.867528	2454.126954
349.258191	2452.216356
349.648789	2450.557817
350.039324	2448.541355
350.429796	2452.493620
350.820203	2445.957764
351.210548	2446.887857
351.600828	2446.857610
351.991045	2448.092693
352.381198	2446.761828
352.771288	2449.330296
353.161314	2444.846189
353.551276	2443.989193
353.941175	2446.955912
354.331010	2444.639502
354.720782	2451.833229
355.110490	2449.675615
355.500135	2446.537497
355.889717	2449.421037
356.279235	2449.489092
356.668689	2446.716457
357.058080	2450.320882
357.447408	2449.320213
357.836672	2445.695624
358.225873	2449.184102
358.615010	2447.994390
359.004084	2455.117540
359.393095	2456.481173
359.782043	2454.734413
360.170927	2453.958075
360.559748	2455.326748
360.948505	2458.464867
361.337199	2460.665330
361.725830	2461.393777
362.114398	2461.383695
362.502903	2463.480815
362.891344	2461.363530
363.279722	2460.904785
363.668037	2463.619446
364.056289	2465.404015
364.444478	2463.901751
364.832603	2466.661783
365.220665	2468.700929
365.608665	2469.487349
365.996601	2467.390229
366.384474	2469.799901
366.772284	2468.867288
367.160031	2468.496763
367.547715	2472.413739
367.935336	2468.852164
368.322893	2472.635550
368.710388	2475.740901
369.097820	2476.673514
369.485189	2477.228041
369.872495	2481.233238
370.259738	2480.431694
370.646918	2484.981336
371.034035	2485.326655
371.421090	2490.133395
371.808081	2486.806233
372.195010	2493.326966
372.581875	2498.272338
372.968678	2503.096722
373.355418	2512.695079
373.742096	2518.298322
374.128710	2530.588655
374.515262	2539.060314
374.901751	2551.126315
375.288177	2568.694737
375.674540	2585.948086
376.060841	2606.944491
376.447079	2625.518623
376.833254	2652.332520
377.219367	2673.248267
377.605417	2705.297403
377.991404	2728.484190
378.377329	2768.447937
378.763191	2801.689306
379.148991	2846.386696
379.534727	2889.095352
379.920402	2933.575973
380.306013	2980.234372
380.691563	3043.762993
381.077049	3098.406580
381.462474	3149.876761
381.847835	3224.458111
382.233134	3289.753656
382.618371	3348.417564
383.003545	3432.158691
383.388657	3510.402440
383.773706	3600.639093
384.158693	3673.261956
384.543618	3762.442488
384.928480	3839.937625
385.313280	3944.891928
385.698017	4047.716343
386.082692	4161.590967
386.467305	4230.138057
386.851856	4352.217159
387.236344	4505.788349
387.620770	4568.903595
388.005133	4687.837017
388.389435	4830.846990
388.773674	4912.579217
389.157851	5047.420000
389.541965	5179.962017
389.926018	5202.856418
390.310008	5386.472885
390.693936	5501.396069
391.077802	5622.918123
391.461606	5752.642135
391.845348	5866.771338
392.229027	5991.998641
392.612645	6209.617690
392.996200	6331.449776
393.379694	6500.083934
393.763125	6722.028294
394.146494	6819.960269
394.529801	6950.054806
394.913047	7194.727207
395.296230	7189.905344
395.679351	7250.326093
396.062410	7510.139601
396.445408	7404.603045
396.828343	7560.677168
397.211217	7702.605813
397.594028	7577.996052
397.976778	7786.480531
398.359466	7950.139070
398.742092	7926.559073
399.124656	8078.842248
399.507158	8257.241121
399.889598	8281.249617
400.271977	8492.854570
400.654294	8523.419086
401.036549	8718.368067
401.418742	8744.224145
401.800874	9039.759268
402.182944	9121.930076
402.564952	9480.124221
402.946898	9306.431266
403.328783	9369.725473
403.710606	9562.368126
404.092367	9814.743411
404.474067	10170.258183
404.855705	9967.918870
405.237282	9921.709134
405.618797	10337.536270
406.000250	10589.848541
406.381642	10946.885742
406.762972	10894.818184
407.144240	10699.725530
407.525447	10943.210740
407.906593	10880.816379
408.287677	11141.650720
408.668700	11299.527056
409.049661	11268.249217
409.430560	11429.737539
409.811399	11400.506409
410.192176	11564.437170
410.572891	11636.427368
410.953545	12106.666198
411.334138	11593.741397
411.714669	12172.685149
412.095139	11506.632779
412.475547	11996.935402
412.855894	11844.732886
413.236180	12165.998058
413.616405	11858.873322
413.996568	12130.218469
414.376670	12098.534817
414.756711	11987.211017
415.136691	12249.340934
415.516609	12430.341043
415.896466	12493.042914
416.276262	12781.217953
416.655997	13219.742885
417.035670	13260.132610
417.415283	13897.115166
417.794834	13982.900481
418.174324	13733.025608
418.553753	13635.161688
418.933121	14118.469711
419.312428	13925.360751
419.691674	13841.788502
420.070859	14289.846256
420.449983	13948.590388
420.829045	14503.024049
421.208047	14237.811466
421.586988	14685.327296
421.965867	14938.521768
422.344686	14934.503969
422.723444	15491.533825
423.102141	14192.567110
423.480777	15364.786614
423.859352	14877.289393
424.237866	15972.096939
424.616319	15673.612740
424.994712	16320.697768
425.373044	16114.494411
425.751314	16787.624561
426.129524	15922.673466
426.507673	16986.019171
426.885762	16700.510902
427.263789	16883.260291
427.641756	17047.543933
428.019662	17106.152387
428.397508	17149.276938
428.775292	17428.508970
429.153016	17410.721259
429.530679	17471.661247
429.908282	17507.133326
430.285824	17229.668218
430.663305	17924.926513
431.040726	17529.170730
431.418086	17363.220987
431.795385	17993.743304
432.172624	18407.133043
432.549802	17960.781719
432.926920	18163.141197
433.303977	18039.557310
433.680974	18297.659346
434.057910	18573.241582
434.434786	18608.093600
434.811601	18516.697480
435.188355	19532.739517
435.565050	19205.248520
435.941683	19142.886926
436.318257	20019.309166
436.694770	19835.503656
437.071222	20419.249107
437.447614	19495.671913
437.823946	19523.136119
438.200218	19676.271250
438.576429	19454.614236
438.952580	19737.649818
439.328670	19680.621766
439.704700	20108.993814
440.080670	19674.716054
440.456580	20260.004098
440.832429	20430.014491
441.208218	19446.986970
441.583947	19866.990703
441.959616	19980.046139
442.335224	20213.189423
442.710773	20335.702064
443.086261	20863.037003
443.461689	20235.730942
443.837057	20361.608553
444.212365	20997.618167
444.587612	20981.486474
444.962800	20578.201728
445.337927	20992.340079
445.712995	19749.373022
446.088002	21560.372253
446.462949	21746.088361
446.837837	21917.033887
447.212664	21872.853215
447.587431	24636.275122
447.962139	27521.934927
448.336786	29892.807225
448.711374	28394.074707
449.085901	24770.697489
449.460369	24686.096845
449.834776	24589.830972
450.209124	27034.064661
450.583412	26599.449144
450.957640	27126.126212
451.331808	25809.969163
451.705917	24446.337048
452.079965	24468.802950
452.453954	24836.476985
452.827883	24712.141967
453.201752	24521.901423
453.575562	24678.963613
453.949311	25772.218483
454.323001	25822.330072
454.696632	25597.502173
455.070202	27121.427857
455.443713	27260.573785
455.817164	27843.474843
456.190556	28375.389670
456.563888	27823.027923
456.937160	28252.635054
457.310373	26613.357687
457.683526	27039.332667
458.056619	27009.607503
458.429653	26965.237787
458.802628	27516.651798
459.175542	27641.276683
459.548398	28938.226936
459.921194	30483.615332
460.293930	31152.389925
460.666607	33156.178003
461.039224	34904.067029
461.411782	35294.343077
461.784280	34113.591421
462.156719	33611.542909
462.529099	33049.373597
462.901419	31760.796700
463.273680	30702.693796
463.645882	30800.469496
464.018024	30764.702509
464.390106	31600.447679
464.762130	34248.381792
465.134094	38266.995554
465.505999	43544.773600
465.877845	48117.024521
466.249631	49281.629362
466.621358	47548.694919
466.993026	45423.223469
467.364634	43330.615302
467.736184	41390.582697
468.107674	40141.409980
468.479105	39361.046926
468.850477	38677.872277
469.221790	37259.616740
469.593043	35535.572371
469.964238	34678.830796
470.335373	34582.837144
470.706449	36244.109065
471.077467	38735.180114
471.448425	43285.703663
471.819324	46164.885585
472.190164	44383.641764
472.560945	40847.940294
472.931667	37754.612677
473.302330	36659.308578
473.672934	35849.532912
474.043479	36336.601635
474.413965	35557.244292
474.784393	35185.333167
475.154761	36055.209468
475.525070	36091.286486
475.895321	35643.851315
476.265513	36241.883395
476.635645	37196.151133
477.005719	37011.047526
477.375734	37475.375604
477.745691	38156.009511
478.115588	39455.230803
478.485427	41406.764801
478.855207	44719.695162
479.224928	47346.355606
479.594591	48989.166822
479.964194	47983.055858
480.333739	48116.018811
480.703226	48124.112383
481.072653	48756.285678
481.442022	49249.905381
481.811333	49526.914264
482.180584	48238.317203
482.549777	47718.359993
482.918912	47180.630194
483.287988	46914.590862
483.657005	46082.066989
484.025964	45431.901816
484.394864	45457.833511
484.763706	45011.721643
485.132489	44147.562009
485.501213	43981.352646
485.869879	44123.024193
486.238487	43739.848610
486.607036	43925.720993
486.975527	43402.492074
487.343959	43599.911220
487.712333	43674.865616
488.080648	43592.228502
488.448905	44025.878638
488.817104	43842.494064
489.185244	44791.385411
489.553326	46417.724656
489.921350	49137.774996
490.289315	52068.152356
490.657222	52707.353020
491.025070	53001.708513
491.392861	52093.695883
491.760593	50809.184677
492.128267	49119.866297
492.495883	47569.502281
492.863440	46212.673203
493.230939	44848.650398
493.598380	43771.882622
493.965763	43452.863283
494.333088	42644.451249
494.700354	42165.700430
495.067563	41892.452248
495.434713	41758.004675
495.801805	41831.940758
496.168839	41448.979423
496.535815	41127.573098
496.902733	41180.742148
497.269593	40753.491756
497.636395	40682.318226
498.003139	41084.967786
498.369825	40558.147045
498.736453	40842.785714
499.103023	40382.304037
499.469535	40258.831056
499.835989	40345.274241
500.202385	40030.933093
500.568723	40037.509278
500.935003	40234.580585
501.301226	40026.723730
501.667390	40645.419500
502.033497	40905.147308
502.399546	40324.482002
502.765537	39660.415847
503.131470	40042.996574
503.497345	40382.914017
503.863163	39070.338707
504.228923	39681.707161
504.594625	40080.525444
504.960269	39391.498016
505.325856	40063.753525
505.691385	39426.385321
506.056856	39566.758771
506.422270	40003.037868
506.787625	39570.499307
507.152924	39768.656982
507.518164	39888.218028
507.883347	39112.679358
508.248472	39356.280515
508.613540	39827.247793
508.978550	40118.732349
509.343503	39864.854800
509.708398	40079.928067
510.073236	40589.462693
510.438016	40601.379980
510.802738	40067.088249
511.167403	40677.435868
511.532010	40918.496283
511.896561	41213.489483
512.261053	42035.752087
512.625488	41584.190731
512.989866	41470.958854
513.354186	41322.728766
513.718449	41308.137147
514.082655	41976.886533
514.446803	41653.304950
514.810894	42187.800849
515.174927	42110.477110
515.538904	42002.175482
515.902822	42647.866631
516.266684	42117.146557
516.630488	42539.396124
516.994235	42401.235741
517.357925	42963.473109
517.721558	43124.447233
518.085133	43430.253708
518.448651	43583.167028
518.812112	43353.534908
519.175516	43445.243579
519.538863	43775.527376
519.902152	43755.478707
520.265385	44214.168254
520.628560	44256.279533
520.991678	44050.582812
521.354739	44298.269824
521.717743	44601.749806
522.080690	44495.807437
522.443580	45050.374690
522.806413	45092.327172
523.169189	45054.188323
523.531908	45238.475263
523.894569	45084.379793
524.257174	45252.562768
524.619722	45534.958124
524.982213	45543.283589
525.344647	45453.389734
525.707025	45501.857908
526.069345	45890.286373
526.431608	45812.977758
526.793815	46139.435320
527.155964	45666.812023
527.518057	45835.673033
527.880093	45617.403674
528.242072	46145.777091
528.603995	45846.564446
528.965860	45857.743205
529.327669	45943.064733
529.689421	45843.602768
530.051117	45817.096381
530.412755	45958.047043
530.774337	46010.033942
531.135862	45829.948803
531.497331	46024.050870
531.858743	45928.926818
532.220098	46277.898172
532.581396	45979.444220
532.942638	45656.976732
533.303824	45938.106759
533.664953	45914.476350
534.026025	45627.120498
534.387040	46114.642925
534.747999	46038.980247
535.108902	46205.885289
535.469748	45737.506644
535.830537	45857.365118
536.191270	46057.957671
536.551947	45705.477673
536.912567	46021.426949
537.273131	46130.588095
537.633638	45610.149454
537.994089	45963.189020
538.354483	45570.422641
538.714821	46121.181302
539.075103	46458.822663
539.435328	46245.972545
539.795497	46127.954092
540.155609	46113.740559
540.515665	46565.070021
540.875665	46031.516819
541.235609	46360.494957
541.595496	46329.491861
541.955328	46989.010895
542.315102	46373.191103
542.674821	46166.350040
543.034483	46200.455967
543.394090	46156.913000
543.753640	46124.775644
544.113134	47135.912639
544.472571	46140.030176
544.831953	47381.318529
545.191278	46605.318594
545.550548	46315.374110
545.909761	46783.029349
546.268918	46993.845362
546.628019	47286.093653
546.987064	46842.787187
547.346053	46138.137223
547.704986	46989.822521
548.063863	46569.866679
548.422684	46772.216074
548.781449	46618.302085
549.140158	47011.602826
549.498811	46852.519134
549.857408	46316.233626
550.215949	47123.917213
550.574434	47046.845533
550.932864	46819.199628
551.291237	47543.512612
551.649555	47155.023653
552.007817	47389.376813
552.366022	47036.329686
552.724173	47215.618322
553.082267	47617.713356
553.440305	47908.366122
553.798288	47219.464723
554.156215	47536.785193
554.514086	47730.773834
554.871902	47477.692787
555.229661	47499.412599
555.587365	47321.878284
555.945014	47428.967515
556.302606	47334.662650
556.660143	47562.583298
557.017625	47662.320006
557.375050	47446.273796
557.732421	47801.927200
558.089735	47763.564019
558.446994	47699.075058
558.804197	48162.231068
559.161345	48095.027446
559.518437	47345.826285
559.875474	47658.229109
560.232455	47790.297258
560.589381	47977.417327
560.946251	47665.125408
561.303065	48369.989621
561.659825	48165.129732
562.016528	47843.294908
562.373177	47550.706339
562.729770	48036.061070
563.086307	47538.784010
563.442789	48005.418416
563.799216	48063.265656
564.155587	47840.061008
564.511904	47868.886326
564.868164	47983.640631
565.224370	48213.040858
565.580520	47926.970500
565.936615	48145.708686
566.292654	47871.903456
566.648638	48112.391701
567.004567	48057.987568
567.360441	48095.914689
567.716260	47956.746076
568.072023	48238.440711
568.427732	48248.853215
568.783385	47779.501627
569.138982	48171.284980
569.494525	48130.290317
569.850013	47900.948064
570.205445	47866.698465
570.560823	47844.063684
570.916145	47713.684322
571.271412	47742.025689
571.626625	47487.354159
571.981782	47536.898619
572.336884	47223.989158
572.691931	47531.502063
573.046923	47156.288983
573.401860	47006.193668
573.756743	46972.881723
574.111570	47097.521732
574.466342	46934.954602
574.821059	47069.505519
575.175722	46588.148424
575.530330	46609.696836
575.884882	46328.108064
576.239380	46289.059287
576.593823	46262.721778
576.948211	46175.958479
577.302544	45691.319593
577.656823	45729.839049
578.011047	45940.508868
578.365216	45665.186251
578.719330	45469.841540
579.073389	45335.373802
579.427394	45413.882211
579.781344	45363.621907
580.135239	45022.915525
580.489080	45120.033354
580.842866	44584.536786
581.196597	45042.661724
581.550273	44992.459394
581.903895	44859.592223
582.257463	45276.949349
582.610975	44661.104352
582.964434	44937.465447
583.317837	44576.748204
583.671186	44411.410960
584.024481	44649.149255
584.377721	44186.416702
584.730906	44466.281399
585.084037	44485.541128
585.437113	44203.354979
585.790135	44243.240589
586.143103	43841.271584
586.496016	43989.350437
586.848874	43996.584493
587.201679	44007.198642
587.554428	43495.587062
587.907124	43673.726315
588.259765	43431.713122
588.612352	43668.813711
588.964884	43079.210439
589.317362	43360.267369
589.669786	43306.435408
590.022155	43086.268055
590.374470	43502.581663
590.726731	43026.558108
591.078937	42537.170454
591.431090	42644.683142
591.783188	42305.143787
592.135232	41978.983653
592.487222	42207.415978
592.839157	42299.396871
593.191038	41977.325114
593.542866	41753.870928
593.894639	41154.518065
594.246358	41432.792278
594.598022	41407.183217
594.949633	41014.058916
595.301190	40981.170429
595.652692	40807.472432
596.004141	41132.273974
596.355535	40149.526237
596.706876	40104.181059
597.058162	39936.144277
597.409395	40406.975444
597.760573	40486.524852
598.111698	40055.851517
598.462768	40062.435264
598.813785	40112.783788
599.164748	39560.177544
599.515657	39958.761414
599.866511	39434.476373
600.217312	40052.287421
600.568060	38997.176442
600.918753	39757.609293
601.269392	39709.937622
601.619978	39358.528870
601.970510	39568.921426
602.320988	39762.496692
602.671412	40066.422816
603.021783	39811.751286
603.372100	39464.052823
603.722363	39568.424872
604.072572	39666.797948
604.422728	39662.069346
604.772830	39464.259510
605.122878	39558.103109
605.472872	39503.789718
605.822813	39775.535637
606.172701	39606.654462
606.522534	39833.372795
606.872314	40109.141554
607.222041	39873.220595
607.571714	40240.481256
607.921333	39705.667765
608.270899	39995.329944
608.620411	40326.120377
608.969870	40138.675154
609.319276	40109.197007
609.668627	40172.130771
610.017926	40644.393625
610.367171	40803.815075
610.716362	40906.692422
611.065500	40841.444767
611.414585	41027.362521
611.763616	41312.724597
612.112594	41241.417475
612.461518	41458.711371
612.810389	41749.951431
613.159207	41620.565177
613.507971	41698.508977
613.856682	42161.049966
614.205340	42050.207596
614.553945	42738.461207
614.902496	42192.819317
615.250994	42673.740353
615.599439	42743.232659
615.947830	42947.265799
616.296169	42990.551667
616.644454	43142.867609
616.992686	43295.125579
617.340864	43815.291998
617.688990	43525.952452
618.037063	44134.442406
618.385082	44107.746976
618.733048	44396.602571
619.080961	44407.133541
619.428821	44432.248570
619.776628	44540.083892
620.124382	44382.749480
620.472083	44502.270197
620.819731	44636.732893
621.167326	44301.135720
621.514868	44266.258497
621.862357	43837.208414
622.209793	43858.514851
622.557176	43536.301941
622.904506	43280.627221
623.251783	42964.294817
623.599007	42718.241139
623.946179	42507.493182
624.293297	42448.519243
624.640363	41857.350693
624.987376	41850.063706
625.334336	41606.152518
625.681243	41265.715837
626.028097	41224.028015
626.374899	41075.525705
626.721647	41033.888295
627.068343	40924.054156
627.414987	40708.295292
627.761577	40475.454478
628.108115	40805.871865
628.454600	40268.459660
628.801032	40450.886414
629.147412	40401.057129
629.493739	40417.287124
629.840014	40062.919214
630.186236	40392.524976
630.532405	39995.150983
630.878521	40218.259850
631.224585	40092.777969
631.570597	39804.741561
631.916556	39975.729938
632.262462	39923.969891
632.608316	39937.621336
632.954117	39832.969502
633.299866	39824.207977
633.645562	39733.527702
633.991206	39252.667160
634.336797	38814.933689
634.682336	38824.189247
635.027823	38573.323788
635.373257	38395.615553
635.718639	38160.261724
636.063968	38027.082001
636.409245	37443.460059
636.754470	37499.540375
637.099642	37240.694769
637.444762	36765.497963
637.789829	36911.381394
638.134845	36561.674031
638.479808	36512.767277
638.824719	36415.475528
639.169577	36027.074789
639.514383	36091.011743
639.859137	35780.577489
640.203839	36028.491353
640.548489	35660.129200
640.893086	35723.378037
641.237632	35462.488243
641.582125	35577.131643
641.926566	35516.506727
642.270955	35477.271427
642.615292	35504.591960
642.959576	35467.476465
643.303809	35462.115198
643.647990	35609.936952
643.992118	35582.447540
644.336195	35580.506696
644.680219	35658.982338
645.024192	35956.123069
645.368112	36461.065203
645.711981	36478.069015
646.055797	37356.676595
646.399562	37265.608151
646.743274	38238.356759
647.086935	38672.140486
647.430544	38561.892972
647.774101	38689.393835
648.117606	38921.942262
648.461059	39240.122248
648.804460	38858.083445
649.147810	38240.474043
649.491108	37993.969182
649.834354	37644.380286
650.177548	36806.515311
650.520690	36349.103697
650.863781	36362.450151
651.206820	36220.670220
651.549807	35777.237725
651.892742	35292.689579
652.235626	35100.329230
652.578458	34963.224969
652.921238	34353.421794
653.263967	34679.962535
653.606644	34365.283629
653.949269	34321.491126
654.291843	33901.303391
654.634365	34307.864887
654.976836	33922.566978
655.319255	33906.266407
655.661622	33918.549178
656.003938	33678.091181
656.346203	33544.334246
656.688416	33763.863893
657.030577	33549.342632
657.372687	33404.656476
657.714746	33674.199410
658.056753	33784.898107
658.398708	33254.510750
658.740612	33287.331182
659.082465	33573.356169
659.424266	33395.983171
659.766016	33495.467821
660.107715	33385.532859
660.449362	33504.562063
660.790958	33480.994668
661.132503	33497.151567
661.473996	33529.742626
661.815438	33651.831811
662.156829	33841.069164
662.498168	33615.964001
662.839456	33639.480984
663.180693	33782.256543
663.521879	33970.384843
663.863013	33901.520161
664.204097	33893.373656
664.545129	34364.257754
664.886110	34330.552600
665.227040	34382.007657
665.567918	34511.076319
665.908746	34561.334102
666.249522	34736.932614
666.590248	34742.845888
666.930922	34838.549673
667.271545	34806.906350
667.612118	34899.025875
667.952639	34668.854352
668.293109	34729.118826
668.633528	34629.538393
668.973896	34567.338117
669.314213	34588.941981
669.654480	34329.743495
669.994695	34338.537788
670.334859	34239.577417
670.674973	34142.194928
671.015035	34303.073270
671.355047	34259.041312
671.695008	34192.840880
672.034918	34087.745425
672.374777	34164.439019
672.714585	34011.233312
673.054342	34242.672685
673.394049	33995.865355
673.733705	34279.899086
674.073310	33941.476346
674.412864	34010.827499
674.752368	33607.005871
675.091820	33913.465175
675.431223	33490.784589
675.770574	33218.368197
676.109875	33069.034097
676.449125	32791.972281
676.788324	32720.372773
677.127473	32170.876922
677.466571	32104.822683
677.805619	31749.416296
678.144616	31738.764337
678.483562	31663.845230
678.822458	31334.667966
679.161303	31270.612544
679.500098	31172.221824
679.838842	31052.333103
680.177535	31220.208568
680.516179	31465.160754
680.854771	31712.096634
681.193314	32561.304205
681.531805	33683.747356
681.870247	34463.253413
682.208638	35197.507553
682.546978	35431.757369
682.885268	35540.258124
683.223508	34997.091441
683.561697	34675.680074
683.899836	34505.924260
684.237925	33988.603573
684.575963	33826.157431
684.913951	33359.462532
685.251889	33513.666387
685.589776	33496.380270
685.927614	33477.624657
686.265401	33630.180055
686.603137	33706.430027
686.940824	34220.733584
687.278460	34603.720124
687.616046	34736.425978
687.953582	35361.937389
688.291068	35222.660390
688.628504	35515.818610
688.965889	35444.645079
689.303224	35068.587605
689.640510	34725.723609
689.977745	34002.678474
690.314930	33214.703278
690.652065	32679.526824
690.989150	31946.099433
691.326185	31046.409748
691.663170	30332.552116
692.000105	29575.393494
692.336990	28888.904286
692.673825	28424.707278
693.010610	27907.111848
693.347345	27328.455442
693.684030	26661.495665
694.020665	26385.247996
694.357251	25709.962753
694.693786	25651.969319
695.030272	25401.030763
695.366707	24857.286868
695.703093	24570.067128
696.039429	24560.325098
696.375716	24287.772595
696.711952	24258.934674
697.048139	24090.217337
697.384276	23907.883844
697.720363	24036.342526
698.056400	23825.433252
698.392388	23627.187357
698.728326	23587.662190
699.064214	23387.984607
699.400053	23318.676303
699.735842	22963.451397
700.071581	22677.055885
700.407270	22385.316751
700.742910	22198.368081
701.078501	21921.752408
701.414042	21647.511118
701.749533	21339.612564
702.084974	20984.523770
702.420366	21187.518432
702.755709	20743.763303
703.091002	20454.058274
703.426246	20463.891044
703.761440	20368.151971
704.096584	20094.077039
704.431679	20046.314627
704.766725	19948.186047
705.101721	19879.245748
705.436668	19975.458689
705.771565	19647.675305
706.106413	19991.096349
706.441212	19966.591300
706.775961	20102.440314
707.110661	20174.985038
707.445311	20510.045328
707.779913	20349.847542
708.114465	20596.861559
708.448967	20876.141483
708.783421	21576.221641
709.117825	21842.230726
709.452180	22065.238769
709.786485	22451.098767
710.120742	23267.853910
710.454949	23280.507207
710.789107	23756.114866
711.123216	24450.559014
711.457275	24584.469704
711.791286	25137.035619
712.125247	25197.504259
712.459159	24911.978346
712.793023	25575.807567
713.126837	24479.996832
713.460602	24735.537962
713.794318	24380.527305
714.127985	23993.575898
714.461602	23088.376231
714.795171	23048.223440
715.128691	22033.550076
715.462162	21489.891881
715.795584	21070.230947
716.128957	20795.276334
716.462281	20381.100175
716.795556	20147.414968
717.128782	19632.975300
717.461960	19094.343135
717.795088	19022.166415
718.128167	18607.012272
718.461198	18147.190986
718.794180	18006.313421
719.127113	17642.165673
719.459997	17441.502544
719.792833	17082.685816
720.125619	17044.806586
720.458357	16727.959985
720.791046	16547.547171
721.123686	16395.478244
721.456278	16157.029147
721.788821	16105.715242
722.121315	15840.800087
722.453761	15918.511994
722.786158	15842.178842
723.118506	15847.870305
723.450805	15715.988679
723.783056	15867.344282
724.115259	15771.070847
724.447412	15697.938828
724.779518	15938.911023
725.111574	15958.112778
725.443582	16154.753066
725.775542	16128.450846
726.107453	16600.650685
726.439315	16481.094681
726.771129	16883.492184
727.102895	17249.812669
727.434612	17459.176829
727.766281	17583.894976
728.097901	17849.374740
728.429473	17895.655053
728.760996	17870.068677
729.092471	17968.073748
729.423897	17845.901385
729.755276	17711.342907
730.086606	17821.572777
730.417887	18344.005194
730.749120	18851.727524
731.080305	19036.369866
731.411442	19382.346775
731.742530	19445.976219
732.073570	19543.522546
732.404562	19844.391210
732.735506	19667.355969
733.066401	19377.940806
733.397249	18855.546198
733.728048	18225.533037
734.058798	17380.323101
734.389501	16698.628031
734.720156	16229.911629
735.050762	15701.071905
735.381320	15339.805176
735.711831	15091.435088
736.042293	14734.660028
736.372707	14735.917795
736.703073	14530.967165
737.033391	14717.840218
737.363661	14667.332897
737.693883	14766.636066
738.024056	14940.457572
738.354182	15118.974912
738.684260	15404.112655
739.014290	15629.237983
739.344272	15810.835468
739.674207	16104.270951
740.004093	16217.394444
740.333931	16210.409925
740.663722	16250.812253
740.993464	16250.832417
741.323159	16082.480564
741.652806	15816.060624
741.982405	15600.011894
742.311956	15264.550832
742.641460	15144.452903
742.970915	14836.844216
743.300323	14493.768491
743.629683	14292.485300
743.958996	14013.195295
744.288260	13740.927617
744.617477	13430.793312
744.946647	13357.968803
745.275768	13085.585178
745.604842	12905.676480
745.933869	12722.876680
746.262847	12679.280781
746.591778	12598.844131
746.920662	12493.569715
747.249498	12483.938590
747.578286	12610.151439
747.907027	12748.735278
748.235720	12966.099750
748.564365	12998.983197
748.892963	12894.648956
749.221514	12960.057927
749.550017	12808.223414
749.878473	12777.883230
750.206881	12543.754401
750.535242	12456.701236
750.863555	12374.467414
751.191821	12262.223603
751.520039	12289.309723
751.848210	12195.677852
752.176334	12227.759755
752.504411	12131.554375
752.832440	11981.375881
753.160421	12035.550641
753.488356	11914.658731
753.816243	11821.442755
754.144082	11680.156857
754.471875	11622.649894
754.799620	11569.533777
755.127318	11543.413038
755.454969	11497.863692
755.782572	11454.562701
756.110129	11458.197373
756.437638	11383.376568
756.765100	11370.894671
757.092515	11375.154446
757.419882	11385.138451
757.747203	11385.433359
758.074477	11464.246758
758.401703	11418.215982
758.728882	11577.685322
759.056014	11620.812393
759.383099	11731.306924
759.710138	11830.007675
760.037129	11910.570355
760.364073	11937.386773
760.690970	11920.740883
761.017820	11916.458422
761.344623	12109.338010
761.671379	12427.976742
761.998088	13057.589131
762.324751	14596.905457
762.651366	17455.995861
762.977935	21130.452571
763.304456	23357.778013
763.630931	23875.007959
763.957359	22733.400862
764.283740	20824.729275
764.610074	18949.573799
764.936362	16801.591078
765.262602	15276.843685
765.588796	13801.658397
765.914943	12769.698917
766.241044	11907.611197
766.567097	11266.182344
766.893104	10709.535616
767.219064	10349.103198
767.544978	9959.850504
767.870845	9638.199682
768.196665	9451.215725
768.522438	9258.817568
768.848165	9086.039581
769.173846	8921.294673
769.499479	8791.313563
769.825066	8639.249678
770.150607	8452.230432
770.476101	8388.714414
770.801548	8273.642515
771.126949	8133.909292
771.452303	8049.618680
771.777611	7884.147846
772.102872	7861.150102
772.428087	7740.096875
772.753256	7614.304963
773.078378	7527.150974
773.403453	7380.952472
773.728482	7277.805423
774.053465	7213.901236
774.378401	7128.317567
774.703291	7029.634460
775.028135	6934.828000
775.352932	6894.239150
775.677683	6814.677140
776.002388	6726.676238
776.327046	6720.831020
776.651658	6636.091744
776.976224	6556.970834
777.300743	6545.908022
777.625216	6477.113916
777.949643	6433.512977
778.274024	6437.954233
778.598359	6367.801536
778.922647	6366.488316
779.246889	6332.372307
779.571086	6338.454459
779.895236	6345.018042
780.219339	6341.905129
780.543397	6337.161403
780.867409	6385.964814
781.191374	6383.086315
781.515294	6347.757909
781.839167	6407.866107
782.162995	6375.320417
782.486776	6327.900804
782.810511	6288.030318
783.134201	6210.633483
783.457844	6203.328851
783.781441	6151.914123
784.104993	6110.064984
784.428498	6079.046765
784.751958	6059.981121
785.075372	6037.658892
785.398739	5998.325289
785.722061	6021.214648
786.045337	6022.401839
786.368568	6130.935361
786.691752	6146.404142
787.014891	6398.988635
787.337983	6672.103227
787.661030	7108.377283
787.984031	7536.598097
788.306987	7808.076834
788.629897	7892.652272
788.952760	7819.134605
789.275579	7637.239692
789.598351	7334.767941
789.921078	7075.791265
790.243759	6794.202493
790.566395	6586.549805
790.888984	6398.897894
791.211529	6252.132261
791.534027	6089.630667
791.856480	5947.288647
792.178888	5889.499380
792.501249	5819.656714
792.823566	5717.565787
793.145836	5708.433737
793.468062	5691.263567
793.790241	5649.477442
794.112375	5685.294841
794.434464	5788.756962
794.756507	5817.108411
795.078505	5935.925886
795.400457	6150.258104
795.722364	6386.615122
796.044226	6582.652993
796.366042	6743.690132
796.687812	6693.180291
797.009538	6723.553243
797.331218	6628.018336
797.652852	6568.038688
797.974442	6444.331293
798.295986	6374.004676
798.617484	6247.922898
798.938938	6140.909284
799.260346	6066.249796
799.581709	5924.898362
799.903026	5881.773812
800.224299	5807.033665
800.545526	5685.176373
800.866708	5619.981651
801.187845	5572.819137
801.508936	5496.412888
801.829983	5465.278722
802.150984	5355.137072
802.471940	5328.963402
802.792851	5312.204086
803.113717	5291.610972
803.434538	5264.474441
803.755314	5233.622579
804.076045	5217.972317
804.396731	5183.841185
804.717372	5198.069842
805.037967	5202.790883
805.358518	5232.551334
805.679024	5289.100478
805.999485	5293.362773
806.319901	5308.952541
806.640272	5329.061704
806.960598	5377.973499
807.280879	5371.929156
807.601115	5407.464249
807.921306	5372.907140
808.241453	5366.209967
808.561554	5377.335793
808.881611	5341.440257
809.201623	5341.092418
809.521590	5294.176919
809.841513	5278.335093
810.161390	5298.038443
810.481223	5204.847673
810.801011	5195.352660
811.120755	5165.819060
811.440453	5116.529178
811.760107	5087.272842
812.079716	5060.801743
812.399281	5006.609339
812.718801	5003.327548
813.038276	4971.588444
813.357707	4935.080407
813.677093	4957.127894
813.996434	4893.422833
814.315731	4915.596348
814.634983	4910.509824
814.954191	4916.531482
815.273354	4975.223116
815.592473	5021.158109
815.911547	5091.993883
816.230577	5147.181914
816.549562	5239.109875
816.868502	5292.399913
817.187399	5346.191545
817.506250	5425.824132
817.825058	5452.748934
818.143821	5609.039827
818.462539	5781.646414
818.781213	6002.907698
819.099843	6371.615169
819.418429	6994.144737
819.736970	7619.698997
820.055466	8334.988317
820.373919	9256.148277
820.692327	10715.811852
821.010691	13432.025874
821.329011	19679.081693
821.647286	29307.889706
821.965517	39698.799193
822.283704	45215.822838
822.601847	46788.778785
822.919945	42243.140115
823.237999	37126.479867
823.556010	31938.787240
823.873976	27179.774172
824.191897	22932.556686
824.509775	19814.673608
824.827609	17002.622211
825.145398	15422.661581
825.463144	14642.290966
825.780845	14926.738071
826.098502	16176.367013
826.416116	18624.739490
826.733685	20896.270810
827.051210	21407.496742
827.368692	19985.404886
827.686129	17434.253365
828.003522	14953.068018
828.320872	12730.284655
828.638177	11052.296268
828.955439	9797.777407
829.272656	8721.443170
829.589830	7873.931947
829.906960	7127.712629
830.224046	6591.500218
830.541088	6168.827194
830.858086	5911.136012
831.175041	5703.833684
831.491952	5646.669520
831.808819	5670.027706
832.125642	5918.609523
832.442421	6471.659388
832.759157	7582.654078
833.075849	9348.731587
833.392497	11208.020031
833.709101	12342.998011
834.025662	12090.426121
834.342179	11047.116483
834.658653	9733.575793
834.975083	8626.858521
835.291469	7720.433854
835.607811	6969.891746
835.924110	6436.671260
836.240366	5944.901661
836.556578	5490.050952
836.872746	5135.511643
837.188871	4856.108212
837.504952	4632.286022
837.820990	4462.046257
838.136984	4345.540150
838.452935	4296.696411
838.768842	4326.071214
839.084706	4605.963637
839.400526	5345.649621
839.716303	6259.452017
840.032037	6830.350087
840.347727	6687.756009
840.663373	6093.840031
840.978977	5507.871431
841.294537	5061.746960
841.610054	4731.032144
841.925527	4484.749093
842.240957	4275.130355
842.556344	4086.013989
842.871687	3927.656223
843.186987	3776.028397
843.502244	3656.071621
843.817458	3565.046027
844.132629	3494.381653
844.447756	3446.120166
844.762840	3396.071591
845.077881	3359.586240
845.392879	3327.509378
845.707833	3298.416879
846.022745	3271.353445
846.337613	3258.979933
846.652438	3237.436562
846.967221	3228.065057
847.281960	3207.106460
847.596656	3194.685057
847.911309	3186.445291
848.225919	3170.800070
848.540485	3158.860097
848.855009	3155.273316
849.169490	3142.120945
849.483928	3136.558032
849.798323	3127.269706
850.112675	3120.028089
850.426984	3119.947430
850.741251	3112.499125
851.055474	3109.834876
851.369654	3108.892180
851.683792	3105.557457
851.997887	3108.506532
852.311938	3107.989813
852.625947	3106.396809
852.939914	3102.857919
853.253837	3107.755400
853.567718	3105.988475
853.881555	3099.563525
854.195350	3105.265070
854.509103	3102.807507
854.822812	3099.250973
855.136479	3094.250148
855.450103	3096.894234
855.763685	3092.447936
856.077224	3092.959613
856.390720	3100.496138
856.704173	3112.796553
857.017584	3117.320989
857.330953	3122.611680
857.644278	3131.751292
857.957561	3136.696664
858.270802	3129.739872
858.584000	3129.906230
858.897155	3125.482617
859.210268	3115.579270
859.523339	3106.613578
859.836367	3098.416662
860.149352	3097.025304
860.462295	3089.587081
860.775195	3084.372007
861.088054	3079.151893
861.400869	3080.230700
861.713642	3072.351376
862.026373	3083.134404
862.339062	3087.631113
862.651708	3098.063781
862.964312	3112.746142
863.276873	3122.765435
863.589392	3151.610918
863.901869	3179.251564
864.214303	3201.082281
864.526696	3221.937534
864.839045	3237.189545
865.151353	3250.374683
865.463619	3248.907707
865.775842	3251.607245
866.088023	3259.544542
866.400162	3251.188829
866.712258	3253.797627
867.024313	3252.116402
867.336325	3248.607759
867.648296	3252.391145
867.960224	3248.658170
868.272110	3252.602873
868.583954	3255.282246
868.895755	3259.418513
869.207515	3255.496495
869.519233	3277.422994
869.830909	3281.957512
870.142542	3293.211888
870.454134	3300.589617
870.765684	3317.364056
871.077191	3332.926098
871.388657	3342.030422
871.700081	3362.515150
872.011463	3379.609703
872.322803	3404.543250
872.634101	3416.596649
872.945357	3440.315278
873.256571	3470.060606
873.567744	3486.005776
873.878874	3489.716065
874.189963	3505.048734
874.501010	3507.982686
874.812015	3506.102335
875.122979	3518.359901
875.433900	3520.391486
875.744780	3522.554141
876.055618	3533.511089
876.366415	3530.884648
876.677169	3534.680637
876.987882	3553.310221
877.298554	3573.903334
877.609183	3611.792646
877.919771	3661.843742
878.230317	3731.207499
878.540822	3838.326977
878.851285	3988.724761
879.161707	4218.687076
879.472087	4597.431485
879.782425	5227.202670
880.092722	6428.164313
880.402977	8389.415134
880.713191	10791.963522
881.023363	13200.828476
881.333494	14572.859154
881.643583	15056.517536
881.953631	14657.358974
882.263637	13824.993898
882.573602	12780.839867
882.883526	11804.186885
883.193408	10843.973106
883.503248	9903.349251
883.813048	9060.402793
884.122806	8281.640306
884.432522	7500.044690
884.742197	6822.130486
885.051831	6247.607826
885.361424	5745.922277
885.670975	5339.254917
885.980485	5006.077498
886.289954	4724.365218
886.599382	4508.069471
886.908768	4321.866892
887.218113	4155.975122
887.527417	4018.790202
887.836680	3892.829412
888.145901	3790.766211
888.455082	3711.327708
888.764221	3642.909168
889.073319	3579.819128
889.382376	3547.318809
889.691392	3522.223945
890.000366	3513.099457
890.309300	3506.303982
890.618193	3508.885052
890.927044	3505.129393
891.235855	3511.224148
891.544625	3530.249462
891.853353	3555.266188
892.162041	3620.307155
892.470687	3707.511555
892.779293	3827.551510
893.087858	4012.912217
893.396381	4292.134167
893.704864	4707.847877
894.013306	5283.421618
894.321707	5863.940730
894.630068	6226.848354
894.938387	6268.319406
895.246665	6089.202169
895.554903	5766.102016
895.863100	5431.747487
896.171256	5155.552750
896.479371	4912.130555
896.787446	4686.180998
897.095480	4482.553671
897.403473	4326.655988
897.711425	4180.689378
898.019336	4056.475348
898.327207	3932.745268
898.635038	3829.898168
898.942827	3721.049574
899.250576	3634.752582
899.558284	3547.341494
899.865952	3497.865090
900.173579	3428.085438
900.481165	3381.096843
900.788711	3338.471367
901.096216	3307.748055
901.403681	3276.991975
901.711105	3268.127106
902.018489	3262.450767
902.325832	3296.289512
902.633135	3354.850076
902.940397	3525.901467
903.247619	3936.127882
903.554800	4695.930590
903.861941	5681.314850
904.169041	6398.998717
904.476101	6621.656400
904.783121	6350.966603
905.090100	5940.228511
905.397039	5525.742321
905.703938	5158.348070
906.010796	4831.603163
906.317614	4569.422834
906.624391	4324.904187
906.931129	4124.334320
907.237826	3934.527316
907.544483	3764.690842
907.851099	3589.614090
908.157675	3423.659305
908.464211	3278.479116
908.770707	3174.467509
909.077163	3091.170003
909.383578	3028.861342
909.689954	2984.090855
909.996289	2956.218315
910.302584	2934.790891
910.608839	2918.971750
910.915054	2908.523958
911.221229	2902.288051
911.527363	2906.179822
911.833458	2912.622417
912.139513	2927.687905
912.445527	2939.282559
912.751502	2974.855461
913.057436	3022.779190
913.363331	3079.973601
913.669186	3169.751510
913.975000	3287.964047
914.280775	3480.291628
914.586510	3755.195829
914.892205	4137.645486
915.197859	4641.150891
915.503475	5233.713320
915.809050	5739.121761
916.114585	6030.626482
916.420081	6098.069559
916.725536	6035.839035
917.030952	5795.287776
917.336328	5589.553247
917.641665	5374.308580
917.946961	5144.333662
918.252218	4939.481335
918.557435	4709.214030
918.862612	4505.190972
919.167750	4334.210157
919.472848	4134.729179
919.777906	3965.149805
920.082925	3803.593427
920.387904	3647.400837
920.692843	3529.705018
920.997743	3429.567538
921.302603	3334.279648
921.607423	3267.312960
921.912204	3197.742516
922.216946	3151.424395
922.521647	3100.554111
922.826310	3057.260682
923.130932	3017.488499
923.435516	2977.814618
923.740059	2950.731019
924.044564	2917.219949
924.349028	2889.619632
924.653454	2862.099973
924.957840	2834.398832
925.262186	2812.449648
925.566493	2792.148922
925.870761	2770.139244
926.174989	2756.392018
926.479178	2740.898031
926.783328	2723.211143
927.087438	2710.749411
927.391509	2697.924715
927.695541	2685.551203
927.999533	2676.353618
928.303486	2665.343738
928.607400	2659.407779
928.911275	2654.790082
929.215110	2649.678352
929.518906	2643.797847
929.822663	2643.941519
930.126381	2644.158289
930.430060	2645.698362
930.733699	2647.160296
931.037299	2652.418220
931.340861	2652.153559
931.644383	2655.004332
931.947866	2654.958961
932.251309	2652.730771
932.554714	2649.680873
932.858080	2647.709782
933.161407	2645.020326
933.464694	2642.865233
933.767943	2640.783237
934.071153	2634.600261
934.374323	2630.108593
934.677455	2626.360495
934.980548	2623.557614
935.283602	2620.371605
935.586617	2620.500154
935.889593	2623.010649
936.192530	2621.165586
936.495428	2627.565331
936.798287	2640.803401
937.101108	2655.483241
937.403890	2675.221879
937.706632	2698.885055
938.009336	2734.652042
938.312002	2762.426279
938.614628	2785.882768
938.917216	2807.718526
939.219765	2817.631955
939.522275	2828.425065
939.824747	2827.868017
940.127179	2824.881134
940.429573	2816.780000
940.731929	2815.585246
941.034246	2808.147024
941.336524	2805.336580
941.638763	2798.936836
941.940964	2793.447019
942.243126	2776.786006
942.545250	2764.515837
942.847335	2750.471182
943.149381	2736.608009
943.451389	2723.127964
943.753359	2709.068186
944.055290	2701.718184
944.357182	2692.074456
944.659036	2685.687314
944.960851	2684.013651
945.262628	2679.002744
945.564367	2676.938392
945.866067	2680.315965
946.167729	2676.202383
946.469352	2675.657939
946.770937	2674.846313
947.072484	2666.019253
947.373992	2666.500683
947.675462	2660.915084
947.976893	2656.884682
948.278286	2653.202119
948.579641	2649.499392
948.880958	2647.908907
949.182236	2648.062663
949.483476	2645.799185
949.784678	2641.670480
950.085841	2642.310706
950.386967	2646.111736
950.688054	2654.797644
950.989103	2661.265445
951.290114	2669.598472
951.591087	2682.327385
951.892021	2694.627801
952.192917	2703.159954
952.493776	2715.409957
952.794596	2720.229301
953.095378	2721.618138
953.396122	2721.502192
953.696828	2715.987170
953.997496	2713.907694
954.298126	2700.160467
954.598718	2695.988912
954.899272	2685.619259
955.199788	2673.316323
955.500266	2662.442554
955.800706	2645.277425
956.101108	2626.844446
956.401472	2616.346243
956.701798	2600.554829
957.002087	2587.452870
957.302337	2578.252764
957.602550	2566.990827
957.902724	2555.063457
958.202861	2547.022816
958.502960	2539.042670
958.803022	2529.426669
959.103045	2523.941893
959.403031	2513.002589
959.702979	2513.274812
960.002889	2504.921620
960.302762	2500.092194
960.602596	2493.407624
960.902393	2491.255052
961.202153	2488.298415
961.501875	2487.690956
961.801559	2485.561068
962.101205	2480.628299
962.400814	2479.463793
962.700385	2476.807105
962.999918	2474.813328
963.299414	2475.728298
963.598873	2474.833493
963.898293	2472.018009
964.197677	2470.422483
964.497022	2467.806125
964.796331	2471.370220
965.095601	2467.110445
965.394835	2464.073150
965.694030	2465.262863
965.993189	2465.197328
966.292309	2465.028449
966.591393	2463.208592
966.890439	2462.467543
967.189447	2461.973510
967.488419	2464.342852
967.787353	2464.965434
968.086249	2464.116000
968.385108	2465.419138
968.683930	2461.925619
968.982714	2471.304685
969.281462	2466.064406
969.580172	2472.557412
969.878844	2472.328040
970.177480	2474.619244
970.476078	2476.111426
970.774639	2480.986221
971.073162	2484.784731
971.371649	2483.905049
971.670098	2483.151397
971.968510	2488.931080
972.266885	2486.712972
972.565223	2489.223467
972.863524	2488.865545
973.161788	2491.819661
973.460014	2493.407624
973.758204	2495.880310
974.056356	2495.356030
974.354471	2497.410301
974.652550	2496.596154
974.950591	2495.913078
975.248595	2494.826709
975.546563	2492.275885
975.844493	2493.037100
976.142386	2490.955103
976.440243	2485.303970
976.738062	2490.793786
977.035845	2484.683908
977.333590	2479.534369
977.631299	2481.228197
977.928971	2477.061683
978.226606	2474.916672
978.524204	2474.755355
978.821765	2473.865592
979.119290	2474.200828
979.416777	2471.667648
979.714228	2470.911475
980.011642	2476.229893
980.309020	2481.238279
980.606360	2481.046715
980.903664	2493.914260
981.200931	2506.804491
981.498162	2525.061029
981.795356	2553.785524
982.092513	2593.109045
982.389633	2637.821559
982.686717	2683.517098
982.983764	2713.385934
983.280775	2734.619274
983.577749	2735.632546
983.874686	2726.979406
984.171587	2709.728577
984.468451	2693.901875
984.765279	2674.407733
985.062070	2654.631286
985.358824	2635.167391
985.655543	2615.416150
985.952224	2591.745412
986.248869	2562.630228
986.545478	2538.243647
986.842050	2516.430574
987.138586	2493.543736
987.435086	2481.170223
987.731549	2469.522638
988.027975	2464.484004
988.324366	2456.203909
988.620719	2455.994701
988.917037	2448.468258
989.213318	2448.506067
989.509563	2442.318051
989.805772	2442.708740
990.101944	2441.652618
990.398080	2441.569439
990.694180	2437.773451
990.990244	2441.945005
991.286271	2439.028698
991.582262	2439.094233
991.878217	2444.435335
992.174136	2442.081117
992.470019	2443.797629
992.765865	2446.083793
993.061676	2449.070676
993.357450	2451.578650
993.653188	2452.241562
993.948890	2457.741461
994.244556	2466.596248
994.540186	2474.730149
994.835780	2489.636841
995.131337	2501.710405
995.426859	2515.777745
995.722345	2540.444110
996.017795	2557.664692
996.313208	2572.452917
996.608586	2582.631006
996.903928	2586.613518
997.199234	2584.523960
997.494504	2580.425502
997.789738	2573.100705
998.084936	2564.545867
998.380099	2552.915925
998.675225	2538.213400
998.970316	2527.795855
999.265371	2513.494102
999.560390	2499.129334
999.855373	2486.324803
1000.150320	2474.427680
1000.445232	2466.495425
1000.740108	2461.847481
1001.034948	2453.564865
1001.329752	2451.523198
1001.624521	2445.587239
1001.919254	2436.629109
1002.213951	2435.363779
1002.508613	2433.412852
1002.803239	2432.656679
1003.097829	2426.824064
1003.392384	2427.454209
1003.686903	2428.129723
1003.981386	2426.990423
1004.275834	2426.415731
1004.570246	2427.860022
1004.864623	2426.151070
1005.158964	2423.063364
1005.453270	2421.442633
1005.747540	2422.224012
1006.041775	2422.097983
1006.335974	2418.460790
1006.630138	2421.062026
1006.924266	2421.278795
1007.218359	2420.512540
1007.512416	2420.366346
1007.806438	2418.947262
1008.100425	2419.232087
1008.394376	2417.654206
1008.688292	2421.298960
1008.982172	2418.841397
1009.276017	2419.637900
1009.569827	2419.320307
1009.863602	2418.382652
1010.157341	2418.493558
1010.451045	2417.470203
1010.744714	2416.073804
1011.038347	2414.372414
1011.331945	2418.662436
1011.625508	2416.366191
1011.919036	2415.504153
1012.212528	2415.357960
1012.505986	2415.481468
1012.799408	2416.222518
1013.092795	2414.407702
1013.386147	2415.536921
1013.679464	2411.940058
1013.972745	2412.605490
1014.265992	2415.350398
1014.559204	2413.674215
1014.852380	2413.412075
1015.145521	2413.273443
1015.438628	2413.485171
1015.731699	2411.998031
1016.024736	2410.626837
1016.317737	2415.887281
1016.610703	2416.976170
1016.903635	2411.824111
1017.196531	2412.650860
1017.489393	2412.386200
1017.782219	2411.045253
1018.075011	2415.660429
1018.367768	2418.112951
1018.660490	2413.434760
1018.953177	2413.434760
1019.245829	2413.434760
