Dividing Wavelength (nm)	Counts (n)	Blue Motor Position (mm): 16.800000	Red Motor Position (mm): 0.000000	
326.493990	1974.493933
326.888308	1974.493933
327.282561	1974.493933
327.676750	1951.506271
328.070874	1953.028700
328.464933	1957.648917
328.858929	1969.251133
329.252859	1979.673718
329.646726	1995.369351
330.040528	2009.676145
330.434265	2030.717922
330.827938	2047.895653
331.221547	2070.437173
331.615091	2086.846128
332.008571	2110.277412
332.401986	2130.817593
332.795338	2151.859369
333.188625	2173.443069
333.581847	2192.090297
333.975006	2205.910621
334.368100	2225.316542
334.761129	2242.305231
335.154095	2256.644793
335.546996	2290.012190
335.939833	2347.753566
336.332606	2357.813189
336.725315	2370.098481
337.117960	2376.841024
337.510540	2386.648589
337.903056	2395.785680
338.295508	2403.614592
338.687896	2410.589028
339.080220	2417.447518
339.472480	2422.982705
339.864676	2426.085535
340.256807	2429.906730
340.648875	2433.332194
341.040879	2433.004519
341.432818	2436.286310
341.824694	2432.714653
342.216506	2434.678182
342.608253	2435.572987
342.999937	2433.047369
343.391557	2433.732966
343.783113	2430.415887
344.174605	2428.225505
344.566033	2427.101328
344.957397	2424.908426
345.348697	2421.283836
345.739934	2421.336768
346.131106	2419.158990
346.522215	2420.623445
346.913260	2417.656726
347.304241	2416.991294
347.695159	2415.720923
348.086012	2413.472568
348.476802	2410.251271
348.867528	2407.995355
349.258191	2408.396127
349.648789	2408.544841
350.039324	2406.372103
350.429796	2407.844120
350.820203	2404.791702
351.210548	2405.883111
351.600828	2402.508059
351.991045	2404.143913
352.381198	2401.358676
352.771288	2402.450086
353.161314	2402.712226
353.551276	2402.989489
353.941175	2399.957235
354.331010	2399.753068
354.720782	2401.925806
355.110490	2402.160219
355.500135	2402.800446
355.889717	2402.951680
356.279235	2401.285579
356.668689	2404.297668
357.058080	2404.257339
357.447408	2400.947822
357.836672	2399.942112
358.225873	2402.661814
358.615010	2401.943450
359.004084	2404.259860
359.393095	2406.674572
359.782043	2409.449728
360.170927	2406.407391
360.559748	2406.014181
360.948505	2410.021899
361.337199	2409.512742
361.725830	2408.819583
362.114398	2406.931671
362.502903	2413.021385
362.891344	2408.401168
363.279722	2410.896539
363.668037	2412.005593
364.056289	2411.337640
364.444478	2413.011303
364.832603	2412.552558
365.220665	2415.090779
365.608665	2414.506005
365.996601	2413.769997
366.384474	2414.692528
366.772284	2414.705131
367.160031	2414.080028
367.547715	2417.997004
367.935336	2414.737898
368.322893	2415.887281
368.710388	2416.472055
369.097820	2416.875347
369.485189	2418.647313
369.872495	2418.357447
370.259738	2417.331572
370.646918	2415.544483
371.034035	2418.937179
371.421090	2418.337282
371.808081	2417.462642
372.195010	2415.597415
372.581875	2419.186716
372.968678	2420.295770
373.355418	2418.370049
373.742096	2418.339802
374.128710	2422.105544
374.515262	2421.697211
374.901751	2420.600760
375.288177	2421.994639
375.674540	2419.050605
376.060841	2421.208219
376.447079	2422.181162
376.833254	2419.433733
377.219367	2418.501119
377.605417	2422.511357
377.991404	2418.828794
378.377329	2421.155287
378.763191	2418.823753
379.148991	2420.053795
379.534727	2422.738209
379.920402	2421.051943
380.306013	2423.582603
380.691563	2425.326842
381.077049	2425.009249
381.462474	2424.719383
381.847835	2422.773497
382.233134	2426.115782
382.618371	2426.690474
383.003545	2424.684095
383.388657	2427.696184
383.773706	2425.692325
384.158693	2424.618560
384.543618	2427.877666
384.928480	2429.039652
385.313280	2426.030083
385.698017	2428.510330
386.082692	2429.672316
386.467305	2428.656524
386.851856	2430.337749
387.236344	2429.122831
387.620770	2431.116607
388.005133	2431.096442
388.389435	2430.632656
388.773674	2429.009405
389.157851	2431.356062
389.541965	2427.663417
389.926018	2430.972934
390.310008	2431.043510
390.693936	2430.171391
391.077802	2431.540064
391.461606	2431.272883
391.845348	2432.354210
392.229027	2432.644077
392.612645	2431.459405
392.996200	2433.738007
393.379694	2432.991916
393.763125	2435.678851
394.146494	2434.143820
394.529801	2434.814293
394.913047	2435.754468
395.296230	2435.010898
395.679351	2435.280600
396.062410	2435.477205
396.445408	2432.318922
396.828343	2435.162133
397.211217	2431.035948
397.594028	2435.988882
397.976778	2429.644590
398.359466	2435.192380
398.742092	2433.233892
399.124656	2436.689603
399.507158	2439.835282
399.889598	2435.056269
400.271977	2436.092226
400.654294	2438.431321
401.036549	2438.310333
401.418742	2439.638678
401.800874	2441.118256
402.182944	2441.869388
402.564952	2438.297731
402.946898	2440.873760
403.328783	2441.607248
403.710606	2436.435024
404.092367	2438.701023
404.474067	2440.770417
404.855705	2438.390992
405.237282	2443.984152
405.618797	2440.029367
406.000250	2441.304779
406.381642	2441.821497
406.762972	2440.687238
407.144240	2440.727567
407.525447	2442.381065
407.906593	2440.452824
408.287677	2441.211518
408.668700	2442.481888
409.049661	2443.898452
409.430560	2444.422732
409.811399	2445.183947
410.192176	2441.723195
410.572891	2440.644388
410.953545	2443.059100
411.334138	2440.682196
411.714669	2444.233689
412.095139	2447.442384
412.475547	2446.608073
412.855894	2443.548092
413.236180	2445.700665
413.616405	2445.761159
413.996568	2443.376693
414.376670	2442.922989
414.756711	2445.337702
415.136691	2445.909873
415.516609	2445.642692
415.896466	2446.028340
416.276262	2447.870882
416.655997	2442.464244
417.035670	2443.054059
417.415283	2448.823660
417.794834	2440.810746
418.174324	2447.752415
418.553753	2443.878288
418.933121	2446.096396
419.312428	2446.630758
419.691674	2445.567074
420.070859	2446.960953
420.449983	2447.674277
420.829045	2448.536314
421.208047	2446.381221
421.586988	2445.814091
421.965867	2450.620831
422.344686	2447.172682
422.723444	2448.463217
423.102141	2448.553958
423.480777	2449.186623
423.859352	2449.700821
424.237866	2452.481017
424.616319	2447.263423
424.994712	2450.956068
425.373044	2449.481530
425.751314	2454.341203
426.129524	2450.257868
426.507673	2451.281222
426.885762	2452.012190
427.263789	2448.717796
427.641756	2449.927673
428.019662	2450.479679
428.397508	2448.929524
428.775292	2451.780297
429.153016	2448.821139
429.530679	2451.029165
429.908282	2453.035544
430.285824	2452.901953
430.663305	2454.346244
431.040726	2450.799792
431.418086	2453.090997
431.795385	2451.918928
432.172624	2453.552262
432.549802	2453.242231
432.926920	2453.169134
433.303977	2454.507561
433.680974	2454.179886
434.057910	2454.018569
434.434786	2453.466562
434.811601	2455.450257
435.188355	2455.788014
435.565050	2456.793724
435.941683	2455.210802
436.318257	2452.793568
436.694770	2453.121243
437.071222	2455.588888
437.447614	2450.096551
437.823946	2454.454629
438.200218	2455.994701
438.576429	2456.980247
438.952580	2457.335648
439.328670	2458.689198
439.704700	2455.800617
440.080670	2457.131481
440.456580	2457.844805
440.832429	2459.185752
441.208218	2457.325566
441.583947	2461.295474
441.959616	2459.866307
442.335224	2457.640638
442.710773	2459.223560
443.086261	2458.878241
443.461689	2460.173818
443.837057	2460.965279
444.212365	2461.819754
444.587612	2461.242542
444.962800	2457.852366
445.337927	2463.193469
445.712995	2459.785649
446.088002	2460.791359
446.462949	2463.604323
446.837837	2467.133131
447.212664	2462.147429
447.587431	2468.494242
447.962139	2468.562298
448.336786	2472.627988
448.711374	2470.762761
449.085901	2468.852164
449.460369	2466.210599
449.834776	2467.969962
450.209124	2470.755200
450.583412	2469.184880
450.957640	2472.207052
451.331808	2470.820735
451.705917	2468.968111
452.079965	2470.304016
452.453954	2471.246712
452.827883	2471.067751
453.201752	2472.794346
453.575562	2471.135807
453.949311	2469.943574
454.323001	2472.701085
454.696632	2472.159161
455.070202	2478.576550
455.443713	2474.052114
455.817164	2473.981538
456.190556	2470.460292
456.563888	2475.241827
456.937160	2474.178143
457.310373	2473.389202
457.683526	2476.607979
458.056619	2476.355922
458.429653	2474.730149
458.802628	2478.427836
459.175542	2477.482619
459.548398	2480.857672
459.921194	2481.875985
460.293930	2480.618217
460.666607	2484.464617
461.039224	2491.073570
461.411782	2488.434526
461.784280	2488.348827
462.156719	2487.814464
462.529099	2488.305977
462.901419	2483.821870
463.273680	2487.000318
463.645882	2483.630307
464.018024	2485.487972
464.390106	2488.752119
464.762130	2492.205309
465.134094	2496.717142
465.505999	2500.366937
465.877845	2508.342043
466.249631	2511.195336
466.621358	2509.864471
466.993026	2511.351612
467.364634	2508.707526
467.736184	2506.680983
468.107674	2502.343070
468.479105	2501.586897
468.850477	2501.891886
469.221790	2501.493635
469.593043	2498.287461
469.964238	2497.264107
470.335373	2496.628922
470.706449	2502.592607
471.077467	2503.230313
471.448425	2514.429236
471.819324	2518.537776
472.190164	2518.497447
472.560945	2510.129132
472.931667	2511.805315
473.302330	2508.576456
473.672934	2507.611075
474.043479	2508.750376
474.413965	2507.540499
474.784393	2503.013543
475.154761	2510.398833
475.525070	2509.186436
475.895321	2512.316993
476.265513	2510.368587
476.635645	2519.142715
477.005719	2519.724968
477.375734	2520.523991
477.745691	2522.353930
478.115588	2529.005732
478.485427	2530.008922
478.855207	2541.946374
479.224928	2550.624721
479.594591	2552.583209
479.964194	2549.306459
480.333739	2555.237376
480.703226	2555.376008
481.072653	2556.946328
481.442022	2562.352965
481.811333	2568.183059
482.180584	2564.122410
482.549777	2563.686350
482.918912	2566.799263
483.287988	2567.278172
483.657005	2567.200034
484.025964	2571.641291
484.394864	2574.103895
484.763706	2574.169430
485.132489	2573.385530
485.501213	2577.005079
485.869879	2578.358628
486.238487	2581.821901
486.607036	2580.538927
486.975527	2582.081521
487.343959	2582.358784
487.712333	2588.738364
488.080648	2589.988570
488.448905	2595.886720
488.817104	2597.338573
489.185244	2601.036259
489.553326	2613.558485
489.921350	2624.084414
490.289315	2637.539254
490.657222	2645.589977
491.025070	2648.428146
491.392861	2649.438898
491.760593	2646.686428
492.128267	2645.171561
492.495883	2639.734677
492.863440	2639.389357
493.230939	2636.548667
493.598380	2635.200159
493.965763	2633.685292
494.333088	2635.729480
494.700354	2632.858543
495.067563	2639.112094
495.434713	2640.316930
495.801805	2645.408495
496.168839	2648.029895
496.535815	2649.794299
496.902733	2652.685401
497.269593	2652.314876
497.636395	2654.104486
498.003139	2661.126813
498.369825	2662.399704
498.736453	2667.254335
499.103023	2668.086126
499.469535	2670.342042
499.835989	2675.922599
500.202385	2676.671211
500.568723	2680.134483
500.935003	2685.697397
501.301226	2687.315607
501.667390	2692.528160
502.033497	2696.883717
502.399546	2699.157277
502.765537	2698.159129
503.131470	2704.868905
503.497345	2712.196222
503.863163	2704.984851
504.228923	2716.899618
504.594625	2723.574106
504.960269	2722.674260
505.325856	2732.542319
505.691385	2733.192628
506.056856	2738.059862
506.422270	2745.540934
506.787625	2753.047212
507.152924	2755.461925
507.518164	2759.469642
507.883347	2760.185486
508.248472	2768.193359
508.613540	2777.169133
508.978550	2788.242028
509.343503	2791.183541
509.708398	2801.714511
510.073236	2814.975267
510.438016	2823.126812
510.802738	2824.886175
511.167403	2839.626509
511.532010	2850.593539
511.896561	2861.762215
512.261053	2878.904659
512.625488	2881.387427
512.989866	2894.655744
513.354186	2904.475912
513.718449	2911.679721
514.082655	2934.349790
514.446803	2938.959925
514.810894	2964.049748
515.174927	2975.546099
515.538904	2985.215032
515.902822	3009.941892
516.266684	3019.764580
516.630488	3037.204452
516.994235	3054.311607
517.357925	3077.788261
517.721558	3096.634614
518.085133	3120.121350
518.448651	3144.951553
518.812112	3160.992505
519.175516	3184.869930
519.538863	3210.143755
519.902152	3229.741240
520.265385	3261.261055
520.628560	3286.673511
520.991678	3310.555978
521.354739	3339.600586
521.717743	3373.867829
522.080690	3402.879669
522.443580	3443.009774
522.806413	3475.414311
523.169189	3503.783405
523.531908	3539.406718
523.894569	3569.194896
524.257174	3611.505301
524.619722	3655.859893
524.982213	3692.531766
525.344647	3727.202302
525.707025	3769.875669
526.069345	3821.025737
526.431608	3862.300184
526.793815	3915.648194
527.155964	3944.486115
527.518057	3999.792614
527.880093	4034.306874
528.242072	4100.104014
528.603995	4139.639263
528.965860	4188.709854
529.327669	4245.382506
529.689421	4292.958395
530.051117	4345.706508
530.412755	4404.425868
530.774337	4466.434581
531.135862	4513.960059
531.497331	4580.362138
531.858743	4635.537567
532.220098	4710.991037
532.581396	4761.629427
532.942638	4806.170542
533.303824	4889.755393
533.664953	4956.286021
534.026025	5000.607846
534.387040	5093.702834
534.747999	5161.100540
535.108902	5243.135237
535.469748	5282.952790
535.830537	5361.599832
536.191270	5449.207524
536.551947	5500.302138
536.912567	5598.803764
537.273131	5685.940108
537.633638	5724.928392
537.994089	5832.932593
538.354483	5881.897320
538.714821	6007.845508
539.075103	6123.429083
539.435328	6193.254105
539.795497	6262.476709
540.155609	6347.747826
540.515665	6480.214226
540.875665	6521.216451
541.235609	6641.115254
541.595496	6731.838379
541.955328	6885.611215
542.315102	6921.592451
542.674821	6990.434448
543.034483	7096.404543
543.394090	7183.513161
543.753640	7274.700072
544.113134	7492.056982
544.472571	7484.465004
544.831953	7733.752583
545.191278	7749.417968
545.550548	7818.378432
545.909761	7982.286508
546.268918	8119.289946
546.628019	8272.934233
546.987064	8321.019279
547.346053	8337.730704
547.704986	8567.871980
548.063863	8624.156463
548.422684	8768.409080
548.781449	8861.004994
549.140158	9041.422849
549.498811	9139.909351
549.857408	9172.959156
550.215949	9425.699924
550.574434	9544.517400
550.932864	9634.378488
551.291237	9878.138441
551.649555	9945.682341
552.007817	10114.699626
552.366022	10184.471716
552.724173	10354.494712
553.082267	10559.694879
553.440305	10756.110836
553.798288	10774.039700
554.156215	10972.784669
554.514086	11151.818728
554.871902	11252.331774
555.229661	11404.181410
555.587365	11513.400528
555.945014	11687.287569
556.302606	11816.341107
556.660143	12022.567149
557.017625	12193.028725
557.375050	12302.378914
557.732421	12549.385370
558.089735	12710.624155
558.446994	12851.136237
558.804197	13136.770534
559.161345	13290.407259
559.518437	13261.944905
559.875474	13502.720495
560.232455	13717.340058
560.589381	13930.154888
560.946251	14028.338921
561.303065	14372.317012
561.659825	14497.062885
562.016528	14573.474174
562.373177	14680.437377
562.729770	14992.782228
563.086307	15031.606674
563.442789	15349.975704
563.799216	15545.511980
564.155587	15672.125600
564.511904	15856.173085
564.868164	16070.838019
565.224370	16336.937845
565.580520	16445.768795
565.936615	16711.747634
566.292654	16793.895756
566.648638	17080.422338
567.004567	17270.811595
567.360441	17483.089543
567.716260	17629.587994
568.072023	17953.275441
568.427732	18153.321029
568.783385	18188.420063
569.138982	18532.657773
569.494525	18723.883862
569.850013	18840.999948
570.205445	19025.934677
570.560823	19212.762359
570.916145	19378.676815
571.271412	19599.136555
571.626625	19696.440906
571.981782	19930.347924
572.336884	20005.884573
572.691931	20353.152018
573.046923	20378.748477
573.401860	20516.147645
573.756743	20717.819005
574.111570	20973.350052
574.466342	21112.934561
574.821059	21385.033360
575.175722	21367.553159
575.530330	21583.254050
575.884882	21661.754898
576.239380	21836.100683
576.593823	22034.999408
576.948211	22208.871325
577.302544	22189.102440
577.656823	22403.137229
578.011047	22715.933264
578.365216	22795.223052
578.719330	22894.836252
579.073389	23031.370863
579.427394	23272.738788
579.781344	23461.194763
580.135239	23484.520182
580.489080	23738.243976
580.842866	23671.867103
581.196597	24107.006900
581.550273	24276.457725
581.903895	24418.943418
582.257463	24858.806776
582.610975	24717.369643
582.964434	25076.216618
583.317837	25077.320631
583.671186	25176.442318
584.024481	25504.707133
584.377721	25437.004437
584.730906	25800.443903
585.084037	26013.125143
585.437113	26046.691666
585.790135	26254.266216
586.143103	26219.235238
586.496016	26468.603475
586.848874	26680.238675
587.201679	26880.957257
587.554428	26755.677022
587.907124	27052.505202
588.259765	27086.028875
588.612352	27423.970184
588.964884	27248.827897
589.317362	27602.384181
589.669786	27739.798473
590.022155	27793.900136
590.374470	28235.626201
590.726731	28106.421427
591.078937	27971.739441
591.431090	28221.508449
591.783188	28148.636050
592.135232	28096.364326
592.487222	28436.148177
592.839157	28689.027577
593.191038	28624.715057
593.542866	28622.585170
593.894639	28375.563590
594.246358	28722.425222
594.598022	28865.203302
594.949633	28764.652447
595.301190	28886.058555
595.652692	28924.963660
596.004141	29324.671707
596.355535	28771.909188
596.706876	28881.123265
597.058162	28911.707946
597.409395	29408.997608
597.760573	29591.777244
598.111698	29445.326683
598.462768	29594.270094
598.813785	29757.217831
599.164748	29492.108591
599.515657	29932.884398
599.866511	29674.462249
600.217312	30266.581056
600.568060	29636.459511
600.918753	30320.541567
601.269392	30422.758523
601.619978	30294.617433
601.970510	30578.694014
602.320988	30839.538438
602.671412	31195.212006
603.021783	31125.084515
603.372100	30978.155045
603.722363	31190.296881
604.072572	31368.773892
604.422728	31491.979692
604.772830	31463.905506
605.122878	31649.404844
605.472872	31722.945197
605.822813	32063.908678
606.172701	32027.569521
606.522534	32329.287620
606.872314	32657.517147
607.222041	32561.024421
607.571714	32997.442150
607.921333	32639.374034
608.270899	32998.672192
608.620411	33371.072309
608.969870	33311.795901
609.319276	33413.987652
609.668627	33549.892118
610.017926	34063.890685
610.367171	34300.063701
610.716362	34477.928212
611.065500	34527.119791
611.414585	34761.336840
611.763616	35128.085823
612.112594	35128.030371
612.461518	35414.952683
612.810389	35751.066575
613.159207	35724.333336
613.507971	35882.817130
613.856682	36378.440691
614.205340	36358.185335
614.553945	37034.874539
614.902496	36644.429612
615.250994	37127.609085
615.599439	37280.734133
615.947830	37545.399751
616.296169	37678.239196
616.644454	37856.864921
616.992686	38087.948893
617.340864	38635.337542
617.688990	38443.561967
618.037063	39049.324658
618.385082	39099.809293
618.733048	39414.571377
619.080961	39500.079429
619.428821	39581.481460
619.776628	39742.894165
620.124382	39638.537240
620.472083	39838.797076
620.819731	40017.238799
621.167326	39787.387389
621.514868	39841.547026
621.862357	39501.717804
622.209793	39609.704360
622.557176	39356.709013
622.904506	39183.923465
623.251783	38927.550545
623.599007	38792.999628
623.946179	38636.129003
624.293297	38646.264243
624.640363	38148.034405
624.987376	38187.214253
625.334336	38022.416413
625.681243	37755.794827
626.028097	37778.457335
626.374899	37690.012811
626.721647	37699.583442
627.068343	37652.937645
627.414987	37472.068607
627.761577	37315.318969
628.108115	37664.330653
628.454600	37183.636469
628.801032	37397.194869
629.147412	37396.481546
629.493739	37448.591953
629.840014	37162.551843
630.186236	37526.273613
630.532405	37203.589356
630.878521	37436.183153
631.224585	37347.925152
631.570597	37109.362629
631.916556	37289.052037
632.262462	37270.374562
632.608316	37309.473751
632.954117	37254.394104
633.299866	37281.245810
633.645562	37239.900787
633.991206	36804.430794
634.336797	36432.628054
634.682336	36465.710626
635.027823	36283.120034
635.373257	36137.770966
635.718639	35943.628569
636.063968	35839.047312
636.409245	35313.391077
636.754470	35406.188637
637.099642	35203.025096
637.444762	34774.743789
637.789829	34932.834373
638.134845	34614.782936
638.479808	34607.180876
638.824719	34518.416239
639.169577	34179.852347
639.514383	34273.902633
639.859137	34006.159391
640.203839	34250.836834
640.548489	33922.982873
640.893086	34012.264228
641.237632	33803.477280
641.582125	33921.924231
641.926566	33876.831110
642.270955	33874.260121
642.615292	33901.260541
642.959576	33902.157867
643.303809	33922.493881
643.647990	34080.788632
643.992118	34049.641863
644.336195	34072.682457
644.680219	34185.309396
645.024192	34492.154348
645.368112	35003.821381
645.711981	35035.081576
646.055797	35883.170011
646.399562	35834.976580
646.743274	36766.975021
647.086935	37187.979423
647.430544	37105.760724
647.774101	37238.620334
648.117606	37485.415062
648.461059	37788.963099
648.804460	37428.387009
649.147810	36861.098405
649.491108	36630.432849
649.834354	36284.506351
650.177548	35496.977297
650.520690	35067.965023
650.863781	35077.301240
651.206820	34951.032939
651.549807	34545.192328
651.892742	34096.194399
652.235626	33907.312446
652.578458	33783.736122
652.921238	33215.015830
653.263967	33543.414235
653.606644	33239.745210
653.949269	33205.223388
654.291843	32833.483663
654.634365	33227.154928
654.976836	32850.003524
655.319255	32839.628829
655.661622	32862.477859
656.003938	32639.399240
656.346203	32528.143495
656.688416	32762.907509
657.030577	32552.310786
657.372687	32407.826276
657.714746	32673.079188
658.056753	32805.351504
658.398708	32269.771757
658.740612	32335.480677
659.082465	32612.071145
659.424266	32447.762297
659.766016	32569.861563
660.107715	32450.401341
660.449362	32595.863835
660.790958	32580.516042
661.132503	32606.535958
661.473996	32629.042189
661.815438	32751.368308
662.156829	32941.810497
662.498168	32722.134657
662.839456	32765.170987
663.180693	32906.887904
663.521879	33070.775815
663.863013	33052.897363
664.204097	33039.225754
664.545129	33502.653986
664.886110	33480.762775
665.227040	33545.566808
665.567918	33667.567772
665.908746	33723.169179
666.249522	33897.215015
666.590248	33893.398862
666.930922	34017.905279
667.271545	33979.562263
667.612118	34061.070159
667.952639	33855.857389
668.293109	33909.954011
668.633528	33821.116277
668.973896	33745.002416
669.314213	33783.138745
669.654480	33526.261709
669.994695	33556.110381
670.334859	33461.535815
670.674973	33376.307547
671.015035	33518.384907
671.355047	33487.177644
671.695008	33449.822694
672.034918	33328.608149
672.374777	33420.921759
672.714585	33260.179527
673.054342	33500.899664
673.394049	33263.874693
673.733705	33543.366344
674.073310	33212.606158
674.412864	33281.314565
674.752368	32882.327402
675.091820	33191.347613
675.431223	32771.159878
675.770574	32492.348782
676.109875	32369.253887
676.449125	32098.795983
676.788324	32028.804603
677.127473	31505.268174
677.466571	31422.837747
677.805619	31085.466087
678.144616	31081.662537
678.483562	31018.070901
678.822458	30701.279752
679.161303	30626.955501
679.500098	30546.254189
679.838842	30428.349163
680.177535	30594.112383
680.516179	30863.713291
680.854771	31110.160179
681.193314	31971.859730
681.531805	33076.457196
681.870247	33850.841441
682.208638	34595.429946
682.546978	34823.030481
682.885268	34893.490688
683.223508	34381.077564
683.561697	34039.688105
683.899836	33859.640775
684.237925	33348.724874
684.575963	33222.633013
684.913951	32768.598972
685.251889	32910.923347
685.589776	32907.172729
685.927614	32900.679723
686.265401	33051.982394
686.603137	33145.425222
686.940824	33654.536390
687.278460	34036.391191
687.616046	34185.979869
687.953582	34768.245741
688.291068	34646.842154
688.628504	34928.128456
688.965889	34871.354982
689.303224	34480.108511
689.640510	34127.540293
689.977745	33404.127155
690.314930	32607.919754
690.652065	32079.027099
690.989150	31339.822546
691.326185	30442.756780
691.663170	29759.418294
692.000105	28995.824639
692.336990	28335.982971
692.673825	27891.411175
693.010610	27370.173511
693.347345	26799.038507
693.684030	26160.042010
694.020665	25885.072273
694.357251	25222.034514
694.693786	25183.802403
695.030272	24933.592293
695.366707	24411.558128
695.703093	24119.171204
696.039429	24114.142653
696.375716	23858.755279
696.711952	23815.860101
697.048139	23668.623121
697.384276	23493.440504
697.720363	23621.551347
698.056400	23422.768568
698.392388	23200.274722
698.728326	23158.670080
699.064214	22950.208286
699.400053	22896.146952
699.735842	22548.118293
700.071581	22269.032455
700.407270	21991.821925
700.742910	21800.920991
701.078501	21540.240405
701.414042	21253.169379
701.749533	20959.585182
702.084974	20609.149372
702.420366	20816.368521
702.755709	20378.980370
703.091002	20105.008782
703.426246	20112.202508
703.761440	20010.300624
704.096584	19749.471324
704.431679	19697.454178
704.766725	19606.899932
705.101721	19548.452794
705.436668	19644.421240
705.771565	19319.125664
706.106413	19663.597789
706.441212	19654.957251
706.775961	19784.819895
707.110661	19853.614001
707.445311	20218.293591
707.779913	20050.874351
708.114465	20289.270516
708.448967	20587.984087
708.783421	21260.680698
709.117825	21545.717619
709.452180	21766.951176
709.786485	22168.801713
710.120742	22962.657415
710.454949	22977.806083
710.789107	23450.568011
711.123216	24158.666124
711.457275	24273.347333
711.791286	24811.598891
712.125247	24882.411979
712.459159	24574.770524
712.793023	25219.934873
713.126837	24110.225677
713.460602	24363.004254
713.794318	23989.747141
714.127985	23590.581018
714.461602	22714.652811
714.795171	22655.406650
715.128691	21652.645533
715.462162	21120.271960
715.795584	20702.579597
716.128957	20436.671334
716.462281	20041.238185
716.795556	19807.094233
717.128782	19311.125353
717.461960	18775.255741
717.795088	18694.045273
718.128167	18287.614847
718.461198	17839.463832
718.794180	17698.155248
719.127113	17339.194847
719.459997	17151.656362
719.792833	16796.769214
720.125619	16768.125378
720.458357	16454.111905
720.791046	16289.987059
721.123686	16121.115967
721.456278	15895.612552
721.788821	15845.697568
722.121315	15597.640031
722.453761	15677.685992
722.786158	15599.820330
723.118506	15604.236381
723.450805	15466.917871
723.783056	15637.991947
724.115259	15526.768970
724.447412	15470.194621
724.779518	15708.772268
725.111574	15733.478962
725.443582	15923.885864
725.775542	15908.326342
726.107453	16372.336828
726.439315	16258.545383
726.771129	16654.724622
727.102895	17023.086775
727.434612	17217.544243
727.766281	17349.161208
728.097901	17606.098738
728.429473	17641.197771
728.760996	17630.850803
729.092471	17702.266309
729.423897	17581.258452
729.755276	17453.319009
730.086606	17566.828149
730.417887	18087.491121
730.749120	18609.179968
731.080305	18775.802706
731.411442	19103.543241
731.742530	19178.283388
732.073570	19273.074724
732.404562	19566.792512
732.735506	19375.909221
733.066401	19091.878011
733.397249	18570.100944
733.728048	17927.479857
734.058798	17112.726052
734.389501	16425.901608
734.720156	15980.225799
735.050762	15455.277846
735.381320	15096.836684
735.711831	14862.143247
736.042293	14519.012069
736.372707	14525.920970
736.703073	14324.186596
737.033391	14506.174771
737.363661	14473.528258
737.693883	14581.416512
738.024056	14752.730043
738.354182	14935.547488
738.684260	15226.379215
739.014290	15438.505928
739.344272	15628.375946
739.674207	15903.249901
740.004093	16018.641912
740.333931	16016.817014
740.663722	16042.821807
740.993464	16036.444747
741.323159	15867.460229
741.652806	15584.853144
741.982405	15378.536361
742.311956	15030.651376
742.641460	14913.447069
742.970915	14613.206028
743.300323	14280.603301
743.629683	14061.562645
743.958996	13787.212971
744.288260	13514.237011
744.617477	13218.197772
744.946647	13143.291267
745.275768	12876.833518
745.604842	12695.180581
745.933869	12528.706557
746.262847	12484.430103
746.591778	12407.986046
746.920662	12307.825881
747.249498	12309.207157
747.578286	12422.229826
747.907027	12562.588152
748.235720	12781.822892
748.564365	12825.655724
748.892963	12716.572717
749.221514	12773.293259
749.550017	12629.998461
749.878473	12595.821959
750.206881	12366.119263
750.535242	12284.661779
750.863555	12196.391175
751.191821	12098.103798
751.520039	12120.975513
751.848210	12028.475382
752.176334	12068.088768
752.504411	11962.285032
752.832440	11811.778863
753.160421	11876.839994
753.488356	11750.919533
753.816243	11662.704382
754.144082	11523.616427
754.471875	11465.239865
754.799620	11416.078533
755.127318	11380.422452
755.454969	11341.403921
755.782572	11296.749380
756.110129	11295.443721
756.437638	11232.099103
756.765100	11222.440252
757.092515	11222.112577
757.419882	11234.564227
757.747203	11249.286917
758.074477	11316.291413
758.401703	11273.963365
758.728882	11428.119329
759.056014	11475.601957
759.383099	11584.778226
759.710138	11689.246057
760.037129	11770.259920
760.364073	11793.106429
760.690970	11779.628904
761.017820	11770.824529
761.344623	11959.976183
761.671379	12274.017383
761.998088	12908.708734
762.324751	14455.125526
762.651366	17293.668187
762.977935	20936.431162
763.304456	23149.477536
763.630931	23599.120733
763.957359	22427.002052
764.283740	20522.388594
764.610074	18659.997320
764.936362	16543.310081
765.262602	15032.544329
765.588796	13578.844438
765.914943	12557.768809
766.241044	11713.468801
766.567097	11082.626371
766.893104	10547.621316
767.219064	10185.094299
767.544978	9800.262696
767.870845	9495.356068
768.196665	9308.561153
768.522438	9112.679559
768.848165	8948.801729
769.173846	8781.185885
769.499479	8661.110641
769.825066	8506.379986
770.150607	8327.343407
770.476101	8265.586752
770.801548	8154.920822
771.126949	8009.256681
771.452303	7923.536901
771.777611	7758.499607
772.102872	7739.829693
772.428087	7623.658824
772.753256	7496.157961
773.078378	7411.045640
773.403453	7271.168744
773.728482	7171.258116
774.053465	7101.964936
774.378401	7025.036928
774.703291	6929.489418
775.028135	6833.359656
775.352932	6798.023688
775.677683	6716.596450
776.002388	6630.491022
776.327046	6627.569673
776.651658	6544.761160
776.976224	6467.659232
777.300743	6451.131809
777.625216	6378.541715
777.949643	6340.828843
778.274024	6347.478125
778.598359	6280.216529
778.922647	6284.771212
779.246889	6240.300673
779.571086	6248.243011
779.895236	6262.786740
780.219339	6258.189208
780.543397	6254.214258
780.867409	6304.242669
781.191374	6301.883409
781.515294	6267.633809
781.839167	6314.327497
782.162995	6287.259021
782.486776	6242.546507
782.810511	6203.628800
783.134201	6125.921934
783.457844	6119.035717
783.781441	6065.150824
784.104993	6020.501324
784.428498	5989.155430
784.751958	5974.778059
785.075372	5952.962466
785.398739	5913.013842
785.722061	5934.020330
786.045337	5937.223983
786.368568	6041.795158
786.691752	6070.796916
787.014891	6315.371016
787.337983	6593.257060
787.661030	7024.331166
787.984031	7449.144160
788.306987	7711.127884
788.629897	7792.539998
788.952760	7708.723254
789.275579	7527.163577
789.598351	7236.704896
789.921078	6973.226469
790.243759	6696.986362
790.566395	6490.442727
790.888984	6301.732174
791.211529	6165.759652
791.534027	6001.080279
791.856480	5864.752356
792.178888	5802.693231
792.501249	5737.080093
792.823566	5637.154342
793.145836	5634.492613
793.468062	5613.733141
793.790241	5572.864507
794.112375	5614.549808
794.434464	5709.499941
794.756507	5738.471452
795.078505	5863.106419
795.400457	6077.252114
795.722364	6311.512012
796.044226	6506.017372
796.366042	6661.509242
796.687812	6607.694924
797.009538	6635.108719
797.331218	6544.809051
797.652852	6474.802547
797.974442	6351.765626
798.295986	6281.428927
798.617484	6154.752292
798.938938	6048.056271
799.260346	5982.601930
799.581709	5849.568400
799.903026	5793.198218
800.224299	5720.114090
800.545526	5604.759887
800.866708	5541.503489
801.187845	5490.063555
801.508936	5417.733080
801.829983	5386.674531
802.150984	5285.667452
802.471940	5259.955047
802.792851	5243.573817
803.113717	5218.695723
803.434538	5192.648081
803.755314	5164.384852
804.076045	5148.487573
804.396731	5119.657214
804.717372	5129.714316
805.037967	5132.499554
805.358518	5163.230428
805.679024	5219.588007
805.999485	5230.252568
806.319901	5249.088839
806.640272	5265.331437
806.960598	5310.832892
807.280879	5302.522550
807.601115	5340.875648
807.921306	5304.649917
808.241453	5303.750071
808.561554	5309.948169
808.881611	5273.687150
809.201623	5270.291933
809.521590	5222.675714
809.841513	5205.432447
810.161390	5221.758224
810.481223	5136.222446
810.801011	5117.902893
811.120755	5096.868678
811.440453	5041.668044
811.760107	5014.927243
812.079716	4987.367255
812.399281	4935.629893
812.718801	4930.818112
813.038276	4902.491868
813.357707	4861.177092
813.677093	4882.221389
813.996434	4823.938089
814.315731	4845.171429
814.634983	4843.225543
814.954191	4847.908775
815.273354	4908.634514
815.592473	4951.270073
815.911547	5019.562584
816.230577	5071.355399
816.549562	5158.597607
816.868502	5213.513417
817.187399	5264.020737
817.506250	5343.353375
817.825058	5374.545515
818.143821	5521.565725
818.462539	5685.713256
818.781213	5915.395787
819.099843	6275.714779
819.418429	6898.660242
819.736970	7509.416195
820.055466	8209.536682
820.373919	9112.898849
820.692327	10553.191791
821.010691	13212.377759
821.329011	19361.544453
821.647286	28828.838938
821.965517	39065.237060
822.283704	44464.771574
822.601847	45929.123423
822.919945	41399.152659
823.237999	36295.049924
823.556010	31162.694043
823.873976	26511.425556
824.191897	22344.901820
824.509775	19322.725048
824.827609	16572.543732
825.145398	15039.816193
825.463144	14304.536178
825.780845	14601.888638
826.098502	15837.926629
826.416116	18273.774359
826.733685	20527.071826
827.051210	21059.863814
827.368692	19636.224324
827.686129	17096.506139
828.003522	14648.045443
828.320872	12436.808843
828.638177	10823.369911
828.955439	9584.581970
829.272656	8535.611116
829.589830	7709.320630
829.906960	6986.598130
830.224046	6455.300844
830.541088	6046.629625
830.858086	5792.033712
831.175041	5593.618937
831.491952	5537.846132
831.808819	5574.069343
832.125642	5814.613040
832.442421	6354.986923
832.759157	7450.706917
833.075849	9199.551242
833.392497	11032.298011
833.709101	12136.454376
834.025662	11880.091539
834.342179	10843.247180
834.658653	9551.237258
834.975083	8453.994835
835.291469	7558.426293
835.607811	6831.519635
835.924110	6321.140616
836.240366	5832.700700
836.556578	5388.799377
836.872746	5039.843146
837.188871	4772.941776
837.504952	4552.426584
837.820990	4388.074886
838.136984	4277.199748
838.452935	4226.654619
838.768842	4256.372221
839.084706	4532.844222
839.400526	5266.856386
839.716303	6156.194062
840.032037	6729.678245
840.347727	6576.616211
840.663373	5986.077805
840.978977	5413.138068
841.294537	4975.485256
841.610054	4646.030728
841.925527	4406.772526
842.240957	4205.501938
842.556344	4027.564330
842.871687	3869.693036
843.186987	3723.524780
843.502244	3601.770833
843.817458	3516.550127
844.132629	3449.538069
844.447756	3402.178949
844.762840	3354.905529
845.077881	3316.741473
845.392879	3282.892646
845.707833	3257.137391
846.022745	3231.790469
846.337613	3220.248748
846.652438	3199.224616
846.967221	3188.509643
847.281960	3168.256807
847.596656	3160.967299
847.911309	3146.771410
848.225919	3130.763226
848.540485	3127.055457
848.855009	3119.350053
849.169490	3107.410081
849.483928	3098.522526
849.798323	3095.117227
850.112675	3083.504929
850.426984	3086.448963
850.741251	3081.022161
851.055474	3074.372879
851.369654	3076.613672
851.683792	3074.811459
851.997887	3075.449165
852.311938	3078.247006
852.625947	3076.041501
852.939914	3070.564287
853.253837	3073.326839
853.567718	3074.085533
853.881555	3068.956159
854.195350	3073.689802
854.509103	3069.790470
854.822812	3066.798545
855.136479	3062.478276
855.450103	3065.288720
855.763685	3059.650189
856.077224	3060.970971
856.390720	3069.790470
856.704173	3079.232551
857.017584	3085.786051
857.330953	3091.033892
857.644278	3099.427413
857.957561	3102.716766
858.270802	3095.817947
858.584000	3100.173504
858.897155	3092.155549
859.210268	3082.650453
859.523339	3070.551684
859.836367	3066.549008
860.149352	3065.187897
860.462295	3062.148081
860.775195	3053.310938
861.088054	3044.282232
861.400869	3044.630071
861.713642	3041.111346
862.026373	3052.514436
862.339062	3058.054664
862.651708	3065.545818
862.964312	3079.928230
863.276873	3088.422575
863.589392	3120.748974
863.901869	3145.773261
864.214303	3165.073319
864.526696	3183.307172
864.839045	3203.020604
865.151353	3213.876729
865.463619	3216.493088
865.775842	3216.432594
866.088023	3221.161197
866.400162	3216.704817
866.712258	3215.038715
867.024313	3214.320351
867.336325	3215.373952
867.648296	3216.104919
867.960224	3214.148952
868.272110	3212.555947
868.583954	3217.818912
868.895755	3221.776217
869.207515	3220.692369
869.519233	3240.211717
869.830909	3240.826738
870.142542	3252.991042
870.454134	3261.639141
870.765684	3274.423507
871.077191	3291.737350
871.388657	3303.037097
871.700081	3324.111640
872.011463	3340.777695
872.322803	3360.690253
872.634101	3378.488046
872.945357	3401.644587
873.256571	3425.257351
873.567744	3441.426852
873.878874	3444.050773
874.189963	3459.905202
874.501010	3462.277064
874.812015	3459.597691
875.122979	3475.890700
875.433900	3471.580514
875.744780	3477.967656
876.055618	3482.025785
876.366415	3482.807163
876.677169	3487.349243
876.987882	3503.183507
877.298554	3521.984491
877.609183	3563.543763
877.919771	3608.508335
878.230317	3671.149712
878.540822	3773.588479
878.851285	3925.359977
879.161707	4137.247235
879.472087	4510.937888
879.782425	5123.314572
880.092722	6290.245905
880.402977	8196.401956
880.713191	10533.687567
881.023363	12875.091800
881.333494	14207.564543
881.643583	14660.068595
881.953631	14254.522891
882.263637	13424.811982
882.573602	12391.619940
882.883526	11457.085799
883.193408	10518.296924
883.503248	9614.866702
883.813048	8796.974778
884.122806	8039.463275
884.432522	7285.740199
884.742197	6634.440766
885.051831	6080.405356
885.361424	5596.320996
885.670975	5208.106779
885.980485	4884.245412
886.289954	4625.278818
886.599382	4413.615892
886.908768	4236.058892
887.218113	4074.076536
887.527417	3943.301444
887.836680	3819.147907
888.145901	3724.424626
888.455082	3648.187257
888.764221	3577.520362
889.073319	3519.322761
889.382376	3489.935355
889.691392	3466.373002
890.000366	3459.731282
890.309300	3456.104172
890.618193	3456.714151
890.927044	3451.115950
891.235855	3457.644244
891.544625	3472.114876
891.853353	3500.834330
892.162041	3560.418247
892.470687	3651.650529
892.779293	3766.321656
893.087858	3936.964713
893.396381	4211.546281
893.704864	4617.404536
894.013306	5176.274413
894.321707	5743.396659
894.630068	6097.923365
894.938387	6131.784796
895.246665	5958.900945
895.554903	5643.112986
895.863100	5311.805834
896.171256	5042.570410
896.479371	4811.156243
896.787446	4586.174588
897.095480	4394.272985
897.403473	4245.327053
897.711425	4099.582254
898.019336	3979.091116
898.327207	3863.258003
898.635038	3764.448867
898.942827	3654.292094
899.250576	3574.541040
899.558284	3489.209429
899.865952	3436.299999
900.173579	3372.355483
900.481165	3330.846622
900.788711	3289.552010
901.096216	3254.972215
901.403681	3229.562279
901.711105	3213.155844
902.018489	3215.384034
902.325832	3247.029877
902.633135	3302.359062
902.940397	3472.150164
903.247619	3869.141030
903.554800	4608.085963
903.861941	5556.571498
904.169041	6251.302992
904.476101	6452.737417
904.783121	6186.864443
905.090100	5786.407784
905.397039	5381.368716
905.703938	5025.695148
906.010796	4709.188824
906.317614	4463.848469
906.624391	4226.989856
906.931129	4034.556411
907.237826	3860.550903
907.544483	3691.999925
907.851099	3521.165303
908.157675	3367.548742
908.464211	3227.999522
908.770707	3128.928246
909.077163	3050.462686
909.383578	2988.138901
909.689954	2948.207922
909.996289	2916.874630
910.302584	2894.133985
910.608839	2884.180227
910.915054	2874.168495
911.221229	2868.237578
911.527363	2872.320912
911.833458	2877.470451
912.139513	2893.367729
912.445527	2902.696385
912.751502	2939.360697
913.057436	2985.184785
913.363331	3037.985830
913.669186	3123.937503
913.975000	3234.018659
914.280775	3421.857093
914.586510	3684.866692
914.892205	4048.785067
915.197859	4543.614647
915.503475	5119.841217
915.809050	5607.025886
916.114585	5891.447786
916.420081	5951.767712
916.725536	5887.515686
917.030952	5654.836189
917.336328	5451.574345
917.641665	5241.209516
917.946961	5017.445300
918.252218	4819.224610
918.557435	4599.891568
918.862612	4404.798914
919.167750	4232.146956
919.472848	4046.917320
919.777906	3882.941188
920.082925	3725.538721
920.387904	3577.898448
920.692843	3467.237560
920.997743	3369.877756
921.302603	3277.178498
921.607423	3213.997717
921.912204	3151.820125
922.216946	3103.571242
922.521647	3058.473080
922.826310	3013.848786
923.130932	2976.599700
923.435516	2937.238371
923.740059	2911.311717
924.044564	2880.424567
924.349028	2855.289374
924.653454	2825.377687
924.957840	2805.379430
925.262186	2783.687345
925.566493	2761.987698
925.870761	2738.611868
926.174989	2727.183572
926.479178	2712.269319
926.783328	2698.174252
927.087438	2687.676050
927.391509	2672.028308
927.695541	2662.694612
927.999533	2652.393014
928.303486	2642.812301
928.607400	2639.742238
928.911275	2632.379633
929.215110	2623.749178
929.518906	2623.310597
929.822663	2623.940742
930.126381	2622.861935
930.430060	2622.322531
930.733699	2628.326545
931.037299	2628.533233
931.340861	2630.506844
931.644383	2636.536064
931.947866	2632.992133
932.251309	2631.504993
932.554714	2629.806124
932.858080	2627.456946
933.161407	2623.141719
933.464694	2617.808178
933.767943	2617.145266
934.071153	2614.168465
934.374323	2607.299893
934.677455	2607.113370
934.980548	2603.072885
935.283602	2598.472832
935.586617	2595.478387
935.889593	2602.689757
936.192530	2601.268152
936.495428	2607.073041
936.798287	2619.454115
937.101108	2629.949797
937.403890	2652.634989
937.706632	2678.178516
938.009336	2710.136911
938.312002	2743.564802
938.614628	2765.483739
938.917216	2780.680297
939.219765	2790.918880
939.522275	2799.171249
939.824747	2801.142340
940.127179	2794.311577
940.429573	2789.298149
940.731929	2788.589867
941.034246	2778.610903
941.336524	2778.764658
941.638763	2772.800973
941.940964	2766.539860
942.243126	2747.862385
942.545250	2740.159502
942.847335	2722.729713
943.149381	2710.593135
943.451389	2698.632997
943.753359	2686.619928
944.055290	2678.566685
944.357182	2668.050838
944.659036	2662.815599
944.960851	2659.861483
945.262628	2656.841832
945.564367	2657.310659
945.866067	2653.207160
946.167729	2652.768580
946.469352	2655.100113
946.770937	2651.636841
947.072484	2645.912611
947.373992	2646.751963
947.675462	2641.133597
947.976893	2636.198307
948.278286	2632.500621
948.579641	2629.760754
948.880958	2623.340844
949.182236	2627.237656
949.483476	2621.195833
949.784678	2623.910495
950.085841	2623.237501
950.386967	2625.831174
950.688054	2631.033645
950.989103	2641.032774
951.290114	2650.401758
951.591087	2656.685556
951.892021	2670.337001
952.192917	2684.656398
952.493776	2693.322142
952.794596	2696.493028
953.095378	2697.292051
953.396122	2696.490507
953.696828	2693.997657
953.997496	2690.035310
954.298126	2679.895029
954.598718	2673.404543
954.899272	2661.446926
955.199788	2650.502581
955.500266	2638.986065
955.800706	2624.409569
956.101108	2606.034563
956.401472	2596.093408
956.701798	2583.266192
957.002087	2570.164233
957.302337	2559.948335
957.602550	2546.856458
957.902724	2538.825900
958.202861	2527.531195
958.502960	2521.806965
958.803022	2512.758093
959.103045	2506.993534
959.403031	2501.271824
959.702979	2501.302071
960.002889	2490.342603
960.302762	2483.836994
960.602596	2482.538897
960.902393	2480.156952
961.202153	2476.996148
961.501875	2472.277628
961.801559	2472.648153
962.101205	2465.681278
962.400814	2466.596248
962.700385	2462.966617
962.999918	2463.538788
963.299414	2459.531071
963.598873	2462.999384
963.898293	2455.974537
964.197677	2458.452264
964.497022	2457.761626
964.796331	2456.103086
965.095601	2454.512602
965.394835	2453.726182
965.694030	2453.045626
965.993189	2455.346913
966.292309	2452.382714
966.591393	2450.489761
966.890439	2449.605039
967.189447	2451.951696
967.488419	2453.264916
967.787353	2453.206943
968.086249	2449.615121
968.385108	2450.759463
968.683930	2453.703497
968.982714	2454.996553
969.281462	2455.674588
969.580172	2459.170628
969.878844	2458.638786
970.177480	2461.602985
970.476078	2465.363686
970.774639	2469.091619
971.073162	2472.433904
971.371649	2468.605147
971.670098	2473.197639
971.968510	2473.706795
972.266885	2474.609162
972.565223	2479.297435
972.863524	2478.989924
973.161788	2482.677528
973.460014	2479.708289
973.758204	2482.312045
974.056356	2480.935810
974.354471	2483.093424
974.652550	2482.987559
974.950591	2485.077118
975.248595	2483.905049
975.546563	2481.056798
975.844493	2480.363639
976.142386	2477.684266
976.440243	2477.487661
976.738062	2473.875674
977.035845	2471.337453
977.333590	2466.583645
977.631299	2468.998357
977.928971	2466.641618
978.226606	2464.920064
978.524204	2463.715228
978.821765	2461.338324
979.119290	2460.062912
979.416777	2460.153653
979.714228	2458.543004
980.011642	2460.791359
980.309020	2463.798407
980.606360	2469.552884
980.903664	2479.070583
981.200931	2492.079280
981.498162	2510.038391
981.795356	2540.030736
982.092513	2573.730849
982.389633	2619.267592
982.686717	2663.851557
982.983764	2690.645289
983.280775	2710.769575
983.577749	2707.185315
983.874686	2698.207020
984.171587	2683.645647
984.468451	2669.510252
984.765279	2648.793630
985.062070	2634.708646
985.358824	2614.312138
985.655543	2594.855804
985.952224	2570.592731
986.248869	2544.449307
986.545478	2514.817405
986.842050	2501.869201
987.138586	2480.015799
987.435086	2469.787298
987.731549	2457.774228
988.027975	2453.327931
988.324366	2450.603187
988.620719	2444.102619
988.917037	2440.883842
989.213318	2438.108687
989.509563	2439.242947
989.805772	2434.806732
990.101944	2431.454364
990.398080	2431.403953
990.694180	2428.129723
990.990244	2431.910589
991.286271	2432.855805
991.582262	2433.715322
991.878217	2429.717687
992.174136	2435.172215
992.470019	2435.565425
992.765865	2437.586928
993.061676	2437.090374
993.357450	2439.699171
993.653188	2443.222938
993.948890	2450.310800
994.244556	2455.616615
994.540186	2460.864456
994.835780	2472.496918
995.131337	2486.952427
995.426859	2502.950529
995.722345	2525.257634
996.017795	2540.166847
996.313208	2555.423899
996.608586	2565.680127
996.903928	2567.575600
997.199234	2564.896227
997.494504	2563.323387
997.789738	2556.590926
998.084936	2547.844524
998.380099	2534.102339
998.675225	2523.205885
998.970316	2514.114164
999.265371	2498.794097
999.560390	2483.804226
999.855373	2473.643781
1000.150320	2464.690692
1000.445232	2455.205761
1000.740108	2447.301231
1001.034948	2443.364090
1001.329752	2437.634819
1001.624521	2433.818665
1001.919254	2429.203489
1002.213951	2427.416400
1002.508613	2423.882551
1002.803239	2425.551173
1003.097829	2421.092272
1003.392384	2423.665782
1003.686903	2420.152097
1003.981386	2422.690318
1004.275834	2417.631520
1004.570246	2419.625297
1004.864623	2417.457601
1005.158964	2416.227559
1005.453270	2412.852507
1005.747540	2416.638413
1006.041775	2415.972981
1006.335974	2411.965263
1006.630138	2413.780079
1006.924266	2412.192115
1007.218359	2411.549368
1007.512416	2411.725809
1007.806438	2413.298649
1008.100425	2414.170768
1008.394376	2413.830490
1008.688292	2414.112795
1008.982172	2409.500139
1009.276017	2410.551220
1009.569827	2411.317475
1009.863602	2412.938206
1010.157341	2412.751683
1010.451045	2411.627506
1010.744714	2412.585325
1011.038347	2410.102557
1011.331945	2411.536765
1011.625508	2410.334450
1011.919036	2405.817576
1012.212528	2406.593914
1012.505986	2409.225396
1012.799408	2407.977711
1013.092795	2410.336971
1013.386147	2409.510222
1013.679464	2408.907804
1013.972745	2408.060890
1014.265992	2406.644326
1014.559204	2411.551889
1014.852380	2409.674059
1015.145521	2407.350087
1015.438628	2408.620458
1015.731699	2409.517783
1016.024736	2406.488050
1016.317737	2408.194480
1016.610703	2408.317989
1016.903635	2408.060890
1017.196531	2406.414953
1017.489393	2407.899573
1017.782219	2402.084602
1018.075011	2411.428381
1018.367768	2409.883267
1018.660490	2413.258319
1018.953177	2413.258319
1019.245829	2413.258319
