Dividing Wavelength (nm)	Counts (n)	Blue Motor Position (mm): 30.600000	Red Motor Position (mm): 0.000000	
326.493990	1971.070989
326.888308	1971.070989
327.282561	1971.070989
327.676750	1945.998811
328.070874	1948.368153
328.464933	1952.620366
328.858929	1962.117900
329.252859	1975.426546
329.646726	1989.420789
330.040528	2007.238747
330.434265	2023.851870
330.827938	2044.860879
331.221547	2064.934753
331.615091	2086.006776
332.008571	2105.150558
332.401986	2126.668723
332.795338	2146.543472
333.188625	2166.158602
333.581847	2185.118382
333.975006	2202.555733
334.368100	2220.623228
334.761129	2236.996896
335.154095	2253.045409
335.546996	2292.348765
335.939833	2368.573532
336.332606	2381.483927
336.725315	2394.779970
337.117960	2401.507390
337.510540	2412.986097
337.903056	2422.201326
338.295508	2424.583272
338.687896	2433.609458
339.080220	2440.110025
339.472480	2447.759976
339.864676	2450.550255
340.256807	2453.733744
340.648875	2455.830864
341.040879	2457.441512
341.432818	2458.079218
341.824694	2458.162397
342.216506	2459.369754
342.608253	2459.034517
342.999937	2458.479990
343.391557	2453.862293
343.783113	2454.983950
344.174605	2455.208281
344.566033	2455.236007
344.957397	2454.426902
345.348697	2449.037909
345.739934	2446.724019
346.131106	2445.927517
346.522215	2443.520366
346.913260	2440.112546
347.304241	2439.409305
347.695159	2438.776640
348.086012	2436.578697
348.476802	2436.981989
348.867528	2433.644746
349.258191	2434.831937
349.648789	2432.044179
350.039324	2431.403953
350.429796	2431.058634
350.820203	2428.548139
351.210548	2431.809766
351.600828	2428.162491
351.991045	2431.098963
352.381198	2427.948242
352.771288	2427.547470
353.161314	2427.670978
353.551276	2426.370361
353.941175	2425.364650
354.331010	2425.891451
354.720782	2430.667944
355.110490	2430.141144
355.500135	2428.538057
355.889717	2427.749116
356.279235	2427.360947
356.668689	2428.459919
357.058080	2431.250198
357.447408	2428.510330
357.836672	2426.980340
358.225873	2426.909764
358.615010	2427.902871
359.004084	2429.994950
359.393095	2431.371185
359.782043	2432.107194
360.170927	2434.053079
360.559748	2433.687595
360.948505	2435.683892
361.337199	2435.588110
361.725830	2439.429470
362.114398	2439.429470
362.502903	2437.599531
362.891344	2439.540375
363.279722	2436.029211
363.668037	2436.498039
364.056289	2436.974428
364.444478	2439.545416
364.832603	2441.463575
365.220665	2439.502566
365.608665	2441.080447
365.996601	2442.741508
366.384474	2438.353183
366.772284	2440.730087
367.160031	2444.760490
367.547715	2440.835952
367.935336	2439.928544
368.322893	2443.049018
368.710388	2442.343257
369.097820	2445.073041
369.485189	2443.817794
369.872495	2444.826025
370.259738	2445.020109
370.646918	2444.425253
371.034035	2448.357353
371.421090	2444.868875
371.808081	2445.864503
372.195010	2448.032199
372.581875	2446.028340
372.968678	2446.252671
373.355418	2448.180913
373.742096	2450.315841
374.128710	2451.349278
374.515262	2454.520164
374.901751	2448.322065
375.288177	2450.814916
375.674540	2449.902467
376.060841	2452.150821
376.447079	2453.892540
376.833254	2451.414813
377.219367	2450.575461
377.605417	2454.041254
377.991404	2453.133846
378.377329	2452.584361
378.763191	2448.611931
379.148991	2457.076029
379.534727	2455.397324
379.920402	2455.490586
380.306013	2458.280864
380.691563	2456.042592
381.077049	2456.115689
381.462474	2459.422686
381.847835	2459.883951
382.233134	2460.251956
382.618371	2457.834722
383.003545	2459.515947
383.388657	2462.066771
383.773706	2460.098200
384.158693	2460.718262
384.543618	2459.505865
384.928480	2461.592903
385.313280	2461.681123
385.698017	2460.912347
386.082692	2465.832513
386.467305	2464.484004
386.851856	2464.289920
387.236344	2462.376802
387.620770	2464.463840
388.005133	2466.994499
388.389435	2466.936526
388.773674	2467.917030
389.157851	2469.051290
389.541965	2466.510548
389.926018	2468.736218
390.310008	2467.937195
390.693936	2469.784777
391.077802	2470.603965
391.461606	2470.180508
391.845348	2472.418780
392.229027	2470.649335
392.612645	2473.686631
392.996200	2471.163533
393.379694	2472.179326
393.763125	2475.004892
394.146494	2478.584112
394.529801	2480.595532
394.913047	2476.759214
395.296230	2475.851806
395.679351	2477.981694
396.062410	2473.260653
396.445408	2479.322641
396.828343	2477.684266
397.211217	2474.813328
397.594028	2478.574029
397.976778	2476.529841
398.359466	2476.827269
398.742092	2477.797692
399.124656	2481.192909
399.507158	2481.863382
399.889598	2481.916314
400.271977	2483.577374
400.654294	2486.387818
401.036549	2488.623569
401.418742	2486.967550
401.800874	2487.363281
402.182944	2483.451346
402.564952	2487.809423
402.946898	2487.000318
403.328783	2489.901502
403.710606	2487.431337
404.092367	2491.991060
404.474067	2490.597181
404.855705	2493.120279
405.237282	2494.373005
405.618797	2493.374857
406.000250	2495.973572
406.381642	2492.749754
406.762972	2496.765033
407.144240	2496.646566
407.525447	2499.449447
407.906593	2497.412821
408.287677	2497.140599
408.668700	2499.096567
409.049661	2499.068840
409.430560	2498.968017
409.811399	2503.530261
410.192176	2502.965652
410.572891	2503.159737
410.953545	2505.135869
411.334138	2504.611589
411.714669	2506.665859
412.095139	2503.200066
412.475547	2506.249964
412.855894	2509.743483
413.236180	2509.231806
413.616405	2507.921106
413.996568	2510.655932
414.376670	2509.854389
414.756711	2510.136693
415.136691	2512.997548
415.516609	2514.973681
415.896466	2516.922087
416.276262	2517.665657
416.655997	2519.024248
417.035670	2518.066428
417.415283	2526.039013
417.794834	2521.819568
418.174324	2525.973478
418.553753	2527.180835
418.933121	2529.835002
419.312428	2529.381298
419.691674	2531.473377
420.070859	2536.716177
420.449983	2539.254398
420.829045	2538.815818
421.208047	2543.667928
421.586988	2547.226983
421.965867	2551.713610
422.344686	2557.473128
422.723444	2562.083263
423.102141	2557.672254
423.480777	2570.683472
423.859352	2575.447362
424.237866	2589.620566
424.616319	2593.925712
424.994712	2605.432145
425.373044	2613.500512
425.751314	2634.103708
426.129524	2638.935654
426.507673	2662.387101
426.885762	2673.981755
427.263789	2694.723583
427.641756	2718.038919
428.019662	2740.943402
428.397508	2763.580703
428.775292	2796.885086
429.153016	2826.552276
429.530679	2857.270547
429.908282	2895.989129
430.285824	2926.846032
430.663305	2984.935248
431.040726	3015.134280
431.418086	3056.733882
431.795385	3126.889099
432.172624	3204.601006
432.549802	3245.588107
432.926920	3315.967656
433.303977	3375.486039
433.680974	3454.541414
434.057910	3549.632699
434.434786	3632.146305
434.811601	3709.696895
435.188355	3867.656410
435.565050	3941.574849
435.941683	4034.609343
436.318257	4210.296075
436.694770	4295.894867
437.071222	4464.115651
437.447614	4487.146162
437.823946	4601.303091
438.200218	4741.926077
438.576429	4837.345037
438.952580	4996.577443
439.328670	5120.241988
439.704700	5315.173325
440.080670	5383.488522
440.456580	5614.161639
440.832429	5792.741994
441.208218	5765.345843
441.583947	5985.674513
441.959616	6154.258259
442.335224	6358.853488
442.710773	6545.464401
443.086261	6824.086453
443.461689	6848.702408
443.837057	7038.441356
444.212365	7363.149637
444.587612	7550.562093
444.962800	7623.517671
445.337927	7911.032319
445.712995	7739.668377
446.088002	8443.852034
446.462949	8713.178199
446.837837	8961.306312
447.212664	9157.087083
447.587431	10303.364809
447.962139	11552.169522
448.336786	12657.220692
448.711374	12360.584076
449.085901	11241.813406
449.460369	11443.041144
449.834776	11653.050572
450.209124	12925.110128
450.583412	13002.675842
450.957640	13460.843630
451.331808	13135.043939
451.705917	12766.006272
452.079965	13008.014424
452.453954	13415.652206
452.827883	13611.700158
453.201752	13739.765631
453.575562	14047.800295
453.949311	14848.716133
454.323001	15134.156346
454.696632	15258.965233
455.070202	16325.993500
455.443713	16665.749626
455.817164	17241.537615
456.190556	17823.536306
456.563888	17748.949914
456.937160	18263.122401
457.310373	17496.325092
457.683526	18003.843256
458.056619	18238.362774
458.429653	18436.815357
458.802628	19042.820022
459.175542	19358.575214
459.548398	20456.644386
459.921194	21745.674986
460.293930	22455.817287
460.666607	24115.521409
461.039224	25612.373577
461.411782	26139.237168
461.784280	25534.565887
462.156719	25420.232518
462.529099	25252.246149
462.901419	24539.316089
463.273680	23974.117044
463.645882	24268.401961
464.018024	24474.975843
464.390106	25327.939074
464.762130	27648.921592
465.134094	31109.449377
465.505999	35623.923633
465.877845	39726.724664
466.249631	41017.527230
466.621358	39777.670565
466.993026	38201.173208
467.364634	36680.310025
467.736184	35231.616000
468.107674	34386.637957
468.479105	33918.917182
468.850477	33517.454814
469.221790	32479.400578
469.593043	31172.599911
469.964238	30559.288093
470.335373	30632.145369
470.706449	32256.765580
471.077467	34665.489382
471.448425	38950.369328
471.819324	41743.503796
472.190164	40234.925904
472.560945	37124.165977
472.931667	34444.845640
473.302330	33547.893301
473.672934	32906.219951
474.043479	33495.487986
474.413965	32870.563870
474.784393	32636.341780
475.154761	33541.027249
475.525070	33672.452650
475.895321	33335.282637
476.265513	33974.311902
476.635645	34957.473013
477.005719	34874.205754
477.375734	35384.123507
477.745691	36104.212004
478.115588	37421.662109
478.485427	39361.026762
478.855207	42628.551450
479.224928	45264.722031
479.594591	46911.009122
479.964194	45952.766434
480.333739	46131.603887
480.703226	46212.937863
481.072653	46883.038280
481.442022	47437.381201
481.811333	47742.950741
482.180584	46520.692744
482.549777	46071.110041
482.918912	45587.471823
483.287988	45340.644328
483.657005	44562.053240
484.025964	43971.650946
484.394864	44003.533723
484.763706	43597.728400
485.132489	42782.215902
485.501213	42651.203875
485.869879	42818.812158
486.238487	42449.469501
486.607036	42676.207998
486.975527	42171.593539
487.343959	42388.973134
487.712333	42488.828309
488.080648	42420.828185
488.448905	42869.690003
488.817104	42697.975700
489.185244	43639.759021
489.553326	45285.564681
489.921350	47981.563676
490.289315	50942.031684
490.657222	51609.707305
491.025070	51897.824371
491.392861	50981.864361
491.760593	49689.723369
492.128267	47981.062081
492.495883	46479.907289
492.863440	45107.894255
493.230939	43797.862208
493.598380	42745.627207
493.965763	42437.166565
494.333088	41663.760303
494.700354	41212.491335
495.067563	40929.415423
495.434713	40814.096508
495.801805	40890.094423
496.168839	40527.922807
496.535815	40222.063400
496.902733	40244.327656
497.269593	39844.796049
497.636395	39805.613681
498.003139	40194.495850
498.369825	39669.827682
498.736453	39946.334970
499.103023	39521.078355
499.469535	39386.598014
499.835989	39498.655303
500.202385	39164.802369
500.568723	39187.343888
500.935003	39385.229341
501.301226	39191.341523
501.667390	39801.739554
502.033497	40032.760512
502.399546	39484.822377
502.765537	38828.469187
503.131470	39199.601454
503.497345	39536.511848
503.863163	38235.074968
504.228923	38829.326183
504.594625	39229.276206
504.960269	38535.462202
505.325856	39210.402126
505.691385	38583.564892
506.056856	38708.010816
506.422270	39155.801388
506.787625	38729.317253
507.152924	38911.088657
507.518164	39027.748519
507.883347	38256.867876
508.248472	38504.194445
508.613540	38951.082651
508.978550	39256.402655
509.343503	39001.836988
509.708398	39192.768170
510.073236	39714.764527
510.438016	39721.766690
510.802738	39176.626395
511.167403	39790.807812
511.532010	40008.812510
511.896561	40308.627573
512.261053	41116.616150
512.625488	40673.957472
512.989866	40557.035470
513.354186	40411.028532
513.718449	40384.038194
514.082655	41040.119161
514.446803	40718.417928
514.810894	41240.114337
515.174927	41169.439881
515.538904	41068.861300
515.902822	41707.983826
516.266684	41187.509897
516.630488	41613.172325
516.994235	41450.282562
517.357925	41995.548885
517.721558	42162.766479
518.085133	42476.409427
518.448651	42590.447889
518.812112	42373.791699
519.175516	42466.324599
519.538863	42807.046105
519.902152	42761.889969
520.265385	43222.495155
520.628560	43258.317594
520.991678	43057.906523
521.354739	43293.169611
521.717743	43595.059109
522.080690	43498.886497
522.443580	44031.912899
522.806413	44080.088686
523.169189	44031.610430
523.531908	44212.731526
523.894569	44074.636678
524.257174	44237.513838
524.619722	44536.640784
524.982213	44523.029668
525.344647	44441.347852
525.707025	44492.046737
526.069345	44874.955139
526.431608	44793.018745
526.793815	45101.129027
527.155964	44633.098221
527.518057	44815.761910
527.880093	44600.807110
528.242072	45123.305063
528.603995	44824.772973
528.965860	44843.725191
529.327669	44928.091421
529.689421	44828.200957
530.051117	44795.254497
530.412755	44936.278255
530.774337	44992.993756
531.135862	44808.764789
531.497331	45017.309762
531.858743	44930.032265
532.220098	45249.661584
532.581396	44954.096213
532.942638	44643.246064
533.303824	44918.404844
533.664953	44883.746911
534.026025	44614.960150
534.387040	45069.921764
534.747999	45021.955185
535.108902	45193.704776
535.469748	44699.686822
535.830537	44832.107852
536.191270	45031.845929
536.551947	44679.950705
536.912567	44984.827087
537.273131	45095.026710
537.633638	44601.376761
537.994089	44932.782215
538.354483	44541.180343
538.714821	45100.645076
539.075103	45454.662625
539.435328	45221.484054
539.795497	45101.270179
540.155609	45094.192399
540.515665	45545.723508
540.875665	45006.075550
541.235609	45328.762329
541.595496	45304.587475
541.955328	45956.963195
542.315102	45348.868971
542.674821	45129.730013
543.034483	45173.749368
543.394090	45136.744779
543.753640	45106.598679
544.113134	46081.078923
544.472571	45133.117668
544.831953	46341.439396
545.191278	45584.794971
545.550548	45303.289378
545.909761	45746.394198
546.268918	45954.069572
546.628019	46261.854700
546.987064	45835.506675
547.346053	45134.690508
547.704986	45980.293655
548.063863	45548.218879
548.422684	45755.990035
548.781449	45618.341329
549.140158	46011.090063
549.498811	45845.173088
549.857408	45291.142718
550.215949	46122.350849
550.574434	46053.133287
550.932864	45834.135481
551.291237	46540.343162
551.649555	46150.314130
552.007817	46400.859476
552.366022	46055.474902
552.724173	46233.021820
553.082267	46614.014584
553.440305	46917.300482
553.798288	46256.047291
554.156215	46575.124603
554.514086	46755.638240
554.871902	46508.082298
555.229661	46528.821605
555.587365	46374.106073
555.945014	46464.826677
556.302606	46402.518016
556.660143	46625.458003
557.017625	46697.324692
557.375050	46504.160280
557.732421	46867.438429
558.089735	46839.828029
558.446994	46760.717202
558.804197	47224.969663
559.161345	47153.949887
559.518437	46449.814121
559.875474	46738.500837
560.232455	46900.263902
560.589381	47096.291690
560.946251	46770.378573
561.303065	47464.288359
561.659825	47269.475489
562.016528	46946.997919
562.373177	46682.670058
562.729770	47158.963315
563.086307	46679.778957
563.442789	47132.351064
563.799216	47195.057976
564.155587	46998.170672
564.511904	47006.798607
564.868164	47113.308105
565.224370	47358.305661
565.580520	47079.209740
565.936615	47299.074624
566.292654	47029.808953
566.648638	47251.962521
567.004567	47225.148624
567.360441	47250.861029
567.716260	47124.300341
568.072023	47430.714275
568.427732	47413.266841
568.783385	46967.001217
569.138982	47370.583392
569.494525	47314.944177
569.850013	47095.303624
570.205445	47071.408555
570.560823	47004.172165
570.916145	46914.991633
571.271412	46919.148065
571.626625	46691.413940
571.981782	46746.617095
572.336884	46431.973478
572.691931	46754.007426
573.046923	46372.374436
573.401860	46215.206383
573.756743	46194.648557
574.111570	46304.767522
574.466342	46169.687284
574.821059	46284.333205
575.175722	45811.861143
575.530330	45835.143712
575.884882	45560.766311
576.239380	45517.813160
576.593823	45493.746691
576.948211	45403.888124
577.302544	44946.216890
577.656823	44989.127191
578.011047	45212.049535
578.365216	44919.196305
578.719330	44723.261778
579.073389	44580.579481
579.427394	44665.117110
579.781344	44663.362788
580.135239	44298.738651
580.489080	44372.526020
580.842866	43879.551586
581.196597	44337.888252
581.550273	44262.502837
581.903895	44142.248633
582.257463	44558.544597
582.610975	43947.632368
582.964434	44218.670005
583.317837	43879.813726
583.671186	43701.530799
584.024481	43925.486579
584.377721	43481.020648
584.730906	43761.180252
585.084037	43789.080518
585.437113	43500.045962
585.790135	43526.383471
586.143103	43133.312102
586.496016	43254.556893
586.848874	43267.230354
587.201679	43297.482318
587.554428	42776.347998
587.907124	42960.461019
588.259765	42727.521903
588.612352	42984.378774
588.964884	42376.352605
589.317362	42647.924604
589.669786	42611.106537
590.022155	42388.889955
590.374470	42804.371773
590.726731	42324.622805
591.078937	41855.414890
591.431090	41937.764659
591.783188	41598.709254
592.135232	41279.601695
592.487222	41509.639628
592.839157	41620.323201
593.191038	41285.714094
593.542866	41069.342730
593.894639	40466.501388
594.246358	40735.290670
594.598022	40719.474050
594.949633	40338.178817
595.301190	40284.924068
595.652692	40133.754988
596.004141	40450.195776
596.355535	39481.769958
596.706876	39428.426988
597.058162	39264.103017
597.409395	39721.388603
597.760573	39804.663423
598.111698	39375.570490
598.462768	39392.171010
598.813785	39442.562384
599.164748	38889.666274
599.515657	39294.113006
599.866511	38780.878174
600.217312	39382.623065
600.568060	38341.304682
600.918753	39101.288871
601.269392	39053.402951
601.619978	38712.878050
601.970510	38913.841127
602.320988	39110.609965
602.671412	39392.433150
603.021783	39133.963110
603.372100	38779.169223
603.722363	38913.062269
604.072572	38979.499636
604.422728	38995.855659
604.772830	38809.958070
605.122878	38902.117924
605.472872	38849.642033
605.822813	39121.655133
606.172701	38955.486099
606.522534	39183.774751
606.872314	39437.715314
607.222041	39199.213285
607.571714	39579.023898
607.921333	39038.965086
608.270899	39317.904732
608.620411	39671.667703
608.969870	39452.072521
609.319276	39457.035537
609.668627	39516.795895
610.017926	39983.503397
610.367171	40142.569445
610.716362	40241.555022
611.065500	40200.731758
611.414585	40376.584848
611.763616	40657.679586
612.112594	40593.803126
612.461518	40811.903606
612.810389	41086.245719
613.159207	40962.172840
613.507971	41042.677547
613.856682	41515.673889
614.205340	41386.950546
614.553945	42082.483583
614.902496	41538.444781
615.250994	41995.899245
615.599439	42064.486664
615.947830	42274.614559
616.296169	42334.846265
616.644454	42474.231648
616.992686	42638.548058
617.340864	43155.989733
617.688990	42872.258471
618.037063	43466.923061
618.385082	43441.082106
618.733048	43736.410543
619.080961	43745.409002
619.428821	43747.221297
619.776628	43843.018344
620.124382	43664.110314
620.472083	43808.773786
620.819731	43923.384418
621.167326	43606.777272
621.514868	43593.657669
621.862357	43145.340295
622.209793	43170.775437
622.557176	42848.864997
622.904506	42576.317534
623.251783	42232.160482
623.599007	42026.899821
623.946179	41814.329487
624.293297	41764.885850
624.640363	41163.634992
624.987376	41178.488752
625.334336	40938.799531
625.681243	40576.627915
626.028097	40551.822917
626.374899	40400.096789
626.721647	40375.127954
627.068343	40268.515112
627.414987	40042.769723
627.761577	39815.295217
628.108115	40140.565587
628.454600	39587.616545
628.801032	39779.250967
629.147412	39756.192729
629.493739	39769.781159
629.840014	39413.311089
630.186236	39747.065720
630.532405	39361.714879
630.878521	39581.786450
631.224585	39466.926280
631.570597	39179.119246
631.916556	39337.464408
632.262462	39303.781939
632.608316	39300.784973
632.954117	39192.790855
633.299866	39188.024444
633.645562	39102.874314
633.991206	38599.696584
634.336797	38187.899850
634.682336	38193.061992
635.027823	37925.880838
635.373257	37763.245653
635.718639	37510.767024
636.063968	37373.075469
636.409245	36810.762483
636.754470	36865.827007
637.099642	36619.543956
637.444762	36158.369120
637.789829	36302.752807
638.134845	35958.963759
638.479808	35903.843783
638.824719	35822.532492
639.169577	35421.944763
639.514383	35476.820244
639.859137	35190.270977
640.203839	35445.877641
640.548489	35086.564360
640.893086	35139.496475
641.237632	34901.667440
641.582125	35006.132750
641.926566	34938.856032
642.270955	34915.218061
642.615292	34935.664981
642.959576	34897.097634
643.303809	34905.050054
643.647990	35052.511366
643.992118	35018.024832
644.336195	35020.487436
644.680219	35097.617090
645.024192	35416.281027
645.368112	35918.737872
645.711981	35926.289521
646.055797	36793.584752
646.399562	36714.748667
646.743274	37650.124681
647.086935	38111.523849
647.430544	37980.501740
647.774101	38114.689693
648.117606	38346.383645
648.461059	38646.962443
648.804460	38250.659695
649.147810	37648.209043
649.491108	37391.248828
649.834354	37045.297125
650.177548	36236.249906
650.520690	35769.796982
650.863781	35776.579854
651.206820	35640.773690
651.549807	35210.327207
651.892742	34733.499588
652.235626	34539.377357
652.578458	34407.800721
652.921238	33825.877647
653.263967	34135.475069
653.606644	33837.817620
653.949269	33775.889566
654.291843	33393.709610
654.634365	33778.634474
654.976836	33385.207704
655.319255	33392.479569
655.661622	33388.895308
656.003938	33157.735719
656.346203	33012.711805
656.688416	33246.979266
657.030577	33044.902093
657.372687	32877.167781
657.714746	33155.908301
658.056753	33270.123203
658.398708	32736.007912
658.740612	32781.615231
659.082465	33057.988929
659.424266	32882.448390
659.766016	32989.411592
660.107715	32871.559498
660.449362	33018.436036
660.790958	32982.202742
661.132503	33018.236910
661.473996	33047.475602
661.815438	33152.145080
662.156829	33339.882690
662.498168	33120.342961
662.839456	33147.335819
663.180693	33288.959474
663.521879	33452.416367
663.863013	33406.322577
664.204097	33403.207144
664.545129	33863.096486
664.886110	33838.636807
665.227040	33899.967485
665.567918	34019.382337
665.908746	34076.256635
666.249522	34252.717184
666.590248	34227.672732
666.930922	34357.137125
667.271545	34310.057789
667.612118	34404.324845
667.952639	34195.409348
668.293109	34244.598406
668.633528	34141.002695
668.973896	34053.642019
669.314213	34080.498766
669.654480	33827.805888
669.994695	33861.720251
670.334859	33751.281173
670.674973	33653.470186
671.015035	33810.411387
671.355047	33763.684932
671.695008	33716.214907
672.034918	33610.317909
672.374777	33697.471897
672.714585	33536.160015
673.054342	33766.197947
673.394049	33526.728016
673.733705	33801.249090
674.073310	33454.548775
674.412864	33533.011814
674.752368	33134.468274
675.091820	33431.722431
675.431223	33000.978520
675.770574	32730.255955
676.109875	32616.283029
676.449125	32325.219408
676.788324	32250.781731
677.127473	31713.097303
677.466571	31640.343370
677.805619	31286.212395
678.144616	31288.916974
678.483562	31230.321122
678.822458	30891.346376
679.161303	30823.099235
679.500098	30738.551523
679.838842	30617.026948
680.177535	30784.264707
680.516179	31053.792518
680.854771	31295.583900
681.193314	32155.090548
681.531805	33278.436066
681.870247	34051.585228
682.208638	34790.462106
682.546978	35019.897621
682.885268	35100.571206
683.223508	34571.161832
683.561697	34215.684868
683.899836	34047.093560
684.237925	33530.765980
684.575963	33399.138933
684.913951	32933.459826
685.251889	33099.959055
685.589776	33078.511466
685.927614	33073.099787
686.265401	33213.120356
686.603137	33323.372911
686.940824	33826.550641
687.278460	34207.258580
687.616046	34350.364334
687.953582	34968.868541
688.291068	34830.297304
688.628504	35106.459273
688.965889	35044.647166
689.303224	34629.992097
689.640510	34291.932320
689.977745	33558.119281
690.314930	32761.559000
690.652065	32236.767323
690.989150	31493.935660
691.326185	30589.179614
691.663170	29891.030218
692.000105	29141.705549
692.336990	28460.481827
692.673825	28013.782664
693.010610	27498.753181
693.347345	26926.446108
693.684030	26278.927541
694.020665	26002.868915
694.357251	25333.033160
694.693786	25290.901716
695.030272	25054.209461
695.366707	24510.218549
695.703093	24226.744386
696.039429	24211.878024
696.375716	23953.823879
696.711952	23926.435290
697.048139	23776.100521
697.384276	23588.620009
697.720363	23726.099836
698.056400	23515.341797
698.392388	23303.270537
698.728326	23264.844342
699.064214	23061.012848
699.400053	23000.760977
699.735842	22648.008757
700.071581	22364.839584
700.407270	22074.562383
700.742910	21889.947768
701.078501	21617.186057
701.414042	21339.786484
701.749533	21043.550640
702.084974	20689.409582
702.420366	20889.881147
702.755709	20456.369643
703.091002	20166.546147
703.426246	20187.895433
703.761440	20083.430122
704.096584	19825.595268
704.431679	19770.699623
704.766725	19675.005920
705.101721	19627.898858
705.436668	19707.907011
705.771565	19391.655265
706.106413	19734.151258
706.441212	19719.466377
706.775961	19845.117136
707.110661	19913.802857
707.445311	20268.584142
707.779913	20118.047726
708.114465	20361.268276
708.448967	20654.464304
708.783421	21342.549036
709.117825	21612.638936
709.452180	21839.137978
709.786485	22234.571127
710.120742	23046.373337
710.454949	23052.188308
710.789107	23527.720350
711.123216	24222.744231
711.457275	24341.612118
711.791286	24890.722321
712.125247	24952.446209
712.459159	24638.657067
712.793023	25297.180473
713.126837	24186.062275
713.460602	24436.665594
713.794318	24070.854265
714.127985	23665.232945
714.461602	22778.806535
714.795171	22742.641297
715.128691	21720.544834
715.462162	21183.566168
715.795584	20769.493352
716.128957	20502.478557
716.462281	20108.915676
716.795556	19860.283448
717.128782	19368.395382
717.461960	18825.715170
717.795088	18743.375484
718.128167	18349.716821
718.461198	17890.230771
718.794180	17753.731449
719.127113	17392.716778
719.459997	17193.656736
719.792833	16855.677617
720.125619	16822.370714
720.458357	16510.920667
720.791046	16328.456104
721.123686	16177.612178
721.456278	15940.897238
721.788821	15897.525670
722.121315	15649.339584
722.453761	15710.768564
722.786158	15645.420087
723.118506	15646.980324
723.450805	15516.779923
723.783056	15679.347052
724.115259	15574.511217
724.447412	15511.665673
724.779518	15752.814308
725.111574	15778.982938
725.443582	15983.676469
725.775542	15957.840556
726.107453	16420.076555
726.439315	16308.180583
726.771129	16696.717434
727.102895	17078.519303
727.434612	17279.089170
727.766281	17408.513233
728.097901	17660.898601
728.429473	17691.642077
728.760996	17681.831992
729.092471	17755.763034
729.423897	17637.716855
729.755276	17503.526380
730.086606	17616.148278
730.417887	18145.391294
730.749120	18651.170259
731.080305	18823.955807
731.411442	19165.194032
731.742530	19229.201562
732.073570	19329.510441
732.404562	19610.559809
732.735506	19421.022507
733.066401	19137.543303
733.397249	18614.843705
733.728048	17984.497828
734.058798	17148.558573
734.389501	16481.016543
734.720156	16009.411559
735.050762	15489.232538
735.381320	15149.675538
735.711831	14903.349638
736.042293	14558.421289
736.372707	14567.124841
736.703073	14358.481566
737.033391	14553.483479
737.363661	14519.586760
737.693883	14623.726917
738.024056	14790.205981
738.354182	14980.733870
738.684260	15261.475728
739.014290	15492.617673
739.344272	15675.248594
739.674207	15945.658607
740.004093	16076.214410
740.333931	16056.155658
740.663722	16090.342243
740.993464	16077.517548
741.323159	15900.593213
741.652806	15630.200844
741.982405	15412.614561
742.311956	15075.066462
742.641460	14952.442915
742.970915	14654.515764
743.300323	14310.769565
743.629683	14102.592597
743.958996	13826.196213
744.288260	13560.545050
744.617477	13268.669804
744.946647	13189.967310
745.275768	12914.332141
745.604842	12732.540572
745.933869	12566.706775
746.262847	12521.331349
746.591778	12445.822426
746.920662	12352.014115
747.249498	12346.725944
747.578286	12466.443266
747.907027	12607.041047
748.235720	12829.451713
748.564365	12855.721166
748.892963	12759.835899
749.221514	12819.019045
749.550017	12669.097651
749.878473	12631.972073
750.206881	12412.772622
750.535242	12317.457005
750.863555	12234.398954
751.191821	12139.458904
751.520039	12154.126141
751.848210	12066.959550
752.176334	12106.023451
752.504411	12004.068635
752.832440	11850.278155
753.160421	11912.077660
753.488356	11785.786674
753.816243	11690.418125
754.144082	11554.309492
754.471875	11500.152376
754.799620	11441.722882
755.127318	11413.197513
755.454969	11377.516227
755.782572	11331.979484
756.110129	11343.556494
756.437638	11265.983218
756.765100	11259.437280
757.092515	11258.192115
757.419882	11273.602922
757.747203	11275.538725
758.074477	11353.573266
758.401703	11306.262037
758.728882	11469.076183
759.056014	11510.726196
759.383099	11632.964095
759.710138	11727.016902
760.037129	11807.725775
760.364073	11824.028867
760.690970	11810.022021
761.017820	11809.280971
761.344623	11990.790236
761.671379	12312.395687
761.998088	12942.880195
762.324751	14489.077697
762.651366	17345.254314
762.977935	20999.997591
763.304456	23216.240057
763.630931	23677.737527
763.957359	22495.387824
764.283740	20597.572362
764.610074	18723.447802
764.936362	16600.312928
765.262602	15079.595938
765.588796	13619.082928
765.914943	12596.106784
766.241044	11751.726118
766.567097	11123.381579
766.893104	10575.508979
767.219064	10210.741169
767.544978	9833.370474
767.870845	9526.412096
768.196665	9338.200617
768.522438	9139.374989
768.848165	8975.797108
769.173846	8819.170979
769.499479	8693.447122
769.825066	8538.325778
770.150607	8356.314918
770.476101	8295.619426
770.801548	8183.821757
771.126949	8040.078296
771.452303	7952.762991
771.777611	7785.159749
772.102872	7770.066534
772.428087	7646.003738
772.753256	7533.586007
773.078378	7441.148890
773.403453	7302.718805
773.728482	7198.548402
774.053465	7129.439224
774.378401	7048.561472
774.703291	6951.725948
775.028135	6860.488625
775.352932	6814.004146
775.677683	6740.315079
776.002388	6654.842316
776.327046	6654.249980
776.651658	6561.654066
776.976224	6488.867367
777.300743	6470.086548
777.625216	6408.314769
777.949643	6361.300968
778.274024	6367.829263
778.598359	6304.262833
778.922647	6306.244007
779.246889	6263.409322
779.571086	6269.557010
779.895236	6287.090143
780.219339	6273.486589
780.543397	6281.804493
780.867409	6329.710578
781.191374	6329.350135
781.515294	6290.102232
781.839167	6340.690211
782.162995	6312.311035
782.486776	6264.709940
782.810511	6227.775927
783.134201	6147.119986
783.457844	6141.627648
783.781441	6089.333239
784.104993	6043.284819
784.428498	6015.044275
784.751958	5998.083313
785.075372	5979.625128
785.398739	5934.282470
785.722061	5960.486388
786.045337	5962.381862
786.368568	6071.255661
786.691752	6092.010092
787.014891	6339.162741
787.337983	6612.819257
787.661030	7060.667803
787.984031	7476.689024
788.306987	7745.095179
788.629897	7834.472316
788.952760	7736.038746
789.275579	7558.267497
789.598351	7265.230265
789.921078	6994.053996
790.243759	6724.342183
790.566395	6518.058168
790.888984	6325.717984
791.211529	6191.129259
791.534027	6023.825965
791.856480	5883.807917
792.178888	5826.666438
792.501249	5763.054639
792.823566	5660.641078
793.145836	5651.645139
793.468062	5632.284587
793.790241	5595.635399
794.112375	5636.292305
794.434464	5731.018106
794.756507	5764.972798
795.078505	5883.213061
795.400457	6099.506287
795.722364	6337.645354
796.044226	6535.757659
796.366042	6688.045876
796.687812	6637.530993
797.009538	6667.024264
797.331218	6576.323824
797.652852	6501.624006
797.974442	6381.531119
798.295986	6308.429347
798.617484	6184.162384
798.938938	6073.352781
799.260346	6004.682184
799.581709	5869.387697
799.903026	5817.521785
800.224299	5743.741978
800.545526	5626.434328
800.866708	5561.587446
801.187845	5513.880486
801.508936	5438.474907
801.829983	5412.686885
802.150984	5305.345596
802.471940	5282.337770
802.792851	5261.711889
803.113717	5242.253035
803.434538	5215.159353
803.755314	5180.070402
804.076045	5176.962531
804.396731	5140.837622
804.717372	5151.103932
805.037967	5157.551568
805.358518	5188.710940
805.679024	5242.154732
805.999485	5251.458182
806.319901	5273.235966
806.640272	5291.638698
806.960598	5337.651830
807.280879	5329.583463
807.601115	5361.433473
807.921306	5329.170089
808.241453	5322.646836
808.561554	5330.838711
808.881611	5293.478720
809.201623	5292.835973
809.521590	5244.904682
809.841513	5226.529676
810.161390	5247.279065
810.481223	5155.235158
810.801011	5141.936594
811.120755	5119.203511
811.440453	5061.545313
811.760107	5032.044481
812.079716	5012.210061
812.399281	4956.303665
812.718801	4951.317964
813.038276	4919.682203
813.357707	4886.027460
813.677093	4907.583434
813.996434	4843.868290
814.315731	4865.421744
814.634983	4861.804716
814.954191	4867.337382
815.273354	4924.834262
815.592473	4969.282116
815.911547	5044.909506
816.230577	5098.338175
816.549562	5185.358573
816.868502	5233.143670
817.187399	5291.164830
817.506250	5365.352971
817.825058	5395.357918
818.143821	5550.254932
818.462539	5717.752310
818.781213	5946.867711
819.099843	6307.491692
819.418429	6930.883297
819.736970	7544.926083
820.055466	8254.060153
820.373919	9175.134414
820.692327	10614.167067
821.010691	13288.526909
821.329011	19483.149687
821.647286	29043.271979
821.965517	39381.824042
822.283704	44849.797261
822.601847	46367.812192
822.919945	41765.720161
823.237999	36634.138097
823.556010	31438.135128
823.873976	26730.236839
824.191897	22533.420809
824.509775	19457.391912
824.827609	16702.068618
825.145398	15144.306710
825.463144	14399.675354
825.780845	14686.834601
826.098502	15937.562514
826.416116	18386.890289
826.733685	20681.492450
827.051210	21216.338709
827.368692	19794.428334
827.686129	17235.921770
828.003522	14752.687194
828.320872	12538.993032
828.638177	10892.554706
828.955439	9653.146704
829.272656	8590.786545
829.589830	7753.556755
829.906960	7026.360231
830.224046	6494.447924
830.541088	6084.685295
830.858086	5829.373538
831.175041	5622.197238
831.491952	5568.329989
831.808819	5597.659422
832.125642	5845.109500
832.442421	6390.280041
832.759157	7492.639235
833.075849	9257.388400
833.392497	11104.825092
833.709101	12231.422153
834.025662	11978.106693
834.342179	10926.113667
834.658653	9619.839800
834.975083	8511.902570
835.291469	7615.156918
835.607811	6880.980916
835.924110	6358.583787
836.240366	5870.272419
836.556578	5424.914203
836.872746	5072.104010
837.188871	4801.356240
837.504952	4579.764761
837.820990	4410.223195
838.136984	4294.831184
838.452935	4246.022732
838.768842	4276.287299
839.084706	4559.237182
839.400526	5294.597856
839.716303	6200.841042
840.032037	6765.593945
840.347727	6624.144209
840.663373	6019.115007
840.978977	5445.078819
841.294537	5005.656561
841.610054	4675.425696
841.925527	4434.110703
842.240957	4227.383066
842.556344	4048.107032
842.871687	3889.265316
843.186987	3741.524220
843.502244	3622.426960
843.817458	3536.331614
844.132629	3462.027527
844.447756	3418.996238
844.762840	3368.274669
845.077881	3332.439627
845.392879	3292.551497
845.707833	3272.190276
846.022745	3243.314547
846.337613	3236.718197
846.652438	3211.973694
846.967221	3204.807693
847.281960	3183.148376
847.596656	3170.827796
847.911309	3162.189779
848.225919	3148.487923
848.540485	3138.597179
848.855009	3130.370016
849.169490	3121.179992
849.483928	3113.489712
849.798323	3106.275821
850.112675	3094.600509
850.426984	3095.817947
850.741251	3090.431474
851.055474	3086.280084
851.369654	3087.913418
851.683792	3085.533993
851.997887	3090.892740
852.311938	3088.762852
852.625947	3089.753439
852.939914	3082.058118
853.253837	3087.079107
853.567718	3086.436360
853.881555	3076.790112
854.195350	3084.472831
854.509103	3082.721030
854.822812	3079.308168
855.136479	3075.287848
855.450103	3079.587953
855.763685	3073.455389
856.077224	3075.255081
856.390720	3079.391348
856.704173	3093.441043
857.017584	3100.004626
857.330953	3101.053186
857.644278	3113.829990
857.957561	3114.528190
858.270802	3112.186574
858.584000	3111.402674
858.897155	3106.706840
859.210268	3095.886003
859.523339	3079.439238
859.836367	3081.503591
860.149352	3077.402612
860.462295	3071.075964
860.775195	3064.744275
861.088054	3057.721948
861.400869	3059.168759
861.713642	3051.846483
862.026373	3065.782753
862.339062	3070.347518
862.651708	3078.617530
862.964312	3095.906168
863.276873	3103.198197
863.589392	3134.864204
863.901869	3161.541991
864.214303	3179.274249
864.526696	3198.206302
864.839045	3216.891339
865.151353	3230.212588
865.463619	3231.896334
865.775842	3231.926581
866.088023	3236.927405
866.400162	3228.725448
866.712258	3230.671333
867.024313	3231.634194
867.336325	3225.904922
867.648296	3230.252917
867.960224	3226.943400
868.272110	3229.272413
868.583954	3229.768967
868.895755	3238.018815
869.207515	3233.706108
869.519233	3253.769900
869.830909	3258.049840
870.142542	3270.718259
870.454134	3275.366203
870.765684	3290.658543
871.077191	3306.437355
871.388657	3320.991166
871.700081	3334.322498
872.011463	3357.400900
872.322803	3378.077192
872.634101	3395.224677
872.945357	3415.764858
873.256571	3442.488015
873.567744	3458.856642
873.878874	3464.810244
874.189963	3479.275835
874.501010	3482.434118
874.812015	3478.600321
875.122979	3494.164883
875.433900	3493.882578
875.744780	3495.788135
876.055618	3505.988909
876.366415	3502.568487
876.677169	3505.278107
876.987882	3525.571272
877.298554	3544.490722
877.609183	3583.789037
877.919771	3630.727220
878.230317	3696.685677
878.540822	3801.844146
878.851285	3953.366107
879.161707	4172.386598
879.472087	4548.260070
879.782425	5174.872973
880.092722	6355.488518
880.402977	8290.729506
880.713191	10661.712710
881.023363	13061.385119
881.333494	14404.769440
881.643583	14872.046593
881.953631	14470.160768
882.263637	13620.945635
882.573602	12583.357706
882.883526	11622.065120
883.193408	10665.060036
883.503248	9739.637780
883.813048	8913.064990
884.122806	8149.030233
884.432522	7384.322483
884.742197	6714.683333
885.051831	6149.423793
885.361424	5660.459596
885.670975	5257.263070
885.980485	4931.420530
886.289954	4667.032175
886.599382	4450.577632
886.908768	4269.413686
887.218113	4107.262452
887.527417	3972.467039
887.836680	3853.415150
888.145901	3749.864809
888.455082	3676.642049
888.764221	3605.584465
889.073319	3548.740415
889.382376	3511.667769
889.691392	3491.004080
890.000366	3480.503356
890.309300	3475.250474
890.618193	3479.404385
890.927044	3476.994713
891.235855	3479.739621
891.544625	3497.194617
891.853353	3523.199409
892.162041	3583.620158
892.470687	3675.956452
892.779293	3796.281233
893.087858	3965.933704
893.396381	4248.886108
893.704864	4657.574971
894.013306	5228.836004
894.321707	5804.513088
894.630068	6160.388302
894.938387	6212.249173
895.246665	6027.364855
895.554903	5710.954314
895.863100	5371.286409
896.171256	5096.568730
896.479371	4863.508626
896.787446	4635.240138
897.095480	4439.315694
897.403473	4285.958753
897.711425	4141.554901
898.019336	4019.470758
898.327207	3895.622211
898.635038	3794.988177
898.942827	3683.462731
899.250576	3599.643466
899.558284	3516.025847
899.865952	3462.640028
900.173579	3397.800707
900.481165	3352.531145
900.788711	3308.728559
901.096216	3278.416101
901.403681	3249.205135
901.711105	3235.563773
902.018489	3235.541088
902.325832	3267.801952
902.633135	3324.290601
902.940397	3495.962054
903.247619	3899.284609
903.554800	4657.353160
903.861941	5627.059431
904.169041	6331.250650
904.476101	6547.848867
904.783121	6273.622700
905.090100	5865.548858
905.397039	5448.229540
905.703938	5086.791412
906.010796	4763.555148
906.317614	4510.214482
906.624391	4272.115745
906.931129	4072.934715
907.237826	3894.835791
907.544483	3723.038309
907.851099	3552.329716
908.157675	3391.837022
908.464211	3249.938623
908.770707	3147.918272
909.077163	3069.170408
909.383578	3007.781757
909.689954	2965.277268
909.996289	2931.221754
910.302584	2913.393713
910.608839	2898.265210
910.915054	2888.553428
911.221229	2885.871534
911.527363	2887.920763
911.833458	2890.753891
912.139513	2906.535223
912.445527	2921.477203
912.751502	2956.679581
913.057436	2997.795231
913.363331	3054.883778
913.669186	3144.119763
913.975000	3259.015221
914.280775	3448.718881
914.586510	3716.570508
914.892205	4092.633024
915.197859	4592.907049
915.503475	5182.956463
915.809050	5679.830230
916.114585	5973.822760
916.420081	6040.330703
916.725536	5976.139171
917.030952	5734.879630
917.336328	5527.710892
917.641665	5315.352286
917.946961	5086.209159
918.252218	4878.974886
918.557435	4656.491122
918.862612	4455.230617
919.167750	4282.034215
919.472848	4090.036829
919.777906	3925.007097
920.082925	3765.573044
920.387904	3606.325515
920.692843	3499.057323
920.997743	3399.033269
921.302603	3304.478867
921.607423	3240.355390
921.912204	3174.321316
922.216946	3124.940693
922.521647	3077.110225
922.826310	3031.631456
923.130932	2998.014522
923.435516	2956.540949
923.740059	2928.045827
924.044564	2894.237328
924.349028	2870.596838
924.653454	2843.669514
924.957840	2816.885864
925.262186	2797.676547
925.566493	2775.324071
925.870761	2750.919845
926.174989	2739.025243
926.479178	2726.326576
926.783328	2709.196735
927.087438	2697.912112
927.391509	2682.168589
927.695541	2671.083092
927.999533	2661.313336
928.303486	2655.231183
928.607400	2648.065183
928.911275	2644.430511
929.215110	2634.045734
929.518906	2633.176135
929.822663	2632.651855
930.126381	2632.097328
930.430060	2633.357617
930.733699	2635.394243
931.037299	2641.914976
931.340861	2642.787095
931.644383	2640.742907
931.947866	2643.182826
932.251309	2639.525469
932.554714	2638.300468
932.858080	2635.336270
933.161407	2631.832668
933.464694	2630.985754
933.767943	2627.371247
934.071153	2620.595936
934.374323	2615.398506
934.677455	2619.605349
934.980548	2613.694596
935.283602	2610.783330
935.586617	2609.185284
935.889593	2611.995727
936.192530	2613.044287
936.495428	2617.878754
936.798287	2628.838223
937.101108	2642.189718
937.403890	2665.056392
937.706632	2690.163859
938.009336	2720.632593
938.312002	2756.331524
938.614628	2777.431273
938.917216	2798.460447
939.219765	2803.715849
939.522275	2813.077272
939.824747	2816.507777
940.127179	2809.707261
940.429573	2804.726601
940.731929	2801.722073
941.034246	2791.785959
941.336524	2790.906277
941.638763	2783.609207
941.940964	2777.320368
942.243126	2761.987698
942.545250	2750.614855
942.847335	2733.462329
943.149381	2727.428068
943.451389	2708.359904
943.753359	2696.465301
944.055290	2688.928776
944.357182	2680.321006
944.659036	2675.645336
944.960851	2669.023780
945.262628	2669.890859
945.564367	2667.498831
945.866067	2666.530930
946.167729	2665.923471
946.469352	2665.424397
946.770937	2660.663027
947.072484	2655.636996
947.373992	2655.362253
947.675462	2650.613487
947.976893	2645.867240
948.278286	2641.635192
948.579641	2639.243164
948.880958	2635.956332
949.182236	2636.004223
949.483476	2634.285189
949.784678	2630.900054
950.085841	2632.455250
950.386967	2636.301651
950.688054	2644.276756
950.989103	2650.588281
951.290114	2658.830567
951.591087	2669.888338
951.892021	2682.055163
952.192917	2694.703418
952.493776	2705.100798
952.794596	2708.117928
953.095378	2711.150182
953.396122	2711.248485
953.696828	2703.028884
953.997496	2701.821527
954.298126	2689.569003
954.598718	2682.589525
954.899272	2669.356497
955.199788	2663.123110
955.500266	2648.476037
955.800706	2632.384674
956.101108	2614.879267
956.401472	2603.478698
956.701798	2592.710793
957.002087	2575.197825
957.302337	2566.958059
957.602550	2555.486913
957.902724	2545.696993
958.202861	2537.865560
958.502960	2528.647810
958.803022	2519.291429
959.103045	2513.574760
959.403031	2506.623009
959.702979	2503.706702
960.002889	2496.865856
960.302762	2492.606081
960.602596	2487.756491
960.902393	2485.896305
961.202153	2478.500933
961.501875	2477.454893
961.801559	2478.110243
962.101205	2472.363328
962.400814	2473.290900
962.700385	2470.528348
962.999918	2469.494911
963.299414	2467.952318
963.598873	2464.325208
963.898293	2462.671709
964.197677	2460.879579
964.497022	2458.817747
964.796331	2458.706842
965.095601	2457.693570
965.394835	2461.766822
965.694030	2457.570062
965.993189	2458.404373
966.292309	2454.731892
966.591393	2458.527881
966.890439	2456.960082
967.189447	2457.552418
967.488419	2455.162911
967.787353	2458.364043
968.086249	2454.852880
968.385108	2458.124589
968.683930	2457.131481
968.982714	2457.950669
969.281462	2462.008798
969.580172	2460.582151
969.878844	2463.894189
970.177480	2464.173973
970.476078	2468.479119
970.774639	2472.887608
971.073162	2477.134780
971.371649	2476.721405
971.670098	2474.077320
971.968510	2479.622589
972.266885	2475.577063
972.565223	2483.428660
972.863524	2481.732312
973.161788	2485.792962
973.460014	2486.566779
973.758204	2486.909577
974.056356	2488.154742
974.354471	2486.869248
974.652550	2487.620380
974.950591	2488.159783
975.248595	2486.526449
975.546563	2486.072746
975.844493	2484.459576
976.142386	2482.498568
976.440243	2479.068062
976.738062	2479.090747
977.035845	2474.024388
977.333590	2472.988431
977.631299	2472.277628
977.928971	2468.743779
978.226606	2468.406022
978.524204	2466.684468
978.821765	2468.290075
979.119290	2466.006433
979.416777	2464.592389
979.714228	2465.519961
980.011642	2465.711525
980.309020	2470.039356
980.606360	2473.353914
980.903664	2480.449338
981.200931	2496.495331
981.498162	2517.048115
981.795356	2545.646581
982.092513	2582.961202
982.389633	2626.410907
982.686717	2672.789522
982.983764	2702.363451
983.280775	2724.229456
983.577749	2721.088817
983.874686	2709.993238
984.171587	2696.515713
984.468451	2678.165913
984.765279	2661.139416
985.062070	2642.827424
985.358824	2623.194651
985.655543	2602.021805
985.952224	2581.610173
986.248869	2550.715461
986.545478	2523.281502
986.842050	2506.277690
987.138586	2485.208188
987.435086	2473.374079
987.731549	2462.775053
988.027975	2457.358333
988.324366	2449.572271
988.620719	2446.829883
988.917037	2442.746549
989.213318	2437.029880
989.509563	2434.526948
989.805772	2436.177925
990.101944	2437.473502
990.398080	2435.278079
990.694180	2432.918819
990.990244	2432.888573
991.286271	2433.254056
991.582262	2430.506627
991.878217	2432.031576
992.174136	2435.996444
992.470019	2436.901331
992.765865	2438.277566
993.061676	2438.736311
993.357450	2442.154213
993.653188	2442.255036
993.948890	2451.951696
994.244556	2455.493106
994.540186	2467.712863
994.835780	2476.222331
995.131337	2493.631956
995.426859	2505.561846
995.722345	2531.254087
996.017795	2545.664225
996.313208	2562.428582
996.608586	2571.734552
996.903928	2574.713874
997.199234	2569.670200
997.494504	2570.859912
997.789738	2564.523182
998.084936	2554.461039
998.380099	2541.356559
998.675225	2529.706453
998.970316	2516.833866
999.265371	2503.568070
999.560390	2490.307315
999.855373	2475.428349
1000.150320	2467.906948
1000.445232	2457.726337
1000.740108	2451.180399
1001.034948	2444.470623
1001.329752	2441.922320
1001.624521	2438.272525
1001.919254	2425.667120
1002.213951	2429.420259
1002.508613	2424.772315
1002.803239	2424.989084
1003.097829	2418.896850
1003.392384	2422.060174
1003.686903	2420.709145
1003.981386	2419.917684
1004.275834	2420.048754
1004.570246	2422.496234
1004.864623	2418.304514
1005.158964	2414.115316
1005.453270	2417.157652
1005.747540	2417.535738
1006.041775	2418.581778
1006.335974	2414.498443
1006.630138	2414.934503
1006.924266	2413.603638
1007.218359	2413.709503
1007.512416	2412.943247
1007.806438	2411.647671
1008.100425	2414.241344
1008.394376	2412.474420
1008.688292	2413.175140
1008.982172	2412.015675
1009.276017	2411.272105
1009.569827	2414.412744
1009.863602	2411.975346
1010.157341	2410.891498
1010.451045	2411.025088
1010.744714	2412.479461
1011.038347	2410.798236
1011.331945	2410.599111
1011.625508	2408.915365
1011.919036	2410.533576
1012.212528	2407.864285
1012.505986	2410.573905
1012.799408	2408.565005
1013.092795	2408.381003
1013.386147	2409.089285
1013.679464	2409.890829
1013.972745	2407.917217
1014.265992	2408.391085
1014.559204	2411.110788
1014.852380	2406.924110
1015.145521	2406.122566
1015.438628	2406.845972
1015.731699	2406.276321
1016.024736	2409.452248
1016.317737	2408.426373
1016.610703	2408.111301
1016.903635	2407.765982
1017.196531	2408.849830
1017.489393	2406.165416
1017.782219	2407.410581
1018.075011	2410.004255
1018.367768	2410.662125
1018.660490	2410.823442
1018.953177	2410.823442
1019.245829	2410.823442
