Dividing Wavelength (nm)	Counts (n)	Blue Motor Position (mm): 9.000000	Red Motor Position (mm): 0.000000	
326.493990	1977.279170
326.888308	1977.279170
327.282561	1977.279170
327.676750	1952.103648
328.070874	1954.873762
328.464933	1959.675461
328.858929	1967.907665
329.252859	1980.389562
329.646726	1994.204844
330.040528	2011.022133
330.434265	2027.950328
330.827938	2047.991435
331.221547	2067.843499
331.615091	2088.350913
332.008571	2109.808584
332.401986	2130.666358
332.795338	2150.228556
333.188625	2169.155568
333.581847	2191.286233
333.975006	2206.203008
334.368100	2222.042313
334.761129	2241.528893
335.154095	2255.568507
335.546996	2281.149842
335.939833	2317.395738
336.332606	2328.040134
336.725315	2340.433811
337.117960	2347.980418
337.510540	2355.741275
337.903056	2365.639580
338.295508	2371.774664
338.687896	2380.032074
339.080220	2387.326624
339.472480	2391.016749
339.864676	2395.831051
340.256807	2396.683006
340.648875	2398.875908
341.040879	2399.841288
341.432818	2401.225085
341.824694	2403.387740
342.216506	2405.376475
342.608253	2403.473440
342.999937	2401.681310
343.391557	2397.262738
343.783113	2400.186608
344.174605	2396.141082
344.566033	2396.264590
344.957397	2394.633777
345.348697	2392.476163
345.739934	2394.109497
346.131106	2386.557848
346.522215	2387.989536
346.913260	2387.485420
347.304241	2383.908722
347.695159	2384.884185
348.086012	2381.032743
348.476802	2379.399410
348.867528	2379.041488
349.258191	2375.946219
349.648789	2375.111908
350.039324	2374.317927
350.429796	2374.852289
350.820203	2373.914634
351.210548	2374.020498
351.600828	2369.662421
351.991045	2371.507483
352.381198	2369.987575
352.771288	2371.041177
353.161314	2369.982534
353.551276	2370.448841
353.941175	2370.844572
354.331010	2371.951105
354.720782	2372.503111
355.110490	2370.930271
355.500135	2373.097967
355.889717	2370.806763
356.279235	2373.002185
356.668689	2372.740045
357.058080	2370.403471
357.447408	2370.753831
357.836672	2369.251567
358.225873	2368.986906
358.615010	2367.845085
359.004084	2373.581918
359.393095	2375.212731
359.782043	2374.232227
360.170927	2376.558719
360.559748	2375.711806
360.948505	2375.537886
361.337199	2375.807588
361.725830	2375.837834
362.114398	2379.961498
362.502903	2378.229862
362.891344	2377.577033
363.279722	2378.413864
363.668037	2379.711961
364.056289	2379.769934
364.444478	2379.986704
364.832603	2379.243134
365.220665	2381.521735
365.608665	2383.084493
365.996601	2378.991076
366.384474	2380.337064
366.772284	2382.963505
367.160031	2379.364122
367.547715	2382.025851
367.935336	2382.212373
368.322893	2383.376880
368.710388	2382.023330
369.097820	2387.314021
369.485189	2382.066180
369.872495	2385.005173
370.259738	2383.124822
370.646918	2387.911398
371.034035	2385.839484
371.421090	2384.289329
371.808081	2385.670605
372.195010	2386.648589
372.581875	2384.571633
372.968678	2386.956099
373.355418	2387.127498
373.742096	2385.814278
374.128710	2388.748229
374.515262	2387.187992
374.901751	2388.095400
375.288177	2387.555997
375.674540	2387.687067
376.060841	2389.335524
376.447079	2388.060112
376.833254	2388.150853
377.219367	2383.485265
377.605417	2388.463404
377.991404	2384.158259
378.377329	2385.668084
378.763191	2385.786552
379.148991	2390.779814
379.534727	2390.215205
379.920402	2390.298384
380.306013	2390.396687
380.691563	2389.953065
381.077049	2393.076060
381.462474	2390.061450
381.847835	2390.348796
382.233134	2393.749054
382.618371	2391.903992
383.003545	2390.968858
383.388657	2391.394835
383.773706	2395.478170
384.158693	2392.405587
384.543618	2391.180586
384.928480	2394.306102
385.313280	2391.150339
385.698017	2392.125802
386.082692	2394.608571
386.467305	2394.588406
386.851856	2395.304250
387.236344	2396.771226
387.620770	2393.965824
388.005133	2394.729558
388.389435	2392.198899
388.773674	2395.042110
389.157851	2399.105280
389.541965	2393.413817
389.926018	2397.177039
390.310008	2395.251318
390.693936	2397.091339
391.077802	2398.528068
391.461606	2396.907337
391.845348	2398.313819
392.229027	2396.826678
392.612645	2395.868859
392.996200	2400.045455
393.379694	2397.116545
393.763125	2398.172667
394.146494	2398.366751
394.529801	2396.564538
394.913047	2398.828017
395.296230	2398.250804
395.679351	2401.353635
396.062410	2397.676113
396.445408	2397.986144
396.828343	2400.002605
397.211217	2396.405742
397.594028	2396.438510
397.976778	2395.097563
398.359466	2399.551422
398.742092	2395.946997
399.124656	2401.668707
399.507158	2402.034190
399.889598	2400.025291
400.271977	2400.358007
400.654294	2402.198028
401.036549	2400.859602
401.418742	2401.250291
401.800874	2402.031670
402.182944	2402.104767
402.564952	2400.365568
402.946898	2402.389592
403.328783	2403.249108
403.710606	2402.966804
404.092367	2402.185425
404.474067	2403.796074
404.855705	2403.594427
405.237282	2405.769685
405.618797	2401.267935
406.000250	2402.659293
406.381642	2400.783984
406.762972	2401.998902
407.144240	2404.879922
407.525447	2405.021074
407.906593	2402.989489
408.287677	2406.586352
408.668700	2403.924623
409.049661	2406.256157
409.430560	2407.108112
409.811399	2408.290262
410.192176	2405.754562
410.572891	2406.339336
410.953545	2405.706671
411.334138	2403.899417
411.714669	2403.576783
412.095139	2407.211455
412.475547	2403.841444
412.855894	2406.563667
413.236180	2403.997720
413.616405	2409.101888
413.996568	2407.481157
414.376670	2407.042577
414.756711	2407.977711
415.136691	2406.107443
415.516609	2405.862947
415.896466	2406.926630
416.276262	2406.644326
416.655997	2405.051321
417.035670	2405.610889
417.415283	2406.793040
417.794834	2404.955539
418.174324	2405.804973
418.553753	2407.556774
418.933121	2408.927968
419.312428	2408.459141
419.691674	2409.636250
420.070859	2408.945612
420.449983	2410.339491
420.829045	2409.910993
421.208047	2406.331774
421.586988	2410.732701
421.965867	2408.781775
422.344686	2409.600962
422.723444	2411.360325
423.102141	2409.928637
423.480777	2405.298338
423.859352	2410.014337
424.237866	2411.357804
424.616319	2409.316137
424.994712	2408.728843
425.373044	2414.178330
425.751314	2410.440314
426.129524	2409.157341
426.507673	2411.579615
426.885762	2409.608524
427.263789	2409.283370
427.641756	2412.502146
428.019662	2411.095664
428.397508	2411.831673
428.775292	2413.185223
429.153016	2410.294121
429.530679	2413.762435
429.908282	2412.262692
430.285824	2411.914852
430.663305	2413.510377
431.040726	2409.905952
431.418086	2411.660274
431.795385	2413.026426
432.172624	2412.328227
432.549802	2413.263361
432.926920	2411.335119
433.303977	2414.994997
433.680974	2413.964081
434.057910	2412.625655
434.434786	2411.703123
434.811601	2414.049781
435.188355	2412.459297
435.565050	2413.835532
435.941683	2413.185223
436.318257	2411.279667
436.694770	2409.164903
437.071222	2412.285377
437.447614	2411.249420
437.823946	2412.509708
438.200218	2412.444173
438.576429	2414.775707
438.952580	2415.055491
439.328670	2412.305541
439.704700	2414.014492
440.080670	2412.822260
440.456580	2415.289904
440.832429	2411.950140
441.208218	2413.429719
441.583947	2417.747467
441.959616	2415.005079
442.335224	2414.879050
442.710773	2416.199833
443.086261	2414.435429
443.461689	2414.158165
443.837057	2414.616910
444.212365	2412.870151
444.587612	2417.520615
444.962800	2415.269740
445.337927	2414.695048
445.712995	2416.829977
446.088002	2417.991963
446.462949	2414.130439
446.837837	2415.955337
447.212664	2414.909297
447.587431	2415.486509
447.962139	2419.239648
448.336786	2414.944585
448.711374	2418.327200
449.085901	2415.557086
449.460369	2414.039698
449.834776	2418.107909
450.209124	2415.322672
450.583412	2416.262847
450.957640	2417.586150
451.331808	2418.584298
451.705917	2418.407858
452.079965	2418.821233
452.453954	2416.832498
452.827883	2418.216294
453.201752	2420.290729
453.575562	2419.269895
453.949311	2418.881727
454.323001	2419.436253
454.696632	2417.470203
455.070202	2420.250400
455.443713	2417.024061
455.817164	2417.208063
456.190556	2416.111612
456.563888	2419.889957
456.937160	2414.659760
457.310373	2421.626635
457.683526	2418.793506
458.056619	2420.441964
458.429653	2418.566654
458.802628	2419.683270
459.175542	2419.595050
459.548398	2420.953641
459.921194	2419.726120
460.293930	2424.623601
460.666607	2424.535381
461.039224	2421.326686
461.411782	2425.175607
461.784280	2423.164187
462.156719	2423.136460
462.529099	2421.329207
462.901419	2424.860535
463.273680	2423.703590
463.645882	2422.871800
464.018024	2425.394897
464.390106	2427.028231
464.762130	2426.536719
465.134094	2428.764909
465.505999	2430.688109
465.877845	2431.376226
466.249631	2429.090063
466.621358	2430.063006
466.993026	2436.220775
467.364634	2433.062492
467.736184	2432.565939
468.107674	2426.219126
468.479105	2431.759354
468.850477	2428.381781
469.221790	2429.384971
469.593043	2426.884558
469.964238	2428.313725
470.335373	2428.656524
470.706449	2428.873293
471.077467	2427.403797
471.448425	2434.446289
471.819324	2432.281113
472.190164	2434.116093
472.560945	2432.006371
472.931667	2431.464447
473.302330	2433.392688
473.672934	2429.412697
474.043479	2429.301792
474.413965	2428.119641
474.784393	2427.355906
475.154761	2427.965886
475.525070	2425.641914
475.895321	2428.840526
476.265513	2423.711152
476.635645	2430.342790
477.005719	2429.911771
477.375734	2432.114755
477.745691	2431.671134
478.115588	2432.833120
478.485427	2433.619540
478.855207	2435.575507
479.224928	2434.012750
479.594591	2436.447627
479.964194	2436.520724
480.333739	2439.850406
480.703226	2434.836978
481.072653	2438.355704
481.442022	2436.734973
481.811333	2438.489294
482.180584	2436.036773
482.549777	2439.056424
482.918912	2434.418563
483.287988	2437.559202
483.657005	2436.790426
484.025964	2438.832093
484.394864	2435.275559
484.763706	2438.368307
485.132489	2434.748758
485.501213	2436.036773
485.869879	2434.899993
486.238487	2440.767896
486.607036	2435.182298
486.975527	2437.360076
487.343959	2440.770417
487.712333	2437.488625
488.080648	2436.225816
488.448905	2435.144489
488.817104	2435.857812
489.185244	2436.424942
489.553326	2439.202618
489.921350	2439.381579
490.289315	2440.720005
490.657222	2442.814604
491.025070	2440.157916
491.392861	2442.121446
491.760593	2439.734459
492.128267	2441.710592
492.495883	2441.284614
492.863440	2439.711774
493.230939	2436.666917
493.598380	2438.632967
493.965763	2435.673810
494.333088	2436.656835
494.700354	2432.878490
495.067563	2433.168357
495.434713	2431.976124
495.801805	2436.719849
496.168839	2434.811773
496.535815	2437.967535
496.902733	2436.351845
497.269593	2441.166147
497.636395	2439.106836
498.003139	2437.917123
498.369825	2438.607762
498.736453	2437.556681
499.103023	2434.983172
499.469535	2437.413008
499.835989	2436.767740
500.202385	2437.165992
500.568723	2437.256732
500.935003	2438.731270
501.301226	2440.440221
501.667390	2441.894594
502.033497	2440.326795
502.399546	2440.044490
502.765537	2439.240426
503.131470	2440.195725
503.497345	2441.392999
503.863163	2440.140272
504.228923	2437.695313
504.594625	2441.922320
504.960269	2440.780499
505.325856	2444.846189
505.691385	2445.110850
506.056856	2445.597321
506.422270	2444.321909
506.787625	2447.795264
507.152924	2447.999431
507.518164	2448.019596
507.883347	2449.650409
508.248472	2451.271140
508.613540	2448.342230
508.978550	2453.849690
509.343503	2451.293825
509.708398	2455.132664
510.073236	2451.772735
510.438016	2456.627366
510.802738	2454.328600
511.167403	2459.755402
511.532010	2458.870679
511.896561	2463.256483
512.261053	2463.127934
512.625488	2459.311780
512.989866	2460.753550
513.354186	2464.274796
513.718449	2461.729014
514.082655	2472.678400
514.446803	2471.057669
514.810894	2474.039511
515.174927	2475.098154
515.538904	2477.346508
515.902822	2475.534213
516.266684	2482.390183
516.630488	2483.322796
516.994235	2482.012096
517.357925	2488.119454
517.721558	2489.074753
518.085133	2488.747078
518.448651	2490.975268
518.812112	2491.890237
519.175516	2498.347955
519.538863	2496.318891
519.902152	2496.994405
520.265385	2502.161588
520.628560	2502.340549
520.991678	2506.423884
521.354739	2506.842299
521.717743	2507.810201
522.080690	2514.227590
522.443580	2514.847652
522.806413	2518.313445
523.169189	2519.059536
523.531908	2521.396111
523.894569	2525.353416
524.257174	2525.771832
524.619722	2527.768129
524.982213	2530.089580
525.344647	2533.757020
525.707025	2537.923533
526.069345	2537.731970
526.431608	2540.239944
526.793815	2540.330684
527.155964	2544.620706
527.518057	2546.140614
527.880093	2549.334185
528.242072	2551.607746
528.603995	2553.160421
528.965860	2554.082952
529.327669	2556.210319
529.689421	2557.357182
530.051117	2560.356668
530.412755	2562.983109
530.774337	2565.002091
531.135862	2567.099211
531.497331	2566.340518
531.858743	2564.886145
532.220098	2572.115159
532.581396	2567.938563
532.942638	2571.585838
533.303824	2573.902248
533.664953	2575.825449
534.026025	2576.453072
534.387040	2583.989597
534.747999	2581.426171
535.108902	2587.727613
535.469748	2587.021851
535.830537	2586.883220
536.191270	2588.319948
536.551947	2589.683581
536.912567	2590.759867
537.273131	2595.725403
537.633638	2594.200454
537.994089	2595.480908
538.354483	2597.129365
538.714821	2600.118769
539.075103	2602.321753
539.435328	2601.946187
539.795497	2604.688575
540.155609	2606.533637
540.515665	2608.822321
540.875665	2609.785182
541.235609	2611.073196
541.595496	2608.592949
541.955328	2615.731222
542.315102	2615.360698
542.674821	2614.740636
543.034483	2617.465379
543.394090	2615.796757
543.753640	2618.806326
544.113134	2624.346554
544.472571	2622.740947
544.831953	2626.481483
545.191278	2624.817902
545.550548	2624.268417
545.909761	2627.376288
546.268918	2628.258490
546.628019	2634.320477
546.987064	2630.499283
547.346053	2630.174128
547.704986	2631.363841
548.063863	2630.441309
548.422684	2633.317288
548.781449	2632.072123
549.140158	2637.267032
549.498811	2635.598410
549.857408	2631.182359
550.215949	2636.616723
550.574434	2633.002216
550.932864	2635.081692
551.291237	2636.178142
551.649555	2639.384316
552.007817	2639.573360
552.366022	2639.197794
552.724173	2637.645118
553.082267	2643.336581
553.440305	2641.630150
553.798288	2639.021353
554.156215	2639.500263
554.514086	2642.371200
554.871902	2637.846764
555.229661	2639.543113
555.587365	2639.444810
555.945014	2641.899852
556.302606	2639.379275
556.660143	2642.212404
557.017625	2640.868936
557.375050	2638.260139
557.732421	2641.052938
558.089735	2642.356077
558.446994	2640.833648
558.804197	2640.160654
559.161345	2641.509163
559.518437	2639.533030
559.875474	2637.390540
560.232455	2635.323667
560.589381	2637.940026
560.946251	2637.851806
561.303065	2640.563946
561.659825	2638.862557
562.016528	2638.575211
562.373177	2637.642598
562.729770	2635.001033
563.086307	2634.670837
563.442789	2635.346352
563.799216	2638.928092
564.155587	2632.654376
564.511904	2634.920375
564.868164	2633.501290
565.224370	2634.743934
565.580520	2634.300313
565.936615	2637.108235
566.292654	2634.232257
566.648638	2634.905251
567.004567	2633.130765
567.360441	2638.928092
567.716260	2637.750982
568.072023	2635.706795
568.427732	2631.648666
568.783385	2632.750158
569.138982	2633.960035
569.494525	2631.401649
569.850013	2630.285034
570.205445	2633.208903
570.560823	2634.743934
570.916145	2634.025570
571.271412	2637.146044
571.626625	2634.733852
571.981782	2634.930457
572.336884	2636.031949
572.691931	2637.710653
573.046923	2634.010446
573.401860	2635.989099
573.756743	2638.981024
574.111570	2639.016312
574.466342	2639.447331
574.821059	2640.183339
575.175722	2639.248205
575.530330	2638.098822
575.884882	2643.787764
576.239380	2643.848258
576.593823	2644.291880
576.948211	2643.407157
577.302544	2643.409678
577.656823	2644.337250
578.011047	2648.223980
578.365216	2648.909577
578.719330	2652.307314
579.073389	2653.260092
579.427394	2657.262768
579.781344	2657.088849
580.135239	2656.637665
580.489080	2659.674961
580.842866	2660.446257
581.196597	2665.588234
581.550273	2672.008143
581.903895	2673.984276
582.257463	2679.635409
582.610975	2683.630524
582.964434	2687.590350
583.317837	2689.170752
583.671186	2695.197451
584.024481	2698.481763
584.377721	2702.071064
584.730906	2708.911910
585.084037	2707.850747
585.437113	2713.199412
585.790135	2716.483723
586.143103	2719.475648
586.496016	2724.910012
586.848874	2729.164746
587.201679	2735.314953
587.554428	2736.028277
587.907124	2745.044380
588.259765	2749.039495
588.612352	2761.639859
588.964884	2762.201947
589.317362	2774.174688
589.669786	2780.637447
590.022155	2784.045267
590.374470	2796.350724
590.726731	2799.519089
591.078937	2801.084367
591.431090	2804.905562
591.783188	2806.281797
592.135232	2813.730102
592.487222	2827.489931
592.839157	2833.584686
593.191038	2836.322032
593.542866	2845.075996
593.894639	2846.275791
594.246358	2855.395238
594.598022	2866.397556
594.949633	2869.949049
595.301190	2874.362579
595.652692	2882.496481
596.004141	2894.562483
596.355535	2889.864127
596.706876	2895.212792
597.058162	2902.499780
597.409395	2918.906215
597.760573	2928.406269
598.111698	2930.579007
598.462768	2938.365069
598.813785	2952.714713
599.164748	2949.871502
599.515657	2966.968576
599.866511	2972.201293
600.217312	2990.225939
600.568060	2987.866679
600.918753	3009.793178
601.269392	3020.046884
601.619978	3027.961496
601.970510	3038.512631
602.320988	3054.498130
602.671412	3072.537899
603.021783	3080.898653
603.372100	3086.096082
603.722363	3099.601333
604.072572	3112.831842
604.422728	3130.780870
604.772830	3134.012249
605.122878	3151.038747
605.472872	3164.052485
605.822813	3180.453879
606.172701	3193.616332
606.522534	3214.748849
606.872314	3233.189390
607.222041	3245.283118
607.571714	3268.868156
607.921333	3272.575925
608.270899	3298.182466
608.620411	3318.021927
608.969870	3333.430213
609.319276	3350.686083
609.668627	3372.113507
610.017926	3400.071747
610.367171	3424.508740
610.716362	3445.578242
611.065500	3467.582879
611.414585	3489.988287
611.763616	3521.308976
612.112594	3540.462840
612.461518	3569.414187
612.810389	3601.460802
613.159207	3619.034264
613.507971	3646.516114
613.856682	3685.058256
614.205340	3704.433931
614.553945	3753.628030
614.902496	3762.061881
615.250994	3798.668219
615.599439	3833.318590
615.947830	3870.096328
616.296169	3897.772263
616.644454	3936.876493
616.992686	3980.031291
617.340864	4033.896020
617.688990	4057.496181
618.037063	4113.964666
618.385082	4154.303979
618.733048	4203.046896
619.080961	4233.455136
619.428821	4268.418058
619.776628	4300.986433
620.124382	4322.610462
620.472083	4351.748331
620.819731	4383.273187
621.167326	4392.874064
621.514868	4414.583793
621.862357	4411.647321
622.209793	4439.303091
622.557176	4440.187814
622.904506	4445.894400
623.251783	4447.774750
623.599007	4460.319662
623.946179	4471.397597
624.293297	4491.806709
624.640363	4493.490454
624.987376	4520.485833
625.334336	4531.846073
625.681243	4542.866035
626.028097	4567.940735
626.374899	4591.707254
626.721647	4617.303713
627.068343	4648.601717
627.414987	4667.276671
627.761577	4684.666131
628.108115	4738.064553
628.454600	4741.563114
628.801032	4783.631543
629.147412	4817.566070
629.493739	4854.754662
629.840014	4869.643710
630.186236	4930.818112
630.532405	4946.811172
630.878521	4998.886292
631.224585	5033.448442
631.570597	5050.747162
631.916556	5097.526549
632.262462	5133.250686
632.608316	5174.414228
632.954117	5203.557138
633.299866	5231.732147
633.645562	5256.963122
633.991206	5248.816617
634.336797	5243.959465
634.682336	5268.295636
635.027823	5275.741420
635.373257	5287.784736
635.718639	5293.123318
636.063968	5308.365247
636.409245	5282.486484
636.754470	5321.257998
637.099642	5324.091126
637.444762	5314.384385
637.789829	5354.806877
638.134845	5361.665367
638.479808	5387.342484
638.824719	5412.986833
639.169577	5409.246297
639.514383	5444.632677
639.859137	5447.690136
640.203839	5502.825236
640.548489	5501.708620
640.893086	5537.276481
641.237632	5548.107400
641.582125	5596.104226
641.926566	5619.311178
642.270955	5653.492722
642.615292	5688.160737
642.959576	5723.300099
643.303809	5756.937198
643.647990	5807.673891
643.992118	5838.029199
644.336195	5881.690633
644.680219	5919.869811
645.024192	5995.507284
645.368112	6091.281645
645.711981	6148.410521
646.055797	6291.801101
646.399562	6346.419482
646.743274	6507.179358
647.086935	6617.227746
647.430544	6661.063100
647.774101	6713.123095
648.117606	6786.527337
648.461059	6860.158430
648.804460	6849.776173
649.147810	6808.935265
649.491108	6804.670449
649.834354	6789.184025
650.177548	6722.998716
650.520690	6694.606937
650.863781	6726.114149
651.206820	6748.937973
651.549807	6721.826648
651.892742	6701.281425
652.235626	6708.248300
652.578458	6729.932823
652.921238	6692.691299
653.263967	6766.150993
653.606644	6771.217352
653.949269	6797.053266
654.291843	6792.077647
654.634365	6886.458129
654.976836	6869.958433
655.319255	6908.132570
655.661622	6943.264371
656.003938	6954.861546
656.346203	6973.970039
656.688416	7035.363732
657.030577	7054.832668
657.372687	7062.296096
657.714746	7140.416337
658.056753	7198.193001
658.398708	7153.760271
658.740612	7203.342539
659.082465	7284.313552
659.424266	7303.971532
659.766016	7365.975204
660.107715	7389.882876
660.449362	7454.263452
660.790958	7498.827252
661.132503	7539.804271
661.473996	7587.440654
661.815438	7648.731002
662.156829	7729.747386
662.498168	7737.404898
662.839456	7784.234697
663.180693	7849.023606
663.521879	7928.096625
663.863013	7962.568035
664.204097	8010.920262
664.545129	8132.762430
664.886110	8177.608535
665.227040	8243.622444
665.567918	8313.921335
665.908746	8372.169347
666.249522	8461.947256
666.590248	8502.473091
666.930922	8583.048374
667.271545	8617.509702
667.612118	8681.998662
667.952639	8686.145011
668.293109	8737.370696
668.633528	8763.141074
668.973896	8796.299264
669.314213	8841.609155
669.654480	8840.800049
669.994695	8884.821925
670.334859	8912.812932
670.674973	8941.754196
671.015035	9017.626082
671.355047	9061.088390
671.695008	9092.572917
672.034918	9125.017783
672.374777	9191.465232
672.714585	9212.595228
673.054342	9317.554572
673.394049	9311.966453
673.733705	9423.441488
674.073310	9401.275534
674.412864	9458.603536
674.752368	9413.122246
675.091820	9527.322024
675.431223	9478.442997
675.770574	9454.197567
676.109875	9462.306263
676.449125	9444.324467
676.788324	9478.349735
677.127473	9393.580213
677.466571	9412.681145
677.805619	9374.990958
678.144616	9425.838556
678.483562	9456.604718
678.822458	9414.758100
679.161303	9438.529661
679.500098	9460.622518
679.838842	9481.591197
680.177535	9561.241428
680.516179	9675.421042
680.854771	9794.752715
681.193314	10072.059027
681.531805	10426.394169
681.870247	10693.935765
682.208638	10945.625453
682.546978	11052.429859
682.885268	11120.198090
683.223508	11038.155832
683.561697	10989.760755
683.899836	10994.040695
684.237925	10906.722869
684.575963	10924.946640
684.913951	10856.044149
685.251889	10956.927720
685.589776	11008.382777
685.927614	11061.098123
686.265401	11161.560758
686.603137	11244.144940
686.940824	11445.405445
687.278460	11616.928184
687.616046	11713.161291
687.953582	11952.847992
688.291068	11970.764252
688.628504	12099.200249
688.965889	12135.148718
689.303224	12076.429358
689.640510	12018.176304
689.977745	11838.050836
690.314930	11646.625622
690.652065	11521.930161
690.989150	11341.252686
691.326185	11114.642739
691.663170	10932.347054
692.000105	10744.639690
692.336990	10578.841182
692.673825	10477.342590
693.010610	10357.877326
693.347345	10215.545388
693.684030	10053.933558
694.020665	10006.340024
694.357251	9830.779321
694.693786	9853.877888
695.030272	9817.695006
695.366707	9688.215490
695.703093	9626.605029
696.039429	9659.952261
696.375716	9614.531465
696.711952	9641.360486
697.048139	9621.669739
697.384276	9605.079302
697.720363	9675.955404
698.056400	9645.708481
698.392388	9611.985682
698.728326	9629.607036
699.064214	9598.961862
699.400053	9613.387123
699.735842	9522.187609
700.071581	9465.441861
700.407270	9401.585565
700.742910	9370.774033
701.078501	9305.765833
701.414042	9239.711594
701.749533	9170.317591
702.084974	9081.913397
702.420366	9177.168519
702.755709	9058.741733
703.091002	8981.206266
703.426246	9017.469807
703.761440	9012.436214
704.096584	8950.225855
704.431679	8963.957958
704.766725	8960.030900
705.101721	8965.276220
705.436668	9028.905664
705.771565	8937.970810
706.106413	9096.439482
706.441212	9125.784038
706.775961	9201.587868
707.110661	9258.257999
707.445311	9426.589688
707.779913	9398.361747
708.114465	9517.176702
708.448967	9660.259772
708.783421	9953.357498
709.117825	10090.544938
709.452180	10203.103821
709.786485	10384.779444
710.120742	10717.966945
710.454949	10759.894222
710.789107	10966.052208
711.123216	11261.017682
711.457275	11340.078097
711.791286	11567.804661
712.125247	11630.448559
712.459159	11540.433716
712.793023	11834.821977
713.126837	11433.059660
713.460602	11563.562530
713.794318	11460.788526
714.127985	11348.827020
714.461602	11030.137877
714.795171	11042.642459
715.128691	10674.595378
715.462162	10489.249795
715.795584	10343.583134
716.128957	10269.581517
716.462281	10136.270724
716.795556	10065.800434
717.128782	9892.296522
717.461960	9690.620121
717.795088	9680.164768
718.128167	9545.845744
718.461198	9370.640442
718.794180	9335.922016
719.127113	9210.258653
719.459997	9153.727154
719.792833	9027.436168
720.125619	9027.600005
720.458357	8914.335361
720.791046	8862.333338
721.123686	8811.145462
721.456278	8733.103359
721.788821	8731.349038
722.121315	8635.060479
722.453761	8688.743726
722.786158	8675.344339
723.118506	8697.505251
723.450805	8657.745671
723.783056	8741.816994
724.115259	8721.145742
724.447412	8709.601500
724.779518	8846.390689
725.111574	8871.505718
725.443582	8974.360379
725.775542	8995.578596
726.107453	9220.530004
726.439315	9192.783493
726.771129	9392.609791
727.102895	9580.150796
727.434612	9685.888998
727.766281	9759.041181
728.097901	9899.218026
728.429473	9939.464078
728.760996	9952.384555
729.092471	10019.792343
729.423897	9993.903498
729.755276	9966.162028
730.086606	10042.001147
730.417887	10311.740686
730.749120	10587.753942
731.080305	10695.513646
731.411442	10889.509849
731.742530	10948.692995
732.073570	11029.157372
732.404562	11189.806342
732.735506	11119.946033
733.066401	11011.770433
733.397249	10792.530652
733.728048	10526.130877
734.058798	10137.417586
734.389501	9826.191871
734.720156	9622.569585
735.050762	9377.307368
735.381320	9215.821566
735.711831	9111.346173
736.042293	8951.092934
736.372707	8965.893762
736.703073	8872.345070
737.033391	8982.988314
737.363661	8979.855237
737.693883	9048.193119
738.024056	9142.719794
738.354182	9242.852233
738.684260	9398.578517
739.014290	9510.986165
739.344272	9624.777610
739.674207	9773.410990
740.004093	9847.989820
740.333931	9853.383855
740.663722	9896.367253
740.993464	9911.667155
741.323159	9850.323875
741.652806	9724.219411
741.982405	9647.084716
742.311956	9485.581270
742.641460	9454.686559
742.970915	9310.698602
743.300323	9153.258327
743.629683	9055.457421
743.958996	8920.150332
744.288260	8798.497207
744.617477	8652.084455
744.946647	8627.680229
745.275768	8496.554777
745.604842	8414.820029
745.933869	8343.018875
746.262847	8324.290988
746.591778	8298.996999
746.920662	8257.518385
747.249498	8266.995754
747.578286	8348.080193
747.907027	8427.979961
748.235720	8561.000887
748.564365	8586.617511
748.892963	8536.344604
749.221514	8586.115916
749.550017	8526.461422
749.878473	8512.681428
750.206881	8405.715705
750.535242	8369.747072
750.863555	8326.861977
751.191821	8285.156511
751.520039	8308.280283
751.848210	8271.444572
752.176334	8298.770147
752.504411	8254.665092
752.832440	8168.289962
753.160421	8214.003145
753.488356	8144.213411
753.816243	8094.593334
754.144082	8019.465018
754.471875	7998.907192
754.799620	7973.363666
755.127318	7966.490053
755.454969	7951.689225
755.782572	7933.087367
756.110129	7946.345602
756.437638	7903.914210
756.765100	7904.836741
757.092515	7914.263699
757.419882	7933.846061
757.747203	7939.061135
758.074477	7992.620874
758.401703	7967.851164
758.728882	8067.292965
759.056014	8094.938653
759.383099	8178.710027
759.710138	8248.499761
760.037129	8306.296589
760.364073	8322.435843
760.690970	8330.562183
761.017820	8335.522679
761.344623	8474.421591
761.671379	8697.633801
761.998088	9088.514788
762.324751	10051.009689
762.651366	11766.605083
762.977935	13984.228825
763.304456	15368.068405
763.630931	15727.008642
763.957359	15075.419342
764.283740	13944.108802
764.610074	12802.945326
764.936362	11515.875735
765.262602	10578.258928
765.588796	9669.046503
765.914943	9038.163743
766.241044	8505.119697
766.567097	8103.884180
766.893104	7762.502283
767.219064	7528.214658
767.544978	7291.567773
767.870845	7093.435303
768.196665	6984.107800
768.522438	6869.852568
768.848165	6762.914572
769.173846	6665.413615
769.499479	6591.931236
769.825066	6495.514128
770.150607	6384.407097
770.476101	6348.529205
770.801548	6281.527229
771.126949	6196.598911
771.452303	6143.679398
771.777611	6046.720366
772.102872	6041.117123
772.428087	5967.049970
772.753256	5887.674482
773.078378	5834.752449
773.403453	5752.793370
773.728482	5683.613616
774.053465	5645.454602
774.378401	5588.537454
774.703291	5531.612745
775.028135	5471.048323
775.352932	5451.861691
775.677683	5398.801026
776.002388	5339.683415
776.327046	5344.522923
776.651658	5287.310868
776.976224	5242.696656
777.300743	5236.208691
777.625216	5188.501732
777.949643	5165.035161
778.274024	5168.942055
778.598359	5126.094768
778.922647	5127.498729
779.246889	5104.508547
779.571086	5110.008446
779.895236	5117.756699
780.219339	5111.276296
780.543397	5117.847440
780.867409	5153.833717
781.191374	5155.610724
781.515294	5136.729082
781.839167	5172.601933
782.162995	5155.656094
782.486776	5131.214060
782.810511	5107.371923
783.134201	5055.735384
783.457844	5053.008119
783.781441	5025.768245
784.104993	4997.860417
784.428498	4981.310309
784.751958	4972.490810
785.075372	4958.511691
785.398739	4934.031848
785.722061	4956.717040
786.045337	4955.872647
786.368568	5036.755439
786.691752	5056.801588
787.014891	5225.370211
787.337983	5409.362244
787.661030	5714.122679
787.984031	6004.152863
788.306987	6194.451379
788.629897	6271.092041
788.952760	6225.940947
789.275579	6119.920440
789.598351	5915.748668
789.921078	5741.604529
790.243759	5542.834353
790.566395	5403.317900
790.888984	5269.414772
791.211529	5172.962375
791.534027	5061.043719
791.856480	4960.235765
792.178888	4919.558695
792.501249	4873.704359
792.823566	4799.551507
793.145836	4799.861538
793.468062	4790.084220
793.790241	4759.008027
794.112375	4789.582625
794.434464	4862.102144
794.756507	4882.070154
795.078505	4969.917301
795.400457	5115.324343
795.722364	5278.725783
796.044226	5422.070992
796.366042	5535.602818
796.687812	5503.289022
797.009538	5530.576788
797.331218	5471.396162
797.652852	5425.040232
797.974442	5341.954455
798.295986	5295.205315
798.617484	5209.901430
798.938938	5134.541221
799.260346	5083.489456
799.581709	4985.786853
799.903026	4950.148416
800.224299	4897.944748
800.545526	4813.739834
800.866708	4769.433133
801.187845	4731.657247
801.508936	4675.609698
801.829983	4657.403571
802.150984	4578.817024
802.471940	4559.612748
802.792851	4545.585738
803.113717	4531.712482
803.434538	4511.013505
803.755314	4489.419722
804.076045	4479.367662
804.396731	4451.946305
804.717372	4464.264365
805.037967	4466.051454
805.358518	4488.358559
805.679024	4527.311555
805.999485	4531.220970
806.319901	4544.809400
806.640272	4561.099889
806.960598	4595.231021
807.280879	4590.807408
807.601115	4620.633395
807.921306	4593.277574
808.241453	4592.420578
808.561554	4602.762505
808.881611	4581.647632
809.201623	4582.557560
809.521590	4546.142785
809.841513	4540.642887
810.161390	4552.353487
810.481223	4488.892922
810.801011	4482.001664
811.120755	4465.895178
811.440453	4428.527625
811.760107	4409.461981
812.079716	4387.878281
812.399281	4357.028940
812.718801	4350.261191
813.038276	4325.700689
813.357707	4302.730672
813.677093	4323.134742
813.996434	4278.112197
814.315731	4294.445536
814.634983	4293.306235
814.954191	4299.824447
815.273354	4348.247250
815.592473	4378.968042
815.911547	4438.544398
816.230577	4475.503617
816.549562	4546.478022
816.868502	4589.451338
817.187399	4633.654696
817.506250	4703.817475
817.825058	4726.598449
818.143821	4844.843754
818.462539	4981.378364
818.781213	5157.889325
819.099843	5432.932158
819.418429	5915.446199
819.736970	6381.442899
820.055466	6928.420694
820.373919	7642.353943
820.692327	8766.899255
821.010691	10738.403783
821.329011	15017.342729
821.647286	21358.955472
821.965517	28288.676783
822.283704	32107.444083
822.601847	33581.452262
822.919945	30735.267212
823.237999	27380.762455
823.556010	23819.867818
823.873976	20497.316415
824.191897	17454.813711
824.509775	15247.010137
824.827609	13288.050520
825.145398	12139.960499
825.463144	11616.229985
825.780845	11835.610918
826.098502	12738.816808
826.416116	14497.635056
826.733685	16162.236659
827.051210	16610.470853
827.368692	15619.314472
827.686129	13782.880099
828.003522	11915.795511
828.320872	10253.417057
828.638177	9007.936985
828.955439	8045.832773
829.272656	7227.093936
829.589830	6590.131544
829.906960	6038.044540
830.224046	5620.145489
830.541088	5303.505575
830.858086	5109.393425
831.175041	4951.640598
831.491952	4913.519392
831.808819	4938.997384
832.125642	5137.994412
832.442421	5572.672943
832.759157	6425.401760
833.075849	7771.147862
833.392497	9176.127521
833.709101	10033.872286
834.025662	9862.243683
834.342179	9076.005164
834.658653	8079.006086
834.975083	7219.360806
835.291469	6521.339959
835.607811	5946.164470
835.924110	5536.306059
836.240366	5155.761958
836.556578	4798.732319
836.872746	4521.927603
837.188871	4305.145385
837.504952	4132.372439
837.820990	4002.681195
838.136984	3908.620826
838.452935	3868.241184
838.768842	3894.296387
839.084706	4112.046507
839.400526	4682.684958
839.716303	5383.039859
840.032037	5832.506615
840.347727	5731.396193
840.663373	5271.829484
840.978977	4819.373324
841.294537	4468.821568
841.610054	4203.543449
841.925527	4013.093698
842.240957	3857.188454
842.556344	3707.199003
842.871687	3581.825507
843.186987	3461.059626
843.502244	3366.739637
843.817458	3297.678350
844.132629	3242.513004
844.447756	3201.793083
844.762840	3165.368226
845.077881	3136.628608
845.392879	3106.797580
845.707833	3087.898295
846.022745	3065.097156
846.337613	3056.320507
846.652438	3036.014739
846.967221	3031.311343
847.281960	3012.507839
847.596656	3009.919206
847.911309	2998.868997
848.225919	2986.941627
848.540485	2978.565750
848.855009	2973.068372
849.169490	2965.100828
849.483928	2959.754684
849.798323	2954.395938
850.112675	2946.720781
850.426984	2949.432922
850.741251	2943.628033
851.055474	2940.220213
851.369654	2942.002261
851.683792	2939.244750
851.997887	2939.935388
852.311938	2941.296500
852.625947	2940.719288
852.939914	2936.217537
853.253837	2940.222734
853.567718	2936.391457
853.881555	2933.094542
854.195350	2938.836417
854.509103	2934.871549
854.822812	2935.501693
855.136479	2932.713935
855.450103	2933.218051
855.763685	2928.481887
856.077224	2930.435334
856.390720	2939.297682
856.704173	2944.553085
857.017584	2948.233127
857.330953	2953.927111
857.644278	2963.895992
857.957561	2963.434727
858.270802	2961.178810
858.584000	2959.366516
858.897155	2957.612194
859.210268	2949.740432
859.523339	2939.055707
859.836367	2939.000254
860.149352	2929.853080
860.462295	2931.499017
860.775195	2921.225146
861.088054	2918.606266
861.400869	2922.016607
861.713642	2914.475041
862.026373	2924.270003
862.339062	2928.688574
862.651708	2938.803649
862.964312	2947.633230
863.276873	2954.474076
863.589392	2981.550113
863.901869	3001.228257
864.214303	3018.804240
864.526696	3032.440561
864.839045	3049.819939
865.151353	3059.372926
865.463619	3062.281671
865.775842	3060.287895
866.088023	3063.912485
866.400162	3061.331414
866.712258	3060.040878
867.024313	3062.067422
867.336325	3059.375446
867.648296	3062.117834
867.960224	3059.632545
868.272110	3061.633883
868.583954	3062.122875
868.895755	3071.522106
869.207515	3069.672003
869.519233	3082.685742
869.830909	3089.609766
870.142542	3098.414142
870.454134	3102.293309
870.765684	3117.094137
871.077191	3130.183493
871.388657	3136.691623
871.700081	3152.757780
872.011463	3171.558763
872.322803	3185.734488
872.634101	3198.912064
872.945357	3213.153324
873.256571	3235.011767
873.567744	3247.949888
873.878874	3253.011207
874.189963	3269.520985
874.501010	3268.245573
874.812015	3269.001747
875.122979	3282.002882
875.433900	3278.050618
875.744780	3282.287707
876.055618	3289.587298
876.366415	3286.192081
876.677169	3291.606280
876.987882	3309.918272
877.298554	3324.567865
877.609183	3356.682535
877.919771	3397.067219
878.230317	3456.560396
878.540822	3541.599620
878.851285	3670.819517
879.161707	3853.102599
879.472087	4165.729754
879.782425	4678.367210
880.092722	5627.308968
880.402977	7085.314004
880.713191	8774.791181
881.023363	10409.985213
881.333494	11345.393994
881.643583	11771.250507
881.953631	11609.192534
882.263637	11075.672099
882.573602	10361.338078
882.883526	9653.797012
883.193408	8928.196013
883.503248	8215.742343
883.813048	7568.279228
884.122806	6967.653474
884.432522	6374.211363
884.742197	5856.124421
885.051831	5423.817752
885.361424	5033.458525
885.670975	4718.099064
885.980485	4454.469403
886.289954	4240.583327
886.599382	4071.818099
886.908768	3921.122887
887.218113	3789.279070
887.527417	3680.826207
887.836680	3579.332657
888.145901	3498.008763
888.455082	3432.166252
888.764221	3377.802449
889.073319	3329.384687
889.382376	3304.151192
889.691392	3283.784930
890.000366	3278.353087
890.309300	3269.631891
890.618193	3274.141203
890.927044	3269.740276
891.235855	3273.445524
891.544625	3290.560241
891.853353	3312.222079
892.162041	3360.990201
892.470687	3435.637087
892.779293	3536.268600
893.087858	3679.354190
893.396381	3909.248450
893.704864	4241.795725
894.013306	4701.284295
894.321707	5168.982384
894.630068	5467.156552
894.938387	5508.143653
895.246665	5363.213001
895.554903	5106.058702
895.863100	4830.209284
896.171256	4608.164101
896.479371	4409.618257
896.787446	4224.028178
897.095480	4065.577151
897.403473	3941.849592
897.711425	3820.526662
898.019336	3722.032599
898.327207	3617.547123
898.635038	3533.138043
898.942827	3445.789971
899.250576	3372.569732
899.558284	3305.487098
899.865952	3261.934049
900.173579	3207.116542
900.481165	3169.123886
900.788711	3132.207516
901.096216	3104.957559
901.403681	3082.678180
901.711105	3077.369845
902.018489	3073.208372
902.325832	3098.167125
902.633135	3151.860455
902.940397	3291.167700
903.247619	3621.670787
903.554800	4229.011359
903.861941	5008.363661
904.169041	5579.765847
904.476101	5758.573053
904.783121	5542.773860
905.090100	5219.948450
905.397039	4881.422366
905.703938	4588.732974
906.010796	4323.220442
906.317614	4116.820480
906.624391	3920.923762
906.931129	3755.828494
907.237826	3605.503807
907.544483	3467.691264
907.851099	3323.168945
908.157675	3196.182279
908.464211	3077.281625
908.770707	2995.670385
909.077163	2929.538008
909.383578	2880.250647
909.689954	2842.631037
909.996289	2820.041626
910.302584	2800.413894
910.608839	2789.822429
910.915054	2780.771038
911.221229	2776.602003
911.527363	2779.336829
911.833458	2786.422171
912.139513	2798.289047
912.445527	2809.538382
912.751502	2839.719770
913.057436	2872.227651
913.363331	2922.636669
913.669186	2994.889006
913.975000	3092.972216
914.280775	3249.842841
914.586510	3472.787870
914.892205	3778.889252
915.197859	4190.512067
915.503475	4669.525026
915.809050	5075.461419
916.114585	5312.945135
916.420081	5378.225557
916.725536	5322.805632
917.030952	5128.476713
917.336328	4960.099654
917.641665	4788.718067
917.946961	4596.471145
918.252218	4432.338737
918.557435	4243.890324
918.862612	4081.887804
919.167750	3938.053603
919.472848	3782.193729
919.777906	3642.717605
920.082925	3511.254395
920.387904	3384.270250
920.692843	3290.106537
920.997743	3207.882797
921.302603	3128.708956
921.607423	3073.367169
921.912204	3021.047553
922.216946	2980.443580
922.521647	2941.001592
922.826310	2904.284348
923.130932	2873.291334
923.435516	2839.858402
923.740059	2816.636327
924.044564	2793.865435
924.349028	2771.210489
924.653454	2744.588156
924.957840	2720.481358
925.262186	2705.572146
925.566493	2687.638241
925.870761	2667.425735
926.174989	2659.105310
926.479178	2648.370173
926.783328	2633.246712
927.087438	2622.231790
927.391509	2614.954885
927.695541	2605.394337
927.999533	2592.090732
928.303486	2586.994125
928.607400	2580.788465
928.911275	2577.320151
929.215110	2571.860581
929.518906	2566.985785
929.822663	2563.998902
930.126381	2567.492421
930.430060	2568.435117
930.733699	2572.548699
931.037299	2575.417115
931.340861	2573.141034
931.644383	2574.446693
931.947866	2577.947774
932.251309	2576.337126
932.554714	2574.131621
932.858080	2572.195818
933.161407	2568.208265
933.464694	2565.060065
933.767943	2562.945301
934.071153	2562.804148
934.374323	2555.033210
934.677455	2554.856769
934.980548	2549.606408
935.283602	2548.409133
935.586617	2546.140614
935.889593	2552.628579
936.192530	2551.832077
936.495428	2555.862479
936.798287	2566.232133
937.101108	2577.337795
937.403890	2597.615836
937.706632	2619.842283
938.009336	2647.566109
938.312002	2674.445541
938.614628	2691.335927
938.917216	2710.724205
939.219765	2717.769217
939.522275	2726.679457
939.824747	2723.566544
940.127179	2719.140411
940.429573	2715.639330
940.731929	2716.445915
941.034246	2707.296220
941.336524	2705.766230
941.638763	2701.226671
941.940964	2696.165353
942.243126	2683.486851
942.545250	2675.413443
942.847335	2661.159580
943.149381	2649.905204
943.451389	2636.954480
943.753359	2627.285547
944.055290	2619.814557
944.357182	2610.422887
944.659036	2606.251333
944.960851	2602.588934
945.262628	2597.041145
945.564367	2601.802514
945.866067	2596.768922
946.167729	2594.928901
946.469352	2598.969386
946.770937	2596.602564
947.072484	2589.015628
947.373992	2588.635021
947.675462	2586.608477
947.976893	2581.738722
948.278286	2578.504822
948.579641	2575.515418
948.880958	2572.619275
949.182236	2571.883266
949.483476	2570.000395
949.784678	2569.307237
950.085841	2569.728173
950.386967	2573.451065
950.688054	2578.419122
950.989103	2584.342478
951.290114	2595.274220
951.591087	2600.484253
951.892021	2617.919083
952.192917	2625.591719
952.493776	2633.778553
952.794596	2638.000520
953.095378	2639.220479
953.396122	2636.125210
953.696828	2633.700415
953.997496	2629.591875
954.298126	2621.402521
954.598718	2618.367746
954.899272	2604.917947
955.199788	2596.842019
955.500266	2585.476738
955.800706	2569.156002
956.101108	2556.535473
956.401472	2546.730429
956.701798	2535.980169
957.002087	2523.503313
957.302337	2517.106089
957.602550	2508.679800
957.902724	2498.617657
958.202861	2490.803868
958.502960	2483.652992
958.803022	2478.296766
959.103045	2471.690334
959.403031	2467.238995
959.702979	2462.086936
960.002889	2459.894034
960.302762	2452.475976
960.602596	2448.105295
960.902393	2450.396500
961.202153	2447.588577
961.501875	2443.631271
961.801559	2442.953236
962.101205	2439.613472
962.400814	2438.703543
962.700385	2435.711619
962.999918	2433.314550
963.299414	2434.403439
963.598873	2431.396391
963.898293	2431.396391
964.197677	2431.235074
964.497022	2427.993612
964.796331	2428.044024
965.095601	2428.810279
965.394835	2427.350865
965.694030	2427.494538
965.993189	2426.161153
966.292309	2422.791141
966.591393	2426.191400
966.890439	2424.278282
967.189447	2425.195772
967.488419	2425.208375
967.787353	2426.758529
968.086249	2426.047727
968.385108	2429.122831
968.683930	2426.443457
968.982714	2427.197110
969.281462	2428.679209
969.580172	2432.878490
969.878844	2433.218768
970.177480	2435.325970
970.476078	2439.336208
970.774639	2440.334357
971.073162	2443.845520
971.371649	2443.427105
971.670098	2441.803853
971.968510	2444.568926
972.266885	2445.317537
972.565223	2450.376335
972.863524	2446.449276
973.161788	2451.762653
973.460014	2451.626541
973.758204	2451.719803
974.056356	2454.341203
974.354471	2455.813220
974.652550	2454.865483
974.950591	2454.701645
975.248595	2454.384053
975.546563	2453.232149
975.844493	2449.446242
976.142386	2453.274999
976.440243	2447.190326
976.738062	2449.584874
977.035845	2443.921138
977.333590	2438.968204
977.631299	2438.335539
977.928971	2439.169850
978.226606	2436.780343
978.524204	2435.207503
978.821765	2435.966197
979.119290	2436.346804
979.416777	2435.462082
979.714228	2436.523244
980.011642	2434.705908
980.309020	2439.452155
980.606360	2444.024481
980.903664	2450.845163
981.200931	2459.795731
981.498162	2479.579739
981.795356	2502.537154
982.092513	2532.297606
982.389633	2569.710529
982.686717	2607.466251
982.983764	2633.677730
983.280775	2649.461583
983.577749	2651.795637
983.874686	2642.920686
984.171587	2631.081536
984.468451	2616.870523
984.765279	2601.164808
985.062070	2587.198292
985.358824	2568.127607
985.655543	2549.069525
985.952224	2527.889117
986.248869	2508.304234
986.545478	2484.429329
986.842050	2472.154120
987.138586	2454.825153
987.435086	2441.428287
987.731549	2436.296392
988.027975	2430.899837
988.324366	2425.485638
988.620719	2421.341810
988.917037	2420.585637
989.213318	2416.348547
989.509563	2414.982394
989.805772	2415.181520
990.101944	2411.287228
990.398080	2413.248237
990.694180	2412.459297
990.990244	2410.770510
991.286271	2409.550551
991.582262	2412.091292
991.878217	2413.603638
992.174136	2413.790161
992.470019	2415.211767
992.765865	2415.529359
993.061676	2416.257806
993.357450	2419.259813
993.653188	2421.440112
993.948890	2427.945721
994.244556	2429.987388
994.540186	2440.447783
994.835780	2447.195367
995.131337	2462.969137
995.426859	2474.097485
995.722345	2491.512151
996.017795	2508.127794
996.313208	2518.802437
996.608586	2527.195958
996.903928	2532.030425
997.199234	2528.894827
997.494504	2526.381812
997.789738	2518.497447
998.084936	2510.550068
998.380099	2501.294510
998.675225	2492.396873
998.970316	2482.677528
999.265371	2471.995323
999.560390	2458.144753
999.855373	2448.755604
1000.150320	2442.108843
1000.445232	2433.453182
1000.740108	2429.352203
1001.034948	2425.735175
1001.329752	2420.003383
1001.624521	2417.911304
1001.919254	2410.488205
1002.213951	2410.841086
1002.508613	2405.094171
1002.803239	2407.871847
1003.097829	2402.903789
1003.392384	2407.677762
1003.686903	2405.169788
1003.981386	2406.165416
1004.275834	2402.757596
1004.570246	2403.788512
1004.864623	2401.391443
1005.158964	2401.769530
1005.453270	2399.942112
1005.747540	2399.916906
1006.041775	2399.435476
1006.335974	2400.068140
1006.630138	2401.164591
1006.924266	2400.289951
1007.218359	2398.575959
1007.512416	2400.194169
1007.806438	2398.056720
1008.100425	2399.067471
1008.394376	2399.329611
1008.688292	2399.748027
1008.982172	2396.249466
1009.276017	2398.460012
1009.569827	2399.712739
1009.863602	2400.408418
1010.157341	2396.408263
1010.451045	2394.371637
1010.744714	2397.557646
1011.038347	2396.554456
1011.331945	2396.347769
1011.625508	2395.894065
1011.919036	2396.967831
1012.212528	2395.246277
1012.505986	2394.104455
1012.799408	2394.406925
1013.092795	2395.039589
1013.386147	2394.565721
1013.679464	2394.366595
1013.972745	2396.249466
1014.265992	2395.813407
1014.559204	2395.200906
1014.852380	2395.316853
1015.145521	2395.115207
1015.438628	2397.950856
1015.731699	2393.890206
1016.024736	2394.845505
1016.317737	2397.265259
1016.610703	2395.692419
1016.903635	2395.276524
1017.196531	2395.720145
1017.489393	2395.621843
1017.782219	2393.338200
1018.075011	2399.004457
1018.367768	2398.127296
1018.660490	2398.966648
1018.953177	2398.966648
1019.245829	2398.966648
