Dividing Wavelength (nm)	Counts (n)	Blue Motor Position (mm): 15.000000	Red Motor Position (mm): 0.000000	
326.493990	1975.255147
326.888308	1975.255147
327.282561	1975.255147
327.676750	1952.416199
328.070874	1954.604060
328.464933	1958.029524
328.858929	1968.739456
329.252859	1981.254120
329.646726	1992.357261
330.040528	2008.909890
330.434265	2029.016532
330.827938	2047.227700
331.221547	2066.618499
331.615091	2087.811509
332.008571	2108.588625
332.401986	2130.479836
332.795338	2152.338279
333.188625	2170.541885
333.581847	2189.894875
333.975006	2206.697041
334.368100	2225.810575
334.761129	2241.619634
335.154095	2257.791655
335.546996	2287.761315
335.939833	2343.166116
336.332606	2356.348734
336.725315	2369.959849
337.117960	2378.081148
337.510540	2384.364946
337.903056	2392.932387
338.295508	2400.746176
338.687896	2405.187432
339.080220	2412.789492
339.472480	2417.714699
339.864676	2420.754515
340.256807	2427.053437
340.648875	2428.021338
341.040879	2430.930084
341.432818	2430.148705
341.824694	2430.559559
342.216506	2431.338418
342.608253	2432.064344
342.999937	2429.853798
343.391557	2428.391863
343.783113	2427.524785
344.174605	2427.769281
344.566033	2424.726944
344.957397	2422.614701
345.348697	2419.327869
345.739934	2418.382652
346.131106	2419.151428
346.522215	2416.199833
346.913260	2411.577095
347.304241	2414.422826
347.695159	2410.982238
348.086012	2408.864954
348.476802	2407.892011
348.867528	2408.081054
349.258191	2405.510066
349.648789	2403.695251
350.039324	2400.421021
350.429796	2404.375806
350.820203	2401.575445
351.210548	2400.804149
351.600828	2396.453633
351.991045	2401.482184
352.381198	2400.594941
352.771288	2401.346073
353.161314	2399.503531
353.551276	2395.853736
353.941175	2393.784342
354.331010	2398.568397
354.720782	2400.587379
355.110490	2401.058727
355.500135	2400.108470
355.889717	2400.385733
356.279235	2400.763820
356.668689	2397.103942
357.058080	2399.632081
357.447408	2399.531258
357.836672	2397.368603
358.225873	2397.010681
358.615010	2396.435989
359.004084	2401.671227
359.393095	2405.489901
359.782043	2402.109808
360.170927	2403.755744
360.559748	2403.861609
360.948505	2405.444531
361.337199	2406.049469
361.725830	2405.878070
362.114398	2407.682803
362.502903	2405.749521
362.891344	2407.098029
363.279722	2405.079047
363.668037	2408.154151
364.056289	2407.269429
364.444478	2406.898904
364.832603	2407.808832
365.220665	2411.567012
365.608665	2409.341343
365.996601	2411.322516
366.384474	2410.016858
366.772284	2410.715057
367.160031	2410.720098
367.547715	2411.877043
367.935336	2412.681107
368.322893	2410.964594
368.710388	2411.675397
369.097820	2415.252096
369.485189	2413.081879
369.872495	2415.166396
370.259738	2415.801582
370.646918	2411.884605
371.034035	2416.051119
371.421090	2415.327713
371.808081	2413.374266
372.195010	2416.719072
372.581875	2413.906108
372.968678	2415.821746
373.355418	2417.054308
373.742096	2414.821077
374.128710	2417.669329
374.515262	2415.892322
374.901751	2417.966757
375.288177	2419.746284
375.674540	2419.393404
376.060841	2418.281829
376.447079	2418.019689
376.833254	2417.931469
377.219367	2414.863927
377.605417	2418.483475
377.991404	2415.045408
378.377329	2417.220666
378.763191	2415.932652
379.148991	2418.642272
379.534727	2419.000194
379.920402	2418.347364
380.306013	2421.803075
380.691563	2422.644948
381.077049	2419.794175
381.462474	2419.912643
381.847835	2419.010276
382.233134	2421.591347
382.618371	2423.431368
383.003545	2424.570669
383.388657	2420.691501
383.773706	2422.889444
384.158693	2419.232087
384.543618	2425.024373
384.928480	2424.525298
385.313280	2422.314752
385.698017	2423.267530
386.082692	2425.964548
386.467305	2424.878179
386.851856	2425.094949
387.236344	2424.306008
387.620770	2425.306677
388.005133	2424.497572
388.389435	2426.312387
388.773674	2426.090577
389.157851	2427.784404
389.541965	2428.101997
389.926018	2428.026380
390.310008	2426.650145
390.693936	2426.788776
391.077802	2425.878848
391.461606	2431.046031
391.845348	2426.244332
392.229027	2429.591658
392.612645	2429.024528
392.996200	2427.227357
393.379694	2430.504107
393.763125	2429.556370
394.146494	2426.244332
394.529801	2430.287337
394.913047	2429.884045
395.296230	2431.315732
395.679351	2431.242636
396.062410	2431.645928
396.445408	2429.702563
396.828343	2430.940167
397.211217	2427.948242
397.594028	2429.291709
397.976778	2427.507141
398.359466	2431.277924
398.742092	2426.776173
399.124656	2432.495362
399.507158	2432.523089
399.889598	2433.959818
400.271977	2433.551484
400.654294	2434.531989
401.036549	2435.633481
401.418742	2432.981834
401.800874	2433.894283
402.182944	2433.014601
402.564952	2433.339756
402.946898	2435.895621
403.328783	2439.575663
403.710606	2435.199942
404.092367	2435.464602
404.474067	2436.679520
404.855705	2437.564243
405.237282	2435.487287
405.618797	2438.600200
406.000250	2437.869232
406.381642	2439.565581
406.762972	2435.026022
407.144240	2436.228337
407.525447	2438.746393
407.906593	2437.715477
408.287677	2437.947370
408.668700	2434.768923
409.049661	2439.346291
409.430560	2440.054573
409.811399	2437.937288
410.192176	2437.481064
410.572891	2436.366969
410.953545	2439.918462
411.334138	2437.902000
411.714669	2438.993410
412.095139	2440.961980
412.475547	2438.942998
412.855894	2438.620364
413.236180	2440.412495
413.616405	2442.159254
413.996568	2440.619182
414.376670	2441.912238
414.756711	2441.582042
415.136691	2441.229162
415.516609	2441.826538
415.896466	2441.125818
416.276262	2442.849893
416.655997	2438.128852
417.035670	2436.293872
417.415283	2439.210179
417.794834	2434.509303
418.174324	2442.673452
418.553753	2443.144800
418.933121	2440.162957
419.312428	2440.236054
419.691674	2441.120777
420.070859	2443.795109
420.449983	2444.848710
420.829045	2444.805860
421.208047	2443.401899
421.586988	2444.440377
421.965867	2443.502722
422.344686	2444.659667
422.723444	2441.806374
423.102141	2442.310489
423.480777	2442.378545
423.859352	2444.909204
424.237866	2446.953392
424.616319	2440.893925
424.994712	2445.143618
425.373044	2445.758638
425.751314	2444.163113
426.129524	2444.384924
426.507673	2445.511622
426.885762	2445.138576
427.263789	2446.348453
427.641756	2445.940120
428.019662	2445.279729
428.397508	2443.570777
428.775292	2444.037084
429.153016	2444.354677
429.530679	2444.616817
429.908282	2444.667228
430.285824	2448.193516
430.663305	2448.254009
431.040726	2447.044133
431.418086	2444.629420
431.795385	2447.528083
432.172624	2446.429112
432.549802	2449.970522
432.926920	2448.894236
433.303977	2446.489606
433.680974	2447.490275
434.057910	2447.896088
434.434786	2450.018413
434.811601	2447.989349
435.188355	2451.671912
435.565050	2447.744853
435.941683	2446.648402
436.318257	2449.920111
436.694770	2446.446756
437.071222	2447.538166
437.447614	2447.719647
437.823946	2447.991869
438.200218	2450.570420
438.576429	2449.524380
438.952580	2449.554627
439.328670	2451.132508
439.704700	2450.767025
440.080670	2453.070832
440.456580	2450.555296
440.832429	2451.535801
441.208218	2451.019082
441.583947	2452.445729
441.959616	2453.937910
442.335224	2454.547890
442.710773	2451.432457
443.086261	2451.760132
443.461689	2455.480503
443.837057	2455.067129
444.212365	2452.223918
444.587612	2456.743312
444.962800	2452.927159
445.337927	2456.551749
445.712995	2454.303394
446.088002	2457.948148
446.462949	2453.562344
446.837837	2453.937910
447.212664	2459.089970
447.587431	2457.398662
447.962139	2458.069136
448.336786	2463.422841
448.711374	2462.414611
449.085901	2460.483849
449.460369	2460.335135
449.834776	2459.306739
450.209124	2458.109465
450.583412	2462.724642
450.957640	2461.373612
451.331808	2461.413942
451.705917	2459.770525
452.079965	2458.641307
452.453954	2462.417131
452.827883	2460.423355
453.201752	2461.693726
453.575562	2463.649693
453.949311	2464.816720
454.323001	2463.067440
454.696632	2462.976699
455.070202	2467.455764
455.443713	2468.116156
455.817164	2463.995012
456.190556	2463.135496
456.563888	2465.414097
456.937160	2463.299333
457.310373	2466.540795
457.683526	2467.032308
458.056619	2470.329222
458.429653	2467.690178
458.802628	2468.607668
459.175542	2466.601289
459.548398	2470.818214
459.921194	2471.748307
460.293930	2474.137814
460.666607	2473.800057
461.039224	2477.417084
461.411782	2475.995479
461.784280	2476.731488
462.156719	2474.528503
462.529099	2477.033957
462.901419	2477.810294
463.273680	2474.331898
463.645882	2474.548668
464.018024	2474.581435
464.390106	2477.691827
464.762130	2477.747280
465.134094	2484.900677
465.505999	2487.217087
465.877845	2494.947697
466.249631	2496.628922
466.621358	2494.917450
466.993026	2494.839312
467.364634	2494.057933
467.736184	2490.125833
468.107674	2487.108703
468.479105	2487.073415
468.850477	2486.249186
469.221790	2485.336737
469.593043	2481.444966
469.964238	2484.298259
470.335373	2483.378249
470.706449	2489.246152
471.077467	2488.061481
471.448425	2493.813437
471.819324	2498.703357
472.190164	2496.089518
472.560945	2494.683036
472.931667	2488.416882
473.302330	2488.011069
473.672934	2487.716162
474.043479	2489.851090
474.413965	2487.454022
474.784393	2483.526963
475.154761	2489.556183
475.525070	2484.260451
475.895321	2486.062663
476.265513	2486.501244
476.635645	2493.609271
477.005719	2493.072388
477.375734	2495.938284
477.745691	2496.381905
478.115588	2498.995743
478.485427	2500.631598
478.855207	2508.284069
479.224928	2513.279853
479.594591	2515.419823
479.964194	2516.453259
480.333739	2515.694566
480.703226	2518.996521
481.072653	2521.466687
481.442022	2520.181193
481.811333	2525.638242
482.180584	2522.096831
482.549777	2526.094466
482.918912	2522.996677
483.287988	2525.817203
483.657005	2523.513395
484.025964	2526.580937
484.394864	2529.535053
484.763706	2531.397760
485.132489	2530.455064
485.501213	2530.301309
485.869879	2532.383305
486.238487	2537.444624
486.607036	2536.622916
486.975527	2536.960673
487.343959	2541.112063
487.712333	2541.964018
488.080648	2543.829245
488.448905	2549.069525
488.817104	2546.037271
489.185244	2554.249310
489.553326	2558.677964
489.921350	2568.278841
490.289315	2581.716037
490.657222	2584.337437
491.025070	2590.548138
491.392861	2589.207192
491.760593	2588.042685
492.128267	2586.918508
492.495883	2587.394897
492.863440	2582.285687
493.230939	2582.903229
493.598380	2584.493713
493.965763	2582.716706
494.333088	2583.810636
494.700354	2584.125708
495.067563	2588.022520
495.434713	2586.608477
495.801805	2593.414034
496.168839	2597.184817
496.535815	2595.697677
496.902733	2598.800507
497.269593	2603.030035
497.636395	2606.241250
498.003139	2609.795264
498.369825	2609.439862
498.736453	2614.735595
499.103023	2616.694083
499.469535	2620.452263
499.835989	2619.948148
500.202385	2623.668519
500.568723	2626.307563
500.935003	2633.231588
501.301226	2631.157153
501.667390	2639.343987
502.033497	2644.143166
502.399546	2644.861530
502.765537	2640.843730
503.131470	2649.960657
503.497345	2655.538694
503.863163	2649.930410
504.228923	2656.539363
504.594625	2662.374498
504.960269	2659.952224
505.325856	2669.338852
505.691385	2671.042762
506.056856	2671.206600
506.422270	2676.512414
506.787625	2676.691375
507.152924	2682.471058
507.518164	2685.682273
507.883347	2684.681604
508.248472	2687.789476
508.613540	2692.134950
508.978550	2695.837678
509.343503	2699.384129
509.708398	2704.085005
510.073236	2711.397199
510.438016	2714.477344
510.802738	2711.997096
511.167403	2719.914228
511.532010	2722.223077
511.896561	2729.404201
512.261053	2738.072465
512.625488	2737.361662
512.989866	2734.740262
513.354186	2740.688823
513.718449	2736.925602
514.082655	2754.448653
514.446803	2753.256420
514.810894	2759.509971
515.174927	2763.648759
515.538904	2765.062802
515.902822	2770.381220
516.266684	2771.364245
516.630488	2780.559309
516.994235	2779.833383
517.357925	2786.432253
517.721558	2792.983233
518.085133	2801.825417
518.448651	2804.454378
518.812112	2808.424287
519.175516	2808.968732
519.538863	2816.656491
519.902152	2820.535659
520.265385	2828.278872
520.628560	2835.255828
520.991678	2834.789522
521.354739	2842.157168
521.717743	2849.701255
522.080690	2853.517408
522.443580	2863.380426
522.806413	2868.295551
523.169189	2875.196890
523.531908	2881.856255
523.894569	2885.921945
524.257174	2897.592216
524.619722	2904.269225
524.982213	2909.895152
525.344647	2921.998963
525.707025	2924.638007
526.069345	2937.059410
526.431608	2942.244237
526.793815	2954.826957
527.155964	2962.459263
527.518057	2974.550471
527.880093	2979.954588
528.242072	2995.506548
528.603995	2999.756240
528.965860	3010.947602
529.327669	3023.119468
529.689421	3030.033410
530.051117	3043.319371
530.412755	3058.316804
530.774337	3072.661407
531.135862	3080.384455
531.497331	3096.236363
531.858743	3105.595265
532.220098	3128.340951
532.581396	3137.261273
532.942638	3146.776451
533.303824	3171.175636
533.664953	3187.574509
534.026025	3201.513299
534.387040	3225.920046
534.747999	3243.450658
535.108902	3268.999226
535.469748	3278.038015
535.830537	3297.204482
536.191270	3325.344203
536.551947	3339.850123
536.912567	3369.971017
537.273131	3396.348854
537.633638	3407.794794
537.994089	3439.823765
538.354483	3457.893781
538.714821	3499.195955
539.075103	3531.996222
539.435328	3562.079308
539.795497	3582.838779
540.155609	3610.741566
540.515665	3657.861231
540.875665	3674.567615
541.235609	3716.378945
541.595496	3749.784151
541.955328	3802.013025
542.315102	3822.134791
542.674821	3850.302238
543.034483	3887.047208
543.394090	3926.491716
543.753640	3965.169969
544.113134	4041.553532
544.472571	4048.301117
544.831953	4135.079539
545.191278	4151.627127
545.550548	4185.740615
545.909761	4250.007764
546.268918	4307.088749
546.628019	4369.082339
546.987064	4402.006115
547.346053	4420.003034
547.704986	4511.499976
548.063863	4543.997774
548.422684	4609.021097
548.781449	4656.715454
549.140158	4733.184717
549.498811	4782.696409
549.857408	4812.441737
550.215949	4917.799332
550.574434	4972.037106
550.932864	5025.193553
551.291237	5130.200788
551.649555	5178.242984
552.007817	5257.731898
552.366022	5304.357530
552.724173	5384.322832
553.082267	5484.971990
553.440305	5578.492955
553.798288	5610.164004
554.156215	5704.305032
554.514086	5801.929497
554.871902	5854.929667
555.229661	5940.170538
555.587365	6012.412793
555.945014	6106.684891
556.302606	6183.907806
556.660143	6287.896727
557.017625	6385.364916
557.375050	6455.694054
557.732421	6572.580767
558.089735	6665.985786
558.446994	6749.671461
558.804197	6893.339304
559.161345	6981.224260
559.518437	7003.279308
559.875474	7133.938454
560.232455	7250.777277
560.589381	7369.277159
560.946251	7441.378262
561.303065	7623.003474
561.659825	7711.828604
562.016528	7784.950541
562.373177	7859.998198
562.729770	8034.139817
563.086307	8085.859535
563.442789	8259.179445
563.799216	8384.316007
564.155587	8472.604255
564.511904	8599.361548
564.868164	8730.779387
565.224370	8890.188234
565.580520	8980.387079
565.936615	9140.831882
566.292654	9227.264986
566.648638	9395.208505
567.004567	9523.964616
567.360441	9667.594651
567.716260	9782.691755
568.072023	9974.379109
568.427732	10114.364390
568.783385	10179.808649
569.138982	10386.906811
569.494525	10536.182938
569.850013	10630.021496
570.205445	10782.660073
570.560823	10917.047152
570.916145	11047.998685
571.271412	11208.529188
571.626625	11314.983234
571.981782	11481.129582
572.336884	11574.146432
572.691931	11802.288891
573.046923	11873.903522
573.401860	12001.348933
573.756743	12156.339208
574.111570	12348.119823
574.466342	12471.754122
574.821059	12670.662929
575.175722	12724.865415
575.530330	12904.476685
575.884882	13003.179957
576.239380	13151.813337
576.593823	13323.840192
576.948211	13478.457421
577.302544	13521.251776
577.656823	13698.178632
578.011047	13944.176858
578.365216	14039.537844
578.719330	14160.515454
579.073389	14290.383139
579.427394	14494.146578
579.781344	14667.902548
580.135239	14746.204270
580.489080	14950.809581
580.842866	14975.879239
581.196597	15302.921574
581.550273	15477.421115
581.903895	15619.500995
582.257463	15949.308403
582.610975	15935.092349
582.964434	16211.735748
583.317837	16280.214782
583.671186	16420.099240
584.024481	16686.287286
584.377721	16707.583641
584.730906	16984.708471
585.084037	17197.167899
585.437113	17287.853216
585.790135	17477.924881
586.143103	17518.720418
586.496016	17763.697810
586.848874	17970.710272
587.201679	18174.390531
587.554428	18152.539650
587.907124	18432.636240
588.259765	18520.548922
588.612352	18821.563780
588.964884	18772.215925
589.317362	19073.732377
589.669786	19244.143542
590.022155	19335.264918
590.374470	19696.876966
590.726731	19677.992804
591.078937	19666.680455
591.431090	19881.693228
591.783188	19911.909904
592.135232	19941.972825
592.487222	20241.266129
592.839157	20468.859102
593.191038	20499.879842
593.542866	20559.141126
593.894639	20459.444747
594.246358	20758.801065
594.598022	20946.717636
594.949633	20918.749315
595.301190	21080.807288
595.652692	21172.997388
596.004141	21516.015140
596.355535	21192.892302
596.706876	21330.097386
597.058162	21416.381776
597.409395	21833.615394
597.760573	22044.907796
598.111698	21994.884426
598.462768	22164.030261
598.813785	22360.325230
599.164748	22238.175552
599.515657	22615.168160
599.866511	22498.553669
600.217312	23009.416638
600.568060	22597.841714
600.918753	23179.278317
601.269392	23333.303211
601.619978	23291.408702
601.970510	23573.158790
602.320988	23846.969061
602.671412	24186.175701
603.021783	24191.189128
603.372100	24151.303519
603.722363	24390.382761
604.072572	24581.876031
604.422728	24763.642394
604.772830	24795.429390
605.122878	25003.974363
605.472872	25115.124243
605.822813	25452.231242
606.172701	25507.590673
606.522534	25795.964838
606.872314	26123.007173
607.222041	26129.081763
607.571714	26517.684149
607.921333	26315.317110
608.270899	26654.995097
608.620411	27028.451336
608.969870	27045.218214
609.319276	27191.066356
609.668627	27376.968987
610.017926	27845.506428
610.367171	28110.333363
610.716362	28317.552512
611.065500	28421.349870
611.414585	28705.736482
611.763616	29065.480782
612.112594	29149.252156
612.461518	29431.350084
612.810389	29792.374837
613.159207	29818.871142
613.507971	30022.647183
613.856682	30505.383035
614.205340	30556.089481
614.553945	31188.918126
614.902496	30923.519020
615.250994	31402.383265
615.599439	31587.552407
615.947830	31891.362585
616.296169	32048.240772
616.644454	32261.103493
616.992686	32526.104348
617.340864	33051.253947
617.688990	32953.407672
618.037063	33542.282496
618.385082	33637.406549
618.733048	33988.585929
619.080961	34131.033813
619.428821	34241.692181
619.776628	34444.258345
620.124382	34419.894449
620.472083	34656.304400
620.819731	34884.882918
621.167326	34733.323148
621.514868	34863.352150
621.862357	34608.519302
622.209793	34743.289509
622.557176	34595.379535
622.904506	34498.193650
623.251783	34335.061912
623.599007	34269.368116
623.946179	34195.311045
624.293297	34239.675719
624.640363	33869.702918
624.987376	33960.040395
625.334336	33860.631362
625.681243	33654.604445
626.028097	33732.197885
626.374899	33691.067111
626.721647	33768.607619
627.068343	33766.754995
627.414987	33654.125536
627.761577	33549.672828
628.108115	33919.754014
628.454600	33532.603481
628.801032	33756.851648
629.147412	33831.044830
629.493739	33909.218002
629.840014	33683.396995
630.186236	34054.441042
630.532405	33793.405055
630.878521	34053.624375
631.224585	33999.104296
631.570597	33821.131401
631.916556	34028.975653
632.262462	34065.856735
632.608316	34149.844878
632.954117	34111.733755
633.299866	34186.662946
633.645562	34178.955021
633.991206	33803.326045
634.336797	33511.279400
634.682336	33580.335646
635.027823	33421.191460
635.373257	33342.143648
635.718639	33206.307237
636.063968	33131.299908
636.409245	32689.657023
636.754470	32791.778197
637.099642	32646.340908
637.444762	32276.884825
637.789829	32464.226705
638.134845	32201.108721
638.479808	32210.371842
638.824719	32171.892714
639.169577	31883.694990
639.514383	31995.984171
639.859137	31763.788625
640.203839	32041.120142
640.548489	31751.130288
640.893086	31846.723168
641.237632	31691.407738
641.582125	31835.012567
641.926566	31813.965750
642.270955	31817.053457
642.615292	31879.410009
642.959576	31911.280184
643.303809	31951.644703
643.647990	32119.363891
643.992118	32129.007618
644.336195	32172.502694
644.680219	32280.222069
645.024192	32608.333129
645.368112	33109.852319
645.711981	33144.364059
646.055797	33993.533821
646.399562	33956.302379
646.743274	34835.141853
647.086935	35278.002177
647.430544	35218.889607
647.774101	35371.059357
648.117606	35614.814268
648.461059	35937.506088
648.804460	35618.743848
649.147810	35102.202019
649.491108	34906.668264
649.834354	34598.689052
650.177548	33860.754870
650.520690	33480.036849
650.863781	33530.934859
651.206820	33423.802778
651.549807	33051.402661
651.892742	32638.915289
652.235626	32483.178923
652.578458	32382.544889
652.921238	31845.782992
653.263967	32181.922090
653.606644	31924.293923
653.949269	31893.686557
654.291843	31563.440568
654.634365	31942.961315
654.976836	31596.228233
655.319255	31618.689094
655.661622	31652.933652
656.003938	31461.266462
656.346203	31373.053832
656.688416	31587.655751
657.030577	31437.343667
657.372687	31297.013067
657.714746	31573.853072
658.056753	31705.384337
658.398708	31211.177341
658.740612	31303.795940
659.082465	31579.365573
659.424266	31427.957038
659.766016	31559.654662
660.107715	31475.172485
660.449362	31606.938164
660.790958	31606.902876
661.132503	31650.163538
661.473996	31687.218539
661.815438	31813.287715
662.156829	32019.170958
662.498168	31831.866887
662.839456	31877.078476
663.180693	32033.387012
663.521879	32200.682744
663.863013	32190.620601
664.204097	32194.804758
664.545129	32651.697134
664.886110	32630.244504
665.227040	32726.666654
665.567918	32850.469831
665.908746	32911.006527
666.249522	33092.682149
666.590248	33107.082205
666.930922	33246.822990
667.271545	33209.105077
667.612118	33294.908036
667.952639	33119.261633
668.293109	33179.384954
668.633528	33093.760956
668.973896	33038.814900
669.314213	33085.616972
669.654480	32849.080993
669.994695	32898.113776
670.334859	32806.261432
670.674973	32738.609147
671.015035	32900.853643
671.355047	32871.234343
671.695008	32810.319561
672.034918	32727.712693
672.374777	32824.555779
672.714585	32681.185364
673.054342	32927.395318
673.394049	32690.435881
673.733705	32973.116062
674.073310	32656.017403
674.412864	32738.780547
674.752368	32371.429145
675.091820	32669.694054
675.431223	32262.013422
675.770574	32008.420698
676.109875	31895.103121
676.449125	31632.600158
676.788324	31571.705540
677.127473	31060.976162
677.466571	31009.788286
677.805619	30672.557778
678.144616	30680.638748
678.483562	30609.495464
678.822458	30311.704424
679.161303	30250.068757
679.500098	30161.558698
679.838842	30076.322869
680.177535	30216.590454
680.516179	30489.611785
680.854771	30755.641035
681.193314	31599.401639
681.531805	32690.196426
681.870247	33472.207937
682.208638	34197.846745
682.546978	34424.577681
682.885268	34507.257645
683.223508	33989.611803
683.561697	33664.137267
683.899836	33492.090248
684.237925	32999.393077
684.575963	32853.176930
684.913951	32405.567839
685.251889	32580.213573
685.589776	32564.974165
685.927614	32557.591395
686.265401	32711.828018
686.603137	32818.889522
686.940824	33327.950279
687.278460	33685.332798
687.616046	33842.374823
687.953582	34442.564518
688.291068	34300.789628
688.628504	34581.087864
688.965889	34512.107235
689.303224	34160.698483
689.640510	33818.139476
689.977745	33110.532875
690.314930	32308.825576
690.652065	31800.944450
690.989150	31080.566086
691.326185	30199.793330
691.663170	29513.737662
692.000105	28759.071890
692.336990	28116.821328
692.673825	27676.436210
693.010610	27163.647520
693.347345	26602.811593
693.684030	25975.755069
694.020665	25693.896596
694.357251	25042.687904
694.693786	25010.512739
695.030272	24767.793785
695.366707	24239.879113
695.703093	23954.098622
696.039429	23953.947387
696.375716	23700.158058
696.711952	23664.403675
697.048139	23509.627649
697.384276	23340.252441
697.720363	23463.007058
698.056400	23261.565071
698.392388	23059.392117
698.728326	23013.628522
699.064214	22819.503770
699.400053	22752.408533
699.735842	22416.566863
700.071581	22141.128299
700.407270	21854.440401
700.742910	21683.787261
701.078501	21399.105741
701.414042	21134.717387
701.749533	20844.906493
702.084974	20495.347844
702.420366	20707.172088
702.755709	20271.387023
703.091002	19985.588888
703.426246	20001.713019
703.761440	19911.146169
704.096584	19641.827566
704.431679	19603.376165
704.766725	19512.282515
705.101721	19457.298650
705.436668	19547.868020
705.771565	19227.195183
706.106413	19573.101516
706.441212	19548.014214
706.775961	19685.733496
707.110661	19756.349979
707.445311	20116.177458
707.779913	19957.633169
708.114465	20197.017401
708.448967	20475.649536
708.783421	21172.596617
709.117825	21438.018408
709.452180	21659.801451
709.786485	22047.007437
710.120742	22846.078212
710.454949	22871.606615
710.789107	23320.564215
711.123216	24028.690055
711.457275	24153.297295
711.791286	24679.462687
712.125247	24760.663073
712.459159	24447.425937
712.793023	25096.693785
713.126837	23993.916175
713.460602	24250.614250
713.794318	23874.849163
714.127985	23485.304082
714.461602	22613.030711
714.795171	22558.866033
715.128691	21565.279816
715.462162	21024.918535
715.795584	20614.530804
716.128957	20361.911023
716.462281	19958.326328
716.795556	19727.940556
717.128782	19239.717409
717.461960	18696.575932
717.795088	18620.623387
718.128167	18225.510352
718.461198	17779.406045
718.794180	17623.543651
719.127113	17271.411493
719.459997	17084.523317
719.792833	16738.402735
720.125619	16699.648865
720.458357	16398.281126
720.791046	16228.119498
721.123686	16080.822024
721.456278	15841.936867
721.788821	15793.410720
722.121315	15534.839857
722.453761	15618.437311
722.786158	15545.428801
723.118506	15546.285797
723.450805	15415.147741
723.783056	15570.712708
724.115259	15479.208204
724.447412	15412.770837
724.779518	15661.645041
725.111574	15676.796229
725.443582	15868.360075
725.775542	15851.336098
726.107453	16304.135057
726.439315	16202.712083
726.771129	16596.496775
727.102895	16971.649362
727.434612	17156.256415
727.766281	17293.093495
728.097901	17541.513995
728.429473	17577.172597
728.760996	17565.232624
729.092471	17653.193197
729.423897	17523.882560
729.755276	17393.740132
730.086606	17505.520157
730.417887	18033.071866
730.749120	18539.211273
731.080305	18714.998829
731.411442	19043.916473
731.742530	19112.604715
732.073570	19206.826401
732.404562	19500.655094
732.735506	19305.386000
733.066401	19027.878042
733.397249	18511.593312
733.728048	17867.661526
734.058798	17053.651291
734.389501	16384.859054
734.720156	15933.711073
735.050762	15408.543830
735.381320	15061.881324
735.711831	14827.359285
736.042293	14481.639475
736.372707	14486.776411
736.703073	14282.425678
737.033391	14468.361076
737.363661	14434.061065
737.693883	14541.004102
738.024056	14711.337129
738.354182	14897.506941
738.684260	15176.844837
739.014290	15400.031841
739.344272	15577.566156
739.674207	15857.720720
740.004093	15967.968234
740.333931	15961.076976
740.663722	16000.322359
740.993464	15995.785321
741.323159	15814.472661
741.652806	15547.077258
741.982405	15328.487786
742.311956	14996.452188
742.641460	14881.251740
742.970915	14574.409308
743.300323	14245.647940
743.629683	14028.316236
743.958996	13754.642076
744.288260	13492.189524
744.617477	13191.827496
744.946647	13112.094086
745.275768	12848.350999
745.604842	12663.668328
745.933869	12501.315448
746.262847	12447.992643
746.591778	12376.428423
746.920662	12271.204419
747.249498	12283.270420
747.578286	12397.235785
747.907027	12543.552755
748.235720	12755.676947
748.564365	12794.052731
748.892963	12683.628777
749.221514	12746.214702
749.550017	12605.785799
749.878473	12562.772154
750.206881	12343.918022
750.535242	12256.733787
750.863555	12178.346365
751.191821	12076.820047
751.520039	12095.817635
751.848210	12002.820950
752.176334	12045.718648
752.504411	11940.918101
752.832440	11791.468054
753.160421	11851.992147
753.488356	11728.955226
753.816243	11633.112809
754.144082	11501.087510
754.471875	11446.103645
754.799620	11389.829245
755.127318	11361.571057
755.454969	11323.540592
755.782572	11276.529312
756.110129	11289.570777
756.437638	11208.587161
756.765100	11201.085924
757.092515	11192.057218
757.419882	11215.027235
757.747203	11218.787936
758.074477	11294.274174
758.401703	11252.034346
758.728882	11416.789336
759.056014	11454.759306
759.383099	11563.693600
759.710138	11663.102633
760.037129	11750.705284
760.364073	11763.224990
760.690970	11751.194276
761.017820	11752.338618
761.344623	11938.455497
761.671379	12255.622212
761.998088	12875.154814
762.324751	14425.970013
762.651366	17260.812467
762.977935	20890.743185
763.304456	23094.249175
763.630931	23557.992479
763.957359	22375.914999
764.283740	20480.839404
764.610074	18623.431310
764.936362	16524.874581
765.262602	15012.750238
765.588796	13555.884503
765.914943	12531.693441
766.241044	11702.716020
766.567097	11062.963350
766.893104	10520.774651
767.219064	10167.835908
767.544978	9789.283063
767.870845	9479.801587
768.196665	9291.627917
768.522438	9101.344524
768.848165	8939.266387
769.173846	8772.263042
769.499479	8654.615114
769.825066	8497.963779
770.150607	8321.152870
770.476101	8259.068540
770.801548	8139.842731
771.126949	8001.614292
771.452303	7912.892505
771.777611	7753.297136
772.102872	7729.323929
772.428087	7615.953420
772.753256	7490.315263
773.078378	7401.520379
773.403453	7266.523321
773.728482	7162.930130
774.053465	7099.555264
774.378401	7019.166504
774.703291	6924.914571
775.028135	6831.444017
775.352932	6790.403984
775.677683	6712.722324
776.002388	6623.206555
776.327046	6619.821420
776.651658	6534.588111
776.976224	6460.949457
777.300743	6443.413803
777.625216	6376.099276
777.949643	6336.173337
778.274024	6341.529563
778.598359	6275.797958
778.922647	6274.729233
779.246889	6240.547690
779.571086	6242.188585
779.895236	6251.378609
780.219339	6245.367033
780.543397	6245.800572
780.867409	6295.375279
781.191374	6292.640453
781.515294	6264.906545
781.839167	6309.258617
782.162995	6283.558814
782.486776	6241.044243
782.810511	6196.243509
783.134201	6122.070492
783.457844	6110.216219
783.781441	6061.211162
784.104993	6020.738259
784.428498	5985.752651
784.751958	5970.369570
785.075372	5952.143278
785.398739	5909.706845
785.722061	5931.857675
786.045337	5930.657881
786.368568	6036.743922
786.691752	6062.874743
787.014891	6307.915149
787.337983	6586.101142
787.661030	7024.124479
787.984031	7441.345495
788.306987	7704.735701
788.629897	7786.011704
788.952760	7696.218672
789.275579	7527.705501
789.598351	7228.064358
789.921078	6968.752445
790.243759	6689.293561
790.566395	6487.758313
790.888984	6295.806298
791.211529	6160.627757
791.534027	5994.040308
791.856480	5861.420153
792.178888	5801.717768
792.501249	5734.468776
792.823566	5631.188136
793.145836	5625.428618
793.468062	5610.476556
793.790241	5569.186985
794.112375	5608.044199
794.434464	5706.109765
794.756507	5741.841463
795.078505	5856.704154
795.400457	6070.423871
795.722364	6305.054294
796.044226	6501.059397
796.366042	6654.388612
796.687812	6603.107474
797.009538	6629.926413
797.331218	6539.079779
797.652852	6475.838504
797.974442	6350.999371
798.295986	6274.764522
798.617484	6153.371016
798.938938	6042.105189
799.260346	5976.035827
799.581709	5840.189334
799.903026	5790.644874
800.224299	5720.207352
800.545526	5605.974805
800.866708	5540.938880
801.187845	5484.747658
801.508936	5414.796607
801.829983	5388.736363
802.150984	5279.918016
802.471940	5257.812556
802.792851	5238.893106
803.113717	5214.337645
803.434538	5192.264953
803.755314	5156.026619
804.076045	5150.456144
804.396731	5111.984578
804.717372	5125.557885
805.037967	5129.731960
805.358518	5155.706506
805.679024	5214.856884
805.999485	5223.938523
806.319901	5246.505248
806.640272	5263.872023
806.960598	5311.735258
807.280879	5303.873579
807.601115	5339.839691
807.921306	5301.501716
808.241453	5295.598525
808.561554	5308.251821
808.881611	5273.389722
809.201623	5269.853352
809.521590	5215.973500
809.841513	5201.109658
810.161390	5217.538778
810.481223	5129.477382
810.801011	5114.361482
811.120755	5094.030509
811.440453	5037.332652
811.760107	5010.004557
812.079716	4984.829034
812.399281	4936.978402
812.718801	4928.539510
813.038276	4895.507350
813.357707	4863.889233
813.677093	4882.670052
813.996434	4821.989683
814.315731	4836.140202
814.634983	4840.594061
814.954191	4847.553374
815.273354	4902.060850
815.592473	4945.099701
815.911547	5019.156771
816.230577	5067.640068
816.549562	5155.996372
816.868502	5209.785483
817.187399	5262.856231
817.506250	5342.025031
817.825058	5372.024938
818.143821	5520.043297
818.462539	5683.464902
818.781213	5914.180869
819.099843	6271.613800
819.418429	6897.432721
819.736970	7508.687748
820.055466	8211.921148
820.373919	9116.198284
820.692327	10552.783457
821.010691	13224.950397
821.329011	19410.879706
821.647286	28923.743701
821.965517	39215.402950
822.283704	44649.048432
822.601847	46112.157636
822.919945	41531.004037
823.237999	36436.040915
823.556010	31256.514958
823.873976	26574.692037
824.191897	22408.788363
824.509775	19352.031796
824.827609	16608.560256
825.145398	15063.373505
825.463144	14309.514318
825.780845	14613.105205
826.098502	15861.158787
826.416116	18298.836455
826.733685	20562.649769
827.051210	21085.147721
827.368692	19662.191307
827.686129	17121.507742
828.003522	14660.028265
828.320872	12457.346504
828.638177	10824.574746
828.955439	9594.991953
829.272656	8552.201553
829.589830	7711.372380
829.906960	6990.575600
830.224046	6458.136493
830.541088	6050.339914
830.858086	5798.395648
831.175041	5596.477272
831.491952	5541.624477
831.808819	5570.885854
832.125642	5811.134643
832.442421	6353.645976
832.759157	7454.530633
833.075849	9206.369403
833.392497	11035.272292
833.709101	12143.943010
834.025662	11895.099054
834.342179	10849.112563
834.658653	9553.682218
834.975083	8454.219167
835.291469	7559.590799
835.607811	6837.566499
835.924110	6320.283620
836.240366	5835.306976
836.556578	5388.708636
836.872746	5041.158887
837.188871	4771.825161
837.504952	4551.257036
837.820990	4387.152355
838.136984	4273.844860
838.452935	4227.383066
838.768842	4254.403651
839.084706	4535.647103
839.400526	5267.675574
839.716303	6165.565567
840.032037	6723.107101
840.347727	6575.234935
840.663373	5983.340459
840.978977	5413.836268
841.294537	4975.018949
841.610054	4643.754647
841.925527	4408.731014
842.240957	4202.651165
842.556344	4023.397817
842.871687	3867.164897
843.186987	3717.742577
843.502244	3600.230760
843.817458	3515.889736
844.132629	3447.025053
844.447756	3396.769791
844.762840	3351.245651
845.077881	3314.382213
845.392879	3281.171092
845.707833	3257.704521
846.022745	3229.005232
846.337613	3218.131463
846.652438	3194.004501
846.967221	3186.556196
847.281960	3166.308402
847.596656	3158.809685
847.911309	3144.739825
848.225919	3130.881693
848.540485	3125.192751
848.855009	3117.988942
849.169490	3103.684668
849.483928	3097.685695
849.798323	3092.405086
850.112675	3080.402099
850.426984	3083.983839
850.741251	3076.190215
851.055474	3070.720563
851.369654	3074.756007
851.683792	3068.878021
851.997887	3073.868763
852.311938	3069.654359
852.625947	3072.505131
852.939914	3068.232753
853.253837	3074.115780
853.567718	3072.361458
853.881555	3064.817372
854.195350	3072.855492
854.509103	3067.186714
854.822812	3066.685119
855.136479	3062.019531
855.450103	3064.071281
855.763685	3057.855538
856.077224	3060.968451
856.390720	3070.135789
856.704173	3078.294897
857.017584	3087.699169
857.330953	3086.622883
857.644278	3095.785180
857.957561	3099.898761
858.270802	3097.237032
858.584000	3095.976744
858.897155	3088.803182
859.210268	3080.548292
859.523339	3068.653690
859.836367	3067.703432
860.149352	3061.049109
860.462295	3058.551217
860.775195	3046.986811
861.088054	3043.379865
861.400869	3045.000596
861.713642	3041.113866
862.026373	3051.811195
862.339062	3051.879250
862.651708	3063.123544
862.964312	3074.788774
863.276873	3089.133377
863.589392	3119.564302
863.901869	3143.741676
864.214303	3165.111127
864.526696	3180.894980
864.839045	3197.976930
865.151353	3213.218859
865.463619	3213.770865
865.775842	3211.593087
866.088023	3215.764641
866.400162	3211.094012
866.712258	3213.657439
867.024313	3210.952860
867.336325	3208.810370
867.648296	3211.595607
867.960224	3206.562015
868.272110	3215.389075
868.583954	3214.017882
868.895755	3221.435939
869.207515	3215.391596
869.519233	3238.326325
869.830909	3240.680544
870.142542	3252.048346
870.454134	3258.914398
870.765684	3273.644649
871.077191	3290.509829
871.388657	3302.737148
871.700081	3321.210456
872.011463	3339.184690
872.322803	3358.348637
872.634101	3377.275649
872.945357	3396.568145
873.256571	3424.506219
873.567744	3438.694547
873.878874	3444.345680
874.189963	3463.897795
874.501010	3462.486272
874.812015	3458.029892
875.122979	3471.479691
875.433900	3473.009681
875.744780	3477.597131
876.055618	3482.471927
876.366415	3478.542347
876.677169	3483.278511
876.987882	3501.673682
877.298554	3519.940303
877.609183	3563.274061
877.919771	3606.166719
878.230317	3670.519568
878.540822	3772.010598
878.851285	3926.063218
879.161707	4144.607320
879.472087	4514.154144
879.782425	5128.365808
880.092722	6302.382483
880.402977	8225.587716
880.713191	10589.863664
881.023363	12966.346767
881.333494	14302.784378
881.643583	14763.147588
881.953631	14350.047715
882.263637	13504.774765
882.573602	12469.377218
882.883526	11524.165913
883.193408	10567.042361
883.503248	9656.869596
883.813048	8830.503493
884.122806	8073.125580
884.432522	7310.709034
884.742197	6658.996227
885.051831	6098.404795
885.361424	5605.301811
885.670975	5214.685485
885.980485	4893.798399
886.289954	4629.886433
886.599382	4413.789812
886.908768	4239.086105
887.218113	4075.425045
887.527417	3945.431331
887.836680	3821.454235
888.145901	3726.173907
888.455082	3649.462668
888.764221	3579.667893
889.073319	3521.124974
889.382376	3490.399141
889.691392	3465.463074
890.000366	3460.943679
890.309300	3453.918831
890.618193	3453.298769
890.927044	3450.339612
891.235855	3457.215746
891.544625	3469.427941
891.853353	3501.519927
892.162041	3559.740212
892.470687	3650.208759
892.779293	3768.265021
893.087858	3943.122483
893.396381	4219.271849
893.704864	4622.715392
894.013306	5188.920148
894.321707	5755.258494
894.630068	6108.555159
894.938387	6143.447505
895.246665	5970.019210
895.554903	5653.217979
895.863100	5320.403522
896.171256	5051.170619
896.479371	4812.666069
896.787446	4590.958643
897.095480	4398.252976
897.403473	4250.227055
897.711425	4106.092904
898.019336	3983.550016
898.327207	3861.758260
898.635038	3763.087756
898.942827	3658.836694
899.250576	3572.685895
899.558284	3489.837053
899.865952	3436.874690
900.173579	3372.010164
900.481165	3330.750840
900.788711	3286.290384
901.096216	3252.585229
901.403681	3226.020869
901.711105	3214.360680
902.018489	3210.032849
902.325832	3243.735483
902.633135	3303.125317
902.940397	3468.770071
903.247619	3871.404508
903.554800	4621.129949
903.861941	5573.285443
904.169041	6274.157062
904.476101	6481.464432
904.783121	6208.455704
905.090100	5808.485517
905.397039	5396.903032
905.703938	5040.097724
906.010796	4720.523859
906.317614	4469.270230
906.624391	4235.542173
906.931129	4041.399777
907.237826	3862.116182
907.544483	3692.120912
907.851099	3521.578678
908.157675	3365.580172
908.464211	3225.635221
908.770707	3128.051085
909.077163	3050.094682
909.383578	2988.839622
909.689954	2945.586522
909.996289	2915.057294
910.302584	2893.334962
910.608839	2882.309958
910.915054	2867.869573
911.221229	2864.774305
911.527363	2872.514997
911.833458	2879.491953
912.139513	2891.593243
912.445527	2900.584141
912.751502	2934.062444
913.057436	2980.718323
913.363331	3035.024153
913.669186	3122.687297
913.975000	3241.232551
914.280775	3422.570416
914.586510	3688.624872
914.892205	4054.592477
915.197859	4553.298703
915.503475	5133.583402
915.809050	5625.332836
916.114585	5914.450571
916.420081	5977.623790
916.725536	5905.782307
917.030952	5670.930073
917.336328	5468.678980
917.641665	5257.189974
917.946961	5030.504409
918.252218	4836.810675
918.557435	4607.380202
918.862612	4414.891304
919.167750	4245.236312
919.472848	4054.272363
919.777906	3887.422774
920.082925	3731.666244
920.387904	3582.969849
920.692843	3466.486428
920.997743	3370.220554
921.302603	3277.518776
921.607423	3214.567367
921.912204	3147.683859
922.216946	3104.541664
922.521647	3055.007286
922.826310	3014.725947
923.130932	2975.036942
923.435516	2936.356169
923.740059	2911.692324
924.044564	2879.174361
924.349028	2854.878520
924.653454	2824.566062
924.957840	2801.585962
925.262186	2783.089968
925.566493	2759.197420
925.870761	2735.027608
926.174989	2725.850187
926.479178	2712.153372
926.783328	2694.615198
927.087438	2681.530883
927.391509	2670.384892
927.695541	2658.165135
927.999533	2648.599546
928.303486	2640.195942
928.607400	2635.318626
928.911275	2629.143212
929.215110	2622.940072
929.518906	2619.018055
929.822663	2620.757253
930.126381	2616.951182
930.430060	2626.242028
930.733699	2622.735906
931.037299	2628.021556
931.340861	2626.990640
931.644383	2632.253604
931.947866	2627.386370
932.251309	2628.770167
932.554714	2624.848149
932.858080	2624.396966
933.161407	2620.638786
933.464694	2614.405399
933.767943	2613.941613
934.071153	2608.749224
934.374323	2604.378544
934.677455	2604.111363
934.980548	2600.527102
935.283602	2599.682709
935.586617	2596.090887
935.889593	2599.259252
936.192530	2600.985847
936.495428	2604.081116
936.798287	2615.451438
937.101108	2628.301340
937.403890	2652.143477
937.706632	2677.467713
938.009336	2707.777651
938.312002	2736.923082
938.614628	2762.305291
938.917216	2781.013013
939.219765	2789.416617
939.522275	2796.297792
939.824747	2797.220323
940.127179	2790.301339
940.429573	2784.511574
940.731929	2785.794547
941.034246	2778.124432
941.336524	2775.165275
941.638763	2766.650766
941.940964	2762.610281
942.243126	2744.777199
942.545250	2735.786301
942.847335	2723.354816
943.149381	2708.122970
943.451389	2697.733152
943.753359	2681.674556
944.055290	2670.964625
944.357182	2666.316681
944.659036	2661.136895
944.960851	2656.781338
945.262628	2653.330668
945.564367	2654.986687
945.866067	2653.693632
946.167729	2646.706592
946.469352	2647.009062
946.770937	2650.217756
947.072484	2642.522435
947.373992	2642.393885
947.675462	2636.057155
947.976893	2634.179325
948.278286	2629.922071
948.579641	2624.911164
948.880958	2620.779938
949.182236	2623.671040
949.483476	2621.505864
949.784678	2618.874382
950.085841	2618.085441
950.386967	2623.431585
950.688054	2630.993316
950.989103	2635.953811
951.290114	2647.508136
951.591087	2657.527429
951.892021	2667.108142
952.192917	2682.725637
952.493776	2692.467666
952.794596	2695.636032
953.095378	2695.890610
953.396122	2695.885569
953.696828	2689.657223
953.997496	2686.423323
954.298126	2677.926458
954.598718	2671.912362
954.899272	2658.593633
955.199788	2647.830770
955.500266	2635.878194
955.800706	2620.689197
956.101108	2603.894593
956.401472	2594.021493
956.701798	2580.612024
957.002087	2563.164591
957.302337	2557.846173
957.602550	2547.363094
957.902724	2532.433717
958.202861	2525.489527
958.502960	2516.634741
958.803022	2509.788854
959.103045	2504.445231
959.403031	2498.778974
959.702979	2491.829743
960.002889	2489.160452
960.302762	2485.803044
960.602596	2479.698207
960.902393	2476.116467
961.202153	2470.820735
961.501875	2469.431897
961.801559	2468.501804
962.101205	2464.952832
962.400814	2467.337297
962.700385	2460.781277
962.999918	2460.072995
963.299414	2457.764146
963.598873	2458.487552
963.898293	2454.280709
964.197677	2453.763991
964.497022	2451.225770
964.796331	2451.011521
965.095601	2452.901953
965.394835	2450.761983
965.694030	2452.256686
965.993189	2451.371963
966.292309	2448.717796
966.591393	2445.917435
966.890439	2452.188630
967.189447	2449.136211
967.488419	2448.606890
967.787353	2451.109823
968.086249	2444.931889
968.385108	2450.053701
968.683930	2448.483382
968.982714	2454.021089
969.281462	2452.841459
969.580172	2454.840277
969.878844	2456.418158
970.177480	2458.994188
970.476078	2464.947790
970.774639	2464.965434
971.073162	2468.443831
971.371649	2468.282514
971.670098	2466.087091
971.968510	2472.317957
972.266885	2468.244705
972.565223	2475.209059
972.863524	2475.793833
973.161788	2479.100830
973.460014	2478.770634
973.758204	2480.938330
974.056356	2478.813484
974.354471	2481.865903
974.652550	2480.494709
974.950591	2481.699545
975.248595	2479.461272
975.546563	2480.882878
975.844493	2477.127218
976.142386	2476.134111
976.440243	2473.479943
976.738062	2475.214100
977.035845	2469.943574
977.333590	2468.121197
977.631299	2464.426031
977.928971	2464.415949
978.226606	2460.080556
978.524204	2459.374795
978.821765	2460.256997
979.119290	2457.882613
979.416777	2457.605350
979.714228	2458.059054
980.011642	2459.077367
980.309020	2466.185394
980.606360	2465.850157
980.903664	2475.453555
981.200931	2489.014259
981.498162	2505.390447
981.795356	2534.878677
982.092513	2573.272104
982.389633	2617.306583
982.686717	2659.616987
982.983764	2690.279806
983.280775	2712.440718
983.577749	2709.433670
983.874686	2699.926053
984.171587	2683.819567
984.468451	2668.673420
984.765279	2650.714310
985.062070	2633.140847
985.358824	2613.656788
985.655543	2593.587954
985.952224	2569.032494
986.248869	2545.273536
986.545478	2516.791017
986.842050	2497.019611
987.138586	2479.725933
987.435086	2466.412246
987.731549	2456.657613
988.027975	2449.005141
988.324366	2444.142948
988.620719	2441.551795
988.917037	2437.692792
989.213318	2435.230188
989.509563	2436.543409
989.805772	2431.487132
990.101944	2426.398087
990.398080	2431.073757
990.694180	2426.864394
990.990244	2430.257090
991.286271	2428.686771
991.582262	2429.624425
991.878217	2432.439910
992.174136	2431.040990
992.470019	2432.301278
992.765865	2434.620209
993.061676	2434.897472
993.357450	2437.327308
993.653188	2440.142793
993.948890	2445.294852
994.244556	2452.589402
994.540186	2462.336473
994.835780	2470.571198
995.131337	2487.237252
995.426859	2500.815600
995.722345	2521.590195
996.017795	2538.530992
996.313208	2554.236707
996.608586	2563.532595
996.903928	2567.757082
997.199234	2565.811197
997.494504	2559.547563
997.789738	2554.420709
998.084936	2546.022147
998.380099	2535.997813
998.675225	2523.732685
998.970316	2511.563340
999.265371	2496.013901
999.560390	2485.021665
999.855373	2470.074644
1000.150320	2461.481997
1000.445232	2454.394135
1000.740108	2449.388269
1001.034948	2443.832918
1001.329752	2434.635332
1001.624521	2435.255394
1001.919254	2424.825247
1002.213951	2425.578899
1002.508613	2421.493044
1002.803239	2422.052612
1003.097829	2416.860224
1003.392384	2422.392890
1003.686903	2421.961872
1003.981386	2418.117992
1004.275834	2416.721592
1004.570246	2416.953485
1004.864623	2415.027764
1005.158964	2417.160173
1005.453270	2414.569019
1005.747540	2412.512229
1006.041775	2411.496436
1006.335974	2414.163207
1006.630138	2412.368556
1006.924266	2410.838566
1007.218359	2409.961405
1007.512416	2412.832342
1007.806438	2412.935686
1008.100425	2412.829821
1008.394376	2411.151117
1008.688292	2412.431570
1008.982172	2409.550551
1009.276017	2410.054666
1009.569827	2409.391754
1009.863602	2409.905952
1010.157341	2406.777916
1010.451045	2408.015519
1010.744714	2409.560633
1011.038347	2407.783626
1011.331945	2408.290262
1011.625508	2409.873185
1011.919036	2406.677093
1012.212528	2409.606003
1012.505986	2406.346898
1012.799408	2408.096178
1013.092795	2405.434449
1013.386147	2407.425704
1013.679464	2407.541651
1013.972745	2410.362177
1014.265992	2406.016702
1014.559204	2407.276990
1014.852380	2407.118194
1015.145521	2406.450241
1015.438628	2406.422515
1015.731699	2406.447721
1016.024736	2404.368245
1016.317737	2407.516445
1016.610703	2406.046949
1016.903635	2406.641805
1017.196531	2404.254819
1017.489393	2407.869326
1017.782219	2404.703481
1018.075011	2411.128432
1018.367768	2410.062228
1018.660490	2409.933678
1018.953177	2409.933678
1019.245829	2409.933678
