Dividing Wavelength (nm)	Counts (n)	Blue Motor Position (mm): 17.000000	Red Motor Position (mm): 0.000000	
326.493990	1975.671042
326.888308	1975.671042
327.282561	1975.671042
327.676750	1950.392176
328.070874	1952.756477
328.464933	1958.556325
328.858929	1966.791050
329.252859	1980.092134
329.646726	1995.525627
330.040528	2008.463748
330.434265	2028.530061
330.827938	2048.608977
331.221547	2068.627398
331.615091	2089.097004
332.008571	2107.295569
332.401986	2130.482356
332.795338	2147.342495
333.188625	2170.030208
333.581847	2186.645851
333.975006	2205.638398
334.368100	2224.714124
334.761129	2241.647360
335.154095	2256.549011
335.546996	2288.814916
335.939833	2347.345233
336.332606	2359.605319
336.725315	2371.247864
337.117960	2380.866385
337.510540	2385.988198
337.903056	2396.022614
338.295508	2401.048645
338.687896	2409.376631
339.080220	2418.349885
339.472480	2421.114958
339.864676	2425.286513
340.256807	2431.436720
340.648875	2431.224992
341.040879	2434.892431
341.432818	2434.221958
341.824694	2435.333532
342.216506	2434.358069
342.608253	2432.276072
342.999937	2432.838161
343.391557	2432.127358
343.783113	2431.575352
344.174605	2430.413366
344.566033	2428.268355
344.957397	2427.179466
345.348697	2424.316090
345.739934	2423.244845
346.131106	2422.080339
346.522215	2420.547828
346.913260	2418.642272
347.304241	2415.607497
347.695159	2414.097672
348.086012	2415.577250
348.476802	2411.844276
348.867528	2409.338822
349.258191	2410.652043
349.648789	2407.763462
350.039324	2407.597104
350.429796	2405.653739
350.820203	2406.021743
351.210548	2402.573594
351.600828	2404.574932
351.991045	2401.603172
352.381198	2399.957235
352.771288	2405.744480
353.161314	2400.247101
353.551276	2402.825652
353.941175	2400.448747
354.331010	2399.233829
354.720782	2405.323543
355.110490	2407.385375
355.500135	2402.210631
355.889717	2402.361865
356.279235	2402.152658
356.668689	2404.832031
357.058080	2403.120559
357.447408	2401.585528
357.836672	2399.679972
358.225873	2401.895559
358.615010	2400.559653
359.004084	2405.515107
359.393095	2409.845458
359.782043	2406.926630
360.170927	2408.567526
360.559748	2407.828997
360.948505	2409.041394
361.337199	2409.979049
361.725830	2409.878226
362.114398	2410.044584
362.502903	2408.413771
362.891344	2408.532238
363.279722	2409.301014
363.668037	2414.506005
364.056289	2412.895356
364.444478	2412.925603
364.832603	2412.635737
365.220665	2413.981725
365.608665	2413.207908
365.996601	2413.349060
366.384474	2414.158165
366.772284	2418.281829
367.160031	2414.301838
367.547715	2416.308218
367.935336	2413.235634
368.322893	2417.394586
368.710388	2418.309556
369.097820	2418.604463
369.485189	2417.820564
369.872495	2419.557241
370.259738	2416.892991
370.646918	2417.611356
371.034035	2415.869637
371.421090	2418.483475
371.808081	2416.182189
372.195010	2417.306366
372.581875	2419.731161
372.968678	2420.646130
373.355418	2418.972467
373.742096	2421.304001
374.128710	2419.199319
374.515262	2421.722417
374.901751	2419.038002
375.288177	2420.930956
375.674540	2423.035637
376.060841	2424.323652
376.447079	2421.372057
376.833254	2422.372726
377.219367	2416.981212
377.605417	2422.526481
377.991404	2419.282498
378.377329	2420.865421
378.763191	2419.579926
379.148991	2426.990423
379.534727	2423.239804
379.920402	2424.389187
380.306013	2423.028076
380.691563	2426.176276
381.077049	2425.236101
381.462474	2425.624270
381.847835	2424.106882
382.233134	2426.025042
382.618371	2426.196441
383.003545	2423.169228
383.388657	2427.791966
383.773706	2424.863056
384.158693	2423.804413
384.543618	2429.763057
384.928480	2427.035793
385.313280	2427.292892
385.698017	2425.851122
386.082692	2427.577717
386.467305	2428.318767
386.851856	2429.390012
387.236344	2429.768098
387.620770	2431.020825
388.005133	2431.640887
388.389435	2429.589137
388.773674	2430.199117
389.157851	2430.357913
389.541965	2429.604261
389.926018	2430.743562
390.310008	2431.149374
390.693936	2433.266659
391.077802	2430.428489
391.461606	2431.802204
391.845348	2434.143820
392.229027	2432.974272
392.612645	2433.924530
392.996200	2433.798501
393.379694	2432.860846
393.763125	2435.769592
394.146494	2432.875970
394.529801	2433.231371
394.913047	2432.576021
395.296230	2436.384613
395.679351	2433.861515
396.062410	2436.878646
396.445408	2434.330343
396.828343	2434.708429
397.211217	2433.753130
397.594028	2435.913265
397.976778	2434.559715
398.359466	2433.324632
398.742092	2433.979982
399.124656	2436.916454
399.507158	2435.202462
399.889598	2437.662545
400.271977	2433.848912
400.654294	2437.549119
401.036549	2439.157247
401.418742	2438.902669
401.800874	2440.304110
402.182944	2439.615992
402.564952	2441.138421
402.946898	2438.706064
403.328783	2441.629933
403.710606	2440.352001
404.092367	2438.910231
404.474067	2439.633636
404.855705	2438.080961
405.237282	2438.743873
405.618797	2440.251178
406.000250	2439.671445
406.381642	2441.211518
406.762972	2443.311158
407.144240	2443.217897
407.525447	2441.569439
407.906593	2441.851744
408.287677	2438.776640
408.668700	2441.937444
409.049661	2444.558844
409.430560	2445.007506
409.811399	2443.233020
410.192176	2441.403081
410.572891	2443.996755
410.953545	2442.668411
411.334138	2442.439038
411.714669	2443.575819
412.095139	2444.057249
412.475547	2444.135387
412.855894	2443.401899
413.236180	2444.170675
413.616405	2446.729060
413.996568	2447.286108
414.376670	2442.703699
414.756711	2443.399378
415.136691	2443.472475
415.516609	2446.353494
415.896466	2447.202929
416.276262	2446.802157
416.655997	2443.477516
417.035670	2443.991714
417.415283	2446.643361
417.794834	2441.214038
418.174324	2446.103957
418.553753	2443.180088
418.933121	2445.804009
419.312428	2445.393155
419.691674	2449.756273
420.070859	2447.860799
420.449983	2447.891046
420.829045	2449.000100
421.208047	2448.914401
421.586988	2448.153186
421.965867	2447.633947
422.344686	2449.534463
422.723444	2449.481530
423.102141	2449.307611
423.480777	2447.054215
423.859352	2450.701490
424.237866	2450.351129
424.616319	2450.220059
424.994712	2450.920780
425.373044	2450.862807
425.751314	2451.505554
426.129524	2448.453135
426.507673	2452.430605
426.885762	2447.702003
427.263789	2451.329113
427.641756	2452.289453
428.019662	2451.918928
428.397508	2449.415995
428.775292	2453.451439
429.153016	2451.845832
429.530679	2452.163424
429.908282	2451.891202
430.285824	2452.420523
430.663305	2451.190482
431.040726	2451.566048
431.418086	2451.896243
431.795385	2453.327931
432.172624	2453.050667
432.549802	2454.104268
432.926920	2453.045626
433.303977	2452.670060
433.680974	2453.234669
434.057910	2454.028651
434.434786	2457.353292
434.811601	2456.730710
435.188355	2457.756584
435.565050	2456.904629
435.941683	2457.522171
436.318257	2453.148970
436.694770	2453.209464
437.071222	2451.964299
437.447614	2451.747529
437.823946	2453.867334
438.200218	2455.982098
438.576429	2458.626183
438.952580	2459.941925
439.328670	2457.827161
439.704700	2457.743982
440.080670	2458.873200
440.456580	2458.245576
440.832429	2459.609208
441.208218	2456.050154
441.583947	2459.647017
441.959616	2458.900926
442.335224	2460.945114
442.710773	2459.503344
443.086261	2459.344548
443.461689	2462.404528
443.837057	2460.400670
444.212365	2464.025259
444.587612	2462.553242
444.962800	2460.420834
445.337927	2461.189610
445.712995	2460.481328
446.088002	2465.772019
446.462949	2461.565176
446.837837	2462.938891
447.212664	2464.231947
447.587431	2465.003243
447.962139	2470.286372
448.336786	2473.537917
448.711374	2470.114973
449.085901	2470.341825
449.460369	2467.538943
449.834776	2468.864767
450.209124	2469.497432
450.583412	2471.319809
450.957640	2471.735704
451.331808	2473.326188
451.705917	2469.013481
452.079965	2471.410550
452.453954	2466.543316
452.827883	2471.826445
453.201752	2469.993985
453.575562	2471.503811
453.949311	2473.225365
454.323001	2471.796198
454.696632	2472.249902
455.070202	2473.979018
455.443713	2475.566981
455.817164	2473.280818
456.190556	2472.138996
456.563888	2475.327526
456.937160	2470.331743
457.310373	2478.261478
457.683526	2474.934316
458.056619	2477.026395
458.429653	2475.703092
458.802628	2478.977322
459.175542	2477.104533
459.548398	2478.299286
459.921194	2484.318424
460.293930	2484.207519
460.666607	2486.581902
461.039224	2490.632469
461.411782	2486.508805
461.784280	2488.202633
462.156719	2485.372025
462.529099	2487.121306
462.901419	2485.440081
463.273680	2484.817498
463.645882	2487.718682
464.018024	2485.840853
464.390106	2489.825885
464.762130	2492.091883
465.134094	2496.218068
465.505999	2502.128821
465.877845	2512.354801
466.249631	2511.996879
466.621358	2511.182733
466.993026	2511.583505
467.364634	2510.295490
467.736184	2504.757782
468.107674	2503.540344
468.479105	2504.596465
468.850477	2502.983296
469.221790	2505.773575
469.593043	2503.192504
469.964238	2501.382730
470.335373	2502.466578
470.706449	2503.373986
471.077467	2506.255005
471.448425	2517.416120
471.819324	2523.457942
472.190164	2523.462984
472.560945	2515.724813
472.931667	2512.311951
473.302330	2511.737260
473.672934	2509.226765
474.043479	2510.345901
474.413965	2510.741632
474.784393	2505.534120
475.154761	2512.400172
475.525070	2512.790861
475.895321	2514.348577
476.265513	2512.695079
476.635645	2522.419465
477.005719	2525.290402
477.375734	2525.744106
477.745691	2529.688809
478.115588	2530.142512
478.485427	2537.031249
478.855207	2545.202960
479.224928	2551.602704
479.594591	2557.989846
479.964194	2558.138560
480.333739	2561.715259
480.703226	2561.347255
481.072653	2564.893707
481.442022	2567.691547
481.811333	2572.233627
482.180584	2570.317988
482.549777	2574.529872
482.918912	2573.259501
483.287988	2572.503328
483.657005	2577.292424
484.025964	2574.570201
484.394864	2576.712692
484.763706	2580.506160
485.132489	2579.369380
485.501213	2579.918866
485.869879	2583.288877
486.238487	2584.904567
486.607036	2584.629824
486.975527	2589.784404
487.343959	2594.500403
487.712333	2594.659199
488.080648	2599.269335
488.448905	2601.497525
488.817104	2602.687237
489.185244	2609.951540
489.553326	2618.655092
489.921350	2630.653038
490.289315	2643.686941
490.657222	2651.825884
491.025070	2656.005001
491.392861	2655.526091
491.760593	2655.538694
492.128267	2652.675318
492.495883	2648.586943
492.863440	2645.020326
493.230939	2640.531179
493.598380	2641.176447
493.965763	2641.534368
494.333088	2641.403298
494.700354	2641.894811
495.067563	2645.534524
495.434713	2646.331026
495.801805	2652.335041
496.168839	2655.208498
496.535815	2658.407110
496.902733	2659.337203
497.269593	2660.509272
497.636395	2663.561690
498.003139	2670.810869
498.369825	2671.241888
498.736453	2674.911848
499.103023	2675.093330
499.469535	2676.981242
499.835989	2683.605318
500.202385	2684.532890
500.568723	2690.224353
500.935003	2694.952955
501.301226	2698.317925
501.667390	2705.617516
502.033497	2713.217056
502.399546	2712.327292
502.765537	2712.349977
503.131470	2721.096379
503.497345	2728.360682
503.863163	2725.121740
504.228923	2732.300343
504.594625	2741.054307
504.960269	2743.340470
505.325856	2751.902870
505.691385	2755.426637
506.056856	2761.594488
506.422270	2770.749224
506.787625	2775.883639
507.152924	2783.647016
507.518164	2792.590023
507.883347	2791.798562
508.248472	2801.165026
508.613540	2814.077941
508.978550	2829.544201
509.343503	2834.119048
509.708398	2845.249916
510.073236	2857.880527
510.438016	2868.966024
510.802738	2872.799822
511.167403	2892.230949
511.532010	2905.542116
511.896561	2924.133891
512.261053	2944.359001
512.625488	2949.977367
512.989866	2959.641258
513.354186	2974.873105
513.718449	2987.488592
514.082655	3017.685104
514.446803	3026.746578
514.810894	3054.596432
515.174927	3070.871798
515.538904	3086.529621
515.902822	3112.786471
516.266684	3124.749129
516.630488	3151.631082
516.994235	3172.128414
517.357925	3200.386602
517.721558	3228.997670
518.085133	3257.608739
518.448651	3286.411371
518.812112	3305.570277
519.175516	3334.803928
519.538863	3370.770040
519.902152	3395.766601
520.265385	3435.362344
520.628560	3469.198569
520.991678	3494.399297
521.354739	3533.647200
521.717743	3576.330650
522.080690	3609.960187
522.443580	3660.054133
522.806413	3702.500648
523.169189	3738.703694
523.531908	3784.187505
523.894569	3824.471365
524.257174	3868.014332
524.619722	3925.203702
524.982213	3969.386894
525.344647	4012.929861
525.707025	4061.551790
526.069345	4128.082418
526.431608	4178.972866
526.793815	4241.155498
527.155964	4276.123462
527.518057	4339.430272
527.880093	4384.684710
528.242072	4461.771514
528.603995	4511.510058
528.965860	4569.606836
529.327669	4633.599243
529.689421	4690.468499
530.051117	4756.618520
530.412755	4825.881453
530.774337	4895.741763
531.135862	4953.031956
531.497331	5029.397875
531.858743	5086.337708
532.220098	5180.733314
532.581396	5237.743723
532.942638	5287.683913
533.303824	5384.453902
533.664953	5453.046362
534.026025	5512.683212
534.387040	5621.806549
534.747999	5697.338157
535.108902	5789.808042
535.469748	5837.860321
535.830537	5920.323515
536.191270	6024.559453
536.551947	6083.351910
536.912567	6190.262180
537.273131	6292.247243
537.633638	6333.471279
537.994089	6457.284538
538.354483	6508.822774
538.714821	6653.292161
539.075103	6774.877230
539.435328	6859.089705
539.795497	6937.378824
540.155609	7033.732918
540.515665	7180.659868
540.875665	7218.304684
541.235609	7350.342586
541.595496	7452.806558
541.955328	7638.641133
542.315102	7666.954773
542.674821	7748.472752
543.034483	7860.421655
543.394090	7964.448385
543.753640	8065.221051
544.113134	8305.699213
544.472571	8286.862941
544.831953	8565.979027
545.191278	8580.384124
545.550548	8656.056884
545.909761	8838.571859
546.268918	8989.115837
546.628019	9161.500613
546.987064	9213.484992
547.346053	9217.364159
547.704986	9473.994178
548.063863	9537.462305
548.422684	9692.928969
548.781449	9801.744796
549.140158	9991.748405
549.498811	10107.326939
549.857408	10130.178489
550.215949	10414.623074
550.574434	10531.628255
550.932864	10632.242124
551.291237	10901.601057
551.649555	10977.477984
552.007817	11161.384317
552.366022	11237.591440
552.724173	11409.663665
553.082267	11648.707618
553.440305	11859.127900
553.798288	11866.324148
554.156215	12084.316243
554.514086	12282.683126
554.871902	12385.452088
555.229661	12553.738407
555.587365	12671.865244
555.945014	12863.978576
556.302606	13017.370805
556.660143	13237.671749
557.017625	13420.718566
557.375050	13536.788612
557.732421	13791.535760
558.089735	13964.119662
558.446994	14101.057565
558.804197	14399.224171
559.161345	14558.854828
559.518437	14521.537687
559.875474	14776.007571
560.232455	15007.310833
560.589381	15233.930863
560.946251	15325.516026
561.303065	15705.485435
561.659825	15834.417986
562.016528	15913.372538
562.373177	16014.301479
562.729770	16352.015937
563.086307	16383.472737
563.442789	16720.700723
563.799216	16930.740398
564.155587	17049.744396
564.511904	17253.901045
564.868164	17476.742730
565.224370	17765.452131
565.580520	17884.756078
565.936615	18166.049942
566.292654	18249.085308
566.648638	18545.187561
567.004567	18736.421212
567.360441	18952.230487
567.716260	19094.764071
568.072023	19420.460418
568.427732	19628.299630
568.783385	19658.435647
569.138982	20012.216263
569.494525	20198.265087
569.850013	20305.180398
570.205445	20519.336175
570.560823	20703.144206
570.916145	20839.305771
571.271412	21075.529199
571.626625	21160.787714
571.981782	21405.971793
572.336884	21468.245166
572.691931	21829.990805
573.046923	21843.843895
573.401860	21980.524700
573.756743	22192.439684
574.111570	22443.216923
574.466342	22576.429413
574.821059	22845.627029
575.175722	22821.797495
575.530330	23032.638713
575.884882	23111.230302
576.239380	23297.556389
576.593823	23486.725687
576.948211	23648.763495
577.302544	23605.568368
577.656823	23839.303987
578.011047	24150.171780
578.365216	24210.158990
578.719330	24305.862775
579.073389	24433.376241
579.427394	24675.391955
579.781344	24859.426838
580.135239	24879.697318
580.489080	25114.720951
580.842866	25028.423959
581.196597	25490.909495
581.550273	25646.850028
581.903895	25773.095643
582.257463	26226.502062
582.610975	26059.407976
582.964434	26418.161690
583.317837	26408.079382
583.671186	26505.877767
584.024481	26835.906985
584.377721	26746.567657
584.730906	27105.265918
585.084037	27323.177354
585.437113	27337.542122
585.790135	27546.427373
586.143103	27489.270771
586.496016	27748.436490
586.848874	27955.690927
587.201679	28154.476227
587.554428	27997.766918
587.907124	28299.830336
588.259765	28327.959974
588.612352	28664.588064
588.964884	28443.160422
589.317362	28817.312340
589.669786	28935.973540
590.022155	28974.230856
590.374470	29428.133828
590.726731	29281.950449
591.078937	29117.387023
591.431090	29366.853562
591.783188	29297.119281
592.135232	29236.413706
592.487222	29558.392202
592.839157	29787.147161
593.191038	29722.048221
593.542866	29694.407574
593.894639	29421.466902
594.246358	29784.745051
594.598022	29913.407900
594.949633	29785.677665
595.301190	29896.704037
595.652692	29939.765573
596.004141	30305.634875
596.355535	29746.938918
596.706876	29853.758447
597.058162	29866.968791
597.409395	30349.334117
597.760573	30556.041590
598.111698	30361.175788
598.462768	30502.764155
598.813785	30673.870999
599.164748	30404.746480
599.515657	30819.295685
599.866511	30557.780788
600.217312	31157.627684
600.568060	30471.181326
600.918753	31180.448987
601.269392	31279.472372
601.619978	31117.106889
601.970510	31397.642060
602.320988	31661.841371
602.671412	32025.152287
603.021783	31936.642229
603.372100	31777.021654
603.722363	31984.228201
604.072572	32151.639879
604.422728	32277.993879
604.772830	32231.766498
605.122878	32407.564136
605.472872	32468.327684
605.822813	32821.069821
606.172701	32774.005609
606.522534	33063.287181
606.872314	33383.402971
607.222041	33291.560710
607.571714	33708.731314
607.921333	33336.283306
608.270899	33695.195816
608.620411	34059.260385
608.969870	34004.180738
609.319276	34085.970939
609.668627	34218.969180
610.017926	34719.916199
610.367171	34952.545285
610.716362	35117.756499
611.065500	35174.580385
611.414585	35405.596302
611.763616	35761.176609
612.112594	35772.569616
612.461518	36041.096758
612.810389	36390.728504
613.159207	36341.632707
613.507971	36498.979721
613.856682	36985.816551
614.205340	36952.572662
614.553945	37636.233782
614.902496	37229.032059
615.250994	37715.609270
615.599439	37868.648618
615.947830	38125.313925
616.296169	38252.272864
616.644454	38426.704349
616.992686	38664.898868
617.340864	39196.337307
617.688990	38991.815174
618.037063	39607.967683
618.385082	39642.378599
618.733048	39961.687804
619.080961	40037.073219
619.428821	40109.842274
619.776628	40269.752716
620.124382	40169.166573
620.472083	40348.964366
620.819731	40518.069872
621.167326	40297.022837
621.514868	40334.881903
621.862357	40000.645841
622.209793	40082.713305
622.557176	39829.430612
622.904506	39652.755814
623.251783	39379.762210
623.599007	39227.370650
623.946179	39083.423022
624.293297	39072.445910
624.640363	38570.780526
624.987376	38633.358889
625.334336	38431.178373
625.681243	38157.295005
626.028097	38163.752723
626.374899	38085.836649
626.721647	38091.228163
627.068343	38029.912609
627.414987	37842.595935
627.761577	37674.256685
628.108115	38040.975421
628.454600	37545.041829
628.801032	37764.102649
629.147412	37755.759539
629.493739	37807.756521
629.840014	37513.781634
630.186236	37869.939153
630.532405	37524.282358
630.878521	37778.268291
631.224585	37674.917076
631.570597	37434.413708
631.916556	37605.386961
632.262462	37589.640917
632.608316	37630.353276
632.954117	37562.930364
633.299866	37574.870337
633.645562	37535.057824
633.991206	37105.838862
634.336797	36719.847794
634.682336	36755.004801
635.027823	36553.149440
635.373257	36411.455208
635.718639	36218.212658
636.063968	36102.490450
636.409245	35576.705666
636.754470	35660.565260
637.099642	35454.964321
637.444762	35010.281620
637.789829	35169.440929
638.134845	34864.816605
638.479808	34843.585786
638.824719	34768.288591
639.169577	34404.402983
639.514383	34495.239534
639.859137	34219.216197
640.203839	34464.382632
640.548489	34142.172242
640.893086	34220.274839
641.237632	33990.350333
641.582125	34129.095489
641.926566	34085.759210
642.270955	34071.218002
642.615292	34097.268164
642.959576	34098.455356
643.303809	34109.198055
643.647990	34259.293370
643.992118	34252.911269
644.336195	34259.278246
644.680219	34358.825911
645.024192	34662.207591
645.368112	35183.014236
645.711981	35207.136157
646.055797	36078.333241
646.399562	36010.426378
646.743274	36929.471574
647.086935	37375.948926
647.430544	37293.150495
647.774101	37419.149094
648.117606	37659.128182
648.461059	37962.454409
648.804460	37593.217616
649.147810	37017.979112
649.491108	36767.335464
649.834354	36436.998734
650.177548	35651.899517
650.520690	35214.735696
650.863781	35220.863219
651.206820	35106.542452
651.549807	34679.811300
651.892742	34228.204574
652.235626	34049.198242
652.578458	33915.143879
652.921238	33338.173739
653.263967	33673.516334
653.606644	33380.443814
653.949269	33331.955476
654.291843	32955.827425
654.634365	33361.068139
654.976836	32954.524287
655.319255	32978.104284
655.661622	32977.733759
656.003938	32761.138064
656.346203	32646.761845
656.688416	32854.439739
657.030577	32661.466891
657.372687	32527.742723
657.714746	32785.161682
658.056753	32917.181940
658.398708	32377.483571
658.740612	32454.706486
659.082465	32726.477611
659.424266	32550.669891
659.766016	32676.953315
660.107715	32565.989957
660.449362	32685.999666
660.790958	32685.561085
661.132503	32715.918914
661.473996	32745.729777
661.815438	32859.405276
662.156829	33038.852709
662.498168	32835.217820
662.839456	32852.861858
663.180693	33014.173740
663.521879	33177.136600
663.863013	33138.521361
664.204097	33141.309119
664.545129	33606.668113
664.886110	33571.012032
665.227040	33640.796725
665.567918	33752.155813
665.908746	33811.056655
666.249522	33985.944364
666.590248	33991.535004
666.930922	34098.689770
667.271545	34067.560645
667.612118	34154.565919
667.952639	33943.006336
668.293109	33998.108668
668.633528	33905.222888
668.973896	33838.183104
669.314213	33876.821027
669.654480	33608.644246
669.994695	33653.102181
670.334859	33539.744275
670.674973	33444.882363
671.015035	33608.639204
671.355047	33577.212651
671.695008	33515.569422
672.034918	33424.926955
672.374777	33513.736963
672.714585	33357.899774
673.054342	33578.591407
673.394049	33347.736808
673.733705	33620.866523
674.073310	33292.465597
674.412864	33367.251114
674.752368	32972.221258
675.091820	33273.667134
675.431223	32849.350694
675.770574	32587.011569
676.109875	32431.297888
676.449125	32176.523014
676.788324	32116.462707
677.127473	31574.165623
677.466571	31508.209687
677.805619	31165.839723
678.144616	31163.077171
678.483562	31087.227970
678.822458	30779.508378
679.161303	30704.806040
679.500098	30607.055546
679.838842	30490.438534
680.177535	30655.243936
680.516179	30939.073500
680.854771	31181.764728
681.193314	32037.873639
681.531805	33150.844462
681.870247	33927.419088
682.208638	34660.564175
682.546978	34891.716202
682.885268	34973.430785
683.223508	34447.646001
683.561697	34109.573621
683.899836	33934.930408
684.237925	33425.680608
684.575963	33275.718884
684.913951	32837.584641
685.251889	32991.521315
685.589776	32973.494149
685.927614	32964.130206
686.265401	33111.389871
686.603137	33208.137175
686.940824	33719.100967
687.278460	34111.446410
687.616046	34257.470992
687.953582	34852.876632
688.291068	34710.035538
688.628504	34986.552909
688.965889	34922.593269
689.303224	34539.768046
689.640510	34198.406313
689.977745	33474.723473
690.314930	32668.771523
690.652065	32144.695689
690.989150	31394.942522
691.326185	30505.546872
691.663170	29804.952516
692.000105	29053.734894
692.336990	28395.400531
692.673825	27942.319267
693.010610	27420.441377
693.347345	26855.832146
693.684030	26215.320782
694.020665	25933.180004
694.357251	25273.166937
694.693786	25230.997685
695.030272	24982.494006
695.366707	24454.712925
695.703093	24171.836139
696.039429	24163.122504
696.375716	23904.004676
696.711952	23875.018041
697.048139	23709.557290
697.384276	23549.543505
697.720363	23665.311083
698.056400	23467.276915
698.392388	23253.403443
698.728326	23207.536505
699.064214	23008.791535
699.400053	22944.035393
699.735842	22589.299479
700.071581	22312.764464
700.407270	22026.323582
700.742910	21843.077640
701.078501	21580.705747
701.414042	21292.729833
701.749533	21006.896410
702.084974	20655.283491
702.420366	20856.478462
702.755709	20424.045764
703.091002	20130.401073
703.426246	20161.603295
703.761440	20049.362005
704.096584	19792.482449
704.431679	19741.896991
704.766725	19663.824641
705.101721	19589.596171
705.436668	19687.351706
705.771565	19358.804586
706.106413	19707.970025
706.441212	19691.833292
706.775961	19820.342386
707.110661	19897.167050
707.445311	20256.147615
707.779913	20098.616598
708.114465	20339.256077
708.448967	20629.129985
708.783421	21316.458545
709.117825	21589.003486
709.452180	21797.316566
709.786485	22205.168597
710.120742	23004.133509
710.454949	23031.244834
710.789107	23496.739939
711.123216	24200.346384
711.457275	24315.834178
711.791286	24846.274468
712.125247	24915.297946
712.459159	24617.441371
712.793023	25268.672748
713.126837	24157.592358
713.460602	24402.287446
713.794318	24025.534292
714.127985	23636.826043
714.461602	22760.494543
714.795171	22697.621272
715.128691	21688.538548
715.462162	21161.785862
715.795584	20747.168602
716.128957	20474.313630
716.462281	20079.888712
716.795556	19840.403657
717.128782	19355.918526
717.461960	18805.124577
717.795088	18729.792095
718.128167	18330.237803
718.461198	17878.182414
718.794180	17732.815701
719.127113	17372.605094
719.459997	17182.571238
719.792833	16845.146647
720.125619	16803.410934
720.458357	16490.526680
720.791046	16324.498798
721.123686	16158.385217
721.456278	15937.854901
721.788821	15887.518980
722.121315	15627.155987
722.453761	15709.256218
722.786158	15624.161541
723.118506	15635.315094
723.450805	15497.689074
723.783056	15666.953376
724.115259	15567.004939
724.447412	15501.422048
724.779518	15736.952318
725.111574	15766.833757
725.443582	15962.564117
725.775542	15934.477328
726.107453	16401.648617
726.439315	16286.823735
726.771129	16690.592432
727.102895	17060.497177
727.434612	17256.643432
727.766281	17383.567083
728.097901	17638.893964
728.429473	17672.717586
728.760996	17657.911717
729.092471	17740.695025
729.423897	17614.842619
729.755276	17488.435686
730.086606	17602.234693
730.417887	18123.500083
730.749120	18646.582809
731.080305	18813.644127
731.411442	19143.970774
731.742530	19215.202278
732.073570	19308.428336
732.404562	19591.504248
732.735506	19396.265401
733.066401	19126.563670
733.397249	18599.379965
733.728048	17968.368656
734.058798	17141.800907
734.389501	16464.473997
734.720156	16011.604461
735.050762	15487.677342
735.381320	15127.801972
735.711831	14889.872113
736.042293	14546.259505
736.372707	14557.541608
736.703073	14347.227190
737.033391	14540.696592
737.363661	14502.416590
737.693883	14617.894302
738.024056	14777.958498
738.354182	14964.297188
738.684260	15252.056332
739.014290	15481.648122
739.344272	15655.474668
739.674207	15935.656958
740.004093	16047.636108
740.333931	16037.679830
740.663722	16073.547639
740.993464	16064.770990
741.323159	15894.687501
741.652806	15610.701661
741.982405	15406.814714
742.311956	15061.218412
742.641460	14946.486792
742.970915	14633.592455
743.300323	14307.417198
743.629683	14089.636831
743.958996	13809.172237
744.288260	13542.260785
744.617477	13241.629055
744.946647	13179.338037
745.275768	12901.033577
745.604842	12721.795352
745.933869	12555.734703
746.262847	12504.093123
746.591778	12429.766351
746.920662	12328.166937
747.249498	12332.010816
747.578286	12455.506483
747.907027	12596.673914
748.235720	12809.551758
748.564365	12842.470493
748.892963	12743.928538
749.221514	12797.911734
749.550017	12657.979386
749.878473	12612.455246
750.206881	12389.159857
750.535242	12309.446612
750.863555	12218.199207
751.191821	12117.739093
751.520039	12152.699495
751.848210	12045.892568
752.176334	12087.656007
752.504411	11991.773261
752.832440	11831.557830
753.160421	11898.239692
753.488356	11775.560693
753.816243	11676.426403
754.144082	11541.323480
754.471875	11491.312713
754.799620	11436.437233
755.127318	11408.131154
755.454969	11368.691687
755.782572	11315.444499
756.110129	11322.338277
756.437638	11248.503017
756.765100	11240.240566
757.092515	11246.410938
757.419882	11261.756211
757.747203	11263.810481
758.074477	11336.594660
758.401703	11291.967846
758.728882	11456.740480
759.056014	11499.890236
759.383099	11605.247831
759.710138	11713.088194
760.037129	11796.345370
760.364073	11808.494551
760.690970	11795.596759
761.017820	11792.539299
761.344623	11976.584264
761.671379	12294.197121
761.998088	12935.142024
762.324751	14477.120080
762.651366	17335.413982
762.977935	20982.512349
763.304456	23190.036139
763.630931	23645.857270
763.957359	22469.561993
764.283740	20568.862991
764.610074	18700.281180
764.936362	16571.873259
765.262602	15061.346961
765.588796	13598.179784
765.914943	12572.330182
766.241044	11733.918242
766.567097	11097.281005
766.893104	10561.353419
767.219064	10193.208036
767.544978	9811.635539
767.870845	9508.594138
768.196665	9322.504985
768.522438	9133.847364
768.848165	8967.416190
769.173846	8804.531468
769.499479	8679.437756
769.825066	8524.190382
770.150607	8339.152310
770.476101	8277.945140
770.801548	8168.239550
771.126949	8029.282665
771.452303	7940.381917
771.777611	7773.658356
772.102872	7754.098679
772.428087	7631.132334
772.753256	7509.529621
773.078378	7423.227588
773.403453	7286.025024
773.728482	7178.721544
774.053465	7119.697194
774.378401	7034.746190
774.703291	6945.706810
775.028135	6845.236614
775.352932	6807.206150
775.677683	6727.646660
776.002388	6638.882023
776.327046	6635.514532
776.651658	6552.617798
776.976224	6472.576878
777.300743	6459.295958
777.625216	6390.237192
777.949643	6349.272775
778.274024	6360.726277
778.598359	6290.137520
778.922647	6294.586338
779.246889	6253.422797
779.571086	6262.822028
779.895236	6267.870744
780.219339	6261.632316
780.543397	6266.532317
780.867409	6313.639379
781.191374	6311.244831
781.515294	6278.603360
781.839167	6326.665721
782.162995	6302.148069
782.486776	6253.463126
782.810511	6213.685902
783.134201	6142.237628
783.457844	6124.850688
783.781441	6073.798923
784.104993	6033.270567
784.428498	6003.192523
784.751958	5990.725749
785.075372	5964.736081
785.398739	5928.603610
785.722061	5950.530109
786.045337	5947.689419
786.368568	6060.084464
786.691752	6077.214305
787.014891	6324.366955
787.337983	6601.645540
787.661030	7035.530090
787.984031	7460.217054
788.306987	7722.253711
788.629897	7807.479457
788.952760	7721.631128
789.275579	7542.818881
789.598351	7253.383553
789.921078	6986.225084
790.243759	6709.322065
790.566395	6504.946127
790.888984	6309.246014
791.211529	6173.041599
791.534027	6009.932545
791.856480	5870.277460
792.178888	5810.534746
792.501249	5744.682153
792.823566	5642.394621
793.145836	5645.883100
793.468062	5619.381754
793.790241	5580.310291
794.112375	5626.862826
794.434464	5720.625767
794.756507	5750.749182
795.078505	5873.758377
795.400457	6087.047076
795.722364	6327.195042
796.044226	6513.110275
796.366042	6672.057856
796.687812	6621.406863
797.009538	6645.816130
797.331218	6546.071860
797.652852	6482.276058
797.974442	6366.052256
798.295986	6293.847809
798.617484	6169.477503
798.938938	6058.715791
799.260346	5992.432180
799.581709	5855.915213
799.903026	5799.603004
800.224299	5729.581377
800.545526	5614.093584
800.866708	5549.350045
801.187845	5502.863045
801.508936	5421.304737
801.829983	5398.664915
802.150984	5289.269356
802.471940	5265.616262
802.792851	5253.215024
803.113717	5226.514553
803.434538	5200.983629
803.755314	5172.727962
804.076045	5158.539634
804.396731	5122.016474
804.717372	5141.266120
805.037967	5145.919105
805.358518	5171.684443
805.679024	5226.658225
805.999485	5236.107868
806.319901	5254.823152
806.640272	5270.765801
806.960598	5320.269932
807.280879	5310.512778
807.601115	5348.606258
807.921306	5312.902285
808.241453	5310.318694
808.561554	5319.128110
808.881611	5280.154950
809.201623	5280.669148
809.521590	5225.345005
809.841513	5213.488211
810.161390	5232.584102
810.481223	5140.862828
810.801011	5129.792454
811.120755	5103.477631
811.440453	5048.834044
811.760107	5020.631309
812.079716	4995.826311
812.399281	4943.811686
812.718801	4941.192807
813.038276	4907.288526
813.357707	4870.173031
813.677093	4891.383686
813.996434	4833.599460
814.315731	4852.065207
814.634983	4848.208724
814.954191	4856.004868
815.273354	4915.324126
815.592473	4954.332574
815.911547	5028.334192
816.230577	5080.154733
816.549562	5166.771838
816.868502	5220.999530
817.187399	5274.944918
817.506250	5352.276217
817.825058	5379.185897
818.143821	5536.459814
818.462539	5698.895874
818.781213	5927.988590
819.099843	6292.426204
819.418429	6914.683550
819.736970	7526.871190
820.055466	8237.562977
820.373919	9138.530596
820.692327	10582.503580
821.010691	13259.547836
821.329011	19424.821017
821.647286	28922.659852
821.965517	39179.255357
822.283704	44583.810860
822.601847	46051.729325
822.919945	41494.642195
823.237999	36425.830058
823.556010	31248.444070
823.873976	26588.530004
824.191897	22409.300040
824.509775	19365.748776
824.827609	16624.576002
825.145398	15082.310600
825.463144	14342.254092
825.780845	14633.438699
826.098502	15870.454674
826.416116	18320.024425
826.733685	20589.705642
827.051210	21119.916559
827.368692	19696.279589
827.686129	17144.039179
828.003522	14681.702706
828.320872	12480.261069
828.638177	10843.900010
828.955439	9605.732131
829.272656	8556.892347
829.589830	7726.788228
829.906960	6997.676065
830.224046	6466.784592
830.541088	6062.131173
830.858086	5806.325383
831.175041	5608.354230
831.491952	5550.012957
831.808819	5583.246763
832.125642	5824.014792
832.442421	6374.670108
832.759157	7470.175854
833.075849	9226.748267
833.392497	11062.935624
833.709101	12169.710868
834.025662	11926.601224
834.342179	10869.947652
834.658653	9573.304909
834.975083	8471.109553
835.291469	7574.520177
835.607811	6847.018662
835.924110	6333.672925
836.240366	5849.139902
836.556578	5404.600874
836.872746	5053.943253
837.188871	4777.929998
837.504952	4560.724323
837.820990	4397.448912
838.136984	4279.115387
838.452935	4233.739961
838.768842	4262.338427
839.084706	4544.791756
839.400526	5276.661430
839.716303	6173.931362
840.032037	6735.843576
840.347727	6591.432162
840.663373	5999.381410
840.978977	5423.245581
841.294537	4981.252336
841.610054	4653.282428
841.925527	4417.293414
842.240957	4214.611303
842.556344	4031.718241
842.871687	3875.228223
843.186987	3721.566292
843.502244	3610.083695
843.817458	3518.808564
844.132629	3452.252730
844.447756	3405.019639
844.762840	3360.130685
845.077881	3320.832370
845.392879	3289.448667
845.707833	3261.417331
846.022745	3234.069071
846.337613	3221.345199
846.652438	3198.448278
846.967221	3189.815302
847.281960	3171.543640
847.596656	3162.083915
847.911309	3150.895074
848.225919	3140.507776
848.540485	3127.395735
848.855009	3121.739560
849.169490	3109.376131
849.483928	3101.388422
849.798323	3096.851384
850.112675	3087.227821
850.426984	3089.539190
850.741251	3082.131215
851.055474	3077.770617
851.369654	3079.666090
851.683792	3078.166347
851.997887	3077.964701
852.311938	3075.968404
852.625947	3079.643405
852.939914	3071.176787
853.253837	3078.927561
853.567718	3076.419587
853.881555	3069.611509
854.195350	3074.508990
854.509103	3071.607806
854.822812	3071.391036
855.136479	3065.820561
855.450103	3066.322156
855.763685	3064.177145
856.077224	3062.563976
856.390720	3071.282652
856.704173	3084.883685
857.017584	3087.759663
857.330953	3091.737133
857.644278	3100.113010
857.957561	3105.582662
858.270802	3102.535285
858.584000	3100.170984
858.897155	3096.894234
859.210268	3084.699682
859.523339	3072.951273
859.836367	3071.310378
860.149352	3070.239133
860.462295	3063.904923
860.775195	3051.423026
861.088054	3050.001421
861.400869	3048.569733
861.713642	3044.846841
862.026373	3055.899571
862.339062	3058.248748
862.651708	3066.831313
862.964312	3085.523911
863.276873	3094.678647
863.589392	3123.012452
863.901869	3147.222593
864.214303	3167.954338
864.526696	3188.494520
864.839045	3209.901779
865.151353	3218.922924
865.463619	3220.805795
865.775842	3216.667008
866.088023	3222.597925
866.400162	3221.123388
866.712258	3219.805126
867.024313	3218.461659
867.336325	3215.310937
867.648296	3218.781772
867.960224	3213.642316
868.272110	3216.417471
868.583954	3218.547358
868.895755	3223.701938
869.207515	3222.310580
869.519233	3241.557705
869.830909	3246.339239
870.142542	3259.718462
870.454134	3262.002104
870.765684	3276.568518
871.077191	3298.046354
871.388657	3306.359217
871.700081	3321.966629
872.011463	3344.772809
872.322803	3365.663351
872.634101	3381.908469
872.945357	3401.090060
873.256571	3427.788010
873.567744	3444.572532
873.878874	3452.159469
874.189963	3465.400059
874.501010	3469.634628
874.812015	3463.504585
875.122979	3479.457317
875.433900	3477.652584
875.744780	3483.354129
876.055618	3486.739263
876.366415	3483.772544
876.677169	3492.811333
876.987882	3506.049403
877.298554	3529.284081
877.609183	3566.563414
877.919771	3613.771299
878.230317	3682.840148
878.540822	3777.676855
878.851285	3930.214608
879.161707	4148.788957
879.472087	4521.196636
879.782425	5139.534484
880.092722	6306.576723
880.402977	8222.401707
880.713191	10570.495551
881.023363	12928.588524
881.333494	14251.500719
881.643583	14706.348907
881.953631	14304.785716
882.263637	13471.099857
882.573602	12438.101899
882.883526	11503.708910
883.193408	10551.276152
883.503248	9645.743769
883.813048	8825.732041
884.122806	8064.162408
884.432522	7309.305073
884.742197	6657.335166
885.051831	6095.307006
885.361424	5609.770794
885.670975	5222.267380
885.980485	4896.946599
886.289954	4635.184686
886.599382	4420.055966
886.908768	4244.820417
887.218113	4081.797063
887.527417	3950.233030
887.836680	3829.136953
888.145901	3731.149525
888.455082	3653.470386
888.764221	3587.484202
889.073319	3524.568082
889.382376	3493.186899
889.691392	3471.454485
890.000366	3465.095069
890.309300	3457.533339
890.618193	3460.948720
890.927044	3457.636682
891.235855	3463.060964
891.544625	3475.452120
891.853353	3504.466481
892.162041	3564.020152
892.470687	3656.427022
892.779293	3773.316257
893.087858	3940.871608
893.396381	4218.248495
893.704864	4627.585146
894.013306	5188.980642
894.321707	5754.983751
894.630068	6109.878462
894.938387	6149.310367
895.246665	5973.358974
895.554903	5661.175440
895.863100	5322.787988
896.171256	5057.078851
896.479371	4819.506914
896.787446	4595.805712
897.095480	4399.236001
897.403473	4254.602776
897.711425	4109.344449
898.019336	3990.106037
898.327207	3867.971482
898.635038	3765.371398
898.942827	3666.143847
899.250576	3577.714446
899.558284	3495.299143
899.865952	3445.467337
900.173579	3377.850340
900.481165	3335.182014
900.788711	3292.740540
901.096216	3258.490941
901.403681	3233.559914
901.711105	3224.201012
902.018489	3219.338819
902.325832	3249.739498
902.633135	3307.979948
902.940397	3476.309116
903.247619	3875.444992
903.554800	4617.296151
903.861941	5576.794086
904.169041	6269.988028
904.476101	6479.717672
904.783121	6204.294232
905.090100	5804.142563
905.397039	5397.795316
905.703938	5041.766346
906.010796	4721.784147
906.317614	4472.872135
906.624391	4235.108634
906.931129	4046.158626
907.237826	3862.889999
907.544483	3695.770708
907.851099	3528.394318
908.157675	3367.130327
908.464211	3230.230232
908.770707	3130.543936
909.077163	3055.314797
909.383578	2994.672237
909.689954	2947.504681
909.996289	2920.327820
910.302584	2900.606826
910.608839	2888.679456
910.915054	2875.655635
911.221229	2870.072557
911.527363	2879.186964
911.833458	2881.470606
912.139513	2896.405025
912.445527	2907.951788
912.751502	2940.477312
913.057436	2984.466421
913.363331	3040.740821
913.669186	3129.145015
913.975000	3243.097777
914.280775	3424.722989
914.586510	3687.893905
914.892205	4055.257909
915.197859	4551.743507
915.503475	5133.469976
915.809050	5619.318740
916.114585	5910.037041
916.420081	5972.491896
916.725536	5910.097535
917.030952	5672.923849
917.336328	5467.504392
917.641665	5260.547382
917.946961	5031.076580
918.252218	4835.449563
918.557435	4610.092342
918.862612	4416.325512
919.167750	4242.589707
919.472848	4055.194895
919.777906	3893.366294
920.082925	3733.044999
920.387904	3582.372472
920.692843	3474.524548
920.997743	3375.337325
921.302603	3281.425670
921.607423	3218.156669
921.912204	3153.271978
922.216946	3105.854885
922.521647	3057.840415
922.826310	3018.063190
923.130932	2978.336378
923.435516	2939.920265
923.740059	2912.191398
924.044564	2883.005638
924.349028	2857.389014
924.653454	2829.098059
924.957840	2804.403967
925.262186	2786.522994
925.566493	2765.977772
925.870761	2737.694378
926.174989	2729.701629
926.479178	2714.535317
926.783328	2698.595189
927.087438	2685.581450
927.391509	2673.069306
927.695541	2661.721669
927.999533	2652.856800
928.303486	2644.065028
928.607400	2638.829789
928.911275	2634.701084
929.215110	2625.939559
929.518906	2620.180041
929.822663	2624.175155
930.126381	2624.028962
930.430060	2627.088942
930.733699	2626.473921
931.037299	2632.906434
931.340861	2626.637759
931.644383	2635.177473
931.947866	2631.893162
932.251309	2630.504324
932.554714	2631.245373
932.858080	2628.923922
933.161407	2621.604167
933.464694	2620.341358
933.767943	2619.202057
934.071153	2612.711571
934.374323	2609.364245
934.677455	2609.041611
934.980548	2601.580704
935.283602	2601.926023
935.586617	2599.160950
935.889593	2605.356528
936.192530	2603.466095
936.495428	2610.556478
936.798287	2617.840945
937.101108	2633.203862
937.403890	2654.394352
937.706632	2683.219670
938.009336	2712.596994
938.312002	2741.659246
938.614628	2761.957452
938.917216	2780.357663
939.219765	2793.993984
939.522275	2801.454892
939.824747	2802.258956
940.127179	2793.963737
940.429573	2789.630866
940.731929	2788.630197
941.034246	2780.803805
941.336524	2780.506377
941.638763	2770.431631
941.940964	2767.217896
942.243126	2751.607963
942.545250	2740.739235
942.847335	2726.520661
943.149381	2714.699155
943.451389	2699.409335
943.753359	2687.418951
944.055290	2675.879750
944.357182	2668.091167
944.659036	2663.171001
944.960851	2660.980619
945.262628	2653.008035
945.564367	2655.672284
945.866067	2653.988539
946.167729	2655.684887
946.469352	2653.519712
946.770937	2651.278919
947.072484	2645.710964
947.373992	2647.636685
947.675462	2638.986065
947.976893	2637.340128
948.278286	2632.505662
948.579641	2630.852163
948.880958	2628.253449
949.182236	2626.052985
949.483476	2623.280350
949.784678	2624.220526
950.085841	2621.014352
950.386967	2625.879065
950.688054	2630.274951
950.989103	2637.645118
951.290114	2646.136942
951.591087	2661.676299
951.892021	2672.517300
952.192917	2685.944413
952.493776	2694.592513
952.794596	2695.716690
953.095378	2699.079140
953.396122	2694.433716
953.696828	2692.795341
953.997496	2690.141174
954.298126	2681.856037
954.598718	2674.294307
954.899272	2664.141423
955.199788	2652.471152
955.500266	2638.875160
955.800706	2624.439816
956.101108	2609.084461
956.401472	2596.945363
956.701798	2583.528332
957.002087	2568.193142
957.302337	2559.197203
957.602550	2546.891746
957.902724	2537.185004
958.202861	2530.548325
958.502960	2519.939217
958.803022	2515.613907
959.103045	2505.571929
959.403031	2498.985661
959.702979	2493.785711
960.002889	2491.486945
960.302762	2484.424288
960.602596	2482.990080
960.902393	2479.693165
961.202153	2479.531848
961.501875	2472.113791
961.801559	2474.667135
962.101205	2469.842751
962.400814	2467.349900
962.700385	2466.326546
962.999918	2462.772533
963.299414	2463.382512
963.598873	2458.422017
963.898293	2457.522171
964.197677	2457.323045
964.497022	2455.500668
964.796331	2455.046964
965.095601	2453.733744
965.394835	2454.396655
965.694030	2456.168621
965.993189	2453.925308
966.292309	2454.820112
966.591393	2453.015379
966.890439	2451.666871
967.189447	2452.241562
967.488419	2451.737447
967.787353	2452.730554
968.086249	2451.460183
968.385108	2451.543362
968.683930	2452.107972
968.982714	2456.332458
969.281462	2456.733230
969.580172	2456.440843
969.878844	2459.463015
970.177480	2465.376288
970.476078	2463.715228
970.774639	2470.498101
971.073162	2472.088585
971.371649	2472.454068
971.670098	2469.227730
971.968510	2475.261991
972.266885	2474.921713
972.565223	2478.538741
972.863524	2478.251395
973.161788	2482.332209
973.460014	2481.518063
973.758204	2483.698362
974.056356	2481.424802
974.354471	2482.738022
974.652550	2482.874133
974.950591	2482.528814
975.248595	2482.548979
975.546563	2481.228197
975.844493	2479.892291
976.142386	2476.570171
976.440243	2477.444811
976.738062	2474.936837
977.035845	2469.026084
977.333590	2470.054479
977.631299	2466.508028
977.928971	2468.332925
978.226606	2462.013839
978.524204	2463.009467
978.821765	2459.561318
979.119290	2457.935545
979.416777	2462.250773
979.714228	2461.842440
980.011642	2461.222378
980.309020	2465.933336
980.606360	2469.348718
980.903664	2477.076807
981.200931	2490.624908
981.498162	2510.111488
981.795356	2539.624923
982.092513	2579.268557
982.389633	2616.252982
982.686717	2659.571617
982.983764	2692.533201
983.280775	2710.391489
983.577749	2709.980635
983.874686	2701.876980
984.171587	2686.355267
984.468451	2672.171981
984.765279	2652.892088
985.062070	2634.864922
985.358824	2617.901439
985.655543	2595.372523
985.952224	2573.622464
986.248869	2545.810419
986.545478	2518.913342
986.842050	2501.150837
987.138586	2480.403968
987.435086	2469.323512
987.731549	2456.846656
988.027975	2452.334823
988.324366	2449.736109
988.620719	2442.449121
988.917037	2438.728749
989.213318	2439.598348
989.509563	2438.602720
989.805772	2433.395208
990.101944	2432.334046
990.398080	2432.031576
990.694180	2429.508479
990.990244	2430.431010
991.286271	2430.914961
991.582262	2432.240784
991.878217	2433.861515
992.174136	2432.306319
992.470019	2435.827565
992.765865	2433.866556
993.061676	2437.050045
993.357450	2441.647577
993.653188	2441.589604
993.948890	2447.676797
994.244556	2453.259875
994.540186	2464.272276
994.835780	2474.059676
995.131337	2488.631131
995.426859	2502.655621
995.722345	2522.457273
996.017795	2539.582073
996.313208	2555.865000
996.608586	2564.213151
996.903928	2569.811352
997.199234	2567.071485
997.494504	2565.188614
997.789738	2556.069167
998.084936	2548.782179
998.380099	2535.788605
998.675225	2525.718900
998.970316	2511.974194
999.265371	2499.086484
999.560390	2486.387818
999.855373	2477.356591
1000.150320	2464.332770
1000.445232	2456.791203
1000.740108	2452.196192
1001.034948	2444.664708
1001.329752	2436.699685
1001.624521	2435.358738
1001.919254	2428.999322
1002.213951	2427.928077
1002.508613	2423.156625
1002.803239	2422.153435
1003.097829	2418.473393
1003.392384	2423.486821
1003.686903	2418.533887
1003.981386	2418.516243
1004.275834	2418.382652
1004.570246	2420.878023
1004.864623	2417.122364
1005.158964	2417.724782
1005.453270	2415.753691
1005.747540	2416.726633
1006.041775	2419.290060
1006.335974	2415.478948
1006.630138	2412.923083
1006.924266	2413.109605
1007.218359	2411.088103
1007.512416	2413.086920
1007.806438	2412.134142
1008.100425	2412.625655
1008.394376	2412.240006
1008.688292	2412.928124
1008.982172	2409.084244
1009.276017	2411.662794
1009.569827	2410.394944
1009.863602	2410.450397
1010.157341	2414.450552
1010.451045	2410.369738
1010.744714	2410.309244
1011.038347	2408.532238
1011.331945	2410.445356
1011.625508	2411.045253
1011.919036	2408.197001
1012.212528	2408.933009
1012.505986	2408.796898
1012.799408	2407.642474
1013.092795	2406.775396
1013.386147	2408.905283
1013.679464	2409.706827
1013.972745	2407.365211
1014.265992	2408.065931
1014.559204	2409.364028
1014.852380	2408.078534
1015.145521	2409.603483
1015.438628	2404.748852
1015.731699	2408.514594
1016.024736	2406.225910
1016.317737	2409.046435
1016.610703	2410.387382
1016.903635	2405.840262
1017.196531	2407.357649
1017.489393	2407.508883
1017.782219	2406.379665
1018.075011	2411.546848
1018.367768	2410.389903
1018.660490	2408.900242
1018.953177	2408.900242
1019.245829	2408.900242
