Dividing Wavelength (nm)	Counts (n)	Blue Motor Position (mm): 31.800000	Red Motor Position (mm): 0.000000	
326.493990	1971.887656
326.888308	1971.887656
327.282561	1971.887656
327.676750	1946.913780
328.070874	1949.278081
328.464933	1956.058433
328.858929	1964.451954
329.252859	1976.336474
329.646726	1991.926243
330.040528	2005.260095
330.434265	2025.694412
330.827938	2044.129911
331.221547	2062.351162
331.615091	2083.450911
332.008571	2106.380600
332.401986	2126.146964
332.795338	2144.184212
333.188625	2165.893941
333.581847	2184.967147
333.975006	2203.541278
334.368100	2221.102138
334.761129	2239.504870
335.154095	2251.800244
335.546996	2293.334311
335.939833	2371.194932
336.332606	2386.149515
336.725315	2395.447923
337.117960	2407.748338
337.510540	2413.144893
337.903056	2422.811306
338.295508	2429.130392
338.687896	2436.969387
339.080220	2443.553133
339.472480	2449.882302
339.864676	2451.447580
340.256807	2458.696760
340.648875	2457.625514
341.040879	2458.459825
341.432818	2461.245063
341.824694	2462.696915
342.216506	2461.171966
342.608253	2461.345886
342.999937	2459.011832
343.391557	2459.117696
343.783113	2457.098714
344.174605	2458.048971
344.566033	2453.630400
344.957397	2454.505040
345.348697	2450.726695
345.739934	2449.673094
346.131106	2447.611262
346.522215	2445.746035
346.913260	2444.684872
347.304241	2443.900973
347.695159	2440.944336
348.086012	2438.186825
348.476802	2441.304779
348.867528	2440.099943
349.258191	2434.796649
349.648789	2434.196752
350.039324	2431.961000
350.429796	2433.294385
350.820203	2431.872780
351.210548	2430.350352
351.600828	2428.817841
351.991045	2430.272214
352.381198	2428.154929
352.771288	2430.829261
353.161314	2428.099476
353.551276	2428.901020
353.941175	2427.166863
354.331010	2427.663417
354.720782	2432.389498
355.110490	2432.991916
355.500135	2428.311205
355.889717	2428.182655
356.279235	2430.867070
356.668689	2431.434200
357.058080	2430.063006
357.447408	2428.966555
357.836672	2429.294230
358.225873	2430.693150
358.615010	2428.492686
359.004084	2433.364962
359.393095	2433.596855
359.782043	2435.908224
360.170927	2436.374530
360.559748	2437.617175
360.948505	2435.499890
361.337199	2437.428132
361.725830	2438.053235
362.114398	2441.723195
362.502903	2437.647422
362.891344	2438.237237
363.279722	2439.172371
363.668037	2438.872422
364.056289	2440.788061
364.444478	2441.004830
364.832603	2442.673452
365.220665	2441.609769
365.608665	2443.356528
365.996601	2443.149841
366.384474	2444.271498
366.772284	2445.927517
367.160031	2443.855603
367.547715	2446.822322
367.935336	2446.108998
368.322893	2444.783175
368.710388	2443.472475
369.097820	2449.237034
369.485189	2444.934410
369.872495	2451.745008
370.259738	2447.759976
370.646918	2448.823660
371.034035	2449.443722
371.421090	2451.505554
371.808081	2453.211984
372.195010	2449.723506
372.581875	2453.544700
372.968678	2451.253496
373.355418	2451.351798
373.742096	2451.039247
374.128710	2454.626028
374.515262	2450.346088
374.901751	2456.256841
375.288177	2455.813220
375.674540	2456.403035
376.060841	2456.100565
376.447079	2454.290791
376.833254	2454.542849
377.219367	2450.356171
377.605417	2455.609053
377.991404	2452.354988
378.377329	2456.886985
378.763191	2453.882458
379.148991	2460.282203
379.534727	2461.855043
379.920402	2458.963941
380.306013	2458.442181
380.691563	2463.710187
381.077049	2461.799590
381.462474	2460.367902
381.847835	2462.381843
382.233134	2464.302523
382.618371	2462.255814
383.003545	2465.146916
383.388657	2465.421659
383.773706	2465.550208
384.158693	2463.125413
384.543618	2466.813017
384.928480	2465.996350
385.313280	2467.135651
385.698017	2464.118521
386.082692	2466.245888
386.467305	2468.607668
386.851856	2469.694037
387.236344	2466.971814
387.620770	2471.392906
388.005133	2473.011116
388.389435	2470.629171
388.773674	2472.902731
389.157851	2474.384830
389.541965	2473.258133
389.926018	2470.079685
390.310008	2474.982207
390.693936	2471.337453
391.077802	2473.943729
391.461606	2473.122021
391.845348	2476.229893
392.229027	2475.884574
392.612645	2478.473206
392.996200	2479.733495
393.379694	2479.675521
393.763125	2477.250726
394.146494	2480.310707
394.529801	2480.628299
394.913047	2483.882364
395.296230	2484.366315
395.679351	2480.308186
396.062410	2482.740543
396.445408	2481.593680
396.828343	2483.683239
397.211217	2479.882209
397.594028	2486.581902
397.976778	2484.036119
398.359466	2485.107365
398.742092	2481.969246
399.124656	2484.270533
399.507158	2486.395379
399.889598	2486.554176
400.271977	2493.710094
400.654294	2491.933087
401.036549	2492.207830
401.418742	2490.244300
401.800874	2492.906030
402.182944	2495.766884
402.564952	2495.303098
402.946898	2494.645228
403.328783	2496.679333
403.710606	2495.877790
404.092367	2499.719149
404.474067	2497.793428
404.855705	2500.341732
405.237282	2499.134375
405.618797	2502.363234
406.000250	2502.688389
406.381642	2504.777947
406.762972	2502.209479
407.144240	2503.880622
407.525447	2507.900942
407.906593	2506.580159
408.287677	2508.505880
408.668700	2507.800119
409.049661	2512.160717
409.430560	2509.604852
409.811399	2512.226252
410.192176	2515.505522
410.572891	2513.221880
410.953545	2515.255985
411.334138	2513.907477
411.714669	2517.461490
412.095139	2517.567354
412.475547	2516.763290
412.855894	2521.070956
413.236180	2526.502799
413.616405	2523.178158
413.996568	2525.363499
414.376670	2526.306194
414.756711	2527.687471
415.136691	2529.976154
415.516609	2532.970600
415.896466	2538.712474
416.276262	2539.395550
416.655997	2540.078627
417.035670	2543.756148
417.415283	2552.951213
417.794834	2555.537325
418.174324	2561.722821
418.553753	2566.312791
418.933121	2579.278639
419.312428	2581.292580
419.691674	2587.679722
420.070859	2601.482401
420.449983	2610.977414
420.829045	2623.862604
421.208047	2637.340128
421.586988	2655.213539
421.965867	2674.218689
422.344686	2694.030424
422.723444	2723.221225
423.102141	2722.981771
423.480777	2765.536671
423.859352	2784.662808
424.237866	2841.491736
424.616319	2865.293544
424.994712	2923.435692
425.373044	2957.158490
425.751314	3023.487472
426.129524	3040.206459
426.507673	3133.077115
426.885762	3177.456913
427.263789	3248.617841
427.641756	3319.725837
428.019662	3391.554717
428.397508	3469.727890
428.775292	3567.924526
429.153016	3648.225065
429.530679	3739.366606
429.908282	3834.735155
430.285824	3899.135895
430.663305	4064.427768
431.040726	4133.789004
431.418086	4217.822518
431.795385	4399.256165
432.172624	4560.883119
432.549802	4627.101196
432.926920	4773.818937
433.303977	4882.145772
433.680974	5047.578797
434.057910	5227.401796
434.434786	5364.364904
434.811601	5495.863402
435.188355	5827.505791
435.565050	5924.646305
435.941683	6070.134005
436.318257	6407.200674
436.694770	6531.520569
437.071222	6827.373286
437.447614	6795.309027
437.823946	6964.170036
438.200218	7172.520925
438.576429	7297.082795
438.952580	7550.773821
439.328670	7729.351655
439.704700	8032.831637
440.080670	8081.932476
440.456580	8453.543652
440.832429	8707.668217
441.208218	8573.475223
441.583947	8900.429338
441.959616	9129.559862
442.335224	9410.674765
442.710773	9659.876644
443.086261	10068.888141
443.461689	10023.537921
443.837057	10267.577658
444.212365	10736.329348
444.587612	10952.549478
444.962800	10972.283075
445.337927	11359.496622
445.712995	10982.269600
446.088002	12032.309179
446.462949	12365.158923
446.837837	12678.786748
447.212664	12877.395607
447.587431	14577.212190
447.962139	16420.941113
448.336786	17999.558275
448.711374	17392.005975
449.085901	15553.025819
449.460369	15742.197638
449.834776	15941.285406
450.209124	17687.828444
450.583412	17653.904000
450.957640	18230.145693
451.331808	17602.650588
451.705917	16944.472501
452.079965	17169.262592
452.453954	17630.071945
452.827883	17779.093494
453.201752	17847.824585
453.575562	18167.753852
453.949311	19153.977464
454.323001	19413.057484
454.696632	19451.566858
455.070202	20765.276427
455.443713	21082.274263
455.817164	21709.124100
456.190556	22318.271925
456.563888	22103.107917
456.937160	22618.391978
457.310373	21520.736181
457.683526	22047.756048
458.056619	22198.864634
458.429653	22348.947346
458.802628	22973.349703
459.175542	23232.560792
459.548398	24470.156500
459.921194	25920.877068
460.293930	26648.948233
460.666607	28524.585139
461.039224	30187.157678
461.411782	30693.697857
461.784280	29820.796863
462.156719	29564.018130
462.529099	29232.819363
462.901419	28246.318488
463.273680	27451.441952
463.645882	27691.587398
464.018024	27802.404563
464.390106	28690.418936
464.762130	31215.631200
465.134094	35018.375192
465.505999	40000.048464
465.877845	44407.352832
466.249631	45666.030644
466.621358	44122.537722
466.993026	42224.722259
467.364634	40383.234130
467.736184	38668.052110
468.107674	37595.216433
468.479105	36971.905487
468.850477	36417.875117
469.221790	35170.681053
469.593043	33628.362719
469.964238	32869.099415
470.335373	32849.915304
470.706449	34505.616749
471.077467	36977.533935
471.448425	41432.966198
471.819324	44286.471003
472.190164	42582.681991
472.560945	39208.877177
472.931667	36275.729702
473.302330	35259.445690
473.672934	34511.509858
474.043479	35034.285074
474.413965	34320.248481
474.784393	33991.224973
475.154761	34880.108945
475.525070	34951.680727
475.895321	34530.797313
476.265513	35129.998941
476.635645	36075.434578
477.005719	35932.999296
477.375734	36418.412000
477.745691	37088.925791
478.115588	38397.853825
478.485427	40345.019663
478.855207	43624.544818
479.224928	46241.974910
479.594591	47850.201289
479.964194	46843.639142
480.333739	46962.501988
480.703226	46988.773961
481.072653	47639.528949
481.442022	48148.572062
481.811333	48430.097819
482.180584	47158.607913
482.549777	46652.828948
482.918912	46149.225241
483.287988	45861.738319
483.657005	45059.625207
484.025964	44431.714207
484.394864	44453.726406
484.763706	44010.508160
485.132489	43173.142259
485.501213	43019.019062
485.869879	43182.460832
486.238487	42795.567398
486.607036	43006.998431
486.975527	42463.040287
487.343959	42682.194368
487.712333	42784.088690
488.080648	42679.542721
488.448905	43118.954896
488.817104	42944.919142
489.185244	43868.355183
489.553326	45539.986675
489.921350	48245.039582
490.289315	51181.680576
490.657222	51848.985672
491.025070	52129.137715
491.392861	51207.266952
491.760593	49915.556979
492.128267	48209.547338
492.495883	46693.276646
492.863440	45320.691441
493.230939	43999.520965
493.598380	42929.079837
493.965763	42621.335038
494.333088	41837.329751
494.700354	41379.925698
495.067563	41103.201640
495.434713	40975.433596
495.801805	41070.844994
496.168839	40687.278721
496.535815	40374.979240
496.902733	40401.543601
497.269593	40000.978557
497.636395	39943.232140
498.003139	40331.794196
498.369825	39810.296913
498.736453	40095.013720
499.103023	39667.281899
499.469535	39531.480776
499.835989	39626.982915
500.202385	39305.833689
500.568723	39324.927059
500.935003	39508.581335
501.301226	39322.343468
501.667390	39927.513822
502.033497	40172.919712
502.399546	39618.302048
502.765537	38958.891399
503.131470	39313.544133
503.497345	39652.249178
503.863163	38347.969087
504.228923	38946.091909
504.594625	39366.186383
504.960269	38652.243051
505.325856	39328.125671
505.691385	38706.420332
506.056856	38832.325670
506.422270	39271.475705
506.787625	38844.663894
507.152924	39037.306547
507.518164	39138.409408
507.883347	38366.578507
508.248472	38609.146227
508.613540	39071.031866
508.978550	39366.309891
509.343503	39111.434193
509.708398	39305.783277
510.073236	39825.881640
510.438016	39828.979429
510.802738	39297.462853
511.167403	39896.029296
511.532010	40117.446855
511.896561	40409.415362
512.261053	41223.120607
512.625488	40774.664602
512.989866	40643.168625
513.354186	40494.757056
513.718449	40484.694913
514.082655	41145.562456
514.446803	40817.489204
514.810894	41344.403207
515.174927	41262.441607
515.538904	41161.883191
515.902822	41813.757316
516.266684	41269.531990
516.630488	41679.450895
516.994235	41537.474358
517.357925	42080.893099
517.721558	42251.468101
518.085133	42566.520052
518.448651	42687.666541
518.812112	42462.599186
519.175516	42546.894840
519.538863	42895.321750
519.902152	42851.395656
520.265385	43294.455106
520.628560	43344.085265
520.991678	43128.729693
521.354739	43361.709139
521.717743	43667.283721
522.080690	43562.730190
522.443580	44103.036018
522.806413	44156.046271
523.169189	44103.209938
523.531908	44282.869099
523.894569	44133.711439
524.257174	44298.713446
524.619722	44589.129278
524.982213	44572.196042
525.344647	44499.210216
525.707025	44551.416406
526.069345	44939.396208
526.431608	44863.143715
526.793815	45150.139124
527.155964	44701.610023
527.518057	44874.209048
527.880093	44659.962530
528.242072	45185.548189
528.603995	44879.214914
528.965860	44897.242080
529.327669	44992.096431
529.689421	44884.089710
530.051117	44850.992014
530.412755	44973.958359
530.774337	45049.870574
531.135862	44859.501482
531.497331	45066.639973
531.858743	44956.619311
532.220098	45298.359130
532.581396	45021.572057
532.942638	44677.760324
533.303824	44961.688191
533.664953	44953.067818
534.026025	44674.934757
534.387040	45130.196320
534.747999	45072.013843
535.108902	45229.323048
535.469748	44751.320841
535.830537	44876.578390
536.191270	45081.705461
536.551947	44723.660030
536.912567	45022.119023
537.273131	45135.958359
537.633638	44640.596938
537.994089	44968.597092
538.354483	44590.482827
538.714821	45142.279966
539.075103	45483.840824
539.435328	45258.733140
539.795497	45157.894940
540.155609	45131.398635
540.515665	45598.511950
540.875665	45061.193006
541.235609	45363.848759
541.595496	45359.818357
541.955328	45994.124060
542.315102	45394.246917
542.674821	45186.332088
543.034483	45221.632768
543.394090	45188.552717
543.753640	45152.863868
544.113134	46126.761859
544.472571	45170.533112
544.831953	46387.928916
545.191278	45611.896214
545.550548	45344.553743
545.909761	45791.895653
546.268918	45996.241345
546.628019	46303.595454
546.987064	45878.500156
547.346053	45168.718297
547.704986	46025.308638
548.063863	45611.971831
548.422684	45808.223950
548.781449	45671.510379
549.140158	46051.598255
549.498811	45887.314613
549.857408	45349.846955
550.215949	46168.318611
550.574434	46102.219002
550.932864	45877.025618
551.291237	46594.432222
551.649555	46200.647530
552.007817	46457.721171
552.366022	46107.615557
552.724173	46271.372398
553.082267	46680.583021
553.440305	46965.733367
553.798288	46310.189283
554.156215	46627.968498
554.514086	46819.960842
554.871902	46574.774242
555.229661	46595.629496
555.587365	46433.024558
555.945014	46519.528238
556.302606	46465.781976
556.660143	46678.155705
557.017625	46775.613812
557.375050	46568.243428
557.732421	46916.554391
558.089735	46906.300684
558.446994	46821.616861
558.804197	47273.591592
559.161345	47227.878408
559.518437	46515.311312
559.875474	46807.118503
560.232455	46980.476222
560.589381	47155.273190
560.946251	46858.868467
561.303065	47518.629477
561.659825	47342.373095
562.016528	47023.373920
562.373177	46750.453413
562.729770	47227.354128
563.086307	46748.792353
563.442789	47202.372691
563.799216	47262.541382
564.155587	47072.925942
564.511904	47083.217458
564.868164	47179.458126
565.224370	47427.019109
565.580520	47156.422573
565.936615	47381.255514
566.292654	47104.304604
566.648638	47325.457503
567.004567	47301.416240
567.360441	47342.161366
567.716260	47200.620890
568.072023	47499.795726
568.427732	47490.499839
568.783385	47036.090231
569.138982	47436.940100
569.494525	47398.433246
569.850013	47155.217738
570.205445	47149.180956
570.560823	47099.601208
570.916145	46955.111656
571.271412	47001.354160
571.626625	46762.554703
571.981782	46827.406626
572.336884	46524.811367
572.691931	46825.735484
573.046923	46439.701566
573.401860	46286.626930
573.756743	46271.934487
574.111570	46395.432674
574.466342	46231.741367
574.821059	46369.443005
575.175722	45902.216264
575.530330	45921.768379
575.884882	45628.985725
576.239380	45602.335666
576.593823	45575.007571
576.948211	45490.880795
577.302544	45026.315783
577.656823	45083.341315
578.011047	45297.066074
578.365216	45005.427762
578.719330	44807.925437
579.073389	44666.659703
579.427394	44757.395431
579.781344	44725.003497
580.135239	44383.001538
580.489080	44468.194517
580.842866	43972.931399
581.196597	44422.698104
581.550273	44358.801479
581.903895	44233.783384
582.257463	44655.349874
582.610975	44052.846290
582.964434	44323.110110
583.317837	43982.502029
583.671186	43816.975743
584.024481	44039.472109
584.377721	43580.170062
584.730906	43859.845715
585.084037	43881.457142
585.437113	43596.863843
585.790135	43633.069409
586.143103	43237.585849
586.496016	43359.309550
586.848874	43375.479051
587.201679	43404.836210
587.554428	42886.169535
587.907124	43063.398860
588.259765	42829.622912
588.612352	43083.840739
588.964884	42490.012981
589.317362	42757.136161
589.669786	42710.709655
590.022155	42479.053512
590.374470	42905.267946
590.726731	42437.433746
591.078937	41946.745475
591.431090	42047.961762
591.783188	41704.581047
592.135232	41390.759137
592.487222	41628.426856
592.839157	41729.789337
593.191038	41395.240723
593.542866	41173.674450
593.894639	40579.398029
594.246358	40859.610565
594.598022	40807.820271
594.949633	40437.066091
595.301190	40392.509853
595.652692	40237.902706
596.004141	40557.562271
596.355535	39575.580790
596.706876	39528.907267
597.058162	39370.705777
597.409395	39825.836270
597.760573	39914.056462
598.111698	39469.882917
598.462768	39502.864666
598.813785	39542.077281
599.164748	39006.278245
599.515657	39397.549921
599.866511	38874.053821
600.217312	39471.135644
600.568060	38450.974984
600.918753	39188.019403
601.269392	39154.495730
601.619978	38814.122063
601.970510	39024.567551
602.320988	39216.101150
602.671412	39499.507258
603.021783	39237.662165
603.372100	38890.848425
603.722363	39006.207669
604.072572	39079.085109
604.422728	39097.533212
604.772830	38899.148684
605.122878	38995.545628
605.472872	38932.493397
605.822813	39209.250222
606.172701	39035.529540
606.522534	39264.763408
606.872314	39517.095843
607.222041	39287.924990
607.571714	39685.929127
607.921333	39141.416456
608.270899	39425.485475
608.620411	39744.701419
608.969870	39557.440198
609.319276	39552.900639
609.668627	39604.965676
610.017926	40077.205844
610.367171	40226.320655
610.716362	40332.976347
611.065500	40258.415161
611.414585	40454.843720
611.763616	40736.109858
612.112594	40674.748933
612.461518	40903.624880
612.810389	41169.376866
613.159207	41049.473022
613.507971	41118.932560
613.856682	41585.025042
614.205340	41480.849598
614.553945	42165.327385
614.902496	41622.236319
615.250994	42081.820671
615.599439	42143.292501
615.947830	42372.186092
616.296169	42402.831266
616.644454	42544.956516
616.992686	42708.478944
617.340864	43226.931370
617.688990	42939.537710
618.037063	43526.398594
618.385082	43512.333775
618.733048	43824.555118
619.080961	43801.983351
619.428821	43808.854444
619.776628	43933.227271
620.124382	43729.935181
620.472083	43877.209970
620.819731	44002.200338
621.167326	43653.619673
621.514868	43658.771732
621.862357	43208.319430
622.209793	43233.719284
622.557176	42897.106318
622.904506	42651.992815
623.251783	42304.672439
623.599007	42080.000815
623.946179	41866.515511
624.293297	41816.598006
624.640363	41228.202091
624.987376	41218.800339
625.334336	40981.798052
625.681243	40618.484615
626.028097	40590.531417
626.374899	40449.177463
626.721647	40418.731415
627.068343	40308.834261
627.414987	40080.792625
627.761577	39858.608811
628.108115	40197.860821
628.454600	39638.804421
628.801032	39823.691259
629.147412	39788.259509
629.493739	39810.743055
629.840014	39458.242893
630.186236	39784.834045
630.532405	39411.730687
630.878521	39619.590063
631.224585	39512.271459
631.570597	39202.351403
631.916556	39386.716482
632.262462	39322.088889
632.608316	39342.150161
632.954117	39216.955626
633.299866	39219.148528
633.645562	39141.151795
633.991206	38649.752721
634.336797	38210.390958
634.682336	38217.962771
635.027823	37958.176990
635.373257	37787.324724
635.718639	37548.991573
636.063968	37404.620489
636.409245	36836.197625
636.754470	36883.392907
637.099642	36645.861300
637.444762	36178.793355
637.789829	36331.331109
638.134845	35987.274879
638.479808	35945.544208
638.824719	35839.354823
639.169577	35450.175225
639.514383	35525.401843
639.859137	35215.716201
640.203839	35452.350483
640.548489	35095.368735
640.893086	35165.299621
641.237632	34903.686422
641.582125	35023.166809
641.926566	34963.726564
642.270955	34934.235814
642.615292	34943.201506
642.959576	34909.372843
643.303809	34914.966003
643.647990	35063.717851
643.992118	35034.176689
644.336195	35027.106471
644.680219	35117.161643
645.024192	35420.712201
645.368112	35923.539571
645.711981	35933.551303
646.055797	36804.042625
646.399562	36745.988698
646.743274	37667.536827
647.086935	38115.153479
647.430544	38007.358487
647.774101	38108.549568
648.117606	38344.652008
648.461059	38645.001434
648.804460	38249.517873
649.147810	37657.441916
649.491108	37387.720021
649.834354	37041.647330
650.177548	36226.691878
650.520690	35774.618845
650.863781	35786.412625
651.206820	35634.804964
651.549807	35208.099017
651.892742	34736.741050
652.235626	34539.765526
652.578458	34401.549690
652.921238	33811.437262
653.263967	34142.716687
653.606644	33824.506453
653.949269	33776.179432
654.291843	33371.284037
654.634365	33774.321767
654.976836	33382.891294
655.319255	33375.430386
655.661622	33365.789180
656.003938	33145.962104
656.346203	32995.337469
656.688416	33239.462905
657.030577	33035.530588
657.372687	32883.340674
657.714746	33140.706702
658.056753	33261.333951
658.398708	32720.060222
658.740612	32775.676752
659.082465	33055.657395
659.424266	32863.052551
659.766016	32990.233300
660.107715	32873.374313
660.449362	32991.806140
660.790958	32983.531086
661.132503	33011.736342
661.473996	33027.023641
661.815438	33142.087978
662.156829	33345.296889
662.498168	33101.539457
662.839456	33129.326297
663.180693	33281.675007
663.521879	33447.833958
663.863013	33386.639392
664.204097	33383.337436
664.545129	33855.093654
664.886110	33808.420131
665.227040	33896.058070
665.567918	33991.154397
665.908746	34060.250972
666.249522	34234.677415
666.590248	34211.712439
666.930922	34347.029611
667.271545	34309.220957
667.612118	34382.736104
667.952639	34160.196888
668.293109	34224.612752
668.633528	34120.326402
668.973896	34035.163670
669.314213	34075.883590
669.654480	33814.923220
669.994695	33833.525078
670.334859	33730.357864
670.674973	33635.901764
671.015035	33777.921151
671.355047	33731.920622
671.695008	33676.926674
672.034918	33580.436469
672.374777	33667.444264
672.714585	33512.713608
673.054342	33735.199892
673.394049	33497.791793
673.733705	33770.089718
674.073310	33446.540902
674.412864	33509.978783
674.752368	33117.078813
675.091820	33416.646860
675.431223	32992.847139
675.770574	32708.480691
676.109875	32576.881370
676.449125	32311.580567
676.788324	32234.569380
677.127473	31707.602445
677.466571	31625.262759
677.805619	31289.680709
678.144616	31280.531015
678.483562	31190.763188
678.822458	30865.351666
679.161303	30817.707721
679.500098	30718.641486
679.838842	30604.073703
680.177535	30765.065472
680.516179	31028.992561
680.854771	31288.186007
681.193314	32141.524803
681.531805	33255.728188
681.870247	34031.430695
682.208638	34768.510402
682.546978	34985.658104
682.885268	35064.884878
683.223508	34536.272006
683.561697	34207.399732
683.899836	34017.338150
684.237925	33508.547095
684.575963	33360.518653
684.913951	32903.948911
685.251889	33065.860690
685.589776	33063.607295
685.927614	33042.502504
686.265401	33189.182437
686.603137	33287.757159
686.940824	33800.364367
687.278460	34191.363822
687.616046	34323.409285
687.953582	34931.740443
688.291068	34797.993590
688.628504	35067.433181
688.965889	34996.741081
689.303224	34619.695540
689.640510	34257.186167
689.977745	33526.544014
690.314930	32732.330390
690.652065	32207.142982
690.989150	31467.935909
691.326185	30570.741594
691.663170	29877.235101
692.000105	29116.945922
692.336990	28439.613970
692.673825	27993.544952
693.010610	27484.771541
693.347345	26907.090598
693.684030	26258.659582
694.020665	25983.306718
694.357251	25315.868031
694.693786	25268.743325
695.030272	25037.634147
695.366707	24493.902855
695.703093	24211.187386
696.039429	24202.745973
696.375716	23938.206384
696.711952	23899.507967
697.048139	23754.720987
697.384276	23579.765222
697.720363	23697.206463
698.056400	23504.341999
698.392388	23283.630201
698.728326	23250.550150
699.064214	23040.021483
699.400053	22982.083502
699.735842	22633.490234
700.071581	22349.065813
700.407270	22058.289539
700.742910	21874.511755
701.078501	21603.055702
701.414042	21325.298208
701.749533	21019.905108
702.084974	20679.826349
702.420366	20891.416179
702.755709	20446.083168
703.091002	20162.949283
703.426246	20175.763896
703.761440	20081.466593
704.096584	19810.802002
704.431679	19768.060579
704.766725	19675.411733
705.101721	19614.766652
705.436668	19710.175530
705.771565	19390.034534
706.106413	19723.726152
706.441212	19716.134174
706.775961	19837.152113
707.110661	19916.542724
707.445311	20266.794532
707.779913	20109.210583
708.114465	20351.276709
708.448967	20637.989813
708.783421	21333.757264
709.117825	21600.608222
709.452180	21815.162251
709.786485	22223.180640
710.120742	23027.756356
710.454949	23041.644734
710.789107	23499.227748
711.123216	24213.695360
711.457275	24341.501212
711.791286	24872.191040
712.125247	24937.685710
712.459159	24624.201558
712.793023	25285.779904
713.126837	24187.287275
713.460602	24438.651809
713.794318	24058.306833
714.127985	23653.035873
714.461602	22779.877780
714.795171	22739.762798
715.128691	21714.994524
715.462162	21166.821975
715.795584	20758.181003
716.128957	20504.842858
716.462281	20093.769529
716.795556	19854.581903
717.128782	19372.818994
717.461960	18825.868925
717.795088	18754.181197
718.128167	18348.620370
718.461198	17895.297131
718.794180	17756.567098
719.127113	17398.115853
719.459997	17190.959718
719.792833	16846.379209
720.125619	16821.551526
720.458357	16504.745254
720.791046	16336.494224
721.123686	16184.163158
721.456278	15943.874039
721.788821	15901.389715
722.121315	15643.733821
722.453761	15724.185595
722.786158	15644.774819
723.118506	15652.208001
723.450805	15519.345871
723.783056	15677.794377
724.115259	15585.899184
724.447412	15509.258522
724.779518	15762.195895
725.111574	15776.832886
725.443582	15975.015767
725.775542	15956.895339
726.107453	16419.078406
726.439315	16311.565718
726.771129	16707.833178
727.102895	17071.890185
727.434612	17284.586548
727.766281	17410.438954
728.097901	17664.165268
728.429473	17694.243313
728.760996	17673.052822
729.092471	17767.675280
729.423897	17643.224315
729.755276	17515.211775
730.086606	17621.892673
730.417887	18144.665368
730.749120	18658.280807
731.080305	18837.259412
731.411442	19171.555968
731.742530	19239.160362
732.073570	19336.094188
732.404562	19621.068095
732.735506	19423.026366
733.066401	19148.792638
733.397249	18631.986148
733.728048	17992.183067
734.058798	17154.716343
734.389501	16487.227244
734.720156	16028.220104
735.050762	15502.263921
735.381320	15149.796526
735.711831	14910.888684
736.042293	14565.536878
736.372707	14573.179267
736.703073	14370.517321
737.033391	14556.848449
737.363661	14511.321789
737.693883	14631.971724
738.024056	14797.719821
738.354182	14978.109950
738.684260	15267.147026
739.014290	15493.288146
739.344272	15680.456106
739.674207	15955.874506
740.004093	16072.055458
740.333931	16052.029474
740.663722	16091.138746
740.993464	16091.007676
741.323159	15906.970272
741.652806	15631.811492
741.982405	15415.772844
742.311956	15088.730509
742.641460	14964.239215
742.970915	14660.754192
743.300323	14331.224047
743.629683	14112.125418
743.958996	13843.351260
744.288260	13570.859251
744.617477	13280.438378
744.946647	13207.576060
745.275768	12927.197166
745.604842	12742.804361
745.933869	12582.926687
746.262847	12529.399716
746.591778	12462.687606
746.920662	12356.714991
747.249498	12363.180271
747.578286	12473.599184
747.907027	12617.650155
748.235720	12838.278774
748.564365	12856.651259
748.892963	12775.415585
749.221514	12828.947598
749.550017	12680.609125
749.878473	12645.343734
750.206881	12427.845672
750.535242	12329.379334
750.863555	12237.095972
751.191821	12146.529122
751.520039	12165.012513
751.848210	12080.038824
752.176334	12108.443205
752.504411	12014.266889
752.832440	11866.059487
753.160421	11923.871439
753.488356	11796.562140
753.816243	11706.068387
754.144082	11567.618138
754.471875	11508.019097
754.799620	11460.733074
755.127318	11430.554206
755.454969	11385.118287
755.782572	11346.311484
756.110129	11356.708864
756.437638	11278.175249
756.765100	11263.752508
757.092515	11271.838518
757.419882	11286.909048
757.747203	11287.085488
758.074477	11365.603980
758.401703	11321.841723
758.728882	11483.965231
759.056014	11518.723987
759.383099	11637.831329
759.710138	11739.103068
760.037129	11819.527116
760.364073	11839.023779
760.690970	11826.574649
761.017820	11823.179432
761.344623	12012.545335
761.671379	12318.470277
761.998088	12958.187659
762.324751	14514.560730
762.651366	17374.203140
762.977935	21017.903770
763.304456	23240.225867
763.630931	23707.790365
763.957359	22522.690713
764.283740	20615.972574
764.610074	18739.231655
764.936362	16616.472347
765.262602	15105.192397
765.588796	13636.908448
765.914943	12603.300511
766.241044	11765.644743
766.567097	11129.436005
766.893104	10588.142110
767.219064	10228.322193
767.544978	9852.058032
767.870845	9531.201192
768.196665	9352.431794
768.522438	9155.521805
768.848165	8985.403027
769.173846	8831.620108
769.499479	8698.485756
769.825066	8548.496305
770.150607	8366.046865
770.476101	8305.389182
770.801548	8192.174949
771.126949	8051.829226
771.452303	7963.354455
771.777611	7801.117521
772.102872	7776.597349
772.428087	7663.584762
772.753256	7535.995679
773.078378	7450.729603
773.403453	7306.809702
773.728482	7206.457972
774.053465	7145.006307
774.378401	7058.328708
774.703291	6964.348997
775.028135	6868.040274
775.352932	6831.317988
775.677683	6747.871769
776.002388	6664.599469
776.327046	6664.415467
776.651658	6577.682415
776.976224	6501.313975
777.300743	6482.568445
777.625216	6413.217291
777.949643	6374.914604
778.274024	6379.013062
778.598359	6312.041334
778.922647	6314.650131
779.246889	6272.864007
779.571086	6281.890192
779.895236	6290.147602
780.219339	6284.521675
780.543397	6289.094001
780.867409	6336.470765
781.191374	6332.654612
781.515294	6304.409027
781.839167	6353.595565
782.162995	6317.876469
782.486776	6272.609428
782.810511	6230.538479
783.134201	6163.990207
783.457844	6150.752137
783.781441	6097.633499
784.104993	6055.199586
784.428498	6024.685482
784.751958	6010.615622
785.075372	5983.544626
785.398739	5947.195386
785.722061	5972.617925
786.045337	5972.111289
786.368568	6080.022228
786.691752	6098.424960
787.014891	6343.891344
787.337983	6626.735363
787.661030	7066.170223
787.984031	7488.986919
788.306987	7755.033813
788.629897	7835.364600
788.952760	7753.430727
789.275579	7575.283911
789.598351	7276.381297
789.921078	7012.408838
790.243759	6736.473720
790.566395	6529.950250
790.888984	6339.523184
791.211529	6197.400454
791.534027	6033.699065
791.856480	5899.674949
792.178888	5838.321586
792.501249	5775.027379
792.823566	5671.900495
793.145836	5667.320607
793.468062	5647.718080
793.790241	5603.665957
794.112375	5649.162370
794.434464	5746.113841
794.756507	5776.945538
795.078505	5896.040277
795.400457	6113.016580
795.722364	6354.213106
796.044226	6546.709566
796.366042	6699.726229
796.687812	6647.930894
797.009538	6678.457601
797.331218	6580.371871
797.652852	6516.661768
797.974442	6393.279528
798.295986	6321.216234
798.617484	6193.682603
798.938938	6081.600109
799.260346	6019.684657
799.581709	5880.274068
799.903026	5824.791129
800.224299	5758.106746
800.545526	5644.433768
800.866708	5575.528757
801.187845	5524.968504
801.508936	5448.698367
801.829983	5423.500160
802.150984	5319.876722
802.471940	5289.372700
802.792851	5276.787459
803.113717	5246.356534
803.434538	5228.019337
803.755314	5192.106157
804.076045	5181.612995
804.396731	5146.377850
804.717372	5158.736239
805.037967	5164.773021
805.358518	5191.158420
805.679024	5248.957769
805.999485	5259.329943
806.319901	5280.412049
806.640272	5296.881498
806.960598	5347.966031
807.280879	5335.605122
807.601115	5371.672057
807.921306	5335.589998
808.241453	5334.493547
808.561554	5342.239280
808.881611	5305.816944
809.201623	5306.941121
809.521590	5252.579838
809.841513	5237.602570
810.161390	5256.557309
810.481223	5168.697559
810.801011	5155.431763
811.120755	5129.842866
811.440453	5070.745419
811.760107	5044.125606
812.079716	5018.869426
812.399281	4969.609791
812.718801	4963.469665
813.038276	4929.976239
813.357707	4895.429212
813.677093	4915.566101
813.996434	4856.110732
814.315731	4873.054051
814.634983	4873.318711
814.954191	4878.052355
815.273354	4938.271458
815.592473	4977.647911
815.911547	5051.604158
816.230577	5102.381180
816.549562	5194.014234
816.868502	5244.476184
817.187399	5300.473321
817.506250	5379.483325
817.825058	5408.275875
818.143821	5563.699689
818.462539	5729.823353
818.781213	5961.207273
819.099843	6325.773437
819.418429	6950.072450
819.736970	7572.239054
820.055466	8282.547714
820.373919	9201.476963
820.692327	10644.469443
821.010691	13346.069159
821.329011	19584.552497
821.647286	29197.533807
821.965517	39594.958985
822.283704	45079.131952
822.601847	46572.046978
822.919945	41947.925105
823.237999	36799.344270
823.556010	31578.690059
823.873976	26847.781423
824.191897	22629.628710
824.509775	19556.107786
824.827609	16767.812826
825.145398	15212.884046
825.463144	14458.024190
825.780845	14749.344909
826.098502	16005.736558
826.416116	18472.594946
826.733685	20768.258270
827.051210	21293.269237
827.368692	19861.727738
827.686129	17292.740615
828.003522	14800.247960
828.320872	12583.327459
828.638177	10927.442011
828.955439	9686.294811
829.272656	8624.121175
829.589830	7776.574664
829.906960	7049.103396
830.224046	6510.670357
830.541088	6100.136432
830.858086	5841.590774
831.175041	5640.441174
831.491952	5581.862967
831.808819	5619.722032
832.125642	5863.524835
832.442421	6412.826602
832.759157	7526.709873
833.075849	9297.072363
833.392497	11150.318984
833.709101	12271.869851
834.025662	12015.300326
834.342179	10954.046701
834.658653	9650.714347
834.975083	8545.159062
835.291469	7637.900083
835.607811	6896.636219
835.924110	6376.212702
836.240366	5887.573659
836.556578	5434.318476
836.872746	5083.063479
837.188871	4808.335717
837.504952	4589.605093
837.820990	4422.296759
838.136984	4304.777380
838.452935	4255.391717
838.768842	4288.743991
839.084706	4568.694387
839.400526	5312.725845
839.716303	6215.621705
840.032037	6784.079856
840.347727	6642.317569
840.663373	6032.065731
840.978977	5457.580880
841.294537	5016.734497
841.610054	4682.251419
841.925527	4443.003298
842.240957	4238.960076
842.556344	4054.776479
842.871687	3894.266140
843.186987	3745.342894
843.502244	3625.396200
843.817458	3540.470402
844.132629	3468.780153
844.447756	3423.288781
844.762840	3374.329094
845.077881	3337.982375
845.392879	3303.014412
845.707833	3278.244702
846.022745	3252.358377
846.337613	3237.300451
846.652438	3212.553426
846.967221	3208.225596
847.281960	3187.579550
847.596656	3171.866274
847.911309	3166.424348
848.225919	3151.469765
848.540485	3140.270842
848.855009	3136.046355
849.169490	3120.438943
849.483928	3118.732512
849.798323	3111.952160
850.112675	3099.802979
850.426984	3102.815069
850.741251	3096.294336
851.055474	3091.522884
851.369654	3089.876948
851.683792	3086.522060
851.997887	3094.860128
852.311938	3091.792586
852.625947	3095.127309
852.939914	3085.604570
853.253837	3094.504727
853.567718	3088.614138
853.881555	3081.433015
854.195350	3089.824015
854.509103	3083.719178
854.822812	3082.100968
855.136479	3077.533682
855.450103	3080.616348
855.763685	3076.152406
856.077224	3078.705751
856.390720	3087.028696
856.704173	3098.966148
857.017584	3104.773557
857.330953	3106.830348
857.644278	3114.631533
857.957561	3116.287552
858.270802	3114.583642
858.584000	3114.850824
858.897155	3109.182046
859.210268	3099.906323
859.523339	3088.004159
859.836367	3089.224118
860.149352	3081.732963
860.462295	3076.187694
860.775195	3067.191755
861.088054	3062.800910
861.400869	3065.586148
861.713642	3061.878379
862.026373	3067.955490
862.339062	3074.183836
862.651708	3082.499219
862.964312	3099.203082
863.276873	3106.006119
863.589392	3137.556181
863.901869	3163.334121
864.214303	3182.661905
864.526696	3203.141592
864.839045	3219.623645
865.151353	3231.858525
865.463619	3234.235429
865.775842	3239.256418
866.088023	3241.988724
866.400162	3232.934811
866.712258	3237.907910
867.024313	3233.149060
867.336325	3234.051427
867.648296	3234.895820
867.960224	3231.246025
868.272110	3233.728793
868.583954	3234.978999
868.895755	3245.149527
869.207515	3238.601068
869.519233	3258.085128
869.830909	3265.001591
870.142542	3277.080196
870.454134	3282.575053
870.765684	3295.238432
871.077191	3312.975732
871.388657	3327.484172
871.700081	3342.587469
872.011463	3363.548587
872.322803	3382.311762
872.634101	3401.909247
872.945357	3422.865324
873.256571	3451.294911
873.567744	3463.209678
873.878874	3474.612768
874.189963	3487.190447
874.501010	3487.699603
874.812015	3485.572236
875.122979	3500.637725
875.433900	3500.791480
875.744780	3501.862725
876.055618	3510.919158
876.366415	3506.835823
876.677169	3513.013757
876.987882	3530.441026
877.298554	3555.712330
877.609183	3590.924790
877.919771	3637.230309
878.230317	3710.261504
878.540822	3816.171106
878.851285	3967.297336
879.161707	4184.828166
879.472087	4568.578441
879.782425	5197.149831
880.092722	6390.201903
880.402977	8342.434101
880.713191	10740.168187
881.023363	13158.865911
881.333494	14521.038613
881.643583	14984.970960
881.953631	14566.986209
882.263637	13713.218915
882.573602	12662.332422
882.883526	11697.269053
883.193408	10722.841741
883.503248	9796.403693
883.813048	8959.367988
884.122806	8187.607663
884.432522	7419.827330
884.742197	6750.243632
885.051831	6182.251787
885.361424	5677.617163
885.670975	5281.765599
885.980485	4951.907779
886.289954	4683.594886
886.599382	4464.367708
886.908768	4284.012868
887.218113	4118.811736
887.527417	3985.750480
887.836680	3863.507540
888.145901	3759.753032
888.455082	3683.465251
888.764221	3614.124180
889.073319	3554.477248
889.382376	3522.176054
889.691392	3496.851818
890.000366	3489.915190
890.309300	3485.305055
890.618193	3486.860251
890.927044	3482.083758
891.235855	3491.321672
891.544625	3501.877848
891.853353	3534.242056
892.162041	3595.242538
892.470687	3682.401568
892.779293	3804.316832
893.087858	3979.353256
893.396381	4260.803395
893.704864	4673.177342
894.013306	5252.395836
894.321707	5827.896480
894.630068	6190.786460
894.938387	6232.048304
895.246665	6049.225819
895.554903	5731.471810
895.863100	5389.815170
896.171256	5116.970279
896.479371	4873.182600
896.787446	4649.446110
897.095480	4447.265594
897.403473	4299.327893
897.711425	4150.702075
898.019336	4026.866131
898.327207	3906.894231
898.635038	3803.205258
898.942827	3691.826005
899.250576	3605.266873
899.558284	3524.058925
899.865952	3471.706543
900.173579	3406.751275
900.481165	3361.257383
900.788711	3314.301555
901.096216	3283.404323
901.403681	3254.367277
901.711105	3245.666245
902.018489	3239.432859
902.325832	3273.412756
902.633135	3333.974658
902.940397	3506.717356
903.247619	3911.539654
903.554800	4673.053833
903.861941	5656.212424
904.169041	6365.349015
904.476101	6578.733496
904.783121	6299.801412
905.090100	5894.233023
905.397039	5473.926822
905.703938	5112.410556
906.010796	4784.060041
906.317614	4526.076472
906.624391	4285.159730
906.931129	4089.031119
907.237826	3905.228129
907.544483	3734.280082
907.851099	3559.407496
908.157675	3395.627969
908.464211	3254.931886
908.770707	3153.844149
909.077163	3070.995306
909.383578	3011.245030
909.689954	2969.806745
909.996289	2940.683999
910.302584	2919.823705
910.608839	2903.515572
910.915054	2889.712893
911.221229	2889.375136
911.527363	2888.626524
911.833458	2898.970972
912.139513	2910.074113
912.445527	2924.496854
912.751502	2959.580765
913.057436	3004.242867
913.363331	3061.359140
913.669186	3149.934734
913.975000	3269.314298
914.280775	3460.658854
914.586510	3730.867221
914.892205	4106.488635
915.197859	4610.689719
915.503475	5204.550245
915.809050	5709.502461
916.114585	6002.590105
916.420081	6071.550569
916.725536	6004.793089
917.030952	5763.036995
917.336328	5555.094440
917.641665	5336.651161
917.946961	5104.581644
918.252218	4901.224018
918.557435	4674.210778
918.862612	4469.739058
919.167750	4299.274961
919.472848	4103.721042
919.777906	3936.793314
920.082925	3772.759209
920.387904	3619.931589
920.692843	3508.156606
920.997743	3405.269176
921.302603	3310.520690
921.607423	3245.388982
921.912204	3178.691996
922.216946	3129.944038
922.521647	3082.093406
922.826310	3036.687733
923.130932	2999.857063
923.435516	2960.120168
923.740059	2933.439861
924.044564	2900.276631
924.349028	2876.610934
924.653454	2846.275791
924.957840	2820.659167
925.262186	2801.124696
925.566493	2777.670728
925.870761	2752.338930
926.174989	2744.724267
926.479178	2727.309601
926.783328	2710.474668
927.087438	2700.289017
927.391509	2688.328879
927.695541	2673.812877
927.999533	2664.945487
928.303486	2656.836791
928.607400	2651.372180
928.911275	2646.416726
929.215110	2639.152423
929.518906	2634.859881
929.822663	2634.451547
930.126381	2633.360137
930.430060	2638.287865
930.733699	2641.930099
931.037299	2644.491005
931.340861	2642.383803
931.644383	2646.099133
931.947866	2646.076448
932.251309	2644.165851
932.554714	2641.758700
932.858080	2638.610499
933.161407	2635.827782
933.464694	2632.241001
933.767943	2630.673202
934.071153	2623.907974
934.374323	2616.532766
934.677455	2618.546707
934.980548	2617.145266
935.283602	2612.066304
935.586617	2609.722167
935.889593	2613.041767
936.192530	2614.460852
936.495428	2619.829681
936.798287	2628.467698
937.101108	2643.818011
937.403890	2663.758295
937.706632	2692.717203
938.009336	2725.744323
938.312002	2756.386977
938.614628	2782.371604
938.917216	2801.306178
939.219765	2809.581232
939.522275	2820.097079
939.824747	2818.065494
940.127179	2811.577529
940.429573	2805.318936
940.731929	2806.049904
941.034246	2797.195117
941.336524	2794.082204
941.638763	2791.153294
941.940964	2785.913015
942.243126	2763.986516
942.545250	2754.158787
942.847335	2737.820407
943.149381	2727.551577
943.451389	2713.975749
943.753359	2699.192566
944.055290	2690.398273
944.357182	2681.813188
944.659036	2677.016530
944.960851	2674.284224
945.262628	2671.385561
945.564367	2671.967814
945.866067	2668.731393
946.167729	2665.633604
946.469352	2666.041938
946.770937	2665.121927
947.072484	2656.529281
947.373992	2656.110865
947.675462	2654.469969
947.976893	2648.218938
948.278286	2643.979328
948.579641	2639.830458
948.880958	2640.127887
949.182236	2638.653349
949.483476	2631.043727
949.784678	2634.302833
950.085841	2632.026752
950.386967	2639.777526
950.688054	2642.870274
950.989103	2653.265133
951.290114	2662.293840
951.591087	2672.807166
951.892021	2685.223528
952.192917	2698.058306
952.493776	2707.611293
952.794596	2710.487271
953.095378	2710.273022
953.396122	2711.661860
953.696828	2708.501056
953.997496	2699.966383
954.298126	2692.636545
954.598718	2687.103879
954.899272	2673.759944
955.199788	2666.362051
955.500266	2652.145997
955.800706	2635.789974
956.101108	2620.351440
956.401472	2609.298710
956.701798	2591.432861
957.002087	2578.421643
957.302337	2566.937894
957.602550	2555.537325
957.902724	2545.104657
958.202861	2538.657021
958.502960	2526.215454
958.803022	2523.286543
959.103045	2510.177023
959.403031	2508.243740
959.702979	2505.760972
960.002889	2497.526247
960.302762	2490.476193
960.602596	2488.537870
960.902393	2486.589464
961.202153	2483.446304
961.501875	2477.069245
961.801559	2478.377424
962.101205	2474.377269
962.400814	2471.909624
962.700385	2469.651187
962.999918	2465.167081
963.299414	2466.676906
963.598873	2465.212451
963.898293	2464.357975
964.197677	2462.328911
964.497022	2463.390074
964.796331	2459.558797
965.095601	2457.141564
965.394835	2459.170628
965.694030	2458.835391
965.993189	2460.476287
966.292309	2455.367077
966.591393	2457.171811
966.890439	2456.476131
967.189447	2458.028807
967.488419	2455.331789
967.787353	2457.963272
968.086249	2457.743982
968.385108	2458.258179
968.683930	2457.990998
968.982714	2459.026955
969.281462	2457.103755
969.580172	2463.712708
969.878844	2467.034828
970.177480	2466.750003
970.476078	2469.200004
970.774639	2472.643112
971.073162	2476.877681
971.371649	2475.766107
971.670098	2475.342650
971.968510	2479.693165
972.266885	2479.640233
972.565223	2486.622231
972.863524	2485.240955
973.161788	2485.470328
973.460014	2488.986532
973.758204	2488.797489
974.056356	2487.879999
974.354471	2488.459732
974.652550	2488.694146
974.950591	2489.601553
975.248595	2488.951244
975.546563	2487.443939
975.844493	2487.224649
976.142386	2479.713330
976.440243	2480.527476
976.738062	2478.833649
977.035845	2479.413381
977.333590	2475.037660
977.631299	2474.692341
977.928971	2471.554222
978.226606	2470.006588
978.524204	2468.988275
978.821765	2467.899386
979.119290	2466.049282
979.416777	2466.795373
979.714228	2466.629015
980.011642	2467.690178
980.309020	2472.476754
980.606360	2472.867443
980.903664	2484.434371
981.200931	2495.655979
981.498162	2518.250431
981.795356	2546.102806
982.092513	2587.256265
982.389633	2630.990795
982.686717	2673.296158
982.983764	2706.479553
983.280775	2726.485372
983.577749	2723.984960
983.874686	2715.835935
984.171587	2699.429500
984.468451	2681.082220
984.765279	2667.279541
985.062070	2647.485451
985.358824	2630.025414
985.655543	2604.300406
985.952224	2583.556058
986.248869	2554.095555
986.545478	2524.093128
986.842050	2506.925478
987.138586	2486.637355
987.435086	2472.829634
987.731549	2462.341514
988.027975	2458.517799
988.324366	2450.731737
988.620719	2447.654112
988.917037	2440.916610
989.213318	2440.301589
989.509563	2438.779161
989.805772	2438.078440
990.101944	2437.402926
990.398080	2433.087698
990.694180	2431.509817
990.990244	2434.708429
991.286271	2435.875456
991.582262	2434.836978
991.878217	2431.847574
992.174136	2434.458892
992.470019	2437.657504
992.765865	2438.572473
993.061676	2437.889397
993.357450	2445.246961
993.653188	2446.540017
993.948890	2450.469597
994.244556	2458.938735
994.540186	2470.588842
994.835780	2477.366673
995.131337	2494.304950
995.426859	2509.272136
995.722345	2530.573531
996.017795	2548.845193
996.313208	2563.058727
996.608586	2574.865109
996.903928	2577.980542
997.199234	2573.947619
997.494504	2577.035326
997.789738	2562.095866
998.084936	2556.958930
998.380099	2544.545089
998.675225	2532.539581
998.970316	2518.447036
999.265371	2503.447082
999.560390	2490.367809
999.855373	2482.538897
1000.150320	2470.893831
1000.445232	2460.352779
1000.740108	2452.652416
1001.034948	2444.780654
1001.329752	2439.134562
1001.624521	2439.038780
1001.919254	2430.675506
1002.213951	2427.343303
1002.508613	2426.246852
1002.803239	2425.231060
1003.097829	2421.719896
1003.392384	2421.273754
1003.686903	2423.010432
1003.981386	2424.913467
1004.275834	2419.935328
1004.570246	2421.614032
1004.864623	2417.535738
1005.158964	2416.477096
1005.453270	2415.083217
1005.747540	2417.850811
1006.041775	2413.439801
1006.335974	2414.057342
1006.630138	2417.447518
1006.924266	2413.094482
1007.218359	2414.629513
1007.512416	2414.989956
1007.806438	2411.909811
1008.100425	2415.728485
1008.394376	2411.259502
1008.688292	2413.165058
1008.982172	2413.308731
1009.276017	2413.533062
1009.569827	2412.441653
1009.863602	2412.471899
1010.157341	2412.421488
1010.451045	2412.023237
1010.744714	2411.579615
1011.038347	2409.782444
1011.331945	2412.431570
1011.625508	2412.413926
1011.919036	2411.075500
1012.212528	2410.415109
1012.505986	2408.731363
1012.799408	2408.927968
1013.092795	2409.051477
1013.386147	2410.359656
1013.679464	2409.275808
1013.972745	2409.003586
1014.265992	2407.276990
1014.559204	2409.081723
1014.852380	2408.239851
1015.145521	2411.183885
1015.438628	2411.042732
1015.731699	2408.688513
1016.024736	2408.383524
1016.317737	2410.120201
1016.610703	2408.191960
1016.903635	2406.389747
1017.196531	2403.622154
1017.489393	2408.706158
1017.782219	2404.307751
1018.075011	2410.243709
1018.367768	2408.675911
1018.660490	2411.153638
1018.953177	2411.153638
1019.245829	2411.153638
