Dividing Wavelength (nm)	Counts (n)	Blue Motor Position (mm): 29.600000	Red Motor Position (mm): 0.000000	
326.493990	1970.763479
326.888308	1970.763479
327.282561	1970.763479
327.676750	1946.891095
328.070874	1949.494851
328.464933	1952.834615
328.858929	1964.598148
329.252859	1974.367904
329.646726	1991.076808
330.040528	2004.982831
330.434265	2024.610564
330.827938	2042.521783
331.221547	2061.332849
331.615091	2084.691035
332.008571	2105.659715
332.401986	2124.682509
332.795338	2145.633544
333.188625	2164.084167
333.581847	2184.989832
333.975006	2204.136134
334.368100	2221.875955
334.761129	2236.303737
335.154095	2251.303690
335.546996	2293.994702
335.939833	2369.140662
336.332606	2382.416540
336.725315	2392.226626
337.117960	2401.303223
337.510540	2410.526014
337.903056	2422.128230
338.295508	2425.818354
338.687896	2433.702719
339.080220	2440.167999
339.472480	2445.962805
339.864676	2446.502208
340.256807	2451.477827
340.648875	2456.077880
341.040879	2453.355657
341.432818	2457.980916
341.824694	2458.669033
342.216506	2458.086780
342.608253	2457.396142
342.999937	2454.915894
343.391557	2456.201388
343.783113	2454.318518
344.174605	2453.529577
344.566033	2451.419854
344.957397	2450.673763
345.348697	2445.811570
345.739934	2445.171344
346.131106	2444.828545
346.522215	2443.051539
346.913260	2443.139759
347.304241	2438.484253
347.695159	2439.139603
348.086012	2435.875456
348.476802	2435.441917
348.867528	2433.034766
349.258191	2429.667275
349.648789	2430.241967
350.039324	2429.821030
350.429796	2428.359096
350.820203	2427.257604
351.210548	2426.982861
351.600828	2427.877666
351.991045	2425.818354
352.381198	2426.284661
352.771288	2425.984712
353.161314	2424.212747
353.551276	2425.757860
353.941175	2421.049423
354.331010	2424.258117
354.720782	2427.948242
355.110490	2430.811617
355.500135	2427.693663
355.889717	2426.955134
356.279235	2426.014959
356.668689	2428.550660
357.058080	2429.006884
357.447408	2423.660740
357.836672	2424.348858
358.225873	2425.901533
358.615010	2425.226019
359.004084	2431.507296
359.393095	2430.042841
359.782043	2427.643252
360.170927	2432.026535
360.559748	2433.105342
360.948505	2432.505445
361.337199	2434.627771
361.725830	2436.684561
362.114398	2434.839499
362.502903	2435.386464
362.891344	2435.300765
363.279722	2433.594334
363.668037	2436.150199
364.056289	2435.746907
364.444478	2438.753955
364.832603	2439.920982
365.220665	2438.083482
365.608665	2439.036260
365.996601	2442.131528
366.384474	2440.672114
366.772284	2442.509615
367.160031	2439.482402
367.547715	2440.896445
367.935336	2440.863678
368.322893	2443.036415
368.710388	2441.844182
369.097820	2444.331992
369.485189	2444.649584
369.872495	2441.995417
370.259738	2444.329471
370.646918	2444.188319
371.034035	2443.021292
371.421090	2448.632096
371.808081	2446.608073
372.195010	2446.933227
372.581875	2444.629420
372.968678	2446.781993
373.355418	2446.482044
373.742096	2450.996397
374.128710	2449.234514
374.515262	2448.153186
374.901751	2447.316355
375.288177	2449.879782
375.674540	2452.901953
376.060841	2452.881789
376.447079	2450.724175
376.833254	2448.276695
377.219367	2445.982970
377.605417	2449.718465
377.991404	2447.429781
378.377329	2450.509926
378.763191	2448.687549
379.148991	2453.627879
379.534727	2452.801130
379.920402	2455.316666
380.306013	2456.251800
380.691563	2455.551080
381.077049	2455.349433
381.462474	2454.873044
381.847835	2455.992181
382.233134	2457.416307
382.618371	2456.491255
383.003545	2459.581482
383.388657	2456.972685
383.773706	2460.829168
384.158693	2459.089970
384.543618	2459.745320
384.928480	2458.522840
385.313280	2458.578292
385.698017	2459.591564
386.082692	2463.538788
386.467305	2461.388736
386.851856	2463.259004
387.236344	2461.955866
387.620770	2463.614405
388.005133	2465.398974
388.389435	2464.610033
388.773674	2464.400825
389.157851	2468.433748
389.541965	2467.168419
389.926018	2467.218830
390.310008	2467.657411
390.693936	2463.581638
391.077802	2467.433079
391.461606	2469.091619
391.845348	2468.511886
392.229027	2470.631691
392.612645	2468.388378
392.996200	2472.096147
393.379694	2469.315950
393.763125	2472.396095
394.146494	2470.576239
394.529801	2473.018678
394.913047	2474.911631
395.296230	2473.439614
395.679351	2475.756024
396.062410	2475.940026
396.445408	2471.322329
396.828343	2476.429018
397.211217	2470.034315
397.594028	2473.482464
397.976778	2471.705457
398.359466	2479.118474
398.742092	2470.412401
399.124656	2478.233751
399.507158	2476.892804
399.889598	2479.322641
400.271977	2479.582260
400.654294	2481.248361
401.036549	2481.470172
401.418742	2482.924545
401.800874	2481.760038
402.182944	2481.044195
402.564952	2481.933958
402.946898	2482.498567
403.328783	2483.413537
403.710606	2484.583085
404.092367	2485.717344
404.474067	2485.732468
404.855705	2485.656850
405.237282	2486.778507
405.618797	2487.207005
406.000250	2488.326141
406.381642	2491.686070
406.762972	2489.089876
407.144240	2489.321769
407.525447	2494.080618
407.906593	2492.152377
408.287677	2490.352685
408.668700	2492.837974
409.049661	2495.063643
409.430560	2493.783190
409.811399	2494.982985
410.192176	2495.091370
410.572891	2494.148674
410.953545	2499.487256
411.334138	2495.726555
411.714669	2499.136896
412.095139	2496.976761
412.475547	2498.373161
412.855894	2499.237719
413.236180	2500.613954
413.616405	2501.332318
413.996568	2499.870384
414.376670	2502.234685
414.756711	2502.436331
415.136691	2503.222751
415.516609	2502.895076
415.896466	2505.130828
416.276262	2506.312978
416.655997	2503.313492
417.035670	2505.410612
417.415283	2511.258350
417.794834	2509.115860
418.174324	2515.492919
418.553753	2511.661642
418.933121	2514.308248
419.312428	2515.755059
419.691674	2514.033505
420.070859	2518.689011
420.449983	2520.067767
420.829045	2520.279495
421.208047	2520.466018
421.586988	2523.815864
421.965867	2527.493386
422.344686	2528.741072
422.723444	2530.082019
423.102141	2526.414579
423.480777	2532.569828
423.859352	2532.050589
424.237866	2538.404964
424.616319	2537.610982
424.994712	2543.604914
425.373044	2549.303938
425.751314	2555.184444
426.129524	2551.534649
426.507673	2556.172510
426.885762	2561.117882
427.263789	2567.646177
427.641756	2571.568194
428.019662	2577.725964
428.397508	2587.599063
428.775292	2594.084508
429.153016	2605.963987
429.530679	2612.424226
429.908282	2624.749847
430.285824	2633.730662
430.663305	2649.017961
431.040726	2661.527585
431.418086	2675.758762
431.795385	2699.701722
432.172624	2724.584857
432.549802	2739.728484
432.926920	2763.328645
433.303977	2786.704476
433.680974	2819.164465
434.057910	2856.988243
434.434786	2890.708521
434.811601	2922.687080
435.188355	2990.553614
435.565050	3022.378418
435.941683	3066.730490
436.318257	3144.533137
436.694770	3188.449149
437.071222	3267.754061
437.447614	3289.849438
437.823946	3353.660364
438.200218	3429.653237
438.576429	3491.372084
438.952580	3578.417687
439.328670	3653.760252
439.704700	3763.286881
440.080670	3818.190088
440.456580	3949.408802
440.832429	4058.559865
441.208218	4073.012853
441.583947	4204.909602
441.959616	4316.853464
442.335224	4445.349955
442.710773	4569.024583
443.086261	4743.103187
443.461689	4790.603459
443.837057	4922.868212
444.212365	5130.324296
444.587612	5263.456128
444.962800	5332.356098
445.337927	5531.443866
445.712995	5472.570751
446.088002	5895.949536
446.462949	6091.188384
446.837837	6280.806344
447.212664	6435.105981
447.587431	7157.962072
447.962139	7972.816701
448.336786	8675.598917
448.711374	8553.542500
449.085901	7930.861698
449.460369	8099.866381
449.834776	8284.370091
450.209124	9138.386923
450.583412	9245.135876
450.957640	9601.550494
451.331808	9446.139283
451.705917	9268.826778
452.079965	9479.874684
452.453954	9806.516248
452.827883	9997.971709
453.201752	10149.173557
453.575562	10421.879815
453.949311	11025.772238
454.323001	11290.901642
454.696632	11445.113058
455.070202	12255.990216
455.443713	12580.375863
455.817164	13073.042788
456.190556	13549.273030
456.563888	13584.364502
456.937160	14012.923072
457.310373	13552.020459
457.683526	13977.332526
458.056619	14230.925250
458.429653	14460.980826
458.802628	14984.653367
459.175542	15291.626869
459.548398	16207.153340
459.921194	17287.313812
460.293930	17950.144885
460.666607	19343.381176
461.039224	20603.843557
461.411782	21131.543980
461.784280	20745.230279
462.156719	20750.644478
462.529099	20719.679191
462.901419	20251.978581
463.273680	19887.956862
463.645882	20207.906293
464.018024	20468.390274
464.390106	21261.484762
464.762130	23266.949023
465.134094	26231.354172
465.505999	30156.666258
465.877845	33727.870055
466.249631	34963.590453
466.621358	34046.223961
466.993026	32841.874663
467.364634	31632.950518
467.736184	30556.054192
468.107674	29929.005230
468.479105	29636.943462
468.850477	29399.762214
469.221790	28604.857952
469.593043	27532.365074
469.964238	27108.749355
470.335373	27264.049661
470.706449	28819.139758
471.077467	31028.256553
471.448425	35003.115620
471.819324	37602.672300
472.190164	36347.419951
472.560945	33635.914367
472.931667	31316.534935
473.302330	30611.481679
473.672934	30119.336514
474.043479	30730.094988
474.413965	30247.638921
474.784393	30121.186618
475.154761	31023.933763
475.525070	31233.401267
475.895321	30997.250936
476.265513	31677.486592
476.635645	32671.241688
477.005719	32670.727490
477.375734	33237.922833
477.745691	33999.847866
478.115588	35310.258000
478.485427	37215.836839
478.855207	40397.745091
479.224928	42976.547341
479.594591	44657.401624
479.964194	43848.750136
480.333739	44098.214154
480.703226	44264.073157
481.072653	45000.646228
481.442022	45610.502335
481.811333	45988.419995
482.180584	44870.168563
482.549777	44510.996434
482.918912	44098.672899
483.287988	43921.819140
483.657005	43235.355138
484.025964	42722.556366
484.394864	42817.753516
484.763706	42502.852799
485.132489	41751.804055
485.501213	41676.491738
485.869879	41885.656772
486.238487	41580.785432
486.607036	41830.677948
486.975527	41383.121789
487.343959	41639.900522
487.712333	41776.062088
488.080648	41743.120668
488.448905	42204.550082
488.817104	42086.655138
489.185244	43044.353381
489.553326	44696.289085
489.921350	47406.380625
490.289315	50371.942719
490.657222	51077.530337
491.025070	51405.149885
491.392861	50520.203053
491.760593	49242.356253
492.128267	47569.434226
492.495883	46101.908971
492.863440	44751.550213
493.230939	43464.513389
493.598380	42434.971142
493.965763	42134.107519
494.333088	41373.175593
494.700354	40936.278954
495.067563	40680.516013
495.434713	40582.778122
495.801805	40668.843222
496.168839	40309.741668
496.535815	39993.716775
496.902733	40048.793901
497.269593	39667.090335
497.636395	39606.674627
498.003139	39994.667032
498.369825	39483.975463
498.736453	39787.808326
499.103023	39347.990338
499.469535	39235.678471
499.835989	39332.072894
500.202385	39015.438021
500.568723	39048.984380
500.935003	39243.436807
501.301226	39060.634486
501.667390	39668.756436
502.033497	39906.313250
502.399546	39366.940035
502.765537	38703.385557
503.131470	39079.251467
503.497345	39418.742932
503.863163	38133.155440
504.228923	38733.224147
504.594625	39124.735278
504.960269	38445.822925
505.325856	39108.843040
505.691385	38498.150102
506.056856	38632.091039
506.422270	39057.423271
506.787625	38664.258642
507.152924	38837.480249
507.518164	38931.712018
507.883347	38193.661889
508.248472	38421.201929
508.613540	38875.104901
508.978550	39189.534269
509.343503	38934.804766
509.708398	39144.118514
510.073236	39665.961117
510.438016	39650.671297
510.802738	39120.467941
511.167403	39725.371115
511.532010	39955.247730
511.896561	40259.748546
512.261053	41083.687333
512.625488	40646.952011
512.989866	40508.267348
513.354186	40360.251509
513.718449	40342.862049
514.082655	41023.440504
514.446803	40683.724708
514.810894	41204.886754
515.174927	41133.781279
515.538904	41041.828112
515.902822	41670.162569
516.266684	41144.294605
516.630488	41556.645867
516.994235	41420.068406
517.357925	41956.656383
517.721558	42130.170378
518.085133	42434.242696
518.448651	42574.144797
518.812112	42352.807896
519.175516	42446.021352
519.538863	42784.897795
519.902152	42741.196033
520.265385	43191.081205
520.628560	43232.393461
520.991678	43031.758058
521.354739	43252.253086
521.717743	43574.637395
522.080690	43464.861229
522.443580	44006.376934
522.806413	44057.952979
523.169189	43992.617105
523.531908	44173.009754
523.894569	44062.217795
524.257174	44210.528541
524.619722	44509.708419
524.982213	44508.627092
525.344647	44419.870017
525.707025	44460.504237
526.069345	44853.479823
526.431608	44771.795487
526.793815	45073.425366
527.155964	44617.989883
527.518057	44795.982943
527.880093	44571.318881
528.242072	45105.212361
528.603995	44811.978524
528.965860	44806.339994
529.327669	44900.017235
529.689421	44806.440817
530.051117	44772.541578
530.412755	44903.535961
530.774337	44971.372247
531.135862	44789.031192
531.497331	44979.894318
531.858743	44888.147838
532.220098	45230.091824
532.581396	44939.199603
532.942638	44609.866064
533.303824	44906.434624
533.664953	44881.924534
534.026025	44611.597700
534.387040	45055.138580
534.747999	45010.282393
535.108902	45164.511454
535.469748	44692.782962
535.830537	44806.468543
536.191270	45013.183577
536.551947	44675.456517
536.912567	44968.692874
537.273131	45077.523824
537.633638	44596.665803
537.994089	44932.522595
538.354483	44543.252257
538.714821	45105.411487
539.075103	45415.160144
539.435328	45192.885588
539.795497	45089.935145
540.155609	45089.718375
540.515665	45541.993054
540.875665	45001.130178
541.235609	45327.257544
541.595496	45300.728472
541.955328	45949.913141
542.315102	45350.552716
542.674821	45129.578778
543.034483	45168.562021
543.394090	45141.937167
543.753640	45102.074243
544.113134	46097.593743
544.472571	45118.745339
544.831953	46336.370515
545.191278	45560.249593
545.550548	45294.185054
545.909761	45745.668272
546.268918	45967.242107
546.628019	46239.572800
546.987064	45823.435632
547.346053	45118.775586
547.704986	45975.529764
548.063863	45538.799483
548.422684	45749.063489
548.781449	45596.258555
549.140158	45991.716909
549.498811	45847.852461
549.857408	45283.119722
550.215949	46105.677233
550.574434	46042.015022
550.932864	45822.044274
551.291237	46532.473921
551.649555	46137.078580
552.007817	46386.729122
552.366022	46055.666466
552.724173	46215.740745
553.082267	46602.374560
553.440305	46903.538132
553.798288	46241.702687
554.156215	46535.486010
554.514086	46751.338135
554.871902	46501.818664
555.229661	46518.194852
555.587365	46339.246494
555.945014	46431.308045
556.302606	46372.956689
556.660143	46600.562265
557.017625	46672.590271
557.375050	46476.053327
557.732421	46822.052921
558.089735	46810.763257
558.446994	46716.934781
558.804197	47182.744958
559.161345	47122.364538
559.518437	46388.624596
559.875474	46697.871658
560.232455	46865.484982
560.589381	47033.688121
560.946251	46747.743793
561.303065	47415.127027
561.659825	47207.290336
562.016528	46919.332067
562.373177	46638.040723
562.729770	47098.943337
563.086307	46639.328738
563.442789	47084.893641
563.799216	47129.021382
564.155587	46938.674974
564.511904	46962.559961
564.868164	47048.612457
565.224370	47300.052608
565.580520	47028.503294
565.936615	47260.736649
566.292654	46964.100033
566.648638	47211.618167
567.004567	47179.939556
567.360441	47204.704224
567.716260	47062.281546
568.072023	47367.510808
568.427732	47360.795991
568.783385	46901.196516
569.138982	47299.745098
569.494525	47271.267620
569.850013	47036.876651
570.205445	47007.416148
570.560823	46961.970146
570.916145	46852.370420
571.271412	46866.780558
571.626625	46645.063051
571.981782	46692.454938
572.336884	46391.636685
572.691931	46706.605457
573.046923	46316.304202
573.401860	46163.983218
573.756743	46149.931002
574.111570	46255.349091
574.466342	46124.067362
574.821059	46236.285968
575.175722	45770.470749
575.530330	45787.265353
575.884882	45524.023861
576.239380	45474.053424
576.593823	45449.152644
576.948211	45366.510489
577.302544	44914.918886
577.656823	44943.189677
578.011047	45165.474314
578.365216	44886.612807
578.719330	44680.074213
579.073389	44530.878745
579.427394	44636.150640
579.781344	44607.844561
580.135239	44260.130975
580.489080	44347.756311
580.842866	43841.236296
581.196597	44291.633145
581.550273	44221.762753
581.903895	44088.366260
582.257463	44527.760791
582.610975	43919.716979
582.964434	44195.982292
583.317837	43841.198487
583.671186	43685.744426
584.024481	43904.611161
584.377721	43449.127788
584.730906	43719.182399
585.084037	43749.986370
585.437113	43463.565652
585.790135	43491.118079
586.143103	43106.851086
586.496016	43229.207451
586.848874	43249.369546
587.201679	43270.333184
587.554428	42756.022066
587.907124	42935.605610
588.259765	42706.709499
588.612352	42966.817914
588.964884	42358.360727
589.317362	42625.088177
589.669786	42593.538116
590.022155	42349.826054
590.374470	42770.011268
590.726731	42292.853454
591.078937	41821.409787
591.431090	41921.885024
591.783188	41568.021230
592.135232	41265.257092
592.487222	41495.718481
592.839157	41583.381626
593.191038	41274.794955
593.542866	41026.510566
593.894639	40442.747472
594.246358	40711.314943
594.598022	40679.051558
594.949633	40306.890896
595.301190	40255.516497
595.652692	40105.884969
596.004141	40422.413977
596.355535	39445.682858
596.706876	39405.320860
597.058162	39241.354810
597.409395	39688.744611
597.760573	39770.630594
598.111698	39351.851862
598.462768	39369.495900
598.813785	39399.150488
599.164748	38876.125735
599.515657	39260.077656
599.866511	38741.158923
600.217312	39339.806024
600.568060	38339.336112
600.918753	39066.295702
601.269392	39014.485243
601.619978	38674.096453
601.970510	38896.292871
602.320988	39068.828882
602.671412	39372.018997
603.021783	39115.499884
603.372100	38767.372923
603.722363	38883.523628
604.072572	38957.192530
604.422728	38957.810071
604.772830	38786.322620
605.122878	38877.259994
605.472872	38826.172941
605.822813	39091.451060
606.172701	38935.596227
606.522534	39154.664608
606.872314	39408.794215
607.222041	39176.107156
607.571714	39551.748735
607.921333	39015.672435
608.270899	39317.148558
608.620411	39644.735338
608.969870	39447.371645
609.319276	39439.217578
609.668627	39500.893575
610.017926	39979.682203
610.367171	40115.576587
610.716362	40214.148789
611.065500	40164.107775
611.414585	40355.739677
611.763616	40641.474797
612.112594	40571.168345
612.461518	40792.671604
612.810389	41075.276168
613.159207	40935.951279
613.507971	41021.358507
613.856682	41489.487615
614.205340	41377.815975
614.553945	42077.288674
614.902496	41514.368230
615.250994	41992.839265
615.599439	42049.693398
615.947830	42272.726647
616.296169	42322.006446
616.644454	42455.468474
616.992686	42630.010864
617.340864	43143.981704
617.688990	42864.174981
618.037063	43462.658245
618.385082	43433.439717
618.733048	43721.881937
619.080961	43746.157614
619.428821	43738.616048
619.776628	43843.875340
620.124382	43662.461857
620.472083	43790.834840
620.819731	43922.918112
621.167326	43601.635295
621.514868	43573.843413
621.862357	43147.152590
622.209793	43143.505315
622.557176	42835.997451
622.904506	42582.850870
623.251783	42231.217786
623.599007	42014.571679
623.946179	41802.175265
624.293297	41756.620878
624.640363	41176.026148
624.987376	41157.935968
625.334336	40909.381877
625.681243	40582.689902
626.028097	40533.468076
626.374899	40380.302699
626.721647	40364.019772
627.068343	40261.860789
627.414987	40029.783710
627.761577	39813.911420
628.108115	40129.795161
628.454600	39595.826064
628.801032	39781.509404
629.147412	39747.471533
629.493739	39759.174572
629.840014	39413.611037
630.186236	39751.310372
630.532405	39368.412052
630.878521	39581.869629
631.224585	39464.456115
631.570597	39171.749079
631.916556	39343.032363
632.262462	39286.891553
632.608316	39309.092795
632.954117	39189.105771
633.299866	39189.045278
633.645562	39112.235737
633.991206	38609.143707
634.336797	38187.884727
634.682336	38187.466311
635.027823	37945.417829
635.373257	37761.138451
635.718639	37516.471090
636.063968	37378.305666
636.409245	36808.758625
636.754470	36866.595783
637.099642	36626.750286
637.444762	36157.373492
637.789829	36312.189847
638.134845	35957.343028
638.479808	35910.437612
638.824719	35818.827244
639.169577	35426.625475
639.514383	35502.136918
639.859137	35201.263213
640.203839	35438.789779
640.548489	35069.789920
640.893086	35142.047299
641.237632	34898.582253
641.582125	35008.255076
641.926566	34928.347746
642.270955	34907.323614
642.615292	34944.393739
642.959576	34908.551135
643.303809	34900.318931
643.647990	35055.178136
643.992118	35012.351013
644.336195	35008.736506
644.680219	35104.871310
645.024192	35401.626393
645.368112	35911.481131
645.711981	35934.068021
646.055797	36799.969373
646.399562	36734.681390
646.743274	37648.047726
647.086935	38107.596790
647.430544	37998.274328
647.774101	38121.013821
648.117606	38364.347796
648.461059	38643.340374
648.804460	38275.492419
649.147810	37657.935949
649.491108	37398.596310
649.834354	37054.295585
650.177548	36220.201393
650.520690	35785.497655
650.863781	35807.882899
651.206820	35649.754506
651.549807	35228.145166
651.892742	34738.699539
652.235626	34547.075199
652.578458	34413.691309
652.921238	33811.623785
653.263967	34146.298427
653.606644	33824.819005
653.949269	33782.364928
654.291843	33387.256933
654.634365	33788.633603
654.976836	33386.818353
655.319255	33387.798857
655.661622	33393.197933
656.003938	33155.013496
656.346203	33011.096116
656.688416	33252.968157
657.030577	33054.092117
657.372687	32902.938160
657.714746	33151.633402
658.056753	33281.405305
658.398708	32729.920719
658.740612	32782.028605
659.082465	33052.489030
659.424266	32885.624317
659.766016	33005.006402
660.107715	32872.416494
660.449362	33007.093439
660.790958	33001.671678
661.132503	33017.500902
661.473996	33059.004721
661.815438	33158.391069
662.156829	33347.756972
662.498168	33132.744199
662.839456	33156.266223
663.180693	33297.337872
663.521879	33465.218378
663.863013	33411.056221
664.204097	33415.005965
664.545129	33877.675503
664.886110	33842.783157
665.227040	33905.633742
665.567918	34008.498486
665.908746	34078.825103
666.249522	34253.075106
666.590248	34247.847430
666.930922	34359.831621
667.271545	34322.486754
667.612118	34410.359106
667.952639	34189.980025
668.293109	34246.577059
668.633528	34148.503932
668.973896	34071.724638
669.314213	34101.767394
669.654480	33842.672251
669.994695	33871.963876
670.334859	33759.636886
670.674973	33655.078314
671.015035	33826.167513
671.355047	33774.485604
671.695008	33711.675348
672.034918	33613.723208
672.374777	33702.661765
672.714585	33532.976526
673.054342	33772.857312
673.394049	33529.742626
673.733705	33809.980368
674.073310	33476.089626
674.412864	33546.169226
674.752368	33137.838285
675.091820	33447.476037
675.431223	33021.619524
675.770574	32745.258429
676.109875	32611.332616
676.449125	32332.443382
676.788324	32246.922727
677.127473	31739.482702
677.466571	31653.893992
677.805619	31298.792594
678.144616	31308.960602
678.483562	31222.121686
678.822458	30888.150284
679.161303	30827.911017
679.500098	30745.694838
679.838842	30631.621089
680.177535	30794.654525
680.516179	31060.252756
680.854771	31312.660809
681.193314	32153.399241
681.531805	33284.858496
681.870247	34082.850464
682.208638	34800.471317
682.546978	35023.844844
682.885268	35099.489878
683.223508	34582.895117
683.561697	34240.154629
683.899836	34050.403078
684.237925	33546.239802
684.575963	33405.828544
684.913951	32946.481126
685.251889	33107.717391
685.589776	33089.450770
685.927614	33083.451797
686.265401	33219.454566
686.603137	33325.225535
686.940824	33841.112014
687.278460	34204.566603
687.616046	34362.526118
687.953582	34965.352336
688.291068	34839.116803
688.628504	35114.915809
688.965889	35034.995877
689.303224	34650.491949
689.640510	34305.699711
689.977745	33564.874427
690.314930	32782.210087
690.652065	32242.927613
690.989150	31491.510865
691.326185	30607.342892
691.663170	29916.220864
692.000105	29153.133845
692.336990	28465.838053
692.673825	28017.107305
693.010610	27502.861722
693.347345	26931.973734
693.684030	26273.536027
694.020665	25993.036145
694.357251	25343.972463
694.693786	25302.846730
695.030272	25062.940739
695.366707	24518.460836
695.703093	24234.943823
696.039429	24212.881213
696.375716	23959.359066
696.711952	23923.239198
697.048139	23785.091418
697.384276	23589.323250
697.720363	23732.350867
698.056400	23529.890567
698.392388	23305.191216
698.728326	23265.093879
699.064214	23065.131470
699.400053	23002.520339
699.735842	22634.435450
700.071581	22366.818237
700.407270	22085.486564
700.742910	21902.041496
701.078501	21616.596242
701.414042	21339.794046
701.749533	21054.926004
702.084974	20704.270904
702.420366	20902.506717
702.755709	20469.048145
703.091002	20168.905407
703.426246	20199.046465
703.761440	20085.184444
704.096584	19827.120217
704.431679	19777.553072
704.766725	19681.743422
705.101721	19634.487646
705.436668	19709.527742
705.771565	19403.620444
706.106413	19732.873325
706.441212	19724.179855
706.775961	19846.689976
707.110661	19927.837430
707.445311	20271.928947
707.779913	20120.517891
708.114465	20369.497959
708.448967	20651.421967
708.783421	21353.692507
709.117825	21624.352057
709.452180	21841.895489
709.786485	22243.922468
710.120742	23047.253018
710.454949	23057.990676
710.789107	23527.188508
711.123216	24226.756989
711.457275	24354.615774
711.791286	24901.129783
712.125247	24949.555107
712.459159	24645.490351
712.793023	25305.805888
713.126837	24198.589542
713.460602	24450.984992
713.794318	24076.618825
714.127985	23675.176621
714.461602	22797.915028
714.795171	22738.923446
715.128691	21735.869942
715.462162	21186.028771
715.795584	20777.251688
716.128957	20507.018116
716.462281	20097.996537
716.795556	19875.590911
717.128782	19372.677842
717.461960	18844.478345
717.795088	18759.124048
718.128167	18363.406074
718.461198	17898.657060
718.794180	17758.296213
719.127113	17390.297024
719.459997	17200.968929
719.792833	16854.946650
720.125619	16826.320458
720.458357	16514.769588
720.791046	16336.854666
721.123686	16191.447625
721.456278	15944.282372
721.788821	15899.032975
722.121315	15647.353370
722.453761	15721.034874
722.786158	15650.441076
723.118506	15649.881508
723.450805	15517.896539
723.783056	15688.035481
724.115259	15576.973821
724.447412	15522.337795
724.779518	15758.692293
725.111574	15779.817249
725.443582	15971.108872
725.775542	15964.149560
726.107453	16425.145435
726.439315	16309.675285
726.771129	16711.971965
727.102895	17078.325218
727.434612	17284.667207
727.766281	17408.160352
728.097901	17673.753543
728.429473	17703.040126
728.760996	17686.540430
729.092471	17766.062111
729.423897	17645.432341
729.755276	17501.308273
730.086606	17610.542515
730.417887	18151.423034
730.749120	18665.966046
731.080305	18832.306479
731.411442	19165.168826
731.742530	19232.571573
732.073570	19324.144133
732.404562	19625.290061
732.735506	19427.702036
733.066401	19151.156939
733.397249	18620.247822
733.728048	17986.093353
734.058798	17160.427970
734.389501	16484.595762
734.720156	16021.490164
735.050762	15495.095400
735.381320	15138.990813
735.711831	14910.757614
736.042293	14561.718204
736.372707	14575.644391
736.703073	14365.561866
737.033391	14551.351071
737.363661	14518.134908
737.693883	14623.283295
738.024056	14791.572134
738.354182	14988.605632
738.684260	15260.782569
739.014290	15493.250338
739.344272	15676.962587
739.674207	15954.566326
740.004093	16067.152936
740.333931	16058.081379
740.663722	16093.785351
740.993464	16083.705564
741.323159	15914.516879
741.652806	15629.162366
741.982405	15426.339103
742.311956	15081.183902
742.641460	14955.656650
742.970915	14658.062215
743.300323	14329.285723
743.629683	14111.185243
743.958996	13835.129138
744.288260	13567.874888
744.617477	13265.897169
744.946647	13187.222402
745.275768	12916.031010
745.604842	12734.680542
745.933869	12570.374214
746.262847	12520.814631
746.591778	12448.395935
746.920662	12347.771984
747.249498	12351.721728
747.578286	12475.527425
747.907027	12612.863579
748.235720	12825.363338
748.564365	12848.855114
748.892963	12756.876742
749.221514	12815.782625
749.550017	12676.606449
749.878473	12632.574491
750.206881	12414.441243
750.535242	12322.979589
750.863555	12233.385683
751.191821	12140.978812
751.520039	12158.829538
751.848210	12071.670508
752.176334	12104.049839
752.504411	12004.764314
752.832440	11850.194976
753.160421	11914.951118
753.488356	11789.670883
753.816243	11694.899711
754.144082	11559.648074
754.471875	11501.884012
754.799620	11446.595158
755.127318	11415.881928
755.454969	11378.126206
755.782572	11335.684732
756.110129	11338.167500
756.437638	11264.632189
756.765100	11257.907290
757.092515	11253.082906
757.419882	11276.451174
757.747203	11277.645928
758.074477	11352.048317
758.401703	11307.907974
758.728882	11479.821403
759.056014	11509.090342
759.383099	11628.653908
759.710138	11729.683673
760.037129	11813.689460
760.364073	11829.637150
760.690970	11813.296250
761.017820	11813.810448
761.344623	11995.967501
761.671379	12316.045482
761.998088	12945.131071
762.324751	14496.924253
762.651366	17338.965475
762.977935	20998.573465
763.304456	23221.258525
763.630931	23682.420759
763.957359	22512.671420
764.283740	20597.111097
764.610074	18726.175067
764.936362	16606.853825
765.262602	15099.064874
765.588796	13629.409732
765.914943	12595.534613
766.241044	11746.241342
766.567097	11126.020623
766.893104	10578.223640
767.219064	10222.469413
767.544978	9836.523716
767.870845	9526.707003
768.196665	9342.745217
768.522438	9143.198704
768.848165	8981.934713
769.173846	8811.624372
769.499479	8686.800361
769.825066	8540.127990
770.150607	8356.708128
770.476101	8294.102038
770.801548	8189.339300
771.126949	8040.743728
771.452303	7953.393135
771.777611	7791.017570
772.102872	7767.203159
772.428087	7654.127557
772.753256	7527.972683
773.078378	7441.713499
773.403453	7304.216028
773.728482	7196.153854
774.053465	7133.336036
774.378401	7047.147429
774.703291	6957.891279
775.028135	6860.735642
775.352932	6820.789539
775.677683	6746.833291
776.002388	6653.697974
776.327046	6650.900133
776.651658	6569.447690
776.976224	6485.202448
777.300743	6476.014945
777.625216	6410.631179
777.949643	6364.854982
778.274024	6371.378235
778.598359	6302.599252
778.922647	6305.545807
779.246889	6269.524242
779.571086	6272.538852
779.895236	6284.718280
780.219339	6283.831037
780.543397	6280.329955
780.867409	6331.532955
781.191374	6326.517007
781.515294	6292.116173
781.839167	6339.354305
782.162995	6312.205171
782.486776	6264.324292
782.810511	6221.645883
783.134201	6147.140150
783.457844	6139.195292
783.781441	6088.193938
784.104993	6042.442947
784.428498	6019.866139
784.751958	5999.361246
785.075372	5970.112471
785.398739	5935.633499
785.722061	5959.500842
786.045337	5963.448066
786.368568	6071.401855
786.691752	6090.389361
787.014891	6336.763152
787.337983	6617.920905
787.661030	7053.297636
787.984031	7476.048798
788.306987	7739.781803
788.629897	7829.552150
788.952760	7744.066783
789.275579	7562.890235
789.598351	7267.720595
789.921078	7000.809143
790.243759	6724.281689
790.566395	6521.566811
790.888984	6329.544220
791.211529	6187.413928
791.534027	6023.387385
791.856480	5890.495008
792.178888	5830.472510
792.501249	5759.956850
792.823566	5659.990769
793.145836	5652.055993
793.468062	5635.909177
793.790241	5593.578608
794.112375	5639.253982
794.434464	5733.604218
794.756507	5763.150421
795.078505	5885.043000
795.400457	6102.702379
795.722364	6339.974367
796.044226	6528.707605
796.366042	6688.338263
796.687812	6636.860520
797.009538	6671.049625
797.331218	6571.443987
797.652852	6507.658267
797.974442	6381.889041
798.295986	6312.553011
798.617484	6180.341189
798.938938	6075.623821
799.260346	6007.671588
799.581709	5870.317790
799.903026	5818.179656
800.224299	5749.289768
800.545526	5630.197550
800.866708	5565.096089
801.187845	5519.607237
801.508936	5439.024393
801.829983	5412.744858
802.150984	5306.487417
802.471940	5282.126041
802.792851	5267.400831
803.113717	5240.612139
803.434538	5214.055341
803.755314	5181.764230
804.076045	5176.473539
804.396731	5138.503568
804.717372	5156.518131
805.037967	5154.862112
805.358518	5187.571639
805.679024	5242.774794
805.999485	5254.349283
806.319901	5268.063743
806.640272	5289.226506
806.960598	5338.186192
807.280879	5326.485674
807.601115	5366.661150
807.921306	5327.690510
808.241453	5321.142051
808.561554	5334.203681
808.881611	5298.260254
809.201623	5294.764214
809.521590	5241.678343
809.841513	5228.954471
810.161390	5247.858798
810.481223	5156.792874
810.801011	5144.363909
811.120755	5119.437924
811.440453	5067.120830
811.760107	5043.528230
812.079716	5010.029762
812.399281	4960.563440
812.718801	4954.554385
813.038276	4920.151030
813.357707	4879.821800
813.677093	4906.436571
813.996434	4842.267724
814.315731	4868.499368
814.634983	4861.378738
814.954191	4868.690932
815.273354	4928.010189
815.592473	4971.195234
815.911547	5044.481008
816.230577	5094.935396
816.549562	5181.202141
816.868502	5233.388166
817.187399	5291.187515
817.506250	5366.386407
817.825058	5392.013113
818.143821	5548.876176
818.462539	5718.962187
818.781213	5940.866217
819.099843	6305.828112
819.418429	6928.201404
819.736970	7546.912298
820.055466	8261.286647
820.373919	9173.662397
820.692327	10607.898392
821.010691	13290.409780
821.329011	19486.081118
821.647286	29060.759742
821.965517	39427.663254
822.283704	44930.236432
822.601847	46432.278467
822.919945	41826.014881
823.237999	36688.688422
823.556010	31483.394607
823.873976	26771.057582
824.191897	22550.079302
824.509775	19494.078909
824.827609	16723.301958
825.145398	15162.964020
825.463144	14404.656014
825.780845	14691.270816
826.098502	15944.541992
826.416116	18403.193381
826.733685	20691.804130
827.051210	21239.893500
827.368692	19810.388627
827.686129	17246.092297
828.003522	14767.099852
828.320872	12548.326728
828.638177	10897.578216
828.955439	9658.301283
829.272656	8601.095705
829.589830	7760.448013
829.906960	7028.550612
830.224046	6497.974211
830.541088	6084.367703
830.858086	5828.486295
831.175041	5626.545234
831.491952	5574.795269
831.808819	5602.128405
832.125642	5843.297205
832.442421	6390.791718
832.759157	7496.868763
833.075849	9263.405018
833.392497	11116.752462
833.709101	12226.489384
834.025662	11987.044659
834.342179	10931.764801
834.658653	9627.230132
834.975083	8517.223508
835.291469	7616.928883
835.607811	6884.560135
835.924110	6362.599066
836.240366	5874.806937
836.556578	5420.228451
836.872746	5075.375719
837.188871	4800.411024
837.504952	4581.377930
837.820990	4413.618413
838.136984	4296.393942
838.452935	4247.149430
838.768842	4274.515334
839.084706	4556.741811
839.400526	5293.166168
839.716303	6197.395413
840.032037	6766.950016
840.347727	6626.415249
840.663373	6026.094485
840.978977	5447.102842
841.294537	5004.310573
841.610054	4672.479142
841.925527	4432.429478
842.240957	4227.688056
842.556344	4045.369686
842.871687	3885.237434
843.186987	3738.267635
843.502244	3619.036784
843.817458	3534.156357
844.132629	3462.299750
844.447756	3413.851741
844.762840	3368.791387
845.077881	3331.968279
845.392879	3299.808238
845.707833	3274.796553
846.022745	3245.966194
846.337613	3235.455388
846.652438	3213.188612
846.967221	3201.077240
847.281960	3184.315403
847.596656	3171.578928
847.911309	3160.069974
848.225919	3149.775937
848.540485	3137.599030
848.855009	3132.462095
849.169490	3118.404837
849.483928	3114.485340
849.798323	3105.703650
850.112675	3097.945314
850.426984	3097.433637
850.741251	3092.284098
851.055474	3085.871751
851.369654	3087.621031
851.683792	3085.251689
851.997887	3088.702359
852.311938	3089.055239
852.625947	3089.030034
852.939914	3082.111050
853.253837	3086.554827
853.567718	3083.799837
853.881555	3081.765731
854.195350	3086.776638
854.509103	3081.203642
854.822812	3078.937644
855.136479	3075.091243
855.450103	3075.272725
855.763685	3072.858012
856.077224	3074.171233
856.390720	3082.847058
856.704173	3095.147474
857.017584	3100.513782
857.330953	3103.941767
857.644278	3114.162706
857.957561	3116.658077
858.270802	3113.298148
858.584000	3111.672376
858.897155	3110.308744
859.210268	3095.775098
859.523339	3083.333530
859.836367	3081.700196
860.149352	3077.700040
860.462295	3074.123342
860.775195	3063.441137
861.088054	3059.314952
861.400869	3057.878223
861.713642	3057.298491
862.026373	3066.770819
862.339062	3068.053792
862.651708	3081.349836
862.964312	3096.949686
863.276873	3100.806169
863.589392	3137.495687
863.901869	3161.158863
864.214303	3181.288190
864.526696	3200.386602
864.839045	3215.668859
865.151353	3228.738051
865.463619	3231.193093
865.775842	3231.341807
866.088023	3236.914802
866.400162	3229.849625
866.712258	3230.583113
867.024313	3227.727299
867.336325	3230.895665
867.648296	3229.474059
867.960224	3227.371898
868.272110	3231.195613
868.583954	3230.479769
868.895755	3237.736510
869.207515	3231.094790
869.519233	3255.829212
869.830909	3259.859614
870.142542	3271.023249
870.454134	3273.264042
870.765684	3291.681898
871.077191	3309.915751
871.388657	3321.810354
871.700081	3340.374403
872.011463	3360.733103
872.322803	3375.304558
872.634101	3393.397259
872.945357	3415.507760
873.256571	3445.177471
873.567744	3458.229018
873.878874	3463.865028
874.189963	3478.655773
874.501010	3482.721464
874.812015	3480.798264
875.122979	3494.222856
875.433900	3492.856704
875.744780	3495.843587
876.055618	3502.996985
876.366415	3503.271727
876.677169	3506.114938
876.987882	3521.324099
877.298554	3541.881925
877.609183	3582.503542
877.919771	3628.506592
878.230317	3697.000749
878.540822	3803.096873
878.851285	3949.307979
879.161707	4173.296526
879.472087	4549.611099
879.782425	5173.053116
880.092722	6360.668304
880.402977	8300.680744
880.713191	10685.282624
881.023363	13085.338162
881.333494	14454.260968
881.643583	14919.607359
881.953631	14499.220499
882.263637	13651.432013
882.573602	12611.809978
882.883526	11648.228709
883.193408	10682.996461
883.503248	9767.792624
883.813048	8926.897916
884.122806	8156.365112
884.432522	7389.847588
884.742197	6725.133644
885.051831	6158.089536
885.361424	5662.649978
885.670975	5262.896560
885.980485	4938.790697
886.289954	4669.172145
886.599382	4450.320533
886.908768	4274.868215
887.218113	4108.739510
887.527417	3973.956700
887.836680	3853.450438
888.145901	3750.169799
888.455082	3677.055424
888.764221	3608.417594
889.073319	3548.488357
889.382376	3514.871423
889.691392	3489.060715
890.000366	3483.792709
890.309300	3475.608396
890.618193	3479.757265
890.927044	3474.675782
891.235855	3483.026454
891.544625	3495.621777
891.853353	3527.181920
892.162041	3584.514963
892.470687	3676.750434
892.779293	3795.530101
893.087858	3970.138026
893.396381	4247.910644
893.704864	4664.930014
894.013306	5232.286674
894.321707	5807.666330
894.630068	6169.588408
894.938387	6209.544594
895.246665	6031.995155
895.554903	5716.882711
895.863100	5371.767839
896.171256	5096.888843
896.479371	4858.495198
896.787446	4633.866424
897.095480	4436.464922
897.403473	4286.183084
897.711425	4143.503307
898.019336	4019.092671
898.327207	3896.030544
898.635038	3795.799803
898.942827	3687.034388
899.250576	3601.097838
899.558284	3516.504756
899.865952	3461.649441
900.173579	3396.132085
900.481165	3353.030219
900.788711	3309.809887
901.096216	3278.189249
901.403681	3253.157400
901.711105	3237.035790
902.018489	3234.179976
902.325832	3265.503186
902.633135	3323.443688
902.940397	3494.071622
903.247619	3899.181265
903.554800	4657.050691
903.861941	5625.300069
904.169041	6338.041085
904.476101	6552.234670
904.783121	6284.040245
905.090100	5873.022369
905.397039	5457.477537
905.703938	5095.363894
906.010796	4773.040079
906.317614	4516.682282
906.624391	4272.236732
906.931129	4078.270776
907.237826	3894.346799
907.544483	3724.444791
907.851099	3549.673028
908.157675	3392.406672
908.464211	3249.840321
908.770707	3149.904487
909.077163	3069.039338
909.383578	3009.268897
909.689954	2962.550004
909.996289	2934.863987
910.302584	2914.175092
910.608839	2897.624984
910.915054	2887.870351
911.221229	2879.917931
911.527363	2890.443860
911.833458	2894.068450
912.139513	2906.210069
912.445527	2922.722368
912.751502	2956.341823
913.057436	2999.652897
913.363331	3057.890826
913.669186	3144.633961
913.975000	3260.436826
914.280775	3447.917338
914.586510	3718.987742
914.892205	4095.330041
915.197859	4594.295887
915.503475	5186.016443
915.809050	5684.578997
916.114585	5978.080015
916.420081	6046.218771
916.725536	5984.484801
917.030952	5739.572944
917.336328	5534.476120
917.641665	5321.230272
917.946961	5092.475313
918.252218	4887.980907
918.557435	4656.627234
918.862612	4457.360504
919.167750	4289.119557
919.472848	4093.336265
919.777906	3928.067077
920.082925	3766.392232
920.387904	3610.943212
920.692843	3499.453053
920.997743	3397.105028
921.302603	3305.363589
921.607423	3240.637694
921.912204	3177.222500
922.216946	3125.321300
922.521647	3074.735842
922.826310	3034.172197
923.130932	2994.889006
923.435516	2956.800568
923.740059	2929.469953
924.044564	2895.064078
924.349028	2875.937940
924.653454	2841.058197
924.957840	2816.797644
925.262186	2796.587658
925.566493	2774.872888
925.870761	2750.904722
926.174989	2741.099677
926.479178	2725.114179
926.783328	2705.723380
927.087438	2694.562266
927.391509	2683.673373
927.695541	2673.623833
927.999533	2663.861639
928.303486	2653.121461
928.607400	2647.495533
928.911275	2640.710140
929.215110	2637.750982
929.518906	2629.927112
929.822663	2632.467853
930.126381	2631.792339
930.430060	2636.122690
930.733699	2636.614202
931.037299	2641.410860
931.340861	2637.486322
931.644383	2644.793474
931.947866	2641.970428
932.251309	2636.740231
932.554714	2637.753503
932.858080	2636.447844
933.161407	2632.054479
933.464694	2628.863428
933.767943	2626.489045
934.071153	2623.106431
934.374323	2617.475462
934.677455	2614.786006
934.980548	2614.662498
935.283602	2609.311313
935.586617	2610.190994
935.889593	2615.022940
936.192530	2614.211315
936.495428	2618.299690
936.798287	2626.516771
937.101108	2642.673669
937.403890	2663.571773
937.706632	2690.231915
938.009336	2724.368088
938.312002	2754.090731
938.614628	2778.205090
938.917216	2796.519602
939.219765	2804.784574
939.522275	2817.856286
939.824747	2817.372335
940.127179	2809.840851
940.429573	2803.040335
940.731929	2800.003040
941.034246	2791.639765
941.336524	2793.189920
941.638763	2787.672377
941.940964	2778.414298
942.243126	2762.746392
942.545250	2751.867582
942.847335	2737.356621
943.149381	2724.247100
943.451389	2710.971222
943.753359	2698.731300
944.055290	2685.168076
944.357182	2681.787982
944.659036	2675.030315
944.960851	2672.124090
945.262628	2665.247956
945.564367	2667.176197
945.866067	2664.476660
946.167729	2664.958090
946.469352	2661.993891
946.770937	2662.102276
947.072484	2656.294867
947.373992	2656.181441
947.675462	2652.466111
947.976893	2643.954122
948.278286	2642.507311
948.579641	2639.096971
948.880958	2636.256280
949.182236	2637.907258
949.483476	2632.009108
949.784678	2629.980044
950.085841	2631.857874
950.386967	2635.737042
950.688054	2640.642084
950.989103	2648.092910
951.290114	2657.305618
951.591087	2671.037721
951.892021	2681.888805
952.192917	2695.600743
952.493776	2705.113401
952.794596	2708.599359
953.095378	2711.394678
953.396122	2708.470809
953.696828	2704.455530
953.997496	2700.556198
954.298126	2688.399455
954.598718	2683.214628
954.899272	2672.787002
955.199788	2661.804848
955.500266	2649.212046
955.800706	2632.089767
956.101108	2618.496295
956.401472	2607.108329
956.701798	2592.609970
957.002087	2573.778740
957.302337	2569.662638
957.602550	2556.825340
957.902724	2546.576674
958.202861	2533.968748
958.502960	2527.669827
958.803022	2519.838394
959.103045	2514.131808
959.403031	2504.694768
959.702979	2501.763337
960.002889	2495.144302
960.302762	2489.291522
960.602596	2487.844711
960.902393	2487.459063
961.202153	2479.307517
961.501875	2477.739718
961.801559	2476.943216
962.101205	2473.341312
962.400814	2468.824438
962.700385	2469.792339
962.999918	2467.155816
963.299414	2465.600620
963.598873	2465.777060
963.898293	2464.539457
964.197677	2461.789508
964.497022	2460.622480
964.796331	2459.662141
965.095601	2459.692388
965.394835	2459.755402
965.694030	2458.797583
965.993189	2459.289095
966.292309	2456.692901
966.591393	2456.965123
966.890439	2455.125102
967.189447	2456.120730
967.488419	2458.059054
967.787353	2456.894547
968.086249	2456.229115
968.385108	2458.167438
968.683930	2457.600309
968.982714	2460.045268
969.281462	2460.211626
969.580172	2461.257666
969.878844	2464.083233
970.177480	2468.630353
970.476078	2468.537092
970.774639	2472.983390
971.073162	2474.352063
971.371649	2475.950109
971.670098	2475.665283
971.968510	2478.286683
972.266885	2475.698051
972.565223	2480.650985
972.863524	2483.068218
973.161788	2483.158959
973.460014	2487.980822
973.758204	2487.988384
974.056356	2485.858497
974.354471	2487.340596
974.652550	2485.447643
974.950591	2488.784886
975.248595	2486.624752
975.546563	2486.387818
975.844493	2483.355564
976.142386	2481.656695
976.440243	2482.097796
976.738062	2478.019502
977.035845	2474.505818
977.333590	2471.604634
977.631299	2471.007257
977.928971	2470.641774
978.226606	2467.150775
978.524204	2468.247226
978.821765	2463.959724
979.119290	2466.293778
979.416777	2466.492904
979.714228	2463.954683
980.011642	2466.021556
980.309020	2470.694706
980.606360	2473.772330
980.903664	2481.961685
981.200931	2497.070023
981.498162	2515.951664
981.795356	2544.719009
982.092513	2585.050760
982.389633	2629.859056
982.686717	2672.308092
982.983764	2702.244984
983.280775	2721.847511
983.577749	2723.400186
983.874686	2710.378886
984.171587	2693.004549
984.468451	2680.777231
984.765279	2663.047492
985.062070	2644.687610
985.358824	2625.879065
985.655543	2601.290837
985.952224	2580.007086
986.248869	2547.531973
986.545478	2524.715710
986.842050	2505.839110
987.138586	2486.879330
987.435086	2473.084213
987.731549	2457.950669
988.027975	2458.656430
988.324366	2449.153855
988.620719	2446.983639
988.917037	2441.493822
989.213318	2438.796805
989.509563	2438.902669
989.805772	2433.422935
990.101944	2435.749427
990.398080	2435.847730
990.694180	2434.784046
990.990244	2435.451999
991.286271	2434.514345
991.582262	2432.802873
991.878217	2434.100970
992.174136	2435.706578
992.470019	2434.426124
992.765865	2439.235385
993.061676	2437.221444
993.357450	2443.313679
993.653188	2444.342074
993.948890	2452.541511
994.244556	2457.953189
994.540186	2465.550208
994.835780	2477.797692
995.131337	2493.740341
995.426859	2509.201559
995.722345	2531.261649
996.017795	2546.105326
996.313208	2562.665517
996.608586	2571.943760
996.903928	2574.144224
997.199234	2573.377968
997.494504	2570.282700
997.789738	2564.992009
998.084936	2554.478683
998.380099	2540.907897
998.675225	2533.147040
998.970316	2518.641120
999.265371	2502.209479
999.560390	2490.614825
999.855373	2479.637713
1000.150320	2467.216310
1000.445232	2459.271451
1000.740108	2452.153342
1001.034948	2444.868875
1001.329752	2441.945005
1001.624521	2439.893256
1001.919254	2429.891607
1002.213951	2429.490835
1002.508613	2427.212233
1002.803239	2423.668302
1003.097829	2419.753846
1003.392384	2422.531522
1003.686903	2420.620925
1003.981386	2419.821902
1004.275834	2418.274268
1004.570246	2419.995822
1004.864623	2418.957344
1005.158964	2414.011972
1005.453270	2413.991807
1005.747540	2416.348547
1006.041775	2416.325862
1006.335974	2413.013823
1006.630138	2411.806467
1006.924266	2413.953999
1007.218359	2414.702610
1007.512416	2414.274112
1007.806438	2412.096333
1008.100425	2415.746129
1008.394376	2413.391910
1008.688292	2411.221693
1008.982172	2411.589697
1009.276017	2412.819739
1009.569827	2410.208421
1009.863602	2411.383010
1010.157341	2410.082392
1010.451045	2412.582805
1010.744714	2410.208421
1011.038347	2412.287897
1011.331945	2409.800088
1011.625508	2409.779923
1011.919036	2410.377300
1012.212528	2411.115829
1012.505986	2409.878226
1012.799408	2411.037691
1013.092795	2410.221024
1013.386147	2407.007289
1013.679464	2409.464851
1013.972745	2407.889491
1014.265992	2408.247412
1014.559204	2407.448390
1014.852380	2409.177505
1015.145521	2407.334964
1015.438628	2409.119532
1015.731699	2406.639284
1016.024736	2408.653225
1016.317737	2404.993348
1016.610703	2408.839748
1016.903635	2409.384193
1017.196531	2403.864129
1017.489393	2408.862433
1017.782219	2406.319171
1018.075011	2409.142217
1018.367768	2410.377300
1018.660490	2410.024419
1018.953177	2410.024419
1019.245829	2410.024419
