Dividing Wavelength (nm)	Counts (n)	Blue Motor Position (mm): 17.600000	Red Motor Position (mm): 0.000000	
326.493990	1975.003089
326.888308	1975.003089
327.282561	1975.003089
327.676750	1948.471497
328.070874	1952.879986
328.464933	1956.595316
328.858929	1969.914044
329.252859	1979.056177
329.646726	1993.277272
330.040528	2007.634478
330.434265	2028.880421
330.827938	2048.392207
331.221547	2066.363920
331.615091	2087.559452
332.008571	2110.141300
332.401986	2130.825155
332.795338	2147.216466
333.188625	2169.967194
333.581847	2188.972344
333.975006	2207.269212
334.368100	2223.594988
334.761129	2244.198184
335.154095	2256.054978
335.546996	2291.325411
335.939833	2346.362208
336.332606	2362.773684
336.725315	2370.559746
337.117960	2381.614997
337.510540	2387.634134
337.903056	2399.364899
338.295508	2404.305230
338.687896	2412.169430
339.080220	2421.495565
339.472480	2423.378436
339.864676	2428.429672
340.256807	2428.172573
340.648875	2431.761875
341.040879	2435.663728
341.432818	2435.935950
341.824694	2437.612134
342.216506	2434.889911
342.608253	2434.678182
342.999937	2434.131217
343.391557	2435.441917
343.783113	2432.938984
344.174605	2431.502255
344.566033	2428.404466
344.957397	2427.454209
345.348697	2422.402973
345.739934	2424.205185
346.131106	2420.436922
346.522215	2421.664443
346.913260	2418.387693
347.304241	2419.854669
347.695159	2414.909297
348.086012	2414.372414
348.476802	2413.626324
348.867528	2411.665315
349.258191	2411.057856
349.648789	2409.520304
350.039324	2407.871847
350.429796	2407.224058
350.820203	2407.486198
351.210548	2407.476116
351.600828	2405.242885
351.991045	2407.385375
352.381198	2404.650549
352.771288	2404.476629
353.161314	2401.530075
353.551276	2404.065775
353.941175	2402.240878
354.331010	2403.395302
354.720782	2406.828328
355.110490	2406.311609
355.500135	2404.227092
355.889717	2403.125600
356.279235	2403.289438
356.668689	2408.222207
357.058080	2406.039387
357.447408	2403.211300
357.836672	2401.905641
358.225873	2403.826321
358.615010	2401.840106
359.004084	2407.924779
359.393095	2408.635581
359.782043	2407.788668
360.170927	2406.853533
360.559748	2410.412588
360.948505	2409.558113
361.337199	2410.604152
361.725830	2413.228072
362.114398	2413.144893
362.502903	2414.654719
362.891344	2414.188412
363.279722	2412.887795
363.668037	2413.530542
364.056289	2415.438618
364.444478	2414.745460
364.832603	2412.955850
365.220665	2415.451221
365.608665	2415.801582
365.996601	2411.383010
366.384474	2413.971643
366.772284	2416.603125
367.160031	2415.811664
367.547715	2416.900553
367.935336	2417.843249
368.322893	2416.618248
368.710388	2419.534556
369.097820	2418.622107
369.485189	2416.754360
369.872495	2421.004052
370.259738	2420.265523
370.646918	2420.174783
371.034035	2417.744946
371.421090	2420.119330
371.808081	2423.201995
372.195010	2419.678229
372.581875	2419.108578
372.968678	2421.263672
373.355418	2420.257962
373.742096	2421.823240
374.128710	2423.481779
374.515262	2424.487490
374.901751	2424.656368
375.288177	2423.201995
375.674540	2420.401634
376.060841	2423.847263
376.447079	2422.597057
376.833254	2424.250555
377.219367	2418.244021
377.605417	2423.864907
377.991404	2417.888619
378.377329	2422.897006
378.763191	2420.802406
379.148991	2426.904723
379.534727	2424.621080
379.920402	2425.334403
380.306013	2425.982192
380.691563	2429.173242
381.077049	2427.872624
381.462474	2426.677871
381.847835	2426.372881
382.233134	2429.253901
382.618371	2428.228026
383.003545	2430.057965
383.388657	2428.152408
383.773706	2428.084353
384.158693	2428.059147
384.543618	2429.974786
384.928480	2427.355906
385.313280	2430.055444
385.698017	2430.282296
386.082692	2427.676019
386.467305	2430.108376
386.851856	2432.931422
387.236344	2431.492173
387.620770	2433.327153
388.005133	2431.857657
388.389435	2432.190373
388.773674	2434.327822
389.157851	2434.272369
389.541965	2429.344641
389.926018	2432.366813
390.310008	2433.140630
390.693936	2432.588624
391.077802	2431.250198
391.461606	2436.329160
391.845348	2432.525609
392.229027	2435.641042
392.612645	2435.741866
392.996200	2436.538368
393.379694	2438.116249
393.763125	2435.623398
394.146494	2434.569797
394.529801	2434.592482
394.913047	2436.498039
395.296230	2437.022319
395.679351	2435.038625
396.062410	2436.619026
396.445408	2436.586259
396.828343	2437.844027
397.211217	2432.681885
397.594028	2437.251691
397.976778	2433.992585
398.359466	2438.965683
398.742092	2432.631474
399.124656	2437.874274
399.507158	2437.087854
399.889598	2438.711105
400.271977	2439.159768
400.654294	2441.380396
401.036549	2440.334357
401.418742	2440.951898
401.800874	2441.975252
402.182944	2440.445262
402.564952	2441.579522
402.946898	2441.088009
403.328783	2441.226641
403.710606	2440.299069
404.092367	2444.921807
404.474067	2443.301076
404.855705	2441.972732
405.237282	2444.488268
405.618797	2441.345108
406.000250	2444.319389
406.381642	2441.461055
406.762972	2443.777465
407.144240	2443.742177
407.525447	2445.297373
407.906593	2444.014399
408.287677	2445.599842
408.668700	2444.400047
409.049661	2447.603701
409.430560	2443.779985
409.811399	2446.303083
410.192176	2445.534307
410.572891	2444.147990
410.953545	2444.382403
411.334138	2446.880295
411.714669	2445.907352
412.095139	2444.994903
412.475547	2446.923145
412.855894	2448.127981
413.236180	2447.515480
413.616405	2446.320727
413.996568	2444.944492
414.376670	2449.690738
414.756711	2447.558330
415.136691	2448.173351
415.516609	2446.766869
415.896466	2448.528752
416.276262	2447.853238
416.655997	2446.575305
417.035670	2444.107660
417.415283	2446.971036
417.794834	2444.389965
418.174324	2449.418516
418.553753	2448.884154
418.933121	2449.567230
419.312428	2447.707044
419.691674	2451.664350
420.070859	2450.610749
420.449983	2453.390945
420.829045	2451.036726
421.208047	2450.905656
421.586988	2453.242231
421.965867	2450.764504
422.344686	2452.997735
422.723444	2450.280553
423.102141	2449.907508
423.480777	2452.644854
423.859352	2450.943465
424.237866	2451.596294
424.616319	2454.953703
424.994712	2453.801799
425.373044	2453.237190
425.751314	2453.917746
426.129524	2452.896912
426.507673	2452.917077
426.885762	2452.448249
427.263789	2454.134515
427.641756	2453.970678
428.019662	2454.777262
428.397508	2454.724330
428.775292	2456.007304
429.153016	2456.884465
429.530679	2454.752057
429.908282	2456.400514
430.285824	2452.118054
430.663305	2454.250462
431.040726	2453.753908
431.418086	2452.748198
431.795385	2457.638117
432.172624	2456.939917
432.549802	2457.260031
432.926920	2457.713735
433.303977	2457.804475
433.680974	2458.512757
434.057910	2458.744651
434.434786	2460.236832
434.811601	2459.692388
435.188355	2460.866976
435.565050	2460.640124
435.941683	2458.918570
436.318257	2459.957048
436.694770	2456.735751
437.071222	2457.854887
437.447614	2456.105607
437.823946	2460.105762
438.200218	2459.538632
438.576429	2460.136009
438.952580	2460.927470
439.328670	2461.378653
439.704700	2461.973510
440.080670	2462.452419
440.456580	2463.097687
440.832429	2461.590382
441.208218	2461.237501
441.583947	2462.212964
441.959616	2464.133644
442.335224	2461.502162
442.710773	2463.795887
443.086261	2466.681947
443.461689	2464.857050
443.837057	2464.413428
444.212365	2467.203707
444.587612	2464.294961
444.962800	2467.163378
445.337927	2465.759416
445.712995	2467.428038
446.088002	2468.383337
446.462949	2468.123717
446.837837	2467.818727
447.212664	2465.804787
447.587431	2471.758389
447.962139	2474.720067
448.336786	2475.793833
448.711374	2474.959522
449.085901	2473.502628
449.460369	2471.758389
449.834776	2472.189408
450.209124	2475.370376
450.583412	2477.301138
450.957640	2471.259315
451.331808	2475.723257
451.705917	2474.251240
452.079965	2474.357104
452.453954	2473.353914
452.827883	2475.511528
453.201752	2476.963381
453.575562	2476.580253
453.949311	2477.835500
454.323001	2475.377938
454.696632	2477.953967
455.070202	2480.366159
455.443713	2480.003196
455.817164	2477.994297
456.190556	2475.892135
456.563888	2480.955974
456.937160	2474.843575
457.310373	2480.653505
457.683526	2480.824904
458.056619	2479.917497
458.429653	2478.707620
458.802628	2483.884885
459.175542	2483.799185
459.548398	2484.381438
459.921194	2488.142139
460.293930	2490.887048
460.666607	2492.386791
461.039224	2496.107162
461.411782	2496.092039
461.784280	2495.345948
462.156719	2490.909733
462.529099	2494.501555
462.901419	2490.771101
463.273680	2494.549446
463.645882	2493.392501
464.018024	2493.082470
464.390106	2495.499703
464.762130	2497.201093
465.134094	2506.229799
465.505999	2512.720285
465.877845	2523.934332
466.249631	2525.252593
466.621358	2522.406862
466.993026	2520.687828
467.364634	2522.411903
467.736184	2517.741274
468.107674	2515.054339
468.479105	2515.162724
468.850477	2516.039885
469.221790	2513.085768
469.593043	2509.579646
469.964238	2509.778772
470.335373	2509.400685
470.706449	2515.291273
471.077467	2521.769156
471.448425	2530.326515
471.819324	2538.346990
472.190164	2534.296423
472.560945	2530.344159
472.931667	2526.417100
473.302330	2525.915505
473.672934	2524.322500
474.043479	2522.931142
474.413965	2523.231091
474.784393	2522.162366
475.154761	2528.683098
475.525070	2525.373581
475.895321	2528.181504
476.265513	2529.320804
476.635645	2538.059645
477.005719	2535.405477
477.375734	2540.043339
477.745691	2543.678011
478.115588	2549.966850
478.485427	2554.912222
478.855207	2564.893707
479.224928	2571.686661
479.594591	2581.327868
479.964194	2580.301993
480.333739	2582.981367
480.703226	2587.399938
481.072653	2590.525453
481.442022	2595.319591
481.811333	2596.090887
482.180584	2594.331524
482.549777	2599.307143
482.918912	2596.050558
483.287988	2599.143306
483.657005	2598.987030
484.025964	2597.721700
484.394864	2602.115066
484.763706	2603.637494
485.132489	2603.665221
485.501213	2606.755448
485.869879	2607.892228
486.238487	2612.570419
486.607036	2611.839452
486.975527	2615.731222
487.343959	2619.774228
487.712333	2620.875720
488.080648	2625.385032
488.448905	2627.275465
488.817104	2633.697895
489.185244	2639.759882
489.553326	2650.278250
489.921350	2664.794252
490.289315	2679.842097
490.657222	2689.581606
491.025070	2693.276772
491.392861	2694.595033
491.760593	2692.502954
492.128267	2689.664785
492.495883	2686.680422
492.863440	2685.077335
493.230939	2681.672035
493.598380	2683.615400
493.965763	2679.080882
494.333088	2682.713034
494.700354	2684.729495
495.067563	2690.867100
495.434713	2688.790145
495.801805	2699.323636
496.168839	2704.024512
496.535815	2707.114739
496.902733	2716.060266
497.269593	2720.662840
497.636395	2720.690566
498.003139	2731.148440
498.369825	2734.644480
498.736453	2742.249061
499.103023	2746.980183
499.469535	2754.504106
499.835989	2763.114396
500.202385	2769.965324
500.568723	2774.998917
500.935003	2785.232459
501.301226	2793.285702
501.667390	2806.208700
502.033497	2819.429126
502.399546	2822.358036
502.765537	2826.665702
503.131470	2845.141531
503.497345	2857.857842
503.863163	2857.900692
504.228923	2875.892570
504.594625	2892.024262
504.960269	2900.080026
505.325856	2920.342944
505.691385	2928.592792
506.056856	2946.614917
506.422270	2966.242649
506.787625	2977.156748
507.152924	3001.157681
507.518164	3019.537728
507.883347	3027.076773
508.248472	3049.981256
508.613540	3073.548650
508.978550	3102.525202
509.343503	3118.704786
509.708398	3145.216214
510.073236	3178.601255
510.438016	3204.434648
510.802738	3221.267061
511.167403	3261.074532
511.532010	3294.540232
511.896561	3325.543328
512.261053	3376.867315
512.625488	3397.276427
512.989866	3426.184923
513.354186	3455.158955
513.718449	3485.090806
514.082655	3549.254612
514.446803	3578.059765
514.810894	3630.046664
515.174927	3666.418589
515.538904	3704.572562
515.902822	3766.127571
516.266684	3795.343578
516.630488	3853.826004
516.994235	3895.796131
517.357925	3963.655102
517.721558	4020.116026
518.085133	4087.604473
518.448651	4146.893483
518.812112	4191.512736
519.175516	4255.132097
519.538863	4325.425947
519.902152	4384.089854
520.265385	4470.775015
520.628560	4534.943862
520.991678	4590.988890
521.354739	4666.573430
521.717743	4754.455865
522.080690	4819.948015
522.443580	4921.504580
522.806413	5003.574565
523.169189	5071.690636
523.531908	5160.220859
523.894569	5231.235593
524.257174	5323.652546
524.619722	5426.766827
524.982213	5512.768912
525.344647	5592.446869
525.707025	5680.682185
526.069345	5803.555269
526.431608	5883.659203
526.793815	6004.641854
527.155964	6059.779475
527.518057	6166.107492
527.880093	6248.081694
528.242072	6390.068313
528.603995	6464.732843
528.965860	6558.606689
529.327669	6673.968453
529.689421	6766.755931
530.051117	6862.265632
530.412755	6984.115362
530.774337	7099.618278
531.135862	7184.614653
531.497331	7316.778583
531.858743	7416.205261
532.220098	7568.622027
532.581396	7652.990777
532.942638	7725.170018
533.303824	7881.995273
533.664953	7996.401739
534.026025	8078.068431
534.387040	8254.022345
534.747999	8374.389975
535.108902	8516.205194
535.469748	8571.390706
535.830537	8709.704844
536.191270	8862.915591
536.551947	8939.152961
536.912567	9115.616031
537.273131	9268.788970
537.633638	9319.901229
537.994089	9504.006688
538.354483	9572.793232
538.714821	9802.301843
539.075103	9999.499179
539.435328	10101.481721
539.795497	10218.925482
540.155609	10358.268016
540.515665	10579.509134
540.875665	10623.518408
541.235609	10822.359159
541.595496	10966.790738
541.955328	11249.901938
542.315102	11273.920515
542.674821	11383.164839
543.034483	11538.984384
543.394090	11678.551249
543.753640	11820.510141
544.113134	12197.086854
544.472571	12142.642393
544.831953	12579.163466
545.191278	12568.947568
545.550548	12658.785970
545.909761	12947.855814
546.268918	13161.487311
546.628019	13413.333275
546.987064	13472.652532
547.346053	13446.594808
547.704986	13838.811701
548.063863	13892.164753
548.422684	14122.500113
548.781449	14250.590791
549.140158	14539.834555
549.498811	14659.090611
549.857408	14674.839175
550.215949	15090.840232
550.574434	15253.835859
550.932864	15370.757861
551.291237	15754.566109
551.649555	15816.544575
552.007817	16073.512351
552.366022	16156.235165
552.724173	16396.952782
553.082267	16712.130762
553.440305	17008.984147
553.798288	16965.647868
554.156215	17260.923372
554.514086	17532.505453
554.871902	17637.311042
555.229661	17837.775045
555.587365	17978.277044
555.945014	18206.835397
556.302606	18378.920225
556.660143	18655.598913
557.017625	18874.853817
557.375050	19012.051340
557.732421	19340.784982
558.089735	19531.569970
558.446994	19689.501758
558.804197	20085.411296
559.161345	20266.721435
559.518437	20161.378964
559.875474	20478.928806
560.232455	20750.422667
560.589381	21029.304339
560.946251	21097.571645
561.303065	21593.956420
561.659825	21713.104091
562.016528	21778.679420
562.373177	21843.261642
562.729770	22282.998972
563.086307	22252.764651
563.442789	22675.616636
563.799216	22892.570253
564.155587	22995.976922
564.511904	23216.018246
564.868164	23475.347803
565.224370	23812.290964
565.580520	23881.163208
565.936615	24191.050497
566.292654	24250.909157
566.648638	24589.762916
567.004567	24770.198415
567.360441	24996.702498
567.716260	25124.173115
568.072023	25495.723797
568.427732	25684.608270
568.783385	25656.889486
569.138982	26072.220069
569.494525	26251.029796
569.850013	26318.152759
570.205445	26492.009552
570.560823	26684.402668
570.916145	26806.668293
571.271412	27013.925251
571.626625	27092.244617
571.981782	27327.898395
572.336884	27342.336260
572.691931	27727.273726
573.046923	27675.954780
573.401860	27784.541234
573.756743	27966.143760
574.111570	28243.646676
574.466342	28327.085334
574.821059	28619.401681
575.175722	28508.823972
575.530330	28714.777791
575.884882	28719.728204
576.239380	28880.362051
576.593823	29068.152594
576.948211	29189.057107
577.302544	29073.783562
577.656823	29281.642938
578.011047	29598.633213
578.365216	29604.039850
578.719330	29641.624173
579.073389	29728.314375
579.427394	29947.823858
579.781344	30121.216865
580.135239	30053.705732
580.489080	30292.001075
580.842866	30106.632807
581.196597	30596.758989
581.550273	30724.295140
581.903895	30796.860029
582.257463	31271.819901
582.610975	30995.105925
582.964434	31366.303727
583.317837	31274.494233
583.671186	31329.296616
584.024481	31655.456750
584.377721	31475.462352
584.730906	31838.982476
585.084037	32020.161545
585.437113	31956.390949
585.790135	32129.151291
586.143103	32008.894566
586.496016	32253.143511
586.848874	32420.343461
587.201679	32584.075097
587.554428	32335.798270
587.907124	32626.987919
588.259765	32596.123454
588.612352	32924.557148
588.964884	32603.375154
589.317362	32970.164467
589.669786	33058.770308
590.022155	33019.794627
590.374470	33477.541478
590.726731	33253.734412
591.078937	33011.141486
591.431090	33232.856473
591.783188	33085.422888
592.135232	32960.563589
592.487222	33282.327837
592.839157	33496.287009
593.191038	33349.412991
593.542866	33269.760240
593.894639	32907.639036
594.246358	33237.597678
594.598022	33342.246991
594.949633	33155.109278
595.301190	33232.299426
595.652692	33216.845769
596.004141	33590.271760
596.355535	32907.817997
596.706876	32967.689260
597.058162	32930.946811
597.409395	33425.252110
597.760573	33598.836681
598.111698	33347.252857
598.462768	33455.060452
598.813785	33582.168106
599.164748	33236.844026
599.515657	33670.383257
599.866511	33318.573733
600.217312	33943.220585
600.568060	33139.869870
600.918753	33865.705283
601.269392	33933.841518
601.619978	33721.087182
601.970510	33982.622244
602.320988	34235.332765
602.671412	34582.743883
603.021783	34444.177687
603.372100	34228.005448
603.722363	34411.647121
604.072572	34566.297118
604.422728	34638.430989
604.772830	34543.818613
605.122878	34706.574786
605.472872	34733.121502
605.822813	35068.895116
606.172701	34985.239688
606.522534	35262.278818
606.872314	35562.938275
607.222041	35435.681908
607.571714	35851.609867
607.921333	35417.463178
608.270899	35751.820227
608.620411	36128.275952
608.969870	36013.254466
609.319276	36063.197177
609.668627	36175.645154
610.017926	36669.958015
610.367171	36875.977370
610.716362	37019.942642
611.065500	37034.975363
611.414585	37264.143696
611.763616	37598.450334
612.112594	37582.865607
612.461518	37819.101637
612.810389	38167.026952
613.159207	38097.766540
613.507971	38219.588543
613.856682	38709.639108
614.205340	38649.450252
614.553945	39359.670691
614.902496	38886.487827
615.250994	39377.113083
615.599439	39491.146504
615.947830	39735.854194
616.296169	39824.870889
616.644454	40003.887303
616.992686	40199.668074
617.340864	40731.532490
617.688990	40517.409481
618.037063	41110.942332
618.385082	41131.096865
618.733048	41439.436519
619.080961	41489.500218
619.428821	41534.439584
619.776628	41682.117665
620.124382	41543.617004
620.472083	41719.323901
620.819731	41878.117727
621.167326	41613.376491
621.514868	41635.214770
621.862357	41261.259457
622.209793	41325.201452
622.557176	41050.090563
622.904506	40846.430469
623.251783	40545.695395
623.599007	40365.045647
623.946179	40196.600532
624.293297	40179.710146
624.640363	39639.830296
624.987376	39669.368937
625.334336	39457.020413
625.681243	39159.138632
626.028097	39158.894136
626.374899	39036.250425
626.721647	39040.064058
627.068343	38970.140733
627.414987	38751.793237
627.761577	38565.174763
628.108115	38911.759131
628.454600	38389.672033
628.801032	38604.838561
629.147412	38593.866490
629.493739	38616.924727
629.840014	38303.445617
630.186236	38651.844800
630.532405	38298.318763
630.878521	38521.505767
631.224585	38418.157073
631.570597	38151.038933
631.916556	38330.385543
632.262462	38299.868918
632.608316	38321.008997
632.954117	38251.418388
633.299866	38243.889425
633.645562	38183.748460
633.991206	37736.625840
634.336797	37336.718667
634.682336	37339.032557
635.027823	37118.061140
635.373257	36961.893755
635.718639	36767.090968
636.063968	36641.989694
636.409245	36092.700530
636.754470	36144.369836
637.099642	35945.405576
637.444762	35488.545968
637.789829	35642.893495
638.134845	35312.985264
638.479808	35270.266527
638.824719	35178.235222
639.169577	34825.921583
639.514383	34892.376593
639.859137	34612.988285
640.203839	34857.242271
640.548489	34505.783107
640.893086	34591.971715
641.237632	34366.690111
641.582125	34474.187676
641.926566	34423.282104
642.270955	34403.707304
642.615292	34418.286321
642.959576	34409.449178
643.303809	34433.387097
643.647990	34559.443670
643.992118	34542.341555
644.336195	34535.541039
644.680219	34650.544881
645.024192	34962.471317
645.368112	35455.959949
645.711981	35480.515409
646.055797	36344.543973
646.399562	36272.876409
646.743274	37194.825310
647.086935	37640.617065
647.430544	37546.763383
647.774101	37679.857407
648.117606	37905.471726
648.461059	38212.848520
648.804460	37826.527257
649.147810	37241.899604
649.491108	37002.359097
649.834354	36657.022415
650.177548	35836.050346
650.520690	35404.925828
650.863781	35425.944919
651.206820	35281.835975
651.549807	34861.693610
651.892742	34389.965118
652.235626	34215.528593
652.578458	34070.809668
652.921238	33508.620192
653.263967	33823.294056
653.606644	33519.564537
653.949269	33463.453974
654.291843	33096.077367
654.634365	33483.779906
654.976836	33094.834722
655.319255	33096.347068
655.661622	33102.819910
656.003938	32872.877759
656.346203	32749.359408
656.688416	32989.749350
657.030577	32771.787501
657.372687	32622.529018
657.714746	32896.556059
658.056753	33015.123998
658.398708	32470.694506
658.740612	32540.421225
659.082465	32801.363951
659.424266	32629.183341
659.766016	32760.470111
660.107715	32651.359377
660.449362	32771.285907
660.790958	32758.438526
661.132503	32784.075314
661.473996	32799.902016
661.815438	32914.061466
662.156829	33115.634523
662.498168	32899.185021
662.839456	32915.031888
663.180693	33082.758638
663.521879	33241.590272
663.863013	33198.811041
664.204097	33183.488454
664.545129	33652.645957
664.886110	33613.476192
665.227040	33687.114846
665.567918	33804.762774
665.908746	33866.799213
666.249522	34035.892116
666.590248	34039.962848
666.930922	34153.434180
667.271545	34108.852736
667.612118	34196.319276
667.952639	33994.670601
668.293109	34036.560069
668.633528	33944.218734
668.973896	33869.413052
669.314213	33907.614916
669.654480	33636.022752
669.994695	33671.124306
670.334859	33577.701643
670.674973	33482.242354
671.015035	33630.858090
671.355047	33597.619242
671.695008	33545.705440
672.034918	33437.655869
672.374777	33526.349930
672.714585	33357.425905
673.054342	33602.960345
673.394049	33364.009652
673.733705	33641.318484
674.073310	33309.650890
674.412864	33374.510376
674.752368	32974.131855
675.091820	33282.458907
675.431223	32860.355533
675.770574	32580.097626
676.109875	32450.045939
676.449125	32166.322239
676.788324	32102.100460
677.127473	31585.152818
677.466571	31499.644767
677.805619	31171.758038
678.144616	31162.709167
678.483562	31076.296228
678.822458	30768.879105
679.161303	30692.273731
679.500098	30609.729878
679.838842	30500.011685
680.177535	30642.691463
680.516179	30921.540367
680.854771	31171.571515
681.193314	32031.032793
681.531805	33146.362876
681.870247	33932.137608
682.208638	34664.239176
682.546978	34884.835027
682.885268	34960.268333
683.223508	34444.326401
683.561697	34099.370326
683.899836	33922.602266
684.237925	33402.750920
684.575963	33264.908129
684.913951	32804.365958
685.251889	32964.107521
685.589776	32947.418781
685.927614	32947.365849
686.265401	33097.846812
686.603137	33183.919472
686.940824	33707.269379
687.278460	34080.476081
687.616046	34214.590938
687.953582	34828.399310
688.291068	34684.048390
688.628504	34962.713292
688.965889	34904.944190
689.303224	34521.710633
689.640510	34169.777601
689.977745	33449.956284
690.314930	32642.421411
690.652065	32129.035345
690.989150	31368.829345
691.326185	30486.342597
691.663170	29792.883994
692.000105	29035.972388
692.336990	28373.189207
692.673825	27932.178986
693.010610	27409.940653
693.347345	26825.353330
693.684030	26190.621649
694.020665	25917.701142
694.357251	25253.735810
694.693786	25207.989859
695.030272	24969.366842
695.366707	24437.469658
695.703093	24144.989474
696.039429	24142.100893
696.375716	23875.670871
696.711952	23839.861034
697.048139	23689.992572
697.384276	23520.990410
697.720363	23632.861175
698.056400	23438.837246
698.392388	23221.462692
698.728326	23188.004554
699.064214	22986.628102
699.400053	22916.830806
699.735842	22570.740471
700.071581	22292.718316
700.407270	22015.427128
700.742910	21821.209115
701.078501	21557.289587
701.414042	21274.886669
701.749533	20981.597380
702.084974	20639.436624
702.420366	20831.476859
702.755709	20407.596479
703.091002	20115.063363
703.426246	20140.511107
703.761440	20035.801301
704.096584	19768.393295
704.431679	19724.978878
704.766725	19629.265011
705.101721	19579.105530
705.436668	19658.937242
705.771565	19334.279373
706.106413	19684.364822
706.441212	19674.229583
706.775961	19800.356731
707.110661	19877.879595
707.445311	20235.680530
707.779913	20067.583255
708.114465	20313.916718
708.448967	20591.782597
708.783421	21281.402361
709.117825	21557.251779
709.452180	21777.663628
709.786485	22175.561901
710.120742	22972.280978
710.454949	22982.486794
710.789107	23459.246357
711.123216	24163.798019
711.457275	24280.304125
711.791286	24814.318593
712.125247	24878.792431
712.459159	24577.154990
712.793023	25226.087601
713.126837	24129.566064
713.460602	24382.478232
713.794318	23997.230734
714.127985	23613.508186
714.461602	22729.050346
714.795171	22671.094721
715.128691	21674.657731
715.462162	21134.974486
715.795584	20719.429653
716.128957	20466.217537
716.462281	20051.436440
716.795556	19817.899947
717.128782	19335.950515
717.461960	18792.173853
717.795088	18709.761070
718.128167	18308.124781
718.461198	17852.051593
718.794180	17720.958908
719.127113	17359.919031
719.459997	17161.778999
719.792833	16818.899879
720.125619	16775.556039
720.458357	16467.095397
720.791046	16307.742003
721.123686	16147.849206
721.456278	15916.898825
721.788821	15868.896958
722.121315	15602.557677
722.453761	15689.661253
722.786158	15615.006806
723.118506	15617.547547
723.450805	15480.234078
723.783056	15649.700027
724.115259	15549.378545
724.447412	15478.091588
724.779518	15727.595936
725.111574	15752.746252
725.443582	15943.072495
725.775542	15920.072231
726.107453	16390.459776
726.439315	16273.666323
726.771129	16669.994277
727.102895	17043.763067
727.434612	17241.046103
727.766281	17372.534518
728.097901	17624.882077
728.429473	17651.466602
728.760996	17642.682391
729.092471	17721.735245
729.423897	17594.025174
729.755276	17465.069938
730.086606	17577.588492
730.417887	18110.171272
730.749120	18621.480384
731.080305	18799.223907
731.411442	19122.132496
731.742530	19196.416418
732.073570	19289.521488
732.404562	19578.704758
732.735506	19394.564011
733.066401	19111.604046
733.397249	18582.194672
733.728048	17945.136498
734.058798	17123.196528
734.389501	16450.741893
734.720156	15991.384393
735.050762	15469.582120
735.381320	15122.186127
735.711831	14879.026071
736.042293	14542.612231
736.372707	14539.128793
736.703073	14343.708464
737.033391	14525.371484
737.363661	14496.044572
737.693883	14606.135810
738.024056	14767.490542
738.354182	14950.557523
738.684260	15235.440689
739.014290	15460.853363
739.344272	15649.158103
739.674207	15923.492654
740.004093	16027.794127
740.333931	16024.381266
740.663722	16062.759570
740.993464	16043.557815
741.323159	15875.883997
741.652806	15602.454333
741.982405	15386.990376
742.311956	15055.955447
742.641460	14928.368885
742.970915	14629.511641
743.300323	14296.830775
743.629683	14084.764556
743.958996	13807.370024
744.288260	13535.588818
744.617477	13241.787851
744.946647	13158.545798
745.275768	12896.650294
745.604842	12710.233466
745.933869	12545.261706
746.262847	12501.902742
746.591778	12425.236874
746.920662	12324.673417
747.249498	12321.111842
747.578286	12448.620267
747.907027	12590.553953
748.235720	12802.287456
748.564365	12829.882732
748.892963	12744.599012
749.221514	12790.639870
749.550017	12644.882468
749.878473	12609.415430
750.206881	12387.642470
750.535242	12303.114923
750.863555	12211.507075
751.191821	12117.668517
751.520039	12140.794810
751.848210	12050.348948
752.176334	12071.630179
752.504411	11985.330666
752.832440	11826.728405
753.160421	11894.267263
753.488356	11773.665219
753.816243	11676.305415
754.144082	11531.878878
754.471875	11487.715850
754.799620	11425.999524
755.127318	11397.695965
755.454969	11362.722961
755.782572	11309.934518
756.110129	11319.016157
756.437638	11241.417676
756.765100	11234.770914
757.092515	11234.957437
757.419882	11249.680127
757.747203	11258.643298
758.074477	11323.888432
758.401703	11289.230499
758.728882	11444.740013
759.056014	11487.647794
759.383099	11603.049888
759.710138	11711.235570
760.037129	11788.637446
760.364073	11804.063377
760.690970	11791.886470
761.017820	11793.275308
761.344623	11969.579581
761.671379	12300.985035
761.998088	12924.114500
762.324751	14466.732783
762.651366	17322.874112
762.977935	20963.943259
763.304456	23178.048275
763.630931	23639.351661
763.957359	22449.795629
764.283740	20545.860206
764.610074	18682.773253
764.936362	16566.660706
765.262602	15065.337035
765.588796	13596.120473
765.914943	12573.270357
766.241044	11729.986142
766.567097	11104.701583
766.893104	10558.490043
767.219064	10202.178769
767.544978	9823.870420
767.870845	9512.574129
768.196665	9321.007762
768.522438	9128.496179
768.848165	8964.615829
769.173846	8796.639542
769.499479	8675.954319
769.825066	8527.840177
770.150607	8335.240374
770.476101	8280.276674
770.801548	8168.047986
771.126949	8030.812655
771.452303	7938.521731
771.777611	7772.093078
772.102872	7758.146726
772.428087	7635.409753
772.753256	7508.992738
773.078378	7428.009122
773.403453	7287.353368
773.728482	7184.975095
774.053465	7121.055785
774.378401	7031.885335
774.703291	6943.745802
775.028135	6845.773497
775.352932	6813.963816
775.677683	6732.473564
776.002388	6644.326469
776.327046	6639.146683
776.651658	6553.048817
776.976224	6475.205840
777.300743	6460.246216
777.625216	6397.856896
777.949643	6353.134299
778.274024	6358.485484
778.598359	6289.388909
778.922647	6292.673221
779.246889	6257.145689
779.571086	6260.752634
779.895236	6272.574140
780.219339	6261.387820
780.543397	6269.496516
780.867409	6317.521068
781.191374	6311.819523
781.515294	6280.176200
781.839167	6328.165464
782.162995	6300.303007
782.486776	6254.799032
782.810511	6211.293874
783.134201	6141.917515
783.457844	6128.218179
783.781441	6078.734213
784.104993	6033.757038
784.428498	6006.242421
784.751958	5990.140975
785.075372	5964.476461
785.398739	5926.627478
785.722061	5950.565397
786.045337	5950.822496
786.368568	6057.357200
786.691752	6080.445685
787.014891	6329.203942
787.337983	6603.556137
787.661030	7037.937241
787.984031	7464.708722
788.306987	7723.894606
788.629897	7810.907442
788.952760	7726.594144
789.275579	7542.738222
789.598351	7249.688387
789.921078	6989.592575
790.243759	6713.493620
790.566395	6509.780593
790.888984	6314.587116
791.211529	6177.014028
791.534027	6011.308780
791.856480	5873.886927
792.178888	5815.596065
792.501249	5749.219192
792.823566	5650.127751
793.145836	5642.112317
793.468062	5625.491632
793.790241	5584.096198
794.112375	5627.568588
794.434464	5724.250357
794.756507	5755.409729
795.078505	5874.275095
795.400457	6083.127579
795.722364	6322.191697
796.044226	6517.508682
796.366042	6677.852663
796.687812	6626.201000
797.009538	6650.859804
797.331218	6560.789508
797.652852	6488.748899
797.974442	6369.558378
798.295986	6297.011133
798.617484	6172.971023
798.938938	6064.268622
799.260346	5996.853272
799.581709	5860.704309
799.903026	5808.878727
800.224299	5735.822326
800.545526	5618.428976
800.866708	5558.434204
801.187845	5503.715000
801.508936	5429.506694
801.829983	5401.309000
802.150984	5294.605417
802.471940	5272.399135
802.792851	5254.490436
803.113717	5231.288525
803.434538	5204.956058
803.755314	5174.207540
804.076045	5158.080889
804.396731	5126.573678
804.717372	5141.588754
805.037967	5146.221575
805.358518	5172.496068
805.679024	5231.255758
805.999485	5240.271861
806.319901	5259.544193
806.640272	5275.559938
806.960598	5325.167413
807.280879	5317.484694
807.601115	5353.007185
807.921306	5315.105270
808.241453	5308.024969
808.561554	5324.612886
808.881611	5286.353049
809.201623	5285.102843
809.521590	5235.954113
809.841513	5218.713367
810.161390	5234.961006
810.481223	5143.779136
810.801011	5130.168020
811.120755	5106.335965
811.440453	5059.107916
811.760107	5024.626423
812.079716	5002.158001
812.399281	4947.491728
812.718801	4943.189103
813.038276	4908.473198
813.357707	4874.117734
813.677093	4898.814347
813.996434	4835.436961
814.315731	4852.738201
814.634983	4854.621072
814.954191	4859.158110
815.273354	4922.522893
815.592473	4960.548317
815.911547	5030.917783
816.230577	5086.060445
816.549562	5175.157798
816.868502	5226.474223
817.187399	5280.611174
817.506250	5359.273339
817.825058	5385.023553
818.143821	5537.324372
818.462539	5706.692018
818.781213	5932.606287
819.099843	6296.454086
819.418429	6922.905672
819.736970	7540.686472
820.055466	8239.992813
820.373919	9152.618100
820.692327	10593.735271
821.010691	13275.606432
821.329011	19458.148085
821.647286	28965.534866
821.965517	39259.041699
822.283704	44690.237180
822.601847	46163.562282
822.919945	41599.654471
823.237999	36512.142174
823.556010	31325.556080
823.873976	26654.375035
824.191897	22460.505560
824.509775	19402.476102
824.827609	16654.807801
825.145398	15114.425270
825.463144	14370.713926
825.780845	14662.218647
826.098502	15902.675209
826.416116	18350.087346
826.733685	20622.077411
827.051210	21142.833644
827.368692	19717.646520
827.686129	17179.980085
828.003522	14709.794536
828.320872	12500.503822
828.638177	10864.553617
828.955439	9628.883630
829.272656	8571.468843
829.589830	7738.569405
829.906960	7004.930286
830.224046	6479.921839
830.541088	6073.854376
830.858086	5820.407846
831.175041	5615.195076
831.491952	5557.423453
831.808819	5592.318320
832.125642	5834.283622
832.442421	6376.182455
832.759157	7479.320507
833.075849	9235.419052
833.392497	11074.631101
833.709101	12182.114627
834.025662	11932.900146
834.342179	10886.603624
834.658653	9589.381149
834.975083	8487.536152
835.291469	7589.930984
835.607811	6861.766558
835.924110	6340.740622
836.240366	5860.784968
836.556578	5408.880813
836.872746	5055.745466
837.188871	4787.934168
837.504952	4566.191454
837.820990	4401.338162
838.136984	4286.571253
838.452935	4241.117690
838.768842	4267.525774
839.084706	4547.513979
839.400526	5284.313902
839.716303	6175.723492
840.032037	6741.267857
840.347727	6598.273008
840.663373	6004.374673
840.978977	5432.604483
841.294537	4988.607379
841.610054	4660.861803
841.925527	4420.000513
842.240957	4218.931572
842.556344	4034.634549
842.871687	3879.999675
843.186987	3730.584916
843.502244	3613.120990
843.817458	3524.386600
844.132629	3455.290025
844.447756	3407.109197
844.762840	3363.422558
845.077881	3323.138698
845.392879	3291.117288
845.707833	3263.738782
846.022745	3236.831623
846.337613	3225.592371
846.652438	3203.557487
846.967221	3195.456353
847.281960	3175.269053
847.596656	3163.162722
847.911309	3156.720127
848.225919	3139.091212
848.540485	3130.334728
848.855009	3124.035806
849.169490	3112.894856
849.483928	3103.440172
849.798323	3099.399687
850.112675	3089.420723
850.426984	3090.930549
850.741251	3083.572985
851.055474	3080.434866
851.369654	3077.407653
851.683792	3074.821542
851.997887	3083.943509
852.311938	3079.146852
852.625947	3084.359405
852.939914	3075.645770
853.253837	3083.457038
853.567718	3076.490163
853.881555	3073.553691
854.195350	3078.594845
854.509103	3073.339442
854.822812	3073.611665
855.136479	3068.744431
855.450103	3070.914647
855.763685	3065.901220
856.077224	3068.789801
856.390720	3075.925554
856.704173	3084.112388
857.017584	3092.533636
857.330953	3097.791559
857.644278	3102.620984
857.957561	3108.372941
858.270802	3103.911520
858.584000	3104.513938
858.897155	3099.472784
859.210268	3088.740167
859.523339	3076.580904
859.836367	3070.133268
860.149352	3069.689647
860.462295	3065.253432
860.775195	3054.324210
861.088054	3050.475289
861.400869	3052.559806
861.713642	3047.400185
862.026373	3058.447874
862.339062	3060.963410
862.651708	3072.106880
862.964312	3086.638006
863.276873	3094.769387
863.589392	3127.413379
863.901869	3151.900784
864.214303	3170.439627
864.526696	3189.369160
864.839045	3207.857592
865.151353	3223.238152
865.463619	3220.654561
865.775842	3218.970815
866.088023	3224.959706
866.400162	3218.524673
866.712258	3220.783110
867.024313	3221.141032
867.336325	3221.695559
867.648296	3223.248234
867.960224	3218.451576
868.272110	3224.024572
868.583954	3222.504664
868.895755	3227.853328
869.207515	3224.876527
869.519233	3247.113057
869.830909	3250.309148
870.142542	3262.155860
870.454134	3267.126437
870.765684	3281.685290
871.077191	3297.748926
871.388657	3309.270483
871.700081	3329.596416
872.011463	3351.512832
872.322803	3366.361551
872.634101	3385.258316
872.945357	3407.741862
873.256571	3429.590223
873.567744	3448.524797
873.878874	3454.649799
874.189963	3470.259732
874.501010	3470.824341
874.812015	3467.847539
875.122979	3483.064262
875.433900	3483.122236
875.744780	3483.109633
876.055618	3493.333093
876.366415	3492.095489
876.677169	3495.372239
876.987882	3514.596680
877.298554	3532.462529
877.609183	3570.719845
877.919771	3615.457565
878.230317	3684.725540
878.540822	3788.351498
878.851285	3938.900517
879.161707	4157.832787
879.472087	4525.794168
879.782425	5147.824662
880.092722	6327.815104
880.402977	8243.355263
880.713191	10611.875863
881.023363	12971.929844
881.333494	14314.046315
881.643583	14766.956180
881.953631	14357.700187
882.263637	13532.249053
882.573602	12487.727018
882.883526	11542.805579
883.193408	10590.017420
883.503248	9679.602679
883.813048	8855.951237
884.122806	8098.520392
884.432522	7329.578073
884.742197	6679.304515
885.051831	6112.535150
885.361424	5622.948370
885.670975	5231.066714
885.980485	4905.410697
886.289954	4644.352024
886.599382	4429.883695
886.908768	4254.509515
887.218113	4089.381479
887.527417	3958.898774
887.836680	3837.114579
888.145901	3738.416349
888.455082	3660.033968
888.764221	3594.108279
889.073319	3531.146788
889.382376	3499.153105
889.691392	3475.099239
890.000366	3470.312664
890.309300	3465.642035
890.618193	3466.176397
890.927044	3460.588278
891.235855	3467.658496
891.544625	3483.717092
891.853353	3508.932943
892.162041	3569.477201
892.470687	3661.717713
892.779293	3780.784726
893.087858	3947.861167
893.396381	4227.372984
893.704864	4633.629490
894.013306	5199.229307
894.321707	5769.983705
894.630068	6126.370596
894.938387	6162.104815
895.246665	5986.874308
895.554903	5672.495351
895.863100	5336.845246
896.171256	5069.331376
896.479371	4830.355477
896.787446	4607.002115
897.095480	4411.223864
897.403473	4261.176441
897.711425	4120.901294
898.019336	3996.707428
898.327207	3878.288203
898.635038	3774.296761
898.942827	3670.496883
899.250576	3585.331630
899.558284	3501.043538
899.865952	3446.052111
900.173579	3384.885271
900.481165	3338.289886
900.788711	3296.680202
901.096216	3264.860439
901.403681	3235.427662
901.711105	3225.854511
902.018489	3221.443501
902.325832	3254.604211
902.633135	3311.546564
902.940397	3480.485712
903.247619	3883.720047
903.554800	4625.137666
903.861941	5585.396815
904.169041	6283.432786
904.476101	6495.982955
904.783121	6225.988837
905.090100	5823.835831
905.397039	5411.103962
905.703938	5056.647833
906.010796	4734.142536
906.317614	4482.596521
906.624391	4247.814863
906.931129	4054.494174
907.237826	3875.034138
907.544483	3706.747820
907.851099	3535.744320
908.157675	3374.192983
908.464211	3234.875656
908.770707	3136.391674
909.077163	3054.309087
909.383578	2997.316322
909.689954	2955.510033
909.996289	2924.988367
910.302584	2902.386354
910.608839	2890.307749
910.915054	2877.452807
911.221229	2875.622868
911.527363	2877.558671
911.833458	2882.118395
912.139513	2897.072978
912.445527	2911.483116
912.751502	2940.406736
913.057436	2988.469097
913.363331	3044.609907
913.669186	3130.617032
913.975000	3246.772779
914.280775	3432.899740
914.586510	3698.210626
914.892205	4068.692584
915.197859	4562.249272
915.503475	5149.465557
915.809050	5635.694928
916.114585	5924.777375
916.420081	5986.652497
916.725536	5920.643628
917.030952	5684.238719
917.336328	5485.012319
917.641665	5274.309732
917.946961	5045.942942
918.252218	4850.033622
918.557435	4621.818066
918.862612	4427.065690
919.167750	4255.699227
919.472848	4063.510278
919.777906	3898.415010
920.082925	3740.359713
920.387904	3590.145932
920.692843	3479.676607
920.997743	3380.471740
921.302603	3288.384983
921.607423	3222.814695
921.912204	3156.019407
922.216946	3112.128601
922.521647	3061.654048
922.826310	3019.832635
923.130932	2984.592449
923.435516	2944.061573
923.740059	2917.991245
924.044564	2886.640310
924.349028	2863.801362
924.653454	2833.798935
924.957840	2805.719708
925.262186	2788.247069
925.566493	2768.082453
925.870761	2741.709657
926.174989	2730.883779
926.479178	2715.851058
926.783328	2698.885055
927.087438	2690.448684
927.391509	2677.271108
927.695541	2666.553615
927.999533	2656.735968
928.303486	2646.101654
928.607400	2640.823566
928.911275	2636.077319
929.215110	2629.647328
929.518906	2624.641462
929.822663	2627.202368
930.126381	2624.770011
930.430060	2628.704632
930.733699	2631.686474
931.037299	2635.399284
931.340861	2633.589510
931.644383	2635.303502
931.947866	2635.779891
932.251309	2632.646814
932.554714	2630.884931
932.858080	2630.201855
933.161407	2626.668006
933.464694	2621.379835
933.767943	2618.768518
934.071153	2616.116871
934.374323	2612.172168
934.677455	2608.648401
934.980548	2605.036415
935.283602	2601.472319
935.586617	2601.820158
935.889593	2608.756786
936.192530	2605.772423
936.495428	2613.860954
936.798287	2622.002418
937.101108	2635.515231
937.403890	2655.475679
937.706632	2685.268899
938.009336	2713.542210
938.312002	2744.925913
938.614628	2765.922319
938.917216	2786.457459
939.219765	2795.881896
939.522275	2803.393216
939.824747	2808.366314
940.127179	2798.639407
940.429573	2793.449540
940.731929	2792.088428
941.034246	2783.031995
941.336524	2783.788168
941.638763	2775.876077
941.940964	2767.631270
942.243126	2750.027561
942.545250	2742.785943
942.847335	2730.203223
943.149381	2713.010368
943.451389	2701.420756
943.753359	2686.970288
944.055290	2679.746315
944.357182	2673.646518
944.659036	2667.380364
944.960851	2661.401556
945.262628	2658.376863
945.564367	2659.445588
945.866067	2658.815444
946.167729	2658.543222
946.469352	2654.969043
946.770937	2654.364105
947.072484	2646.441932
947.373992	2648.259268
947.675462	2645.360604
947.976893	2638.577732
948.278286	2635.847947
948.579641	2632.596403
948.880958	2628.346710
949.182236	2626.637759
949.483476	2623.812192
949.784678	2626.536936
950.085841	2623.968468
950.386967	2627.172121
950.688054	2635.628657
950.989103	2643.472692
951.290114	2651.450318
951.591087	2661.996412
951.892021	2676.661128
952.192917	2686.914835
952.493776	2697.072760
952.794596	2701.463605
953.095378	2704.160623
953.396122	2699.946218
953.696828	2694.690815
953.997496	2689.808458
954.298126	2684.757222
954.598718	2675.612568
954.899272	2662.984478
955.199788	2654.399393
955.500266	2642.046046
955.800706	2625.881586
956.101108	2610.064966
956.401472	2598.064499
956.701798	2585.181830
957.002087	2570.486867
957.302337	2561.362378
957.602550	2549.392158
957.902724	2540.479398
958.202861	2530.011443
958.502960	2525.691174
958.803022	2517.194309
959.103045	2507.464882
959.403031	2501.753255
959.702979	2496.999447
960.002889	2492.674137
960.302762	2487.201964
960.602596	2482.712817
960.902393	2478.069914
961.202153	2477.704430
961.501875	2472.489357
961.801559	2474.772999
962.101205	2469.532720
962.400814	2466.036680
962.700385	2469.709160
962.999918	2465.691361
963.299414	2462.061730
963.598873	2464.534416
963.898293	2462.243211
964.197677	2459.107614
964.497022	2457.247428
964.796331	2455.505709
965.095601	2457.207099
965.394835	2456.327417
965.694030	2453.849690
965.993189	2452.448249
966.292309	2454.063939
966.591393	2451.790379
966.890439	2452.407920
967.189447	2451.699638
967.488419	2452.249124
967.787353	2453.615277
968.086249	2451.997066
968.385108	2455.949331
968.683930	2456.387911
968.982714	2456.937397
969.281462	2455.891357
969.580172	2459.236163
969.878844	2461.028293
970.177480	2462.666668
970.476078	2465.381330
970.774639	2471.007257
971.073162	2471.599593
971.371649	2474.256281
971.670098	2472.207052
971.968510	2474.498256
972.266885	2472.728811
972.565223	2482.032261
972.863524	2478.977322
973.161788	2482.841366
973.460014	2481.155100
973.758204	2483.075780
974.056356	2484.290698
974.354471	2482.402786
974.652550	2486.720534
974.950591	2484.673825
975.248595	2484.482262
975.546563	2483.423619
975.844493	2482.816160
976.142386	2481.628968
976.440243	2475.834162
976.738062	2476.673514
977.035845	2471.097998
977.333590	2470.379634
977.631299	2468.889973
977.928971	2467.405353
978.226606	2464.680609
978.524204	2465.220013
978.821765	2462.800259
979.119290	2462.139868
979.416777	2460.463684
979.714228	2462.845629
980.011642	2463.495938
980.309020	2467.080198
980.606360	2471.508852
980.903664	2481.465131
981.200931	2493.692450
981.498162	2510.282887
981.795356	2540.406302
982.092513	2577.612538
982.389633	2622.017541
982.686717	2664.043120
982.983764	2693.617049
983.280775	2713.438866
983.577749	2713.718650
983.874686	2704.629450
984.171587	2689.022038
984.468451	2673.351611
984.765279	2655.389980
985.062070	2637.239305
985.358824	2618.967643
985.655543	2598.296392
985.952224	2573.783781
986.248869	2547.274874
986.545478	2521.247397
986.842050	2499.794766
987.138586	2483.789103
987.435086	2470.793008
987.731549	2459.810855
988.027975	2453.814402
988.324366	2451.064453
988.620719	2443.427105
988.917037	2440.813266
989.213318	2438.580035
989.509563	2434.365631
989.805772	2435.467123
990.101944	2433.783377
990.398080	2431.073757
990.694180	2431.603078
990.990244	2430.655341
991.286271	2431.300609
991.582262	2431.827410
991.878217	2433.052410
992.174136	2431.613161
992.470019	2433.443099
992.765865	2437.355035
993.061676	2439.928544
993.357450	2440.427618
993.653188	2441.826538
993.948890	2445.592280
994.244556	2455.609053
994.540186	2463.294292
994.835780	2473.711836
995.131337	2488.096769
995.426859	2505.897083
995.722345	2526.568334
996.017795	2542.014430
996.313208	2557.394990
996.608586	2567.028635
996.903928	2569.092988
997.199234	2568.505693
997.494504	2563.751885
997.789738	2560.346586
998.084936	2549.843342
998.380099	2538.329346
998.675225	2528.436082
998.970316	2512.790861
999.265371	2500.485404
999.560390	2488.195071
999.855373	2478.531179
1000.150320	2466.001392
1000.445232	2454.898250
1000.740108	2449.811726
1001.034948	2443.863164
1001.329752	2439.575663
1001.624521	2435.792277
1001.919254	2427.733993
1002.213951	2427.678540
1002.508613	2422.952458
1002.803239	2427.797007
1003.097829	2421.346851
1003.392384	2419.393404
1003.686903	2423.449012
1003.981386	2420.560431
1004.275834	2418.372570
1004.570246	2419.789134
1004.864623	2417.465162
1005.158964	2416.749318
1005.453270	2416.038516
1005.747540	2419.169072
1006.041775	2414.589184
1006.335974	2417.197981
1006.630138	2413.374266
1006.924266	2415.867117
1007.218359	2413.129770
1007.512416	2414.745460
1007.806438	2411.982908
1008.100425	2411.133473
1008.394376	2413.449883
1008.688292	2414.178330
1008.982172	2412.671025
1009.276017	2410.021899
1009.569827	2410.442835
1009.863602	2413.689338
1010.157341	2411.564492
1010.451045	2412.686148
1010.744714	2409.805129
1011.038347	2408.789337
1011.331945	2410.528535
1011.625508	2410.972156
1011.919036	2409.691703
1012.212528	2409.706827
1012.505986	2408.983421
1012.799408	2409.031312
1013.092795	2409.734553
1013.386147	2411.040212
1013.679464	2408.749007
1013.972745	2407.851682
1014.265992	2408.489388
1014.559204	2408.678431
1014.852380	2409.424522
1015.145521	2410.944430
1015.438628	2403.919582
1015.731699	2408.118863
1016.024736	2405.573080
1016.317737	2409.666497
1016.610703	2412.066087
1016.903635	2405.562998
1017.196531	2403.831362
1017.489393	2409.159861
1017.782219	2405.401681
1018.075011	2411.992990
1018.367768	2411.249420
1018.660490	2409.898390
1018.953177	2409.898390
1019.245829	2409.898390
