Dividing Wavelength (nm)	Counts (n)	Blue Motor Position (mm): 19.800000	Red Motor Position (mm): 0.000000	
326.493990	1973.684827
326.888308	1973.684827
327.282561	1973.684827
327.676750	1950.293874
328.070874	1950.717331
328.464933	1956.383587
328.858929	1965.808025
329.252859	1980.729840
329.646726	1992.755512
330.040528	2005.736484
330.434265	2028.099042
330.827938	2044.669315
331.221547	2064.907027
331.615091	2087.130954
332.008571	2105.707606
332.401986	2127.629063
332.795338	2147.773514
333.188625	2170.062976
333.581847	2186.998732
333.975006	2205.320806
334.368100	2226.387788
334.761129	2240.306413
335.154095	2256.604464
335.546996	2289.976902
335.939833	2350.841273
336.332606	2366.413397
336.725315	2377.640047
337.117960	2386.537683
337.510540	2393.219733
337.903056	2403.281876
338.295508	2410.326888
338.687896	2419.242169
339.080220	2420.678898
339.472480	2431.696340
339.864676	2432.273552
340.256807	2437.473502
340.648875	2439.182453
341.040879	2440.800663
341.432818	2444.054728
341.824694	2441.284614
342.216506	2442.605397
342.608253	2440.057093
342.999937	2439.595828
343.391557	2440.344439
343.783113	2436.979469
344.174605	2435.930909
344.566033	2435.636001
344.957397	2433.130548
345.348697	2429.863880
345.739934	2432.533171
346.131106	2425.851122
346.522215	2426.088056
346.913260	2423.479259
347.304241	2422.077818
347.695159	2420.343661
348.086012	2418.044895
348.476802	2420.207550
348.867528	2416.827456
349.258191	2413.487692
349.648789	2414.211097
350.039324	2411.534245
350.429796	2411.803947
350.820203	2411.894687
351.210548	2411.541807
351.600828	2410.362177
351.991045	2411.584656
352.381198	2408.444017
352.771288	2411.536765
353.161314	2407.014850
353.551276	2407.980231
353.941175	2406.573749
354.331010	2405.091650
354.720782	2408.265057
355.110490	2410.926786
355.500135	2411.919893
355.889717	2410.037022
356.279235	2407.133317
356.668689	2412.439132
357.058080	2409.485016
357.447408	2410.788154
357.836672	2408.612896
358.225873	2410.173133
358.615010	2407.614748
359.004084	2408.723802
359.393095	2414.201015
359.782043	2415.178999
360.170927	2413.538103
360.559748	2412.371076
360.948505	2415.708320
361.337199	2413.649009
361.725830	2417.064391
362.114398	2415.332754
362.502903	2416.676222
362.891344	2419.610173
363.279722	2418.430543
363.668037	2419.489186
364.056289	2418.647313
364.444478	2419.353074
364.832603	2419.201840
365.220665	2416.456932
365.608665	2421.152766
365.996601	2419.174113
366.384474	2422.970102
366.772284	2423.028076
367.160031	2424.419434
367.547715	2421.810637
367.935336	2421.316604
368.322893	2422.866759
368.710388	2424.124527
369.097820	2423.978333
369.485189	2422.546645
369.872495	2422.415575
370.259738	2425.646955
370.646918	2426.456060
371.034035	2425.987233
371.421090	2424.270720
371.808081	2424.671492
372.195010	2424.316090
372.581875	2424.910947
372.968678	2424.099321
373.355418	2429.190886
373.742096	2426.788776
374.128710	2427.481935
374.515262	2428.291040
374.901751	2427.602923
375.288177	2429.584096
375.674540	2428.618715
376.060841	2430.718356
376.447079	2428.044024
376.833254	2428.066709
377.219367	2422.380287
377.605417	2427.733993
377.991404	2425.064702
378.377329	2427.245001
378.763191	2428.228026
379.148991	2427.983530
379.534727	2430.771288
379.920402	2432.049220
380.306013	2428.515372
380.691563	2432.283634
381.077049	2429.942018
381.462474	2431.824889
381.847835	2433.218768
382.233134	2433.644746
382.618371	2431.212389
383.003545	2433.317071
383.388657	2432.369334
383.773706	2433.400250
384.158693	2435.961156
384.543618	2434.726073
384.928480	2433.780857
385.313280	2434.290013
385.698017	2434.569797
386.082692	2437.082812
386.467305	2433.816145
386.851856	2434.715991
387.236344	2436.818152
387.620770	2435.835127
388.005133	2439.074068
388.389435	2436.384613
388.773674	2437.753286
389.157851	2440.029367
389.541965	2441.234203
389.926018	2439.764706
390.310008	2437.869232
390.693936	2439.053904
391.077802	2438.781681
391.461606	2441.564398
391.845348	2439.681527
392.229027	2441.466096
392.612645	2441.317382
392.996200	2439.053904
393.379694	2443.711930
393.763125	2443.611107
394.146494	2444.223607
394.529801	2442.716302
394.913047	2443.976590
395.296230	2439.721857
395.679351	2445.264605
396.062410	2444.402568
396.445408	2442.456682
396.828343	2442.549944
397.211217	2439.190015
397.594028	2444.826025
397.976778	2439.086671
398.359466	2444.198401
398.742092	2438.852258
399.124656	2444.342074
399.507158	2446.945830
399.889598	2444.142948
400.271977	2445.279729
400.654294	2446.721499
401.036549	2447.389452
401.418742	2448.516149
401.800874	2445.960284
402.182944	2446.527414
402.564952	2449.262240
402.946898	2448.571602
403.328783	2445.688062
403.710606	2448.402723
404.092367	2448.228804
404.474067	2448.107816
404.855705	2448.697631
405.237282	2450.961109
405.618797	2448.150666
406.000250	2450.338527
406.381642	2448.710234
406.762972	2448.773248
407.144240	2451.528239
407.525447	2452.418003
407.906593	2448.211160
408.287677	2451.596294
408.668700	2450.943465
409.049661	2451.198043
409.430560	2454.149639
409.811399	2450.696448
410.192176	2452.939762
410.572891	2452.733075
410.953545	2452.622169
411.334138	2452.017231
411.714669	2453.401028
412.095139	2453.194340
412.475547	2451.180399
412.855894	2452.874227
413.236180	2452.508743
413.616405	2456.831533
413.996568	2452.549073
414.376670	2456.314814
414.756711	2454.313476
415.136691	2454.086624
415.516609	2453.832046
415.896466	2456.304732
416.276262	2455.432613
416.655997	2453.678291
417.035670	2450.013372
417.415283	2457.938066
417.794834	2451.016562
418.174324	2457.930504
418.553753	2455.906481
418.933121	2456.135853
419.312428	2455.510750
419.691674	2454.109310
420.070859	2458.981585
420.449983	2460.110803
420.829045	2460.965279
421.208047	2457.559979
421.586988	2460.173818
421.965867	2461.862604
422.344686	2460.498972
422.723444	2460.582151
423.102141	2461.492079
423.480777	2459.563838
423.859352	2459.899075
424.237866	2463.072481
424.616319	2460.945114
424.994712	2461.678602
425.373044	2462.180197
425.751314	2463.435444
426.129524	2464.282358
426.507673	2464.184056
426.885762	2463.682461
427.263789	2465.338480
427.641756	2464.423510
428.019662	2463.044755
428.397508	2465.509879
428.775292	2465.948459
429.153016	2465.119190
429.530679	2465.018367
429.908282	2466.497945
430.285824	2465.698922
430.663305	2467.765795
431.040726	2469.394088
431.418086	2468.166567
431.795385	2469.003399
432.172624	2467.213789
432.549802	2468.332925
432.926920	2468.723615
433.303977	2470.321660
433.680974	2470.024232
434.057910	2468.501804
434.434786	2468.463995
434.811601	2470.823255
435.188355	2471.813842
435.565050	2469.487349
435.941683	2473.237968
436.318257	2469.457102
436.694770	2465.608182
437.071222	2471.866774
437.447614	2467.808645
437.823946	2470.717391
438.200218	2471.274438
438.576429	2471.637402
438.952580	2473.507670
439.328670	2474.226034
439.704700	2474.498256
440.080670	2472.174284
440.456580	2471.740745
440.832429	2476.043370
441.208218	2472.718729
441.583947	2478.143011
441.959616	2474.881384
442.335224	2477.359111
442.710773	2475.259471
443.086261	2476.388689
443.461689	2476.381127
443.837057	2476.945737
444.212365	2477.439770
444.587612	2477.185191
444.962800	2478.263998
445.337927	2479.461272
445.712995	2479.249544
446.088002	2480.860192
446.462949	2480.668629
446.837837	2479.035295
447.212664	2480.784575
447.587431	2486.299597
447.962139	2487.534680
448.336786	2493.916781
448.711374	2491.131543
449.085901	2489.833446
449.460369	2487.905205
449.834776	2487.416213
450.209124	2490.604743
450.583412	2489.011738
450.957640	2491.055926
451.331808	2491.600371
451.705917	2489.029382
452.079965	2491.184476
452.453954	2487.075935
452.827883	2491.401245
453.201752	2489.455360
453.575562	2492.895947
453.949311	2492.192706
454.323001	2493.203458
454.696632	2493.831081
455.070202	2500.344252
455.443713	2499.731752
455.817164	2497.755620
456.190556	2494.408293
456.563888	2498.562204
456.937160	2494.153715
457.310373	2500.503048
457.683526	2499.850219
458.056619	2503.386588
458.429653	2502.262411
458.802628	2506.010509
459.175542	2506.159223
459.548398	2510.290449
459.921194	2515.497961
460.293930	2517.458969
460.666607	2521.406193
461.039224	2524.491379
461.411782	2525.718900
461.784280	2524.158663
462.156719	2526.888448
462.529099	2527.369878
462.901419	2525.086235
463.273680	2524.322500
463.645882	2525.234949
464.018024	2530.535722
464.390106	2528.549508
464.762130	2536.920344
465.134094	2549.389638
465.505999	2562.519323
465.877845	2578.134297
466.249631	2581.572364
466.621358	2576.165727
466.993026	2580.289390
467.364634	2574.129100
467.736184	2569.755899
468.107674	2570.413770
468.479105	2568.233471
468.850477	2566.159036
469.221790	2567.434448
469.593043	2563.449416
469.964238	2562.877245
470.335373	2563.691391
470.706449	2571.207752
471.077467	2578.716550
471.448425	2596.078284
471.819324	2604.983482
472.190164	2604.466764
472.560945	2594.644076
472.931667	2587.210895
473.302330	2585.839701
473.672934	2584.067735
474.043479	2588.297263
474.413965	2586.616038
474.784393	2585.759042
475.154761	2590.061667
475.525070	2591.286667
475.895321	2593.585434
476.265513	2593.981164
476.635645	2603.975252
477.005719	2605.452310
477.375734	2609.976745
477.745691	2617.256172
478.115588	2625.316977
478.485427	2634.827113
478.855207	2653.325627
479.224928	2664.844664
479.594591	2673.941426
479.964194	2673.646518
480.333739	2677.276149
480.703226	2681.614062
481.072653	2689.609332
481.442022	2698.086032
481.811333	2704.831096
482.180584	2703.694316
482.549777	2707.049204
482.918912	2707.354194
483.287988	2715.755277
483.657005	2714.568085
484.025964	2718.031357
484.394864	2726.157697
484.763706	2730.596433
485.132489	2733.656414
485.501213	2740.356107
485.869879	2750.002355
486.238487	2760.306474
486.607036	2766.597834
486.975527	2772.634615
487.343959	2785.403858
487.712333	2796.867442
488.080648	2808.487302
488.448905	2823.988850
488.817104	2836.077537
489.185244	2861.215250
489.553326	2897.786301
489.921350	2947.171964
490.289315	3000.651045
490.657222	3032.097763
491.025070	3060.139181
491.392861	3070.211406
491.760593	3075.101326
492.128267	3074.791295
492.495883	3082.501739
492.863440	3088.793099
493.230939	3098.436827
493.598380	3114.215638
493.965763	3135.015439
494.333088	3155.129643
494.700354	3178.419774
495.067563	3208.898590
495.434713	3236.912282
495.801805	3281.299641
496.168839	3311.176040
496.535815	3346.590145
496.902733	3386.042215
497.269593	3422.149480
497.636395	3461.326807
498.003139	3518.390148
498.369825	3556.617218
498.736453	3616.750621
499.103023	3656.858041
499.469535	3707.851833
499.835989	3768.048251
500.202385	3818.454748
500.568723	3877.695868
500.935003	3952.390644
501.301226	4014.106970
501.667390	4108.520220
502.033497	4192.405020
502.399546	4235.093511
502.765537	4285.172333
503.131470	4372.868245
503.497345	4473.958503
503.863163	4495.297708
504.228923	4609.179894
504.594625	4722.741966
504.960269	4772.477990
505.325856	4905.206530
505.691385	4963.938493
506.056856	5066.669646
506.422270	5198.463052
506.787625	5275.441471
507.152924	5390.830962
507.518164	5509.451833
507.883347	5556.155602
508.248472	5689.040418
508.613540	5844.101269
508.978550	5987.824565
509.343503	6092.854485
509.708398	6231.607203
510.073236	6411.863742
510.438016	6543.788217
510.802738	6614.936542
511.167403	6815.448436
511.532010	6982.381205
511.896561	7156.386712
512.261053	7401.812766
512.625488	7497.786253
512.989866	7626.703681
513.354186	7761.335256
513.718449	7911.060046
514.082655	8160.387953
514.446803	8278.393803
514.810894	8508.913165
515.174927	8667.991816
515.538904	8813.257705
515.902822	9089.258358
516.266684	9172.762551
516.630488	9408.988499
516.994235	9560.487775
517.357925	9842.341208
517.721558	10059.246934
518.085133	10294.663777
518.448651	10509.759730
518.812112	10657.750363
519.175516	10855.005672
519.538863	11112.419590
519.902152	11305.931842
520.265385	11604.894950
520.628560	11818.725573
520.991678	11974.139305
521.354739	12216.265924
521.717743	12512.925225
522.080690	12708.312786
522.443580	13066.552302
522.806413	13307.332933
523.169189	13502.382737
523.531908	13771.819807
523.894569	13944.736426
524.257174	14215.852200
524.619722	14531.370457
524.982213	14752.788017
525.344647	14954.545076
525.707025	15194.980388
526.069345	15560.532097
526.431608	15762.125319
526.793815	16102.738441
527.155964	16191.533324
527.518057	16478.448075
527.880093	16639.497817
528.242072	17065.684525
528.603995	17209.289354
528.965860	17450.591744
529.327669	17738.665960
529.689421	17944.881920
530.051117	18179.918157
530.412755	18481.066605
530.774337	18758.398122
531.135862	18929.913299
531.497331	19268.615823
531.858743	19476.412185
532.220098	19866.456340
532.581396	19995.172122
532.942638	20097.472257
533.303824	20479.705144
533.664953	20715.026206
534.026025	20839.051193
534.387040	21293.463321
534.747999	21513.202176
535.108902	21833.796876
535.469748	21871.126620
535.830537	22175.166170
536.191270	22533.055326
536.551947	22601.393207
536.912567	23002.212829
537.273131	23312.793276
537.633638	23317.400891
537.994089	23736.345981
538.354483	23783.079998
538.714821	24324.555374
539.075103	24744.334775
539.435328	24885.489603
539.795497	25067.044239
540.155609	25315.391642
540.515665	25822.866955
540.875665	25756.737099
541.235609	26179.042119
541.595496	26410.113487
541.955328	27038.757975
542.315102	26919.398575
542.674821	27032.643055
543.034483	27307.396022
543.394090	27511.161981
543.753640	27729.809427
544.113134	28593.807743
544.472571	28220.500218
544.831953	29239.584592
545.191278	28984.686209
545.550548	29044.202072
545.909761	29567.562061
546.268918	29932.251733
546.628019	30362.433556
546.987064	30304.881223
547.346053	30044.989577
547.704986	30857.797497
548.063863	30778.769849
548.422684	31142.171506
548.781449	31269.004416
549.140158	31755.009456
549.498811	31860.104911
549.857408	31690.039065
550.215949	32482.944509
550.574434	32636.301451
550.932864	32705.922306
551.291237	33423.906122
551.649555	33345.795963
552.007817	33721.402254
552.366022	33663.537370
552.724173	34016.178684
553.082267	34497.172817
553.440305	34930.893529
553.798288	34605.877738
554.156215	35026.113363
554.514086	35391.329836
554.871902	35373.640427
555.229661	35587.140854
555.587365	35628.173326
555.945014	35889.461371
556.302606	35998.869533
556.660143	36364.383434
557.017625	36600.380010
557.375050	36625.663917
557.732421	37091.698426
558.089735	37242.403720
558.446994	37326.573345
558.804197	37876.578353
559.161345	38013.677573
559.518437	37552.323776
559.875474	37980.688262
560.232455	38277.244220
560.589381	38566.041841
560.946251	38472.072213
561.303065	39204.655210
561.659825	39172.371661
562.016528	39062.169518
562.373177	38976.500149
562.729770	39539.962517
563.086307	39267.415055
563.442789	39812.174743
563.799216	39980.584569
564.155587	39942.985123
564.511904	40096.742836
564.868164	40309.701339
565.224370	40659.665801
565.580520	40553.675541
565.936615	40856.149813
566.292654	40743.389284
566.648638	41081.635584
567.004567	41172.567917
567.360441	41303.995839
567.716260	41295.015023
568.072023	41682.271420
568.427732	41786.288068
568.783385	41488.728921
569.138982	41947.572224
569.494525	42017.044365
569.850013	41921.322936
570.205445	41989.814572
570.560823	42036.735112
570.916145	42037.849207
571.271412	42140.797130
571.626625	42023.744058
571.981782	42165.834021
572.336884	41975.832932
572.691931	42354.852084
573.046923	42078.743047
573.401860	42022.471167
573.756743	42087.098759
574.111570	42265.724484
574.466342	42222.234450
574.821059	42414.735951
575.175722	42055.014336
575.530330	42148.222750
575.884882	41970.406130
576.239380	42016.792307
576.593823	42042.877758
576.948211	42046.187275
577.302544	41691.287524
577.656823	41779.820268
578.011047	42053.670868
578.365216	41862.175078
578.719330	41737.628331
579.073389	41651.585917
579.427394	41789.027935
579.781344	41842.701100
580.135239	41571.948289
580.489080	41707.578013
580.842866	41275.893927
581.196597	41746.467994
581.550273	41759.368307
581.903895	41676.090966
582.257463	42129.121818
582.610975	41602.633793
582.964434	41911.220463
583.317837	41638.451191
583.671186	41530.338605
584.024481	41788.725466
584.377721	41412.191603
584.730906	41730.482495
585.084037	41795.745273
585.437113	41570.740933
585.790135	41639.787096
586.143103	41305.367032
586.496016	41462.474592
586.848874	41533.116281
587.201679	41584.594023
587.554428	41134.575261
587.907124	41333.239572
588.259765	41148.594710
588.612352	41430.465786
588.964884	40882.154605
589.317362	41184.102077
589.669786	41179.204596
590.022155	40988.054124
590.374470	41422.601586
590.726731	41001.221618
591.078937	40572.547101
591.431090	40694.336337
591.783188	40400.305997
592.135232	40116.496598
592.487222	40381.094160
592.839157	40492.763279
593.191038	40186.223317
593.542866	39980.453499
593.894639	39443.747055
594.246358	39720.176206
594.598022	39715.445083
594.949633	39370.773833
595.301190	39351.657777
595.652692	39225.147501
596.004141	39565.168287
596.355535	38623.400090
596.706876	38602.940567
597.058162	38459.862538
597.409395	38929.766132
597.760573	39022.654433
598.111698	38613.829459
598.462768	38648.671394
598.813785	38707.652894
599.164748	38199.141623
599.515657	38604.011812
599.866511	38102.202755
600.217312	38703.267090
600.568060	37713.010555
600.918753	38453.984553
601.269392	38426.603526
601.619978	38099.425079
601.970510	38323.368257
602.320988	38505.074127
602.671412	38803.649066
603.021783	38564.761388
603.372100	38244.854806
603.722363	38368.279896
604.072572	38443.539282
604.422728	38466.269845
604.772830	38284.344685
605.122878	38398.322653
605.472872	38352.894295
605.822813	38611.518090
606.172701	38469.695309
606.522534	38701.895896
606.872314	38973.036876
607.222041	38751.052187
607.571714	39151.387858
607.921333	38596.762633
608.270899	38898.357223
608.620411	39236.671578
608.969870	39053.576871
609.319276	39056.374711
609.668627	39122.867530
610.017926	39601.015932
610.367171	39749.170402
610.716362	39863.163493
611.065500	39824.152524
611.414585	40001.656592
611.763616	40309.764354
612.112594	40226.781920
612.461518	40447.334922
612.810389	40752.256674
613.159207	40614.338266
613.507971	40702.157687
613.856682	41173.785355
614.205340	41062.539693
614.553945	41755.668100
614.902496	41217.224978
615.250994	41688.484643
615.599439	41755.673141
615.947830	41982.121772
616.296169	42029.866540
616.644454	42169.110771
616.992686	42352.238246
617.340864	42875.053791
617.688990	42598.057510
618.037063	43191.749158
618.385082	43168.239737
618.733048	43450.370432
619.080961	43480.143487
619.428821	43492.085980
619.776628	43600.498514
620.124382	43410.429370
620.472083	43559.985282
620.819731	43701.034246
621.167326	43372.623237
621.514868	43357.671175
621.862357	42922.049947
622.209793	42949.688073
622.557176	42632.508756
622.904506	42387.730490
623.251783	42042.466904
623.599007	41835.615759
623.946179	41620.376133
624.293297	41561.442524
624.640363	40983.577580
624.987376	40985.379792
625.334336	40737.433161
625.681243	40396.467159
626.028097	40372.526719
626.374899	40224.163041
626.721647	40215.073840
627.068343	40111.420156
627.414987	39882.284590
627.761577	39654.336216
628.108115	39995.244245
628.454600	39442.511972
628.801032	39630.751177
629.147412	39595.074932
629.493739	39613.381882
629.840014	39262.383984
630.186236	39610.803332
630.532405	39241.589224
630.878521	39450.658477
631.224585	39335.097587
631.570597	39051.318434
631.916556	39206.286024
632.262462	39173.362248
632.608316	39180.732415
632.954117	39083.160882
633.299866	39077.368596
633.645562	38984.462652
633.991206	38498.586162
634.336797	38073.926923
634.682336	38075.688807
635.027823	37841.852365
635.373257	37658.734972
635.718639	37428.749972
636.063968	37306.587691
636.409245	36726.975986
636.754470	36768.353777
637.099642	36529.400564
637.444762	36051.060599
637.789829	36212.553962
638.134845	35872.056787
638.479808	35821.322615
638.824719	35731.577474
639.169577	35346.652610
639.514383	35416.669196
639.859137	35111.061847
640.203839	35356.079568
640.548489	34996.138663
640.893086	35064.189198
641.237632	34816.298020
641.582125	34945.220488
641.926566	34856.413002
642.270955	34851.074420
642.615292	34856.828897
642.959576	34840.808110
643.303809	34839.295764
643.647990	34989.312940
643.992118	34944.797031
644.336195	34935.251607
644.680219	35048.261673
645.024192	35326.976987
645.368112	35848.862439
645.711981	35853.424683
646.055797	36739.215907
646.399562	36665.642788
646.743274	37594.883717
647.086935	38026.426651
647.430544	37920.990918
647.774101	38036.781181
648.117606	38280.342009
648.461059	38572.595341
648.804460	38200.684216
649.147810	37583.377284
649.491108	37352.681481
649.834354	36984.321849
650.177548	36169.663825
650.520690	35713.462087
650.863781	35731.287607
651.206820	35585.099187
651.549807	35147.942928
651.892742	34681.512689
652.235626	34491.123432
652.578458	34356.824573
652.921238	33771.443268
653.263967	34089.668625
653.606644	33784.346101
653.949269	33727.060949
654.291843	33342.017619
654.634365	33735.313318
654.976836	33336.943697
655.319255	33342.741024
655.661622	33329.051771
656.003938	33107.702267
656.346203	32982.989162
656.688416	33201.366906
657.030577	33005.240815
657.372687	32836.072295
657.714746	33110.169912
658.056753	33228.531163
658.398708	32684.018492
658.740612	32744.585435
659.082465	33007.138810
659.424266	32840.148068
659.766016	32968.727738
660.107715	32829.975020
660.449362	32965.990392
660.790958	32952.860706
661.132503	32976.455827
661.473996	32990.818074
661.815438	33107.064561
662.156829	33297.973057
662.498168	33078.052721
662.839456	33103.424848
663.180693	33251.667539
663.521879	33410.413473
663.863013	33375.412742
664.204097	33355.623693
664.545129	33814.451872
664.886110	33786.818787
665.227040	33868.440109
665.567918	33973.321315
665.908746	34036.587796
666.249522	34200.039647
666.590248	34200.059812
666.930922	34323.013554
667.271545	34273.900113
667.612118	34355.334912
667.952639	34157.255375
668.293109	34191.341136
668.633528	34089.073769
668.973896	34014.212634
669.314213	34040.986202
669.654480	33789.692245
669.994695	33812.251408
670.334859	33704.610171
670.674973	33619.069352
671.015035	33762.873306
671.355047	33727.207143
671.695008	33679.603527
672.034918	33566.805189
672.374777	33643.529030
672.714585	33507.889224
673.054342	33723.874940
673.394049	33498.411855
673.733705	33764.340282
674.073310	33442.326498
674.412864	33500.854294
674.752368	33100.314456
675.091820	33401.160436
675.431223	32986.134842
675.770574	32706.814590
676.109875	32577.067893
676.449125	32295.290078
676.788324	32220.008007
677.127473	31702.251260
677.466571	31607.764914
677.805619	31268.603645
678.144616	31268.003747
678.483562	31181.653823
678.822458	30869.472809
679.161303	30796.207200
679.500098	30706.976256
679.838842	30598.140265
680.177535	30751.368657
680.516179	31024.740348
680.854771	31268.258326
681.193314	32134.520120
681.531805	33249.988835
681.870247	34033.260634
682.208638	34767.970998
682.546978	34997.651009
682.885268	35064.559723
683.223508	34521.546796
683.561697	34192.276270
683.899836	34001.524050
684.237925	33503.672299
684.575963	33348.336705
684.913951	32903.870773
685.251889	33063.080494
685.589776	33042.860426
685.927614	33029.420710
686.265401	33179.400078
686.603137	33287.928558
686.940824	33794.178872
687.278460	34170.354813
687.616046	34316.119776
687.953582	34917.481539
688.291068	34770.201709
688.628504	35052.135800
688.965889	34995.707644
689.303224	34599.107468
689.640510	34268.490955
689.977745	33516.388610
690.314930	32730.790318
690.652065	32204.657694
690.989150	31448.769442
691.326185	30557.848843
691.663170	29846.917602
692.000105	29106.392266
692.336990	28423.021013
692.673825	27977.340163
693.010610	27463.906205
693.347345	26892.937559
693.684030	26243.889001
694.020665	25984.841749
694.357251	25314.678318
694.693786	25252.873772
695.030272	25020.731158
695.366707	24488.279448
695.703093	24199.988462
696.039429	24186.878942
696.375716	23929.946454
696.711952	23897.395723
697.048139	23736.472010
697.384276	23569.377925
697.720363	23689.813611
698.056400	23485.823320
698.392388	23258.053907
698.728326	23225.238516
699.064214	23020.295448
699.400053	22970.057829
699.735842	22615.397533
700.071581	22332.513185
700.407270	22047.393085
700.742910	21869.778111
701.078501	21595.662850
701.414042	21311.745066
701.749533	21016.671208
702.084974	20674.044145
702.420366	20876.446472
702.755709	20437.989596
703.091002	20147.888836
703.426246	20164.408697
703.761440	20061.669982
704.096584	19796.654004
704.431679	19756.337376
704.766725	19678.718730
705.101721	19598.839127
705.436668	19692.917140
705.771565	19366.628457
706.106413	19709.346260
706.441212	19706.760148
706.775961	19823.661985
707.110661	19897.860208
707.445311	20260.419993
707.779913	20099.592062
708.114465	20347.188333
708.448967	20625.190323
708.783421	21320.373001
709.117825	21590.830904
709.452180	21809.599337
709.786485	22197.319521
710.120742	23016.045755
710.454949	23025.868443
710.789107	23488.293486
711.123216	24191.970507
711.457275	24311.299660
711.791286	24845.190620
712.125247	24921.806076
712.459159	24611.921308
712.793023	25254.494503
713.126837	24161.854654
713.460602	24409.045112
713.794318	24019.918447
714.127985	23635.820332
714.461602	22740.357654
714.795171	22700.199823
715.128691	21684.828259
715.462162	21157.450470
715.795584	20742.283724
716.128957	20469.136365
716.462281	20069.070396
716.795556	19840.025571
717.128782	19350.300160
717.461960	18806.846131
717.795088	18728.627588
718.128167	18322.320670
718.461198	17872.185961
718.794180	17728.359321
719.127113	17366.059156
719.459997	17175.440526
719.792833	16832.616859
720.125619	16797.187630
720.458357	16481.495452
720.791046	16314.318188
721.123686	16155.317675
721.456278	15919.515183
721.788821	15873.943153
722.121315	15612.342556
722.453761	15694.830957
722.786158	15622.918897
723.118506	15631.824095
723.450805	15491.059956
723.783056	15655.630944
724.115259	15549.784358
724.447412	15487.606766
724.779518	15732.750516
725.111574	15756.837149
725.443582	15951.503825
725.775542	15927.843170
726.107453	16397.797175
726.439315	16284.686286
726.771129	16674.107859
727.102895	17043.289199
727.434612	17244.035507
727.766281	17368.887243
728.097901	17627.274104
728.429473	17673.630035
728.760996	17649.087177
729.092471	17724.223055
729.423897	17608.006814
729.755276	17469.574209
730.086606	17584.230212
730.417887	18109.546169
730.749120	18626.501373
731.080305	18789.625550
731.411442	19126.530902
731.742530	19189.716725
732.073570	19297.032808
732.404562	19579.385314
732.735506	19392.965965
733.066401	19106.154558
733.397249	18574.764011
733.728048	17945.527188
734.058798	17119.508924
734.389501	16440.767971
734.720156	15990.829866
735.050762	15463.000894
735.381320	15106.959321
735.711831	14872.918713
736.042293	14532.701322
736.372707	14538.518814
736.703073	14338.062372
737.033391	14524.907698
737.363661	14487.459487
737.693883	14597.805303
738.024056	14763.490386
738.354182	14949.219097
738.684260	15233.164608
739.014290	15453.367249
739.344272	15645.906558
739.674207	15911.749286
740.004093	16025.944023
740.333931	16019.819022
740.663722	16049.098043
740.993464	16050.043259
741.323159	15870.336207
741.652806	15595.273209
741.982405	15385.914090
742.311956	15044.017995
742.641460	14921.477627
742.970915	14621.171052
743.300323	14289.982367
743.629683	14073.051435
743.958996	13799.664621
744.288260	13528.717725
744.617477	13232.975914
744.946647	13161.885562
745.275768	12887.694684
745.604842	12702.059235
745.933869	12530.455838
746.262847	12487.890855
746.591778	12415.832602
746.920662	12315.498517
747.249498	12317.945997
747.578286	12432.695262
747.907027	12578.750091
748.235720	12800.414667
748.564365	12823.598934
748.892963	12724.078995
749.221514	12783.093262
749.550017	12634.313689
749.878473	12590.669900
750.206881	12382.777756
750.535242	12286.698405
750.863555	12198.735312
751.191821	12112.193823
751.520039	12134.873975
751.848210	12040.511136
752.176334	12064.638099
752.504411	11976.037299
752.832440	11817.984523
753.160421	11877.760005
753.488356	11759.222313
753.816243	11669.086483
754.144082	11525.038032
754.471875	11465.728857
754.799620	11413.570559
755.127318	11380.760209
755.454969	11350.662000
755.782572	11303.070987
756.110129	11307.013169
756.437638	11233.263609
756.765100	11230.269164
757.092515	11223.045190
757.419882	11242.340207
757.747203	11246.373130
758.074477	11321.554378
758.401703	11275.831112
758.728882	11437.586616
759.056014	11476.083387
759.383099	11586.424163
759.710138	11696.555730
760.037129	11780.677464
760.364073	11795.909311
760.690970	11779.134871
761.017820	11769.246648
761.344623	11956.974176
761.671379	12276.235490
761.998088	12908.020617
762.324751	14456.557214
762.651366	17302.699414
762.977935	20946.127821
763.304456	23137.882882
763.630931	23603.594757
763.957359	22418.764806
764.283740	20520.951865
764.610074	18654.212596
764.936362	16545.442489
765.262602	15033.517272
765.588796	13580.356784
765.914943	12551.260679
766.241044	11713.289840
766.567097	11082.994375
766.893104	10545.614937
767.219064	10186.122694
767.544978	9806.687647
767.870845	9492.906067
768.196665	9303.562849
768.522438	9116.402451
768.848165	8946.815515
769.173846	8783.149414
769.499479	8662.983430
769.825066	8505.465016
770.150607	8325.190834
770.476101	8269.372658
770.801548	8156.367633
771.126949	8013.367742
771.452303	7921.011283
771.777611	7762.698888
772.102872	7749.518791
772.428087	7625.987837
772.753256	7502.310689
773.078378	7417.881444
773.403453	7274.750484
773.728482	7170.839700
774.053465	7111.724609
774.378401	7025.871239
774.703291	6925.731238
775.028135	6838.597415
775.352932	6796.896990
775.677683	6717.816410
776.002388	6630.198635
776.327046	6626.601772
776.651658	6543.823505
776.976224	6464.626978
777.300743	6451.265400
777.625216	6383.156891
777.949643	6346.301015
778.274024	6348.574576
778.598359	6278.931035
778.922647	6283.379853
779.246889	6248.091777
779.571086	6256.016470
779.895236	6265.279591
780.219339	6258.234578
780.543397	6256.732314
780.867409	6308.721734
781.191374	6301.449869
781.515294	6266.272698
781.839167	6316.981664
782.162995	6291.433097
782.486776	6240.262865
782.810511	6202.618048
783.134201	6126.300020
783.457844	6118.352641
783.781441	6068.241051
784.104993	6022.464854
784.428498	5993.664742
784.751958	5974.987267
785.075372	5951.193021
785.398739	5916.073823
785.722061	5938.585095
786.045337	5940.054591
786.368568	6045.812958
786.691752	6067.671401
787.014891	6314.370347
787.337983	6595.790240
787.661030	7031.713936
787.984031	7445.590146
788.306987	7708.763583
788.629897	7796.202396
788.952760	7714.807926
789.275579	7530.026953
789.598351	7236.982159
789.921078	6969.934596
790.243759	6695.353028
790.566395	6494.155537
790.888984	6300.978522
791.211529	6158.523076
791.534027	5998.388303
791.856480	5862.824114
792.178888	5804.394621
792.501249	5740.697121
792.823566	5635.026975
793.145836	5635.841121
793.468062	5613.970075
793.790241	5571.092541
794.112375	5615.134582
794.434464	5715.849274
794.756507	5744.790538
795.078505	5862.907293
795.400457	6077.647844
795.722364	6313.639379
796.044226	6505.966960
796.366042	6663.308934
796.687812	6612.350430
797.009538	6643.870244
797.331218	6544.088166
797.652852	6474.850438
797.974442	6354.097160
798.295986	6285.035872
798.617484	6153.776829
798.938938	6056.676644
799.260346	5981.775181
799.581709	5845.522874
799.903026	5792.973887
800.224299	5722.669955
800.545526	5608.210557
800.866708	5542.201689
801.187845	5495.853320
801.508936	5419.862967
801.829983	5390.853647
802.150984	5282.226864
802.471940	5261.653915
802.792851	5242.114403
803.113717	5216.207913
803.434538	5193.900808
803.755314	5164.619266
804.076045	5145.624198
804.396731	5114.656390
804.717372	5130.460407
805.037967	5136.792096
805.358518	5163.404348
805.679024	5222.199325
805.999485	5227.694183
806.319901	5249.439200
806.640272	5268.502323
806.960598	5313.401360
807.280879	5305.617818
807.601115	5342.483776
807.921306	5306.298374
808.241453	5301.156397
808.561554	5311.848684
808.881611	5277.868787
809.201623	5273.508189
809.521590	5224.140169
809.841513	5208.318508
810.161390	5221.370055
810.481223	5137.026510
810.801011	5120.357935
811.120755	5099.774904
811.440453	5041.640318
811.760107	5016.321122
812.079716	4989.759283
812.399281	4938.536118
812.718801	4933.903298
813.038276	4898.821908
813.357707	4867.100448
813.677093	4888.361514
813.996434	4823.701154
814.315731	4847.210575
814.634983	4845.695709
814.954191	4851.697202
815.273354	4905.723248
815.592473	4946.405360
815.911547	5023.260271
816.230577	5076.036110
816.549562	5158.272453
816.868502	5212.530392
817.187399	5265.069297
817.506250	5346.297409
817.825058	5366.270461
818.143821	5519.849212
818.462539	5686.277866
818.781213	5917.475263
819.099843	6276.687722
819.418429	6896.553040
819.736970	7506.509970
820.055466	8214.479534
820.373919	9116.808264
820.692327	10552.677593
821.010691	13219.974778
821.329011	19386.409945
821.647286	28892.649864
821.965517	39163.375722
822.283704	44579.956898
822.601847	46027.330141
822.919945	41450.355658
823.237999	36369.502726
823.556010	31186.077436
823.873976	26534.698043
824.191897	22360.380683
824.509775	19320.080963
824.827609	16573.393167
825.145398	15040.181677
825.463144	14307.167661
825.780845	14597.770015
826.098502	15838.276989
826.416116	18280.045554
826.733685	20546.429856
827.051210	21053.035571
827.368692	19646.480551
827.686129	17097.547138
828.003522	14643.218538
828.320872	12444.582302
828.638177	10823.506022
828.955439	9585.491898
829.272656	8534.000468
829.589830	7707.591515
829.906960	6980.500854
830.224046	6458.139013
830.541088	6053.331839
830.858086	5796.124608
831.175041	5596.429381
831.491952	5540.139857
831.808819	5570.389300
832.125642	5813.186393
832.442421	6361.416915
832.759157	7455.881662
833.075849	9202.777581
833.392497	11038.523836
833.709101	12137.553348
834.025662	11886.680327
834.342179	10844.257932
834.658653	9551.713647
834.975083	8456.359137
835.291469	7559.038793
835.607811	6830.710529
835.924110	6324.568601
836.240366	5833.247665
836.556578	5393.553185
836.872746	5041.935225
837.188871	4772.551087
837.504952	4554.541348
837.820990	4389.007499
838.136984	4274.878297
838.452935	4228.048498
838.768842	4259.545628
839.084706	4534.253224
839.400526	5271.577427
839.716303	6170.558830
840.032037	6726.678758
840.347727	6578.085707
840.663373	5983.327856
840.978977	5412.870887
841.294537	4974.973578
841.610054	4648.483250
841.925527	4408.335283
842.240957	4207.473029
842.556344	4027.191285
842.871687	3871.512892
843.186987	3722.249368
843.502244	3608.720063
843.817458	3520.900643
844.132629	3447.012451
844.447756	3404.258425
844.762840	3356.957278
845.077881	3320.839932
845.392879	3285.166206
845.707833	3259.297525
846.022745	3234.179976
846.337613	3222.789489
846.652438	3201.200748
846.967221	3192.787062
847.281960	3171.891479
847.596656	3161.173986
847.911309	3150.179230
848.225919	3140.134731
848.540485	3128.154429
848.855009	3122.294087
849.169490	3111.138014
849.483928	3103.389760
849.798323	3096.473297
850.112675	3088.047009
850.426984	3089.203953
850.741251	3081.178437
851.055474	3078.274732
851.369654	3080.712130
851.683792	3076.117118
851.997887	3078.615010
852.311938	3079.872778
852.625947	3079.482088
852.939914	3072.404308
853.253837	3080.944023
853.567718	3075.655853
853.881555	3070.183680
854.195350	3077.833631
854.509103	3070.733166
854.822812	3072.618557
855.136479	3064.923236
855.450103	3069.034297
855.763685	3062.402659
856.077224	3064.714028
856.390720	3072.999164
856.704173	3085.216401
857.017584	3085.128181
857.330953	3094.275354
857.644278	3102.724328
857.957561	3107.218517
858.270802	3098.890531
858.584000	3102.391612
858.897155	3098.018411
859.210268	3088.248655
859.523339	3073.397416
859.836367	3070.012281
860.149352	3065.755026
860.462295	3062.208575
860.775195	3052.174158
861.088054	3048.340360
861.400869	3047.924465
861.713642	3044.720812
862.026373	3054.893860
862.339062	3059.713203
862.651708	3068.724266
862.964312	3085.334868
863.276873	3088.687235
863.589392	3122.846094
863.901869	3152.830877
864.214303	3173.096315
864.526696	3188.060980
864.839045	3206.365410
865.151353	3217.776062
865.463619	3216.165413
865.775842	3219.265723
866.088023	3224.836198
866.400162	3216.132646
866.712258	3220.997359
867.024313	3216.563664
867.336325	3215.552913
867.648296	3216.908983
867.960224	3211.373796
868.272110	3217.261864
868.583954	3217.458469
868.895755	3221.529201
869.207515	3223.381825
869.519233	3238.893455
869.830909	3249.938623
870.142542	3257.984305
870.454134	3261.087135
870.765684	3277.692696
871.077191	3294.363792
871.388657	3308.637819
871.700081	3324.754388
872.011463	3344.946729
872.322803	3366.321222
872.634101	3380.012995
872.945357	3404.550812
873.256571	3428.803803
873.567744	3439.788477
873.878874	3448.713840
874.189963	3465.591623
874.501010	3465.112713
874.812015	3465.881489
875.122979	3478.708705
875.433900	3475.704178
875.744780	3479.416988
876.055618	3485.967967
876.366415	3483.946464
876.677169	3490.033657
876.987882	3505.114269
877.298554	3527.892723
877.609183	3563.311870
877.919771	3608.893983
878.230317	3677.609951
878.540822	3778.125518
878.851285	3926.201850
879.161707	4148.771313
879.472087	4514.128938
879.782425	5133.384276
880.092722	6304.676208
880.402977	8214.829894
880.713191	10570.813144
881.023363	12940.639403
881.333494	14272.260191
881.643583	14721.069077
881.953631	14305.962825
882.263637	13471.545999
882.573602	12429.549582
882.883526	11498.730771
883.193408	10547.167612
883.503248	9639.482656
883.813048	8818.419847
884.122806	8058.604536
884.432522	7298.688403
884.742197	6655.333828
885.051831	6091.952118
885.361424	5599.824598
885.670975	5214.067944
885.980485	4892.364190
886.289954	4625.631699
886.599382	4416.254936
886.908768	4242.362855
887.218113	4079.473092
887.527417	3951.216055
887.836680	3824.456242
888.145901	3726.995615
888.455082	3652.855365
888.764221	3586.047474
889.073319	3525.674615
889.382376	3495.301663
889.691392	3467.199751
890.000366	3460.752115
890.309300	3460.973926
890.618193	3459.829584
890.927044	3458.334882
891.235855	3463.459215
891.544625	3475.394147
891.853353	3508.358252
892.162041	3563.374884
892.470687	3654.372752
892.779293	3772.239970
893.087858	3940.690126
893.396381	4216.365624
893.704864	4629.422647
894.013306	5188.597514
894.321707	5750.189614
894.630068	6105.391835
894.938387	6141.178986
895.246665	5969.371422
895.554903	5651.408204
895.863100	5315.027132
896.171256	5047.397315
896.479371	4815.292510
896.787446	4594.162296
897.095480	4396.165938
897.403473	4251.018516
897.711425	4108.316053
898.019336	3989.080162
898.327207	3869.471225
898.635038	3765.489865
898.942827	3663.119154
899.250576	3574.916606
899.558284	3493.028103
899.865952	3439.554063
900.173579	3377.225237
900.481165	3332.671520
900.788711	3291.777680
901.096216	3258.049840
901.403681	3234.777353
901.711105	3217.823953
902.018489	3217.639951
902.325832	3251.934920
902.633135	3308.879794
902.940397	3478.262563
903.247619	3876.843913
903.554800	4621.422336
903.861941	5572.718313
904.169041	6266.514673
904.476101	6472.866744
904.783121	6202.819694
905.090100	5802.415968
905.397039	5390.513369
905.703938	5038.008166
906.010796	4715.586048
906.317614	4469.766784
906.624391	4236.867997
906.931129	4039.978172
907.237826	3863.462170
907.544483	3697.373795
907.851099	3524.726878
908.157675	3369.855070
908.464211	3233.501941
908.770707	3133.394708
909.077163	3054.225907
909.383578	2991.962616
909.689954	2950.945268
909.996289	2922.475352
910.302584	2902.905593
910.608839	2889.107954
910.915054	2876.318547
911.221229	2874.102960
911.527363	2878.113198
911.833458	2885.369939
912.139513	2894.567524
912.445527	2910.603434
912.751502	2942.488733
913.057436	2985.336020
913.363331	3039.866181
913.669186	3127.983029
913.975000	3245.867892
914.280775	3426.270623
914.586510	3690.815253
914.892205	4060.586409
915.197859	4549.051531
915.503475	5129.633658
915.809050	5618.030725
916.114585	5905.724334
916.420081	5971.690352
916.725536	5901.401544
917.030952	5668.061656
917.336328	5465.258558
917.641665	5252.176546
917.946961	5031.699162
918.252218	4833.614583
918.557435	4607.798617
918.862612	4414.737549
919.167750	4244.752362
919.472848	4053.614493
919.777906	3890.155079
920.082925	3733.133219
920.387904	3581.013882
920.692843	3474.065803
920.997743	3375.400340
921.302603	3285.267029
921.607423	3219.011144
921.912204	3155.706855
922.216946	3102.747013
922.521647	3057.606001
922.826310	3018.242151
923.130932	2983.024651
923.435516	2941.440173
923.740059	2915.427819
924.044564	2884.903632
924.349028	2862.059643
924.653454	2831.583348
924.957840	2809.387147
925.262186	2786.641461
925.566493	2764.840992
925.870761	2742.422980
926.174989	2730.288923
926.479178	2715.684700
926.783328	2701.561908
927.087438	2689.110258
927.391509	2676.794719
927.695541	2666.409942
927.999533	2653.832263
928.303486	2644.657363
928.607400	2639.442290
928.911275	2636.049593
929.215110	2626.972996
929.518906	2627.013325
929.822663	2627.404014
930.126381	2626.156329
930.430060	2630.549694
930.733699	2628.699591
931.037299	2636.480612
931.340861	2634.965745
931.644383	2636.856178
931.947866	2635.830303
932.251309	2633.158491
932.554714	2632.553553
932.858080	2630.411063
933.161407	2627.792183
933.464694	2624.144908
933.767943	2621.397479
934.071153	2617.566202
934.374323	2613.313989
934.677455	2613.233331
934.980548	2604.164295
935.283602	2604.812083
935.586617	2604.635643
935.889593	2606.508432
936.192530	2606.999944
936.495428	2614.276850
936.798287	2625.503499
937.101108	2634.862401
937.403890	2658.936432
937.706632	2684.424505
938.009336	2714.278218
938.312002	2746.965060
938.614628	2768.737803
938.917216	2785.557613
939.219765	2796.083542
939.522275	2805.744914
939.824747	2804.698874
940.127179	2798.566311
940.429573	2796.328038
940.731929	2789.252779
941.034246	2782.457304
941.336524	2780.904628
941.638763	2771.104625
941.940964	2768.584048
942.243126	2751.272726
942.545250	2743.229565
942.847335	2724.884806
943.149381	2716.826522
943.451389	2701.418235
943.753359	2687.580268
944.055290	2678.934689
944.357182	2672.416477
944.659036	2666.465395
944.960851	2664.209478
945.262628	2657.792090
945.564367	2658.853252
945.866067	2658.651606
946.167729	2660.327790
946.469352	2654.757315
946.770937	2653.348312
947.072484	2650.321100
947.373992	2645.441263
947.675462	2644.012096
947.976893	2640.886580
948.278286	2636.709984
948.579641	2632.062040
948.880958	2628.346710
949.182236	2628.843264
949.483476	2624.911164
949.784678	2626.415948
950.085841	2627.005763
950.386967	2628.810496
950.688054	2634.746455
950.989103	2643.485295
951.290114	2652.067859
951.591087	2662.530774
951.892021	2671.221723
952.192917	2687.832325
952.493776	2696.293902
952.794596	2701.135930
953.095378	2700.709953
953.396122	2701.151054
953.696828	2696.044365
953.997496	2694.537060
954.298126	2685.064732
954.598718	2677.061900
954.899272	2668.544871
955.199788	2654.023827
955.500266	2640.795839
955.800706	2625.102727
956.101108	2607.776282
956.401472	2598.619026
956.701798	2583.886254
957.002087	2572.725139
957.302337	2561.140568
957.602550	2549.251006
957.902724	2539.463606
958.202861	2530.560928
958.502960	2525.149250
958.803022	2518.038702
959.103045	2509.539317
959.403031	2504.374655
959.702979	2498.121103
960.002889	2494.703201
960.302762	2489.261275
960.602596	2486.208857
960.902393	2480.237610
961.202153	2478.359780
961.501875	2476.678555
961.801559	2473.389202
962.101205	2474.268884
962.400814	2469.477267
962.700385	2465.250260
962.999918	2466.563480
963.299414	2464.761268
963.598873	2463.889148
963.898293	2460.186421
964.197677	2461.179528
964.497022	2456.760957
964.796331	2459.019393
965.095601	2457.053343
965.394835	2457.007973
965.694030	2457.033179
965.993189	2457.592747
966.292309	2452.607046
966.591393	2455.767849
966.890439	2453.433795
967.189447	2454.578137
967.488419	2452.362550
967.787353	2457.070988
968.086249	2452.170986
968.385108	2456.395473
968.683930	2458.149794
968.982714	2460.458643
969.281462	2458.784980
969.580172	2460.544343
969.878844	2462.459981
970.177480	2468.713532
970.476078	2466.500466
970.774639	2472.713688
971.073162	2472.978348
971.371649	2473.232927
971.670098	2473.832824
971.968510	2476.895325
972.266885	2474.525983
972.565223	2484.194916
972.863524	2480.630820
973.161788	2483.080821
973.460014	2483.433702
973.758204	2486.428147
974.056356	2484.509988
974.354471	2488.134578
974.652550	2487.005359
974.950591	2485.868579
975.248595	2485.238435
975.546563	2483.902529
975.844493	2484.512508
976.142386	2478.800881
976.440243	2475.544296
976.738062	2476.262660
977.035845	2471.050107
977.333590	2476.018164
977.631299	2470.104891
977.928971	2469.401650
978.226606	2465.623305
978.524204	2463.364868
978.821765	2465.772019
979.119290	2461.572738
979.416777	2463.717749
979.714228	2461.802110
980.011642	2464.650362
980.309020	2469.676393
980.606360	2471.483646
980.903664	2484.620893
981.200931	2492.817809
981.498162	2514.061232
981.795356	2539.135931
982.092513	2577.443659
982.389633	2623.209774
982.686717	2665.237874
982.983764	2696.629139
983.280775	2712.748228
983.577749	2712.486088
983.874686	2703.288503
984.171587	2688.505319
984.468451	2672.456806
984.765279	2657.837460
985.062070	2636.548667
985.358824	2621.657099
985.655543	2597.885538
985.952224	2575.016343
986.248869	2547.680687
986.545478	2520.029958
986.842050	2502.958090
987.138586	2484.348671
987.435086	2472.073461
987.731549	2462.273458
988.027975	2458.454784
988.324366	2450.242745
988.620719	2444.858792
988.917037	2443.323761
989.213318	2439.633636
989.509563	2435.358738
989.805772	2436.503080
990.101944	2434.592483
990.398080	2433.909406
990.694180	2431.953438
990.990244	2433.493511
991.286271	2432.553336
991.582262	2432.540733
991.878217	2434.721032
992.174136	2433.735486
992.470019	2437.372679
992.765865	2439.502566
993.061676	2437.029880
993.357450	2444.934410
993.653188	2445.287290
993.948890	2450.031016
994.244556	2456.476131
994.540186	2468.317802
994.835780	2476.650829
995.131337	2490.196409
995.426859	2506.207114
995.722345	2525.827285
996.017795	2543.269677
996.313208	2554.090514
996.608586	2567.268090
996.903928	2572.836044
997.199234	2569.423183
997.494504	2563.280537
997.789738	2558.723334
998.084936	2549.611449
998.380099	2537.381609
998.675225	2526.255783
998.970316	2513.259688
999.265371	2498.892400
999.560390	2486.919659
999.855373	2474.314254
1000.150320	2466.618933
1000.445232	2459.372274
1000.740108	2449.983125
1001.034948	2445.622527
1001.329752	2440.193204
1001.624521	2437.624737
1001.919254	2429.558890
1002.213951	2428.747265
1002.508613	2425.878848
1002.803239	2425.412541
1003.097829	2421.142684
1003.392384	2424.432037
1003.686903	2423.456574
1003.981386	2424.290885
1004.275834	2422.927253
1004.570246	2419.461459
1004.864623	2418.773342
1005.158964	2414.165727
1005.453270	2415.206725
1005.747540	2415.620100
1006.041775	2415.453742
1006.335974	2417.089596
1006.630138	2414.758063
1006.924266	2414.024575
1007.218359	2412.355953
1007.512416	2417.767632
1007.806438	2415.879719
1008.100425	2415.930131
1008.394376	2411.519121
1008.688292	2414.367373
1008.982172	2412.217321
1009.276017	2411.156158
1009.569827	2414.246386
1009.863602	2412.514749
1010.157341	2411.002403
1010.451045	2412.507188
1010.744714	2410.989800
1011.038347	2409.936199
1011.331945	2410.818401
1011.625508	2408.501991
1011.919036	2410.473082
1012.212528	2407.622309
1012.505986	2410.253792
1012.799408	2412.552558
1013.092795	2408.965777
1013.386147	2409.154820
1013.679464	2407.140879
1013.972745	2406.893863
1014.265992	2408.547361
1014.559204	2409.046435
1014.852380	2410.662125
1015.145521	2409.545510
1015.438628	2411.942578
1015.731699	2408.365880
1016.024736	2411.299831
1016.317737	2411.607342
1016.610703	2410.460479
1016.903635	2409.868143
1017.196531	2405.631054
1017.489393	2410.551220
1017.782219	2406.389747
1018.075011	2412.683628
1018.367768	2407.955026
1018.660490	2411.622465
1018.953177	2411.622465
1019.245829	2411.622465
