Dividing Wavelength (nm)	Counts (n)	Blue Motor Position (mm): 26.400000	Red Motor Position (mm): 0.000000	
326.493990	1974.720785
326.888308	1974.720785
327.282561	1974.720785
327.676750	1949.192382
328.070874	1950.921497
328.464933	1957.787549
328.858929	1966.135700
329.252859	1976.354118
329.646726	1990.963382
330.040528	2006.016268
330.434265	2024.615605
330.827938	2045.402803
331.221547	2066.079095
331.615091	2085.802610
332.008571	2109.475868
332.401986	2125.358023
332.795338	2146.510705
333.188625	2167.509631
333.581847	2183.507733
333.975006	2205.595548
334.368100	2223.327807
334.761129	2241.191136
335.154095	2254.461973
335.546996	2292.247942
335.939833	2365.294261
336.332606	2378.602907
336.725315	2390.300905
337.117960	2400.053017
337.510540	2402.956722
337.903056	2416.658578
338.295508	2421.533373
338.687896	2430.819179
339.080220	2436.533327
339.472480	2440.402412
339.864676	2449.337857
340.256807	2452.811212
340.648875	2452.627210
341.040879	2450.993877
341.432818	2454.066460
341.824694	2453.534618
342.216506	2452.985132
342.608253	2455.175514
342.999937	2451.031685
343.391557	2453.960596
343.783113	2450.769545
344.174605	2448.158227
344.566033	2448.170830
344.957397	2446.872733
345.348697	2442.663370
345.739934	2444.032043
346.131106	2441.355190
346.522215	2439.094233
346.913260	2439.232865
347.304241	2437.433173
347.695159	2432.933943
348.086012	2433.420414
348.476802	2428.240629
348.867528	2428.717018
349.258191	2429.326997
349.648789	2427.403797
350.039324	2426.312387
350.429796	2424.714342
350.820203	2423.998498
351.210548	2425.087387
351.600828	2421.707293
351.991045	2422.029927
352.381198	2424.089238
352.771288	2421.674526
353.161314	2419.640420
353.551276	2420.615883
353.941175	2420.872982
354.331010	2422.506316
354.720782	2423.098652
355.110490	2426.246852
355.500135	2422.234094
355.889717	2421.573703
356.279235	2424.905905
356.668689	2421.745102
357.058080	2420.567992
357.447408	2423.249886
357.836672	2421.130081
358.225873	2422.218970
358.615010	2419.738723
359.004084	2426.120823
359.393095	2426.597212
359.782043	2427.492017
360.170927	2424.626121
360.559748	2427.378591
360.948505	2427.910433
361.337199	2425.931780
361.725830	2427.396235
362.114398	2432.018973
362.502903	2431.454364
362.891344	2430.438572
363.279722	2430.615012
363.668037	2431.247677
364.056289	2433.173398
364.444478	2433.125507
364.832603	2432.240784
365.220665	2433.017122
365.608665	2436.644232
365.996601	2437.365117
366.384474	2435.966197
366.772284	2439.663883
367.160031	2436.316557
367.547715	2435.830086
367.935336	2437.102977
368.322893	2436.258584
368.710388	2436.377051
369.097820	2437.720518
369.485189	2437.574325
369.872495	2437.619695
370.259738	2440.248657
370.646918	2438.627926
371.034035	2442.219748
371.421090	2437.733121
371.808081	2439.638678
372.195010	2440.004161
372.581875	2442.265119
372.968678	2439.560540
373.355418	2441.632454
373.742096	2442.373503
374.128710	2444.253854
374.515262	2444.579008
374.901751	2443.749738
375.288177	2442.953236
375.674540	2442.126487
376.060841	2444.621858
376.447079	2445.438525
376.833254	2444.130346
377.219367	2443.767383
377.605417	2444.901642
377.991404	2445.297373
378.377329	2442.991045
378.763191	2442.123966
379.148991	2447.641509
379.534727	2448.218721
379.920402	2448.795933
380.306013	2448.909359
380.691563	2450.462035
381.077049	2451.845832
381.462474	2450.245265
381.847835	2453.348095
382.233134	2449.867179
382.618371	2449.340378
383.003545	2449.554627
383.388657	2451.669391
383.773706	2449.279884
384.158693	2452.528908
384.543618	2450.938424
384.928480	2455.389763
385.313280	2451.908846
385.698017	2454.605863
386.082692	2454.142077
386.467305	2454.641151
386.851856	2456.342541
387.236344	2452.546552
387.620770	2457.411265
388.005133	2453.988322
388.389435	2459.757923
388.773674	2455.089814
389.157851	2459.508385
389.541965	2459.916719
389.926018	2457.007973
390.310008	2457.227263
390.693936	2459.500824
391.077802	2457.287757
391.461606	2458.578292
391.845348	2459.435289
392.229027	2460.556945
392.612645	2458.152315
392.996200	2458.646348
393.379694	2463.354786
393.763125	2460.567028
394.146494	2464.627677
394.529801	2463.558953
394.913047	2461.439147
395.296230	2463.236319
395.679351	2464.935188
396.062410	2461.154322
396.445408	2462.255814
396.828343	2462.923767
397.211217	2460.327573
397.594028	2466.167750
397.976778	2460.559466
398.359466	2466.245887
398.742092	2465.918212
399.124656	2466.119859
399.507158	2469.003399
399.889598	2467.170939
400.271977	2470.810652
400.654294	2467.959880
401.036549	2469.643625
401.418742	2470.692185
401.800874	2468.532051
402.182944	2469.721763
402.564952	2471.397947
402.946898	2468.116156
403.328783	2470.740076
403.710606	2471.874336
404.092367	2474.415077
404.474067	2477.144862
404.855705	2473.646301
405.237282	2476.078658
405.618797	2474.223513
406.000250	2473.275777
406.381642	2475.725777
406.762972	2475.413226
407.144240	2476.696199
407.525447	2477.298617
407.906593	2475.730818
408.287677	2478.127887
408.668700	2476.555047
409.049661	2480.383803
409.430560	2474.442804
409.811399	2479.902373
410.192176	2479.988073
410.572891	2479.736015
410.953545	2477.822897
411.334138	2479.398258
411.714669	2481.780203
412.095139	2480.653505
412.475547	2481.087044
412.855894	2482.246510
413.236180	2479.862044
413.616405	2482.712817
413.996568	2480.532518
414.376670	2483.365646
414.756711	2480.867754
415.136691	2484.668784
415.516609	2484.867910
415.896466	2485.369505
416.276262	2486.851604
416.655997	2484.426809
417.035670	2482.054946
417.415283	2488.283292
417.794834	2483.232055
418.174324	2486.952427
418.553753	2490.055257
418.933121	2486.690287
419.312428	2489.636841
419.691674	2490.990391
420.070859	2488.270689
420.449983	2492.727069
420.829045	2492.865700
421.208047	2490.992912
421.586988	2491.595330
421.965867	2494.662872
422.344686	2493.425268
422.723444	2494.982985
423.102141	2495.376195
423.480777	2497.223778
423.859352	2495.335866
424.237866	2497.760661
424.616319	2497.932060
424.994712	2500.243429
425.373044	2501.528923
425.751314	2502.091012
426.129524	2501.723008
426.507673	2504.578821
426.885762	2502.758965
427.263789	2502.524551
427.641756	2505.163595
428.019662	2504.236023
428.397508	2504.966990
428.775292	2508.397495
429.153016	2509.753566
429.530679	2509.698113
429.908282	2507.951353
430.285824	2508.934378
430.663305	2510.930675
431.040726	2510.746673
431.418086	2511.354132
431.795385	2513.899915
432.172624	2515.712210
432.549802	2514.502333
432.926920	2516.375121
433.303977	2520.312262
433.680974	2520.594567
434.057910	2520.919722
434.434786	2521.108765
434.811601	2524.282171
435.188355	2523.891482
435.565050	2527.952131
435.941683	2528.849457
436.318257	2527.831143
436.694770	2528.499096
437.071222	2533.353728
437.447614	2527.153108
437.823946	2534.361958
438.200218	2537.608461
438.576429	2535.571835
438.952580	2539.332536
439.328670	2543.572146
439.704700	2544.053577
440.080670	2546.044832
440.456580	2550.879299
440.832429	2554.793755
441.208218	2551.630431
441.583947	2556.245607
441.959616	2563.283058
442.335224	2564.644169
442.710773	2571.134655
443.086261	2578.260326
443.461689	2577.594894
443.837057	2583.361974
444.212365	2592.937645
444.587612	2602.624222
444.962800	2608.290479
445.337927	2615.640482
445.712995	2617.782972
446.088002	2637.793832
446.462949	2650.658857
446.837837	2660.206802
447.212664	2676.187260
447.587431	2718.210318
447.962139	2764.445261
448.336786	2808.570481
448.711374	2811.519556
449.085901	2790.679426
449.460369	2811.164154
449.834776	2838.207424
450.209124	2907.253588
450.583412	2937.553443
450.957640	2972.397898
451.331808	2986.460197
451.705917	2996.245077
452.079965	3034.192362
452.453954	3086.751432
452.827883	3127.229377
453.201752	3169.857374
453.575562	3220.760425
453.949311	3307.274187
454.323001	3371.727859
454.696632	3425.874892
455.070202	3554.343657
455.443713	3630.134885
455.817164	3732.460225
456.190556	3842.057431
456.563888	3902.026997
456.937160	3999.190196
457.310373	4003.502903
457.683526	4112.500211
458.056619	4208.940005
458.429653	4308.429696
458.802628	4455.147438
459.175542	4578.688475
459.548398	4804.385973
459.921194	5066.987239
460.293930	5281.092605
460.666607	5621.927537
461.039224	5951.132527
461.411782	6148.657537
461.784280	6160.501728
462.156719	6249.059678
462.529099	6333.118398
462.901419	6339.568554
463.273680	6360.028077
463.645882	6530.096443
464.018024	6694.584252
464.390106	6991.556105
464.762130	7617.301929
465.134094	8526.756329
465.505999	9684.341364
465.877845	10772.416448
466.249631	11234.854093
466.621358	11140.256841
466.993026	10962.997269
467.364634	10804.977261
467.736184	10671.358957
468.107674	10670.050778
468.479105	10753.658315
468.850477	10846.428148
469.221790	10769.863104
469.593043	10599.290622
469.964238	10621.809456
470.335373	10834.830974
470.706449	11521.567198
471.077467	12492.453099
471.448425	14088.918467
471.819324	15227.158073
472.190164	14969.300533
472.560945	14171.764789
472.931667	13510.952699
473.302330	13425.127055
473.672934	13426.450357
474.043479	13857.317777
474.413965	13858.787273
474.784393	13984.609432
475.154761	14556.997163
475.525070	14825.047916
475.895321	14929.029276
476.265513	15416.927268
476.635645	16060.082717
477.005719	16273.711694
477.375734	16744.699136
477.745691	17307.004559
478.115588	18177.634514
478.485427	19370.585763
478.855207	21189.746622
479.224928	22784.576135
479.594591	23935.874851
479.964194	23778.532877
480.333739	24211.832653
480.703226	24597.705254
481.072653	25312.056918
481.442022	25939.431035
481.811333	26448.685876
482.180584	26104.866581
482.549777	26170.767065
482.918912	26219.613325
483.287988	26395.736117
483.657005	26287.487420
484.025964	26247.896718
484.394864	26591.128719
484.763706	26669.233836
485.132489	26476.084547
485.501213	26686.404006
485.869879	27105.933871
486.238487	27171.879725
486.607036	27595.815557
486.975527	27563.859683
487.343959	27994.432195
487.712333	28354.035343
488.080648	28587.065200
488.448905	29180.083853
488.817104	29355.604227
489.185244	30291.950663
489.553326	31736.226117
489.921350	33979.342973
490.289315	36509.823243
490.657222	37338.231013
491.025070	37899.896210
491.392861	37466.752710
491.760593	36767.431246
492.128267	35760.778357
492.495883	34875.516454
492.863440	34114.778612
493.230939	33357.365412
493.598380	32809.707061
493.965763	32812.875426
494.333088	32457.020376
494.700354	32316.445280
495.067563	32323.996929
495.434713	32470.674341
495.801805	32750.526435
496.168839	32672.617923
496.535815	32630.055461
496.902733	32866.137737
497.269593	32733.575555
497.636395	32882.705489
498.003139	33419.343877
498.369825	33178.936292
498.736453	33614.582725
499.103023	33423.018879
499.469535	33490.298118
499.835989	33771.259266
500.202385	33658.801206
500.568723	33864.775190
500.935003	34182.130948
501.301226	34184.918706
501.667390	34859.200760
502.033497	35259.448210
502.399546	34915.056744
502.765537	34494.710213
503.131470	34959.265143
503.497345	35424.513231
503.863163	34408.670320
504.228923	35085.346921
504.594625	35577.902940
504.960269	35079.773926
505.325856	35814.922870
505.691385	35383.251387
506.056856	35632.836393
506.422270	36148.979971
506.787625	35862.367690
507.152924	36160.952712
507.518164	36354.931270
507.883347	35757.017657
508.248472	36075.341316
508.613540	36600.012006
508.978550	36988.445512
509.343503	36834.100505
509.708398	37124.929712
510.073236	37696.793163
510.438016	37777.915411
510.802738	37350.826336
511.167403	38011.426698
511.532010	38308.103643
511.896561	38662.244701
512.261053	39516.553919
512.625488	39179.577991
512.989866	39106.433369
513.354186	39037.571207
513.718449	39076.844316
514.082655	39765.733113
514.446803	39533.056137
514.810894	40087.396537
515.174927	40072.681409
515.538904	40010.609682
515.902822	40694.023785
516.266684	40208.351462
516.630488	40658.539103
516.994235	40572.647924
517.357925	41144.637404
517.721558	41347.692560
518.085133	41680.754033
518.448651	41843.018693
518.812112	41641.889257
519.175516	41777.836574
519.538863	42137.653971
519.902152	42124.075623
520.265385	42594.443003
520.628560	42642.404541
520.991678	42486.252280
521.354739	42721.452354
521.717743	43057.341914
522.080690	42995.746576
522.443580	43537.300089
522.806413	43606.255512
523.169189	43579.981018
523.531908	43767.988330
523.894569	43653.029858
524.257174	43820.701156
524.619722	44136.910051
524.982213	44133.043486
525.344647	44080.310496
525.707025	44138.061955
526.069345	44535.872008
526.431608	44461.141943
526.793815	44777.958298
527.155964	44324.511550
527.518057	44504.531154
527.880093	44312.463193
528.242072	44847.990007
528.603995	44547.083534
528.965860	44561.012242
529.327669	44677.047001
529.689421	44588.920070
530.051117	44565.191358
530.412755	44712.506477
530.774337	44775.475529
531.135862	44601.986740
531.497331	44791.352643
531.858743	44707.414911
532.220098	45046.737497
532.581396	44773.612823
532.942638	44444.087720
533.303824	44750.025264
533.664953	44727.604732
534.026025	44460.471470
534.387040	44914.848310
534.747999	44875.577721
535.108902	45039.513524
535.469748	44587.901757
535.830537	44698.665989
536.191270	44903.271300
536.551947	44554.247013
536.912567	44866.496083
537.273131	44976.078164
537.633638	44495.976316
537.994089	44844.375500
538.354483	44441.400785
538.714821	45009.924471
539.075103	45361.562596
539.435328	45136.018853
539.795497	45018.098702
540.155609	45008.444893
540.515665	45460.399458
540.875665	44932.149550
541.235609	45261.621721
541.595496	45232.899747
541.955328	45916.442400
542.315102	45299.906764
542.674821	45101.479387
543.034483	45123.347912
543.394090	45098.356392
543.753640	45076.145068
544.113134	46047.719087
544.472571	45087.379280
544.831953	46310.237174
545.191278	45539.971551
545.550548	45280.369772
545.909761	45721.657257
546.268918	45931.089473
546.628019	46234.435864
546.987064	45809.751420
547.346053	45109.789729
547.704986	45956.940509
548.063863	45529.911929
548.422684	45724.896198
548.781449	45590.196567
549.140158	45965.235728
549.498811	45841.608992
549.857408	45276.581345
550.215949	46102.806296
550.574434	46032.739299
550.932864	45832.224884
551.291237	46515.986827
551.649555	46133.854763
552.007817	46371.593057
552.366022	46028.529935
552.724173	46209.411576
553.082267	46602.581247
553.440305	46910.048782
553.798288	46237.846205
554.156215	46546.858853
554.514086	46747.953001
554.871902	46491.718712
555.229661	46517.821807
555.587365	46345.358893
555.945014	46423.839576
556.302606	46385.294913
556.660143	46596.483972
557.017625	46679.496652
557.375050	46476.287740
557.732421	46830.680856
558.089735	46805.749829
558.446994	46715.359420
558.804197	47178.820420
559.161345	47116.703322
559.518437	46396.148518
559.875474	46693.289249
560.232455	46853.671038
560.589381	47026.423818
560.946251	46719.107518
561.303065	47411.852798
561.659825	47201.203143
562.016528	46894.665701
562.373177	46623.854916
562.729770	47096.067359
563.086307	46611.047865
563.442789	47072.436950
563.799216	47114.366747
564.155587	46910.643638
564.511904	46944.036241
564.868164	47032.397586
565.224370	47277.085111
565.580520	47005.543359
565.936615	47211.477014
566.292654	46937.765046
566.648638	47174.676591
567.004567	47143.030748
567.360441	47189.243005
567.716260	47027.701751
568.072023	47333.868668
568.427732	47327.844489
568.783385	46880.454688
569.138982	47266.418030
569.494525	47237.570027
569.850013	46992.733787
570.205445	46972.886765
570.560823	46925.300793
570.916145	46799.060218
571.271412	46844.266765
571.626625	46589.602797
571.981782	46664.741195
572.336884	46341.444437
572.691931	46671.405600
573.046923	46265.900226
573.401860	46124.712630
573.756743	46095.844463
574.111570	46222.541262
574.466342	46060.022023
574.821059	46202.343879
575.175722	45724.928965
575.530330	45742.078971
575.884882	45476.021994
576.239380	45434.956755
576.593823	45414.635864
576.948211	45322.806205
577.302544	44866.307039
577.656823	44907.982258
578.011047	45137.306867
578.365216	44859.831677
578.719330	44640.014684
579.073389	44509.219427
579.427394	44598.394918
579.781344	44562.557356
580.135239	44237.518879
580.489080	44310.688707
580.842866	43824.736599
581.196597	44263.879072
581.550273	44210.876381
581.903895	44073.502418
582.257463	44500.621739
582.610975	43899.249894
582.964434	44181.927555
583.317837	43802.563084
583.671186	43677.981049
584.024481	43905.062345
584.377721	43448.474958
584.730906	43724.790683
585.084037	43749.273047
585.437113	43466.948267
585.790135	43518.441133
586.143103	43101.777164
586.496016	43237.447217
586.848874	43255.197120
587.201679	43274.053556
587.554428	42766.069086
587.907124	42972.128770
588.259765	42728.383940
588.612352	42979.312414
588.964884	42369.678118
589.317362	42654.006756
589.669786	42603.290228
590.022155	42376.836556
590.374470	42794.362562
590.726731	42324.993330
591.078937	41870.402241
591.431090	41947.620115
591.783188	41614.115020
592.135232	41299.231948
592.487222	41547.347458
592.839157	41634.130922
593.191038	41312.439771
593.542866	41076.909502
593.894639	40484.689872
594.246358	40758.502663
594.598022	40726.972767
594.949633	40353.443431
595.301190	40309.323253
595.652692	40149.990024
596.004141	40481.518986
596.355535	39502.080767
596.706876	39454.658633
597.058162	39295.728696
597.409395	39754.098130
597.760573	39810.440586
598.111698	39398.764839
598.462768	39411.392930
598.813785	39477.094288
599.164748	38917.984956
599.515657	39316.810801
599.866511	38783.958319
600.217312	39388.420392
600.568060	38384.315807
600.918753	39109.599213
601.269392	39071.611599
601.619978	38733.723221
601.970510	38933.829302
602.320988	39120.679670
602.671412	39425.795506
603.021783	39158.858848
603.372100	38835.226854
603.722363	38933.612533
604.072572	39011.369810
604.422728	39012.652784
604.772830	38826.054474
605.122878	38917.490923
605.472872	38878.303513
605.822813	39143.188422
606.172701	38983.971139
606.522534	39193.957882
606.872314	39459.203233
607.222041	39224.900484
607.571714	39634.753854
607.921333	39075.011857
608.270899	39357.066935
608.620411	39691.744098
608.969870	39489.286318
609.319276	39490.523922
609.668627	39553.981966
610.017926	40018.763748
610.367171	40172.816368
610.716362	40256.065983
611.065500	40204.313498
611.414585	40396.867930
611.763616	40702.911339
612.112594	40618.469492
612.461518	40841.648934
612.810389	41126.814404
613.159207	40998.799344
613.507971	41075.417320
613.856682	41532.128215
614.205340	41430.397730
614.553945	42109.206740
614.902496	41571.928124
615.250994	42037.181254
615.599439	42093.337187
615.947830	42322.606344
616.296169	42372.042419
616.644454	42496.405164
616.992686	42677.785879
617.340864	43190.108262
617.688990	42922.299485
618.037063	43512.384186
618.385082	43476.899504
618.733048	43767.388433
619.080961	43776.913693
619.428821	43781.183551
619.776628	43897.470367
620.124382	43727.679264
620.472083	43850.454046
620.819731	43958.841374
621.167326	43649.586750
621.514868	43622.490548
621.862357	43185.432592
622.209793	43217.837129
622.557176	42889.148857
622.904506	42629.095895
623.251783	42294.968218
623.599007	42069.467324
623.946179	41841.408044
624.293297	41793.814511
624.640363	41222.150185
624.987376	41198.615559
625.334336	40972.494603
625.681243	40609.982709
626.028097	40585.467578
626.374899	40440.529364
626.721647	40406.143653
627.068343	40313.598151
627.414987	40078.680382
627.761577	39862.417403
628.108115	40186.147700
628.454600	39626.443512
628.801032	39828.084624
629.147412	39792.189088
629.493739	39810.667438
629.840014	39452.649733
630.186236	39803.100666
630.532405	39409.880583
630.878521	39632.039192
631.224585	39514.358497
631.570597	39214.997137
631.916556	39379.731963
632.262462	39336.713277
632.608316	39357.402172
632.954117	39245.796067
633.299866	39247.489895
633.645562	39151.498764
633.991206	38666.973303
634.336797	38237.892973
634.682336	38238.074454
635.027823	37981.918304
635.373257	37803.196797
635.718639	37580.299659
636.063968	37426.186545
636.409245	36850.388473
636.754470	36911.295694
637.099642	36676.294746
637.444762	36214.388942
637.789829	36350.386670
638.134845	36007.353795
638.479808	35945.524043
638.824719	35865.838524
639.169577	35475.595243
639.514383	35548.520575
639.859137	35240.251497
640.203839	35494.721381
640.548489	35125.618179
640.893086	35193.419177
641.237632	34943.385508
641.582125	35069.116926
641.926566	34986.258001
642.270955	34962.189012
642.615292	34964.815453
642.959576	34944.645797
643.303809	34948.328360
643.647990	35104.911639
643.992118	35067.602060
644.336195	35068.355712
644.680219	35159.416595
645.024192	35469.061908
645.368112	35963.228575
645.711981	35978.024362
646.055797	36857.841819
646.399562	36790.776829
646.743274	37701.385654
647.086935	38157.912546
647.430544	38049.011020
647.774101	38173.648508
648.117606	38400.697036
648.461059	38682.810088
648.804460	38331.532405
649.147810	37719.783345
649.491108	37465.487380
649.834354	37105.170909
650.177548	36275.144928
650.520690	35837.938258
650.863781	35840.529411
651.206820	35698.999017
651.549807	35264.068428
651.892742	34778.650683
652.235626	34594.898105
652.578458	34458.960871
652.921238	33859.945765
653.263967	34197.503947
653.606644	33877.851943
653.949269	33834.452650
654.291843	33447.075265
654.634365	33827.233717
654.976836	33446.571149
655.319255	33439.236271
655.661622	33442.044193
656.003938	33211.061045
656.346203	33078.730756
656.688416	33311.425377
657.030577	33106.709160
657.372687	32945.825776
657.714746	33216.061869
658.056753	33328.744261
658.398708	32787.586477
658.740612	32828.964268
659.082465	33107.803090
659.424266	32951.698720
659.766016	33071.327822
660.107715	32940.169602
660.449362	33074.304623
660.790958	33055.823753
661.132503	33076.905858
661.473996	33101.668006
661.815438	33216.044225
662.156829	33407.096394
662.498168	33181.595500
662.839456	33204.104252
663.180693	33358.792058
663.521879	33523.070659
663.863013	33490.106554
664.204097	33476.697085
664.545129	33921.001700
664.886110	33904.537291
665.227040	33963.760767
665.567918	34081.711164
665.908746	34155.246475
666.249522	34317.783357
666.590248	34292.068431
666.930922	34420.854789
667.271545	34384.172833
667.612118	34477.252697
667.952639	34273.862304
668.293109	34317.072554
668.633528	34205.196748
668.973896	34122.748677
669.314213	34170.732899
669.654480	33890.588418
669.994695	33939.195224
670.334859	33827.440405
670.674973	33734.363061
671.015035	33883.351842
671.355047	33839.115717
671.695008	33794.042761
672.034918	33684.982438
672.374777	33769.023514
672.714585	33592.930969
673.054342	33841.545553
673.394049	33612.551140
673.733705	33867.895664
674.073310	33546.645615
674.412864	33620.070021
674.752368	33207.287741
675.091820	33511.627240
675.431223	33096.921760
675.770574	32817.122598
676.109875	32675.458613
676.449125	32413.994128
676.788324	32330.588237
677.127473	31797.662658
677.466571	31730.448954
677.805619	31386.339793
678.144616	31379.619935
678.483562	31297.436524
678.822458	30969.058283
679.161303	30908.778686
679.500098	30815.131692
679.838842	30705.254702
680.177535	30846.517915
680.516179	31134.478705
680.854771	31380.991128
681.193314	32243.618251
681.531805	33369.910323
681.870247	34143.772809
682.208638	34877.525354
682.546978	35101.607163
682.885268	35186.737128
683.223508	34660.659957
683.561697	34322.491795
683.899836	34140.848939
684.237925	33629.428923
684.575963	33479.608351
684.913951	33023.958620
685.251889	33188.753939
685.589776	33162.953313
685.927614	33155.137004
686.265401	33309.499656
686.603137	33406.262083
686.940824	33913.513066
687.278460	34300.918177
687.616046	34434.964978
687.953582	35057.529834
688.291068	34924.246768
688.628504	35196.358170
688.965889	35137.485055
689.303224	34745.938636
689.640510	34403.631687
689.977745	33663.686084
690.314930	32861.658672
690.652065	32348.726309
690.989150	31582.102920
691.326185	30688.109738
691.663170	29984.064713
692.000105	29234.697193
692.336990	28551.928358
692.673825	28111.457540
693.010610	27583.641171
693.347345	27016.135797
693.684030	26369.575049
694.020665	26093.287051
694.357251	25407.843883
694.693786	25373.806012
695.030272	25126.844926
695.366707	24583.194293
695.703093	24307.450739
696.039429	24300.849348
696.375716	24031.036712
696.711952	24002.725592
697.048139	23846.437220
697.384276	23665.855527
697.720363	23801.094561
698.056400	23588.385595
698.392388	23376.813410
698.728326	23333.020906
699.064214	23124.934678
699.400053	23074.770156
699.735842	22711.055947
700.071581	22443.544598
700.407270	22155.404847
700.742910	21960.102985
701.078501	21688.518384
701.414042	21417.324471
701.749533	21117.824480
702.084974	20770.844382
702.420366	20966.610029
702.755709	20529.224398
703.091002	20237.228165
703.426246	20252.671739
703.761440	20151.578961
704.096584	19883.548372
704.431679	19833.933336
704.766725	19754.018445
705.101721	19688.559062
705.436668	19787.733682
705.771565	19462.460792
706.106413	19800.893614
706.441212	19776.186919
706.775961	19910.987373
707.110661	19987.169290
707.445311	20347.314362
707.779913	20184.351502
708.114465	20429.097001
708.448967	20716.170547
708.783421	21404.950959
709.117825	21686.940502
709.452180	21903.523595
709.786485	22310.407725
710.120742	23120.591724
710.454949	23133.013127
710.789107	23604.955868
711.123216	24311.889475
711.457275	24423.762761
711.791286	24980.540559
712.125247	25039.925352
712.459159	24746.406689
712.793023	25397.164198
713.126837	24276.162818
713.460602	24541.695514
713.794318	24157.312574
714.127985	23762.587708
714.461602	22865.116130
714.795171	22824.222290
715.128691	21806.708236
715.462162	21267.816451
715.795584	20845.024960
716.128957	20586.776731
716.462281	20189.291833
716.795556	19937.471075
717.128782	19452.829667
717.461960	18904.445390
717.795088	18831.414194
718.128167	18426.082740
718.461198	17962.137790
718.794180	17819.402560
719.127113	17454.274307
719.459997	17265.072242
719.792833	16917.608192
720.125619	16879.519754
720.458357	16573.385605
720.791046	16399.861528
721.123686	16240.898823
721.456278	16010.218144
721.788821	15960.114116
722.121315	15700.529981
722.453761	15783.835048
722.786158	15700.693818
723.118506	15717.435490
723.450805	15580.318626
723.783056	15737.963069
724.115259	15646.002340
724.447412	15568.025773
724.779518	15817.131869
725.111574	15836.580641
725.443582	16029.684560
725.775542	16010.326529
726.107453	16483.065772
726.439315	16364.674274
726.771129	16769.201664
727.102895	17137.914177
727.434612	17351.956528
727.766281	17480.372361
728.097901	17733.483654
728.429473	17770.362215
728.760996	17750.426972
729.092471	17836.648347
729.423897	17710.987505
729.755276	17567.448211
730.086606	17699.407975
730.417887	18211.397642
730.749120	18732.796622
731.080305	18903.187622
731.411442	19245.965919
731.742530	19305.408685
732.073570	19400.792357
732.404562	19699.601710
732.735506	19505.953347
733.066401	19219.855263
733.397249	18699.053659
733.728048	18055.658755
734.058798	17223.419708
734.389501	16541.273455
734.720156	16092.000783
735.050762	15559.173507
735.381320	15210.156782
735.711831	14969.731552
736.042293	14612.046563
736.372707	14628.689932
736.703073	14414.947530
737.033391	14609.566315
737.363661	14571.969390
737.693883	14686.816957
738.024056	14848.612790
738.354182	15031.795717
738.684260	15329.798486
739.014290	15540.967379
739.344272	15734.971144
739.674207	16015.657549
740.004093	16124.571678
740.333931	16115.026253
740.663722	16157.291287
740.993464	16146.478012
741.323159	15973.352186
741.652806	15686.825604
741.982405	15479.566126
742.311956	15144.830990
742.641460	15022.194840
742.970915	14719.516401
743.300323	14384.514084
743.629683	14164.518130
743.958996	13886.377508
744.288260	13621.122075
744.617477	13323.126868
744.946647	13253.324532
745.275768	12976.000576
745.604842	12783.073098
745.933869	12614.275103
746.262847	12571.082496
746.591778	12499.949295
746.920662	12400.562947
747.249498	12402.166034
747.578286	12515.846574
747.907027	12661.853513
748.235720	12886.744427
748.564365	12905.815112
748.892963	12804.228300
749.221514	12862.052855
749.550017	12729.072258
749.878473	12687.253366
750.206881	12459.478912
750.535242	12370.376518
750.863555	12283.603137
751.191821	12191.528982
751.520039	12206.564223
751.848210	12117.050975
752.176334	12150.461222
752.504411	12050.918598
752.832440	11898.116184
753.160421	11957.649691
753.488356	11834.448932
753.816243	11744.817216
754.144082	11604.365629
754.471875	11547.526619
754.799620	11490.798515
755.127318	11465.421347
755.454969	11432.426995
755.782572	11378.700898
756.110129	11391.069369
756.437638	11306.551904
756.765100	11306.430916
757.092515	11301.183075
757.419882	11316.465333
757.747203	11328.362456
758.074477	11395.366952
758.401703	11356.527382
758.728882	11513.491269
759.056014	11557.745038
759.383099	11670.712255
759.710138	11773.871907
760.037129	11861.353570
760.364073	11873.538039
760.690970	11855.793177
761.017820	11863.107891
761.344623	12046.810058
761.671379	12371.480530
761.998088	12994.521775
762.324751	14554.915167
762.651366	17426.996624
762.977935	21092.643917
763.304456	23314.590448
763.630931	23779.387353
763.957359	22603.515533
764.283740	20681.089158
764.610074	18800.012847
764.936362	16667.236766
765.262602	15145.198994
765.588796	13681.101723
765.914943	12646.568734
766.241044	11799.075155
766.567097	11169.563589
766.893104	10622.250557
767.219064	10257.633982
767.544978	9880.475016
767.870845	9562.184124
768.196665	9370.416111
768.522438	9186.416516
768.848165	9012.118622
769.173846	8848.225669
769.499479	8727.563131
769.825066	8573.344153
770.150607	8385.669557
770.476101	8322.249321
770.801548	8211.653967
771.126949	8075.689007
771.452303	7990.150708
771.777611	7821.067888
772.102872	7795.748692
772.428087	7677.241248
772.753256	7556.687095
773.078378	7469.240720
773.403453	7327.027249
773.728482	7224.936322
774.053465	7163.038514
774.378401	7073.255564
774.703291	6980.505895
775.028135	6887.020218
775.352932	6847.903385
775.677683	6760.043635
776.002388	6680.224525
776.327046	6676.370563
776.651658	6591.739673
776.976224	6515.411562
777.300743	6497.654098
777.625216	6433.757473
777.949643	6392.397326
778.274024	6391.830196
778.598359	6321.664896
778.922647	6325.445762
779.246889	6285.310615
779.571086	6298.069776
779.895236	6306.859027
780.219339	6301.948944
780.543397	6298.110105
780.867409	6349.870152
781.191374	6344.324883
781.515294	6313.243649
781.839167	6367.541917
782.162995	6340.712896
782.486776	6287.047293
782.810511	6244.268061
783.134201	6169.094375
783.457844	6156.930071
783.781441	6113.931549
784.104993	6068.367080
784.428498	6037.036309
784.751958	6020.960069
785.075372	5997.385113
785.398739	5956.259380
785.722061	5976.209747
786.045337	5980.603112
786.368568	6091.276604
786.691752	6113.555983
787.014891	6364.098809
787.337983	6640.497713
787.661030	7080.325783
787.984031	7499.588466
788.306987	7771.714992
788.629897	7860.232612
788.952760	7765.930268
789.275579	7588.925274
789.598351	7288.653986
789.921078	7023.968203
790.243759	6744.693321
790.566395	6540.463576
790.888984	6345.832188
791.211529	6210.630962
791.534027	6042.422782
791.856480	5905.366412
792.178888	5845.543039
792.501249	5779.634994
792.823566	5674.645403
793.145836	5671.429147
793.468062	5652.660931
793.790241	5611.636021
794.112375	5655.171426
794.434464	5754.731694
794.756507	5782.543739
795.078505	5906.614097
795.400457	6118.697960
795.722364	6361.013623
796.044226	6556.643159
796.366042	6707.902981
796.687812	6654.910371
797.009538	6687.367840
797.331218	6596.324602
797.652852	6527.258274
797.974442	6398.918058
798.295986	6332.069838
798.617484	6206.567792
798.938938	6091.518579
799.260346	6028.375607
799.581709	5887.979472
799.903026	5836.645403
800.224299	5764.904742
800.545526	5646.165404
800.866708	5584.091157
801.187845	5532.555441
801.508936	5457.031394
801.829983	5430.101551
802.150984	5324.643133
802.471940	5295.686745
802.792851	5282.390702
803.113717	5259.070324
803.434538	5228.478082
803.755314	5201.243248
804.076045	5188.988203
804.396731	5146.975227
804.717372	5165.655223
805.037967	5170.444319
805.358518	5201.197878
805.679024	5254.608903
805.999485	5268.943424
806.319901	5285.438079
806.640272	5302.530111
806.960598	5349.211196
807.280879	5342.907233
807.601115	5378.840578
807.921306	5342.940001
808.241453	5333.669319
808.561554	5349.516186
808.881611	5313.913037
809.201623	5309.010515
809.521590	5259.256847
809.841513	5245.890227
810.161390	5260.375983
810.481223	5169.486500
810.801011	5154.050487
811.120755	5134.279081
811.440453	5075.310184
811.760107	5048.390423
812.079716	5022.292369
812.399281	4971.157425
812.718801	4966.189368
813.038276	4931.826343
813.357707	4897.685128
813.677093	4924.183953
813.996434	4861.197257
814.315731	4879.262232
814.634983	4878.160739
814.954191	4886.098036
815.273354	4941.835554
815.592473	4984.637470
815.911547	5060.572371
816.230577	5114.691678
816.549562	5200.527404
816.868502	5252.466413
817.187399	5304.652437
817.506250	5386.213265
817.825058	5415.036062
818.143821	5564.534000
818.462539	5734.194033
818.781213	5964.892356
819.099843	6327.174878
819.418429	6958.372709
819.736970	7576.587050
820.055466	8285.421171
820.373919	9207.357469
820.692327	10656.129632
821.010691	13349.265251
821.329011	19578.528318
821.647286	29164.015175
821.965517	39508.483032
822.283704	44951.946161
822.601847	46425.712364
822.919945	41837.901922
823.237999	36729.544454
823.556010	31513.495337
823.873976	26823.956930
824.191897	22607.679526
824.509775	19528.462098
824.827609	16763.205212
825.145398	15210.043356
825.463144	14471.403412
825.780845	14748.593777
826.098502	16014.485481
826.416116	18474.946644
826.733685	20756.827453
827.051210	21289.695059
827.368692	19843.514049
827.686129	17275.467101
828.003522	14799.663186
828.320872	12579.685225
828.638177	10924.145097
828.955439	9684.283390
829.272656	8622.349209
829.589830	7777.345960
829.906960	7048.453087
830.224046	6511.217322
830.541088	6103.879488
830.858086	5848.315674
831.175041	5642.750023
831.491952	5580.680816
831.808819	5618.391167
832.125642	5863.552561
832.442421	6410.537918
832.759157	7524.123762
833.075849	9294.849215
833.392497	11145.174487
833.709101	12255.402922
834.025662	12012.026097
834.342179	10951.901690
834.658653	9642.461978
834.975083	8536.281590
835.291469	7629.619988
835.607811	6895.973307
835.924110	6373.908894
836.240366	5889.116252
836.556578	5438.240493
836.872746	5081.944343
837.188871	4811.219257
837.504952	4591.603911
837.820990	4424.419085
838.136984	4307.814676
838.452935	4260.891616
838.768842	4289.953868
839.084706	4568.550714
839.400526	5309.678467
839.716303	6216.791252
840.032037	6780.356964
840.347727	6635.595190
840.663373	6032.083375
840.978977	5457.608607
841.294537	5010.856512
841.610054	4683.877191
841.925527	4441.962300
842.240957	4237.326742
842.556344	4055.857806
842.871687	3895.687746
843.186987	3747.276177
843.502244	3626.512816
843.817458	3536.024104
844.132629	3467.005667
844.447756	3420.135539
844.762840	3375.831358
845.077881	3335.131603
845.392879	3303.677323
845.707833	3277.291924
846.022745	3253.507760
846.337613	3241.981162
846.652438	3217.992831
846.967221	3207.020760
847.281960	3184.035619
847.596656	3175.387520
847.911309	3165.542146
848.225919	3150.968170
848.540485	3141.899135
848.855009	3132.078967
849.169490	3122.939355
849.483928	3113.973663
849.798323	3111.516100
850.112675	3100.460850
850.426984	3100.375150
850.741251	3093.985488
851.055474	3088.415013
851.369654	3093.214191
851.683792	3088.452822
851.997887	3093.194027
852.311938	3089.201433
852.625947	3092.420210
852.939914	3088.520877
853.253837	3089.468614
853.567718	3089.607246
853.881555	3083.555341
854.195350	3088.364601
854.509103	3085.889395
854.822812	3080.104671
855.136479	3076.946388
855.450103	3082.710947
855.763685	3076.328847
856.077224	3080.376893
856.390720	3087.305959
856.704173	3095.777618
857.017584	3102.099225
857.330953	3111.170781
857.644278	3118.067080
857.957561	3115.717902
858.270802	3117.598252
858.584000	3112.773868
858.897155	3109.348404
859.210268	3099.215685
859.523339	3086.501895
859.836367	3085.256730
860.149352	3079.177098
860.462295	3075.199628
860.775195	3065.394584
861.088054	3062.122875
861.400869	3061.807803
861.713642	3060.325704
862.026373	3067.799214
862.339062	3070.705439
862.651708	3083.023499
862.964312	3098.073864
863.276873	3105.549895
863.589392	3136.923516
863.901869	3163.102228
864.214303	3185.479910
864.526696	3204.280893
864.839045	3217.841597
865.151353	3234.943711
865.463619	3232.730645
865.775842	3234.003536
866.088023	3238.701891
866.400162	3233.665779
866.712258	3233.123855
867.024313	3230.754512
867.336325	3229.811817
867.648296	3232.352558
867.960224	3225.980540
868.272110	3231.805593
868.583954	3233.988412
868.895755	3241.638363
869.207515	3236.551839
869.519233	3256.134201
869.830909	3263.887496
870.142542	3276.084568
870.454134	3278.892490
870.765684	3296.024852
871.077191	3310.674445
871.388657	3324.769511
871.700081	3341.848940
872.011463	3363.820809
872.322803	3380.207080
872.634101	3400.036458
872.945357	3419.417174
873.256571	3448.973459
873.567744	3463.537353
873.878874	3468.386943
874.189963	3483.878409
874.501010	3483.835559
874.812015	3483.654077
875.122979	3498.003722
875.433900	3496.047754
875.744780	3497.648320
876.055618	3505.273066
876.366415	3506.077130
876.677169	3511.161133
876.987882	3525.329296
877.298554	3546.207235
877.609183	3588.212649
877.919771	3629.063639
878.230317	3700.597613
878.540822	3805.491421
878.851285	3957.958599
879.161707	4174.730735
879.472087	4553.016399
879.782425	5178.956307
880.092722	6367.194077
880.402977	8305.903379
880.713191	10676.049751
881.023363	13061.720356
881.333494	14401.838009
881.643583	14869.052148
881.953631	14460.297750
882.263637	13615.675108
882.573602	12572.078124
882.883526	11627.068465
883.193408	10667.320993
883.503248	9747.007947
883.813048	8911.734125
884.122806	8150.414030
884.432522	7380.418109
884.742197	6719.835392
885.051831	6152.355224
885.361424	5659.547147
885.670975	5265.117188
885.980485	4935.791210
886.289954	4671.216333
886.599382	4457.398313
886.908768	4274.999285
887.218113	4111.161785
887.527417	3979.267556
887.836680	3854.133515
888.145901	3753.597783
888.455082	3678.169519
888.764221	3610.489508
889.073319	3550.283008
889.382376	3514.866381
889.691392	3490.943586
890.000366	3485.090806
890.309300	3477.889518
890.618193	3482.996207
890.927044	3477.443376
891.235855	3484.445538
891.544625	3497.446674
891.853353	3526.335006
892.162041	3586.904470
892.470687	3680.377544
892.779293	3799.620997
893.087858	3971.932677
893.396381	4251.104215
893.704864	4665.761804
894.013306	5235.013938
894.321707	5810.088604
894.630068	6166.984652
894.938387	6205.453697
895.246665	6029.673704
895.554903	5703.349733
895.863100	5372.498806
896.171256	5095.663843
896.479371	4856.798850
896.787446	4629.770487
897.095480	4436.895940
897.403473	4287.019916
897.711425	4142.916013
898.019336	4018.759955
898.327207	3894.288826
898.635038	3795.043630
898.942827	3685.136394
899.250576	3601.130606
899.558284	3516.814787
899.865952	3462.294708
900.173579	3398.677868
900.481165	3353.864530
900.788711	3305.489618
901.096216	3279.595731
901.403681	3251.642533
901.711105	3236.695512
902.018489	3236.745924
902.325832	3268.966458
902.633135	3325.629028
902.940397	3499.901716
903.247619	3903.551946
903.554800	4658.016072
903.861941	5621.904852
904.169041	6328.737635
904.476101	6536.894439
904.783121	6266.252533
905.090100	5860.442169
905.397039	5445.184683
905.703938	5087.487091
906.010796	4762.171351
906.317614	4515.258156
906.624391	4271.785549
906.931129	4075.772885
907.237826	3891.886716
907.544483	3719.539748
907.851099	3548.866443
908.157675	3387.249572
908.464211	3249.036257
908.770707	3146.718478
909.077163	3071.461612
909.383578	3008.840399
909.689954	2964.881538
909.996289	2934.748041
910.302584	2913.655853
910.608839	2903.870973
910.915054	2891.331103
911.221229	2885.001935
911.527363	2889.793551
911.833458	2896.704973
912.139513	2908.158475
912.445527	2921.608273
912.751502	2954.050619
913.057436	2999.773884
913.363331	3059.110786
913.669186	3148.785351
913.975000	3262.349944
914.280775	3449.220476
914.586510	3715.290055
914.892205	4094.639403
915.197859	4593.638016
915.503475	5181.948232
915.809050	5674.594992
916.114585	5968.731195
916.420081	6029.353591
916.725536	5967.690197
917.030952	5723.925203
917.336328	5521.406929
917.641665	5306.336182
917.946961	5083.025670
918.252218	4881.871029
918.557435	4650.116583
918.862612	4452.647026
919.167750	4279.531282
919.472848	4092.285184
919.777906	3921.269081
920.082925	3762.087087
920.387904	3608.886421
920.692843	3497.212261
920.997743	3396.225346
921.302603	3302.807724
921.607423	3239.621902
921.912204	3172.045235
922.216946	3122.899026
922.521647	3073.765420
922.826310	3035.966848
923.130932	2994.710045
923.435516	2955.686473
923.740059	2927.758481
924.044564	2894.892678
924.349028	2868.214892
924.653454	2844.428208
924.957840	2817.420226
925.262186	2797.222843
925.566493	2773.569749
925.870761	2750.632499
926.174989	2740.167064
926.479178	2724.370608
926.783328	2707.336550
927.087438	2696.540919
927.391509	2685.372242
927.695541	2670.284069
927.999533	2662.445075
928.303486	2653.499547
928.607400	2646.545275
928.911275	2641.332722
929.215110	2638.718884
929.518906	2631.197482
929.822663	2629.911988
930.126381	2632.672020
930.430060	2636.861219
930.733699	2637.614871
931.037299	2641.436066
931.340861	2640.405150
931.644383	2643.797847
931.947866	2645.015285
932.251309	2639.608648
932.554714	2637.841723
932.858080	2636.715025
933.161407	2632.316619
933.464694	2631.686474
933.767943	2628.114817
934.071153	2622.826647
934.374323	2621.672222
934.677455	2618.266923
934.980548	2612.777106
935.283602	2609.245778
935.586617	2608.313165
935.889593	2612.567898
936.192530	2610.543875
936.495428	2619.179372
936.798287	2627.673716
937.101108	2641.778864
937.403890	2664.809376
937.706632	2690.320135
938.009336	2723.826164
938.312002	2753.349681
938.614628	2776.602003
938.917216	2793.484828
939.219765	2805.202990
939.522275	2816.696821
939.824747	2811.469144
940.127179	2808.951088
940.429573	2802.977320
940.731929	2800.227371
941.034246	2792.721093
941.336524	2791.894344
941.638763	2785.098868
941.940964	2777.408588
942.243126	2760.175404
942.545250	2753.914291
942.847335	2736.683627
943.149381	2721.227449
943.451389	2709.668083
943.753359	2696.971937
944.055290	2688.132274
944.357182	2678.143228
944.659036	2673.911179
944.960851	2668.728873
945.262628	2665.472287
945.564367	2666.982113
945.866067	2665.978923
946.167729	2662.462719
946.469352	2663.561690
946.770937	2661.273006
947.072484	2657.502223
947.373992	2657.575320
947.675462	2651.760349
947.976893	2643.054276
948.278286	2642.482105
948.579641	2637.055303
948.880958	2639.991775
949.182236	2636.795684
949.483476	2632.039355
949.784678	2632.122534
950.085841	2631.336114
950.386967	2635.089253
950.688054	2642.250212
950.989103	2647.545944
951.290114	2657.088849
951.591087	2667.188800
951.892021	2683.262519
952.192917	2695.472194
952.493776	2702.575180
952.794596	2708.465768
953.095378	2711.160265
953.396122	2709.577342
953.696828	2707.417208
953.997496	2697.821372
954.298126	2688.835515
954.598718	2684.984073
954.899272	2673.273473
955.199788	2663.528923
955.500266	2648.644916
955.800706	2634.441465
956.101108	2613.187960
956.401472	2605.369131
956.701798	2590.013776
957.002087	2576.080027
957.302337	2569.859243
957.602550	2557.258879
957.902724	2546.387631
958.202861	2534.581248
958.502960	2528.022707
958.803022	2520.365195
959.103045	2513.249606
959.403031	2505.687875
959.702979	2503.830210
960.002889	2495.955928
960.302762	2489.911584
960.602596	2489.301605
960.902393	2484.278095
961.202153	2483.675677
961.501875	2477.492702
961.801559	2478.367342
962.101205	2473.026239
962.400814	2471.168574
962.700385	2470.528348
962.999918	2469.431897
963.299414	2465.744293
963.598873	2465.986268
963.898293	2462.805300
964.197677	2465.792184
964.497022	2460.375464
964.796331	2461.030814
965.095601	2459.873869
965.394835	2459.175669
965.694030	2458.805144
965.993189	2457.499486
966.292309	2457.360854
966.591393	2456.430761
966.890439	2456.234156
967.189447	2455.954372
967.488419	2457.086111
967.787353	2459.271451
968.086249	2457.554938
968.385108	2457.625514
968.683930	2458.149794
968.982714	2460.120886
969.281462	2464.055506
969.580172	2463.475773
969.878844	2466.455095
970.177480	2466.117338
970.476078	2474.735191
970.774639	2473.893318
971.073162	2474.818370
971.371649	2474.505818
971.670098	2473.971456
971.968510	2480.267857
972.266885	2478.203504
972.565223	2484.477220
972.863524	2482.299442
973.161788	2485.873620
973.460014	2489.175576
973.758204	2487.043168
974.056356	2487.421254
974.354471	2491.144146
974.652550	2489.021821
974.950591	2488.132057
975.248595	2485.699700
975.546563	2485.525780
975.844493	2484.242807
976.142386	2481.969246
976.440243	2480.058649
976.738062	2480.041005
977.035845	2478.606797
977.333590	2473.893318
977.631299	2469.620940
977.928971	2470.913996
978.226606	2468.267390
978.524204	2467.917030
978.821765	2463.886627
979.119290	2464.882255
979.416777	2464.972996
979.714228	2464.486525
980.011642	2466.414766
980.309020	2473.658904
980.606360	2474.717547
980.903664	2484.333548
981.200931	2497.717811
981.498162	2517.537107
981.795356	2543.856972
982.092513	2585.585123
982.389633	2626.247069
982.686717	2672.366065
982.983764	2700.609130
983.280775	2722.099569
983.577749	2719.263920
983.874686	2712.952395
984.171587	2695.414221
984.468451	2678.223886
984.765279	2661.406597
985.062070	2641.559574
985.358824	2626.562142
985.655543	2599.539036
985.952224	2581.705955
986.248869	2549.452652
986.545478	2523.329393
986.842050	2506.895232
987.138586	2485.069556
987.435086	2473.737042
987.731549	2461.476956
988.027975	2458.202727
988.324366	2451.041768
988.620719	2447.414657
988.917037	2444.437856
989.213318	2440.155396
989.509563	2436.394695
989.805772	2435.562905
990.101944	2435.789757
990.398080	2436.734973
990.694180	2434.683223
990.990244	2433.838830
991.286271	2434.257246
991.582262	2434.010229
991.878217	2436.490477
992.174136	2435.716660
992.470019	2439.026177
992.765865	2438.839655
993.061676	2440.460386
993.357450	2442.867537
993.653188	2441.710592
993.948890	2451.802982
994.244556	2457.645679
994.540186	2468.489201
994.835780	2475.519090
995.131337	2491.517192
995.426859	2508.289111
995.722345	2530.545805
996.017795	2545.853268
996.313208	2560.757440
996.608586	2571.290931
996.903928	2575.220510
997.199234	2571.268246
997.494504	2569.879408
997.789738	2564.361865
998.084936	2550.730585
998.380099	2540.474357
998.675225	2529.245187
998.970316	2519.856038
999.265371	2502.201917
999.560390	2490.390494
999.855373	2477.903556
1000.150320	2469.956177
1000.445232	2461.645835
1000.740108	2455.356995
1001.034948	2447.888526
1001.329752	2440.949377
1001.624521	2439.555498
1001.919254	2430.279775
1002.213951	2430.897317
1002.508613	2425.765422
1002.803239	2429.967224
1003.097829	2421.787952
1003.392384	2425.594023
1003.686903	2422.138312
1003.981386	2419.562282
1004.275834	2422.985226
1004.570246	2422.224012
1004.864623	2420.515060
1005.158964	2417.732343
1005.453270	2418.485996
1005.747540	2416.139339
1006.041775	2413.717064
1006.335974	2417.213105
1006.630138	2415.879719
1006.924266	2416.845100
1007.218359	2415.516756
1007.512416	2414.649678
1007.806438	2413.626324
1008.100425	2414.992476
1008.394376	2413.734708
1008.688292	2415.196643
1008.982172	2412.996179
1009.276017	2413.780079
1009.569827	2410.553740
1009.863602	2415.030285
1010.157341	2411.688000
1010.451045	2414.185892
1010.744714	2409.517783
1011.038347	2410.563823
1011.331945	2409.585839
1011.625508	2413.598597
1011.919036	2412.522311
1012.212528	2410.306724
1012.505986	2409.401837
1012.799408	2409.709347
1013.092795	2407.970149
1013.386147	2410.757907
1013.679464	2411.004924
1013.972745	2409.747156
1014.265992	2410.647002
1014.559204	2408.819583
1014.852380	2410.657084
1015.145521	2412.260171
1015.438628	2408.280180
1015.731699	2410.634399
1016.024736	2410.674728
1016.317737	2409.270767
1016.610703	2411.430901
1016.903635	2406.467885
1017.196531	2407.168606
1017.489393	2408.980900
1017.782219	2406.588873
1018.075011	2411.473751
1018.367768	2411.735891
1018.660490	2412.479461
1018.953177	2412.479461
1019.245829	2412.479461
