Dividing Wavelength (nm)	Counts (n)	Blue Motor Position (mm): 22.000000	Red Motor Position (mm): 0.000000	
326.493990	1973.468058
326.888308	1973.468058
327.282561	1973.468058
327.676750	1949.736826
328.070874	1949.842690
328.464933	1957.699329
328.858929	1965.056893
329.252859	1979.837556
329.646726	1995.659217
330.040528	2007.914262
330.434265	2027.544515
330.827938	2047.462114
331.221547	2067.619168
331.615091	2087.025089
332.008571	2108.686928
332.401986	2128.470936
332.795338	2149.056488
333.188625	2168.079282
333.581847	2187.933866
333.975006	2203.972297
334.368100	2222.228836
334.761129	2240.528224
335.154095	2255.286202
335.546996	2292.530247
335.939833	2358.627335
336.332606	2372.414891
336.725315	2382.638351
337.117960	2390.671430
337.510540	2399.629560
337.903056	2411.123391
338.295508	2412.867630
338.687896	2424.858014
339.080220	2428.780032
339.472480	2433.324632
339.864676	2438.373348
340.256807	2440.669593
340.648875	2442.706220
341.040879	2442.791919
341.432818	2446.320727
341.824694	2443.711930
342.216506	2447.926334
342.608253	2447.785182
342.999937	2444.755449
343.391557	2444.631940
343.783113	2442.635643
344.174605	2438.842175
344.566033	2437.539037
344.957397	2437.914603
345.348697	2437.037442
345.739934	2432.172729
346.131106	2432.883531
346.522215	2432.868408
346.913260	2428.883376
347.304241	2428.472522
347.695159	2425.039496
348.086012	2426.498910
348.476802	2422.173600
348.867528	2420.028589
349.258191	2419.839546
349.648789	2418.294432
350.039324	2416.603125
350.429796	2421.031779
350.820203	2415.708320
351.210548	2418.365008
351.600828	2415.156314
351.991045	2414.866448
352.381198	2410.974677
352.771288	2416.325862
353.161314	2414.662281
353.551276	2411.675397
353.941175	2413.548186
354.331010	2413.066756
354.720782	2417.092117
355.110490	2414.445511
355.500135	2414.276633
355.889717	2417.318969
356.279235	2417.203022
356.668689	2417.308887
357.058080	2412.960891
357.447408	2412.318144
357.836672	2411.199008
358.225873	2413.258319
358.615010	2413.908628
359.004084	2420.895668
359.393095	2419.214443
359.782043	2419.368198
360.170927	2418.193609
360.559748	2418.538928
360.948505	2417.611356
361.337199	2422.501275
361.725830	2421.969433
362.114398	2422.571851
362.502903	2421.966913
362.891344	2423.023034
363.279722	2423.315421
363.668037	2426.619898
364.056289	2423.005390
364.444478	2424.517737
364.832603	2427.134095
365.220665	2424.681574
365.608665	2424.142171
365.996601	2429.402615
366.384474	2425.934301
366.772284	2430.436051
367.160031	2426.380443
367.547715	2426.395566
367.935336	2426.047727
368.322893	2428.717018
368.710388	2428.293561
369.097820	2428.661565
369.485189	2432.434869
369.872495	2431.653490
370.259738	2427.802048
370.646918	2431.182142
371.034035	2430.703232
371.421090	2432.502924
371.808081	2432.691968
372.195010	2431.489652
372.581875	2431.774477
372.968678	2432.979313
373.355418	2432.099632
373.742096	2431.824889
374.128710	2435.026022
374.515262	2435.663728
374.901751	2434.864705
375.288177	2434.179108
375.674540	2432.228181
376.060841	2437.763368
376.447079	2434.794129
376.833254	2434.153902
377.219367	2428.956473
377.605417	2433.952256
377.991404	2430.378078
378.377329	2435.288162
378.763191	2432.369334
379.148991	2438.353183
379.534727	2437.062648
379.920402	2436.639191
380.306013	2435.978800
380.691563	2439.575663
381.077049	2439.618513
381.462474	2437.297062
381.847835	2439.253029
382.233134	2439.434511
382.618371	2440.236054
383.003545	2439.384099
383.388657	2440.170519
383.773706	2441.939964
384.158693	2441.539193
384.543618	2443.613627
384.928480	2441.335026
385.313280	2440.654470
385.698017	2441.743359
386.082692	2442.852413
386.467305	2442.645726
386.851856	2444.909204
387.236344	2444.122784
387.620770	2442.176898
388.005133	2443.532969
388.389435	2445.499019
388.773674	2443.175047
389.157851	2448.138063
389.541965	2444.878957
389.926018	2443.953905
390.310008	2445.161262
390.693936	2446.439194
391.077802	2447.621345
391.461606	2447.696962
391.845348	2449.138732
392.229027	2449.587395
392.612645	2449.226952
392.996200	2447.732250
393.379694	2449.521860
393.763125	2447.608742
394.146494	2452.551593
394.529801	2450.782148
394.913047	2450.535132
395.296230	2448.584205
395.679351	2449.536983
396.062410	2450.590584
396.445408	2452.198712
396.828343	2452.007148
397.211217	2449.229473
397.594028	2453.224587
397.976778	2449.123608
398.359466	2450.567899
398.742092	2448.168310
399.124656	2453.421192
399.507158	2455.785493
399.889598	2454.058898
400.271977	2454.515122
400.654294	2454.956223
401.036549	2455.861111
401.418742	2454.048816
401.800874	2455.828343
402.182944	2453.544700
402.564952	2452.607046
402.946898	2457.144084
403.328783	2453.960596
403.710606	2458.424537
404.092367	2456.902109
404.474067	2455.697273
404.855705	2455.369598
405.237282	2457.355813
405.618797	2458.469908
406.000250	2458.447223
406.381642	2459.614250
406.762972	2461.764302
407.144240	2460.637604
407.525447	2456.965123
407.906593	2459.241204
408.287677	2460.846812
408.668700	2461.297995
409.049661	2458.391770
409.430560	2462.248252
409.811399	2459.999898
410.192176	2463.828654
410.572891	2461.668520
410.953545	2463.924436
411.334138	2459.815896
411.714669	2462.565845
412.095139	2462.341514
412.475547	2462.109621
412.855894	2464.819241
413.236180	2465.416618
413.616405	2463.702625
413.996568	2464.398305
414.376670	2464.093315
414.756711	2461.867645
415.136691	2464.693212
415.516609	2464.093315
415.896466	2465.338480
416.276262	2466.523151
416.655997	2461.855042
417.035670	2464.849488
417.415283	2466.210599
417.794834	2461.988633
418.174324	2466.997019
418.553753	2463.977368
418.933121	2469.706640
419.312428	2465.973665
419.691674	2470.699747
420.070859	2468.219499
420.449983	2470.936681
420.829045	2468.819397
421.208047	2473.124542
421.586988	2469.792339
421.965867	2472.529686
422.344686	2472.265025
422.723444	2473.847948
423.102141	2472.459110
423.480777	2476.131590
423.859352	2475.549337
424.237866	2473.863071
424.616319	2471.531537
424.994712	2473.316106
425.373044	2475.438432
425.751314	2477.349029
426.129524	2471.760910
426.507673	2476.648308
426.885762	2474.611682
427.263789	2477.379276
427.641756	2476.164358
428.019662	2480.250213
428.397508	2479.592342
428.775292	2478.495891
429.153016	2478.846252
429.530679	2480.953454
429.908282	2480.277939
430.285824	2479.083186
430.663305	2479.806591
431.040726	2480.109061
431.418086	2480.807260
431.795385	2481.835656
432.172624	2480.063690
432.549802	2482.286839
432.926920	2483.043012
433.303977	2483.564772
433.680974	2482.453197
434.057910	2479.920017
434.434786	2482.947230
434.811601	2482.334730
435.188355	2483.569813
435.565050	2485.412354
435.941683	2482.732981
436.318257	2484.066366
436.694770	2482.123002
437.071222	2484.852786
437.447614	2482.806078
437.823946	2483.060656
438.200218	2488.522746
438.576429	2484.189875
438.952580	2490.282109
439.328670	2486.869248
439.704700	2486.513847
440.080670	2488.003508
440.456580	2489.835967
440.832429	2492.666575
441.208218	2488.053919
441.583947	2493.150526
441.959616	2490.244300
442.335224	2490.992912
442.710773	2490.685401
443.086261	2496.089518
443.461689	2492.759836
443.837057	2494.045330
444.212365	2492.316215
444.587612	2493.337048
444.962800	2496.124806
445.337927	2497.475836
445.712995	2493.808396
446.088002	2498.925167
446.462949	2498.416011
446.837837	2503.590755
447.212664	2499.119252
447.587431	2506.028153
447.962139	2510.736591
448.336786	2516.579288
448.711374	2512.639626
449.085901	2511.691889
449.460369	2508.427742
449.834776	2512.821108
450.209124	2516.995183
450.583412	2515.606345
450.957640	2516.982580
451.331808	2517.736233
451.705917	2516.617097
452.079965	2515.840759
452.453954	2515.795389
452.827883	2517.650533
453.201752	2516.193640
453.575562	2523.170597
453.949311	2526.114631
454.323001	2526.467511
454.696632	2526.094466
455.070202	2531.937163
455.443713	2531.886752
455.817164	2532.564787
456.190556	2535.244160
456.563888	2532.355579
456.937160	2535.143337
457.310373	2537.215251
457.683526	2537.978986
458.056619	2541.220448
458.429653	2540.852444
458.802628	2545.777651
459.175542	2548.719164
459.548398	2551.655637
459.921194	2558.604867
460.293930	2563.923284
460.666607	2573.801425
461.039224	2577.390727
461.411782	2583.409865
461.784280	2582.341140
462.156719	2582.678897
462.529099	2577.975501
462.901419	2579.568505
463.273680	2581.358115
463.645882	2579.845769
464.018024	2585.811974
464.390106	2591.430340
464.762130	2605.162443
465.134094	2624.215484
465.505999	2647.820687
465.877845	2671.975376
466.249631	2680.963753
466.621358	2677.208094
466.993026	2674.468227
467.364634	2671.204079
467.736184	2667.778615
468.107674	2666.556136
468.479105	2668.640653
468.850477	2669.563184
469.221790	2669.898421
469.593043	2665.774757
469.964238	2667.561846
470.335373	2672.900428
470.706449	2694.713500
471.077467	2722.419682
471.448425	2760.908892
471.819324	2790.898716
472.190164	2788.874692
472.560945	2773.491612
472.931667	2763.046341
473.302330	2767.124634
473.672934	2775.029163
474.043479	2794.888789
474.413965	2800.925571
474.784393	2808.499904
475.154761	2838.393947
475.525070	2856.146370
475.895321	2870.763196
476.265513	2899.331414
476.635645	2936.893052
477.005719	2957.755867
477.375734	2990.735095
477.745691	3027.164994
478.115588	3079.600555
478.485427	3153.521515
478.855207	3258.165786
479.224928	3359.404758
479.594591	3433.444185
479.964194	3451.960343
480.333739	3494.732013
480.703226	3549.360477
481.072653	3639.158550
481.442022	3721.180644
481.811333	3795.535142
482.180584	3821.010613
482.549777	3876.339797
482.918912	3932.657047
483.287988	4001.652800
483.657005	4045.253739
484.025964	4100.877831
484.394864	4180.119728
484.763706	4246.917537
485.132489	4299.098521
485.501213	4379.746900
485.869879	4482.387313
486.238487	4567.340837
486.607036	4676.504503
486.975527	4758.219087
487.343959	4878.480853
487.712333	5002.026931
488.080648	5110.154639
488.448905	5259.019913
488.817104	5380.741093
489.185244	5587.539306
489.553326	5880.188369
489.921350	6285.260204
490.289315	6727.225723
490.657222	6972.714792
491.025070	7182.094076
491.392861	7263.145747
491.760593	7289.821013
492.128267	7275.083200
492.495883	7286.297247
492.863440	7312.690208
493.230939	7339.090730
493.598380	7396.852271
493.965763	7535.317644
494.333088	7629.919937
494.700354	7755.663958
495.067563	7904.756083
495.434713	8085.738547
495.801805	8298.218140
496.168839	8443.552085
496.535815	8592.654293
496.902733	8795.580899
497.269593	8942.601110
497.636395	9132.692939
498.003139	9412.857585
498.369825	9523.957054
498.736453	9802.475763
499.103023	9945.911713
499.469535	10138.042689
499.835989	10376.643021
500.202385	10534.852073
500.568723	10778.019691
500.935003	11053.317102
501.301226	11246.042934
501.667390	11636.810495
502.033497	11939.756115
502.399546	12049.713763
502.765537	12116.062909
503.131470	12468.711785
503.497345	12833.373731
503.863163	12728.434552
504.228923	13156.103359
504.594625	13548.426116
504.960269	13600.884363
505.325856	14064.441144
505.691385	14145.366787
506.056856	14443.800574
506.422270	14867.476787
506.787625	14996.328680
507.152924	15344.553943
507.518164	15664.798283
507.883347	15670.124262
508.248472	16028.683891
508.613540	16489.959550
508.978550	16890.910242
509.343503	17087.076661
509.708398	17458.559288
510.073236	17993.463520
510.438016	18278.971788
510.802738	18348.262448
511.167403	18917.527184
511.532010	19318.243463
511.896561	19744.699872
512.261053	20441.253743
512.625488	20543.836183
512.989866	20785.824170
513.354186	21004.186790
513.718449	21298.378446
514.082655	21938.335283
514.446803	22071.729255
514.810894	22655.893122
515.174927	22910.607502
515.538904	23145.316063
515.902822	23813.513444
516.266684	23815.650893
516.630488	24344.246121
516.994235	24545.549476
517.357925	25158.979761
517.721558	25562.640073
518.085133	26024.969334
518.448651	26409.011995
518.812112	26558.956075
519.175516	26902.087253
519.538863	27388.243527
519.902152	27642.438669
520.265385	28224.011382
520.628560	28538.498724
520.991678	28677.314457
521.354739	29109.898389
521.717743	29593.692882
522.080690	29782.443764
522.443580	30429.203638
522.806413	30725.003423
523.169189	30944.018872
523.531908	31332.129745
523.894569	31482.701448
524.257174	31862.980889
524.619722	32321.693121
524.982213	32562.002405
525.344647	32748.406630
525.707025	33017.982332
526.069345	33556.554003
526.431608	33723.043150
526.793815	34185.821073
527.155964	34062.121240
527.518057	34420.688431
527.880093	34472.607274
528.242072	35096.137511
528.603995	35098.746308
528.965860	35286.360410
529.327669	35559.220424
529.689421	35688.667172
530.051117	35851.720773
530.412755	36160.761148
530.774337	36398.370893
531.135862	36449.646989
531.497331	36790.784391
531.858743	36903.436535
532.220098	37345.155038
532.581396	37296.069323
532.942638	37168.835641
533.303824	37581.617921
533.664953	37718.684373
534.026025	37656.736154
534.387040	38195.123823
534.747999	38311.776123
535.108902	38603.255639
535.469748	38344.503294
535.830537	38600.745144
536.191270	38908.386599
536.551947	38750.565716
536.912567	39154.042026
537.273131	39392.052543
537.633638	39081.938402
537.994089	39504.916416
538.354483	39282.924165
538.714821	39909.942880
539.075103	40351.598369
539.435328	40268.111820
539.795497	40269.006625
540.155609	40369.149146
540.515665	40897.983828
540.875665	40527.154031
541.235609	40931.056318
541.595496	41003.475014
541.955328	41723.051834
542.315102	41265.567123
542.674821	41172.888030
543.034483	41309.868783
543.394090	41361.129756
543.753640	41414.646645
544.113134	42446.147380
544.472571	41633.334419
544.831953	42864.517779
545.191278	42226.088412
545.550548	42062.331571
545.909761	42564.730442
546.268918	42832.428314
546.628019	43201.090416
546.987064	42872.820560
547.346053	42269.686831
547.704986	43165.830065
548.063863	42839.117926
548.422684	43103.977628
548.781449	43030.805280
549.140158	43487.054909
549.498811	43412.148404
549.857408	42924.961214
550.215949	43772.424546
550.574434	43780.939055
550.932864	43652.082121
551.291237	44387.044543
551.649555	44056.861569
552.007817	44345.344119
552.366022	44100.747334
552.724173	44308.783150
553.082267	44727.997942
553.440305	45068.868163
553.798288	44485.873844
554.156215	44818.771479
554.514086	45073.952166
554.871902	44886.464093
555.229661	44937.452844
555.587365	44827.777501
555.945014	44969.726311
556.302606	44941.856292
556.660143	45196.668974
557.017625	45314.833621
557.375050	45167.578996
557.732421	45540.785698
558.089735	45575.478918
558.446994	45513.054310
558.804197	46005.948087
559.161345	45989.960067
559.518437	45305.792311
559.875474	45649.036915
560.232455	45835.733527
560.589381	46034.536470
560.946251	45767.123423
561.303065	46462.825339
561.659825	46305.690053
562.016528	46026.165634
562.373177	45778.816379
562.729770	46277.262987
563.086307	45834.385018
563.442789	46294.039947
563.799216	46354.536313
564.155587	46188.188319
564.511904	46245.675117
564.868164	46353.157558
565.224370	46612.161960
565.580520	46381.516569
565.936615	46604.421268
566.292654	46333.013107
566.648638	46591.548682
567.004567	46583.434945
567.360441	46615.786550
567.716260	46497.044691
568.072023	46820.328846
568.427732	46827.893098
568.783385	46406.979437
569.138982	46803.183882
569.494525	46786.212838
569.850013	46558.158599
570.205445	46534.876030
570.560823	46496.467479
570.916145	46392.982673
571.271412	46440.281299
571.626625	46222.412712
571.981782	46277.172246
572.336884	45988.752711
572.691931	46303.388766
573.046923	45921.470951
573.401860	45772.651048
573.756743	45762.422547
574.111570	45908.961328
574.466342	45757.300735
574.821059	45891.992804
575.175722	45426.432164
575.530330	45448.807325
575.884882	45193.934148
576.239380	45166.792576
576.593823	45145.665100
576.948211	45064.739458
577.302544	44599.970279
577.656823	44647.689841
578.011047	44882.463937
578.365216	44613.657012
578.719330	44407.844344
579.073389	44267.302016
579.427394	44352.114388
579.781344	44342.599210
580.135239	44006.291234
580.489080	44088.293163
580.842866	43591.605919
581.196597	44050.335796
581.550273	43999.488197
581.903895	43868.163619
582.257463	44281.959171
582.610975	43682.568499
582.964434	43980.331813
583.317837	43642.453517
583.671186	43479.220956
584.024481	43707.081110
584.377721	43243.468876
584.730906	43543.445256
585.084037	43557.081577
585.437113	43293.827482
585.790135	43315.280112
586.143103	42928.812655
586.496016	43065.581680
586.848874	43076.276488
587.201679	43113.734781
587.554428	42593.422169
587.907124	42790.745534
588.259765	42558.103846
588.612352	42818.187055
588.964884	42220.091960
589.317362	42506.338757
589.669786	42444.267030
590.022155	42222.983061
590.374470	42643.803461
590.726731	42179.442616
591.078937	41721.713408
591.431090	41818.667399
591.783188	41460.919396
592.135232	41164.169354
592.487222	41405.532239
592.839157	41486.760351
593.191038	41187.938395
593.542866	40948.402929
593.894639	40370.759795
594.246358	40639.143264
594.598022	40596.343867
594.949633	40227.422147
595.301190	40185.951095
595.652692	40043.992202
596.004141	40361.121108
596.355535	39397.801979
596.706876	39338.971713
597.058162	39177.193525
597.409395	39637.491200
597.760573	39723.442873
598.111698	39309.286879
598.462768	39309.518772
598.813785	39344.408598
599.164748	38829.890792
599.515657	39216.932941
599.866511	38689.749236
600.217312	39298.055188
600.568060	38285.693193
600.918753	39027.725834
601.269392	38987.797375
601.619978	38656.404524
601.970510	38859.260555
602.320988	39041.150427
602.671412	39338.011374
603.021783	39067.966844
603.372100	38745.237216
603.722363	38861.087973
604.072572	38935.936505
604.422728	38946.497722
604.772830	38753.872713
605.122878	38846.070376
605.472872	38788.470152
605.822813	39080.950336
606.172701	38917.808515
606.522534	39122.605390
606.872314	39397.527236
607.222041	39150.472889
607.571714	39545.331346
607.921333	38999.003860
608.270899	39297.581320
608.620411	39631.083894
608.969870	39428.245507
609.319276	39423.703427
609.668627	39480.129062
610.017926	39943.837078
610.367171	40111.364703
610.716362	40208.805166
611.065500	40147.509776
611.414585	40337.583961
611.763616	40645.737093
612.112594	40563.490668
612.461518	40785.586262
612.810389	41060.382079
613.159207	40945.247166
613.507971	41013.428772
613.856682	41482.185504
614.205340	41363.783923
614.553945	42043.311297
614.902496	41514.274968
615.250994	41967.983856
615.599439	42056.153637
615.947830	42254.974224
616.296169	42309.499344
616.644454	42433.244547
616.992686	42614.741209
617.340864	43129.493428
617.688990	42845.414327
618.037063	43434.155561
618.385082	43420.373046
618.733048	43710.937592
619.080961	43727.520468
619.428821	43732.574225
619.776628	43833.664483
620.124382	43656.785518
620.472083	43791.041527
620.819731	43899.486828
621.167326	43580.349023
621.514868	43569.447527
621.862357	43128.553253
622.209793	43143.732167
622.557176	42827.871111
622.904506	42570.222779
623.251783	42224.762589
623.599007	42011.582275
623.946179	41793.688482
624.293297	41742.238466
624.640363	41156.721050
624.987376	41134.711372
625.334336	40914.034862
625.681243	40556.647302
626.028097	40523.567250
626.374899	40374.901102
626.721647	40368.385411
627.068343	40249.104149
627.414987	40005.618939
627.761577	39783.639291
628.108115	40124.388524
628.454600	39571.615922
628.801032	39773.652766
629.147412	39733.638607
629.493739	39739.526675
629.840014	39390.847707
630.186236	39737.457281
630.532405	39351.118374
630.878521	39571.653731
631.224585	39442.249832
631.570597	39155.050257
631.916556	39314.249895
632.262462	39275.828741
632.608316	39290.382552
632.954117	39171.436527
633.299866	39164.255403
633.645562	39081.494781
633.991206	38584.716796
634.336797	38159.956734
634.682336	38159.490427
635.027823	37908.340143
635.373257	37733.548216
635.718639	37494.577359
636.063968	37359.517285
636.409245	36778.494058
636.754470	36844.749943
637.099642	36605.073324
637.444762	36144.886554
637.789829	36275.969157
638.134845	35937.329647
638.479808	35891.709726
638.824719	35800.341333
639.169577	35403.597484
639.514383	35475.953165
639.859137	35167.752143
640.203839	35397.669087
640.548489	35036.006628
640.893086	35117.975789
641.237632	34863.054722
641.582125	34986.832693
641.926566	34930.744815
642.270955	34873.298346
642.615292	34900.588633
642.959576	34875.647524
643.303809	34885.984410
643.647990	35025.405081
643.992118	34984.354966
644.336195	34966.141277
644.680219	35071.060291
645.024192	35366.804623
645.368112	35883.918622
645.711981	35904.199184
646.055797	36756.096211
646.399562	36712.974181
646.743274	37614.403065
647.086935	38076.175278
647.430544	37965.010274
647.774101	38073.072448
648.117606	38319.620159
648.461059	38604.203376
648.804460	38225.411076
649.147810	37611.506922
649.491108	37370.564974
649.834354	37006.727257
650.177548	36199.058793
650.520690	35743.330924
650.863781	35751.744610
651.206820	35611.797138
651.549807	35165.062687
651.892742	34717.662804
652.235626	34500.923435
652.578458	34374.188827
652.921238	33777.984165
653.263967	34114.740804
653.606644	33799.625838
653.949269	33741.508896
654.291843	33343.449306
654.634365	33750.724126
654.976836	33354.159238
655.319255	33346.713453
655.661622	33344.114739
656.003938	33113.499594
656.346203	32983.916735
656.688416	33209.899059
657.030577	33015.396220
657.372687	32845.426156
657.714746	33107.639253
658.056753	33229.068046
658.398708	32693.942004
658.740612	32737.653849
659.082465	33014.095602
659.424266	32853.345809
659.766016	32962.138950
660.107715	32845.201825
660.449362	32966.426451
660.790958	32965.284630
661.132503	32987.639627
661.473996	33012.769779
661.815438	33124.141470
662.156829	33286.665749
662.498168	33085.725357
662.839456	33116.032774
663.180693	33267.330404
663.521879	33413.801129
663.863013	33367.115003
664.204097	33366.283213
664.545129	33817.569826
664.886110	33801.889317
665.227040	33860.921228
665.567918	33970.059688
665.908746	34041.104669
666.249522	34206.341090
666.590248	34209.393508
666.930922	34308.502593
667.271545	34266.655975
667.612118	34357.832804
667.952639	34142.532685
668.293109	34189.332237
668.633528	34091.962350
668.973896	34034.820871
669.314213	34054.516659
669.654480	33799.343534
669.994695	33820.778520
670.334859	33707.803742
670.674973	33612.334370
671.015035	33768.952938
671.355047	33730.549428
671.695008	33683.230637
672.034918	33567.084973
672.374777	33654.732995
672.714585	33493.703417
673.054342	33715.362952
673.394049	33487.636389
673.733705	33746.320678
674.073310	33418.882612
674.412864	33491.812985
674.752368	33109.086064
675.091820	33393.618869
675.431223	32972.019612
675.770574	32705.844168
676.109875	32560.827816
676.449125	32290.563996
676.788324	32213.149517
677.127473	31684.690401
677.466571	31600.871136
677.805619	31272.805446
678.144616	31266.609868
678.483562	31205.213656
678.822458	30858.722549
679.161303	30805.182974
679.500098	30694.935460
679.838842	30601.893404
680.177535	30764.957087
680.516179	31031.661852
680.854771	31272.447524
681.193314	32121.622328
681.531805	33238.086670
681.870247	34021.353429
682.208638	34744.234726
682.546978	34979.606199
682.885268	35060.655350
683.223508	34524.513515
683.561697	34193.231569
683.899836	34012.405381
684.237925	33512.474154
684.575963	33348.185470
684.913951	32913.791764
685.251889	33060.731316
685.589776	33051.334606
685.927614	33042.351269
686.265401	33177.575180
686.603137	33277.659728
686.940824	33796.906136
687.278460	34169.845656
687.616046	34322.033050
687.953582	34918.265439
688.291068	34788.034791
688.628504	35059.516049
688.965889	34993.524824
689.303224	34607.853870
689.640510	34266.298053
689.977745	33551.492684
690.314930	32746.697679
690.652065	32218.818295
690.989150	31461.967183
691.326185	30581.592678
691.663170	29866.247906
692.000105	29119.310223
692.336990	28436.518702
692.673825	28002.934101
693.010610	27483.531417
693.347345	26898.356799
693.684030	26253.386535
694.020665	25978.515101
694.357251	25311.285622
694.693786	25272.095692
695.030272	25040.487440
695.366707	24493.635674
695.703093	24213.304670
696.039429	24198.685324
696.375716	23936.714203
696.711952	23901.995776
697.048139	23753.344752
697.384276	23589.413991
697.720363	23708.644841
698.056400	23496.636595
698.392388	23289.629174
698.728326	23251.555860
699.064214	23048.543553
699.400053	22992.619513
699.735842	22628.355819
700.071581	22350.018591
700.407270	22064.792627
700.742910	21870.294830
701.078501	21604.686516
701.414042	21330.316677
701.749533	21035.701563
702.084974	20682.281391
702.420366	20890.687732
702.755709	20450.126174
703.091002	20160.090949
703.426246	20189.508602
703.761440	20073.909903
704.096584	19815.825512
704.431679	19760.526575
704.766725	19680.145377
705.101721	19615.938721
705.436668	19707.274346
705.771565	19390.977230
706.106413	19723.668178
706.441212	19702.986845
706.775961	19837.232772
707.110661	19917.319062
707.445311	20267.815366
707.779913	20106.246385
708.114465	20347.374856
708.448967	20640.129783
708.783421	21338.574087
709.117825	21610.100715
709.452180	21828.649858
709.786485	22220.297100
710.120742	23026.997662
710.454949	23043.368809
710.789107	23505.826619
711.123216	24213.947417
711.457275	24334.229348
711.791286	24872.100299
712.125247	24942.585712
712.459159	24640.802078
712.793023	25286.747806
713.126837	24194.919582
713.460602	24440.229690
713.794318	24057.170053
714.127985	23659.402850
714.461602	22777.132872
714.795171	22735.253486
715.128691	21721.265719
715.462162	21193.661078
715.795584	20775.971235
716.128957	20516.732419
716.462281	20109.588670
716.795556	19866.171515
717.128782	19371.808243
717.461960	18841.418364
717.795088	18756.497607
718.128167	18351.398046
718.461198	17896.403664
718.794180	17757.784536
719.127113	17394.874392
719.459997	17200.391717
719.792833	16852.032863
720.125619	16825.261816
720.458357	16505.743403
720.791046	16343.017477
721.123686	16178.746438
721.456278	15950.659432
721.788821	15901.573717
722.121315	15648.417053
722.453761	15725.793723
722.786158	15645.533513
723.118506	15662.968344
723.450805	15528.019176
723.783056	15681.620613
724.115259	15584.296097
724.447412	15510.649880
724.779518	15763.529281
725.111574	15785.173475
725.443582	15985.110677
725.775542	15971.590303
726.107453	16430.950323
726.439315	16308.052034
726.771129	16704.362343
727.102895	17080.233295
727.434612	17287.575952
727.766281	17410.242349
728.097901	17665.251637
728.429473	17707.685549
728.760996	17692.471347
729.092471	17766.936751
729.423897	17654.035070
729.755276	17510.221033
730.086606	17632.131256
730.417887	18147.853898
730.749120	18656.075302
731.080305	18838.088682
731.411442	19170.162089
731.742530	19240.760928
732.073570	19345.135498
732.404562	19631.183170
732.735506	19446.192988
733.066401	19154.920160
733.397249	18631.252660
733.728048	17998.618100
734.058798	17159.139955
734.389501	16487.650701
734.720156	16033.553645
735.050762	15508.961094
735.381320	15152.929603
735.711831	14921.361681
736.042293	14576.214042
736.372707	14579.490792
736.703073	14374.676272
737.033391	14558.103696
737.363661	14529.472463
737.693883	14635.868536
738.024056	14804.316171
738.354182	14996.341283
738.684260	15265.443116
739.014290	15500.567572
739.344272	15691.465986
739.674207	15971.169366
740.004093	16074.323977
740.333931	16062.666309
740.663722	16109.241529
740.993464	16099.623008
741.323159	15909.939512
741.652806	15651.293031
741.982405	15424.128557
742.311956	15081.723305
742.641460	14975.075175
742.970915	14665.994471
743.300323	14340.678731
743.629683	14121.479279
743.958996	13853.481459
744.288260	13577.604314
744.617477	13279.568778
744.946647	13208.649826
745.275768	12934.201849
745.604842	12750.482038
745.933869	12579.922160
746.262847	12529.467771
746.591778	12463.295065
746.920662	12362.023326
747.249498	12362.666073
747.578286	12474.088176
747.907027	12624.632153
748.235720	12842.684742
748.564365	12867.247764
748.892963	12769.948454
749.221514	12835.110408
749.550017	12685.735979
749.878473	12643.952375
750.206881	12427.270980
750.535242	12336.525170
750.863555	12249.295564
751.191821	12149.896613
751.520039	12179.795697
751.848210	12081.334400
752.176334	12112.816406
752.504411	12021.069927
752.832440	11862.442459
753.160421	11925.726584
753.488356	11802.919035
753.816243	11713.209182
754.144082	11572.724827
754.471875	11512.881290
754.799620	11455.235695
755.127318	11430.488671
755.454969	11397.670760
755.782572	11351.650066
756.110129	11355.723318
756.437638	11276.947728
756.765100	11263.182857
757.092515	11272.370360
757.419882	11286.745210
757.747203	11288.287803
758.074477	11367.630524
758.401703	11322.643267
758.728882	11484.570170
759.056014	11529.098682
759.383099	11638.640434
759.710138	11737.978891
760.037129	11823.083650
760.364073	11843.482679
760.690970	11828.886018
761.017820	11822.352683
761.344623	12009.298832
761.671379	12331.680621
761.998088	12965.169657
762.324751	14514.222973
762.651366	17381.651445
762.977935	21040.667100
763.304456	23252.231375
763.630931	23722.820566
763.957359	22541.393394
764.283740	20625.162597
764.610074	18755.116331
764.936362	16619.655835
765.262602	15111.410660
765.588796	13639.587822
765.914943	12610.375770
766.241044	11771.890733
766.567097	11132.180913
766.893104	10597.977402
767.219064	10235.215971
767.544978	9851.125418
767.870845	9543.216782
768.196665	9349.323923
768.522438	9156.567844
768.848165	8994.729162
769.173846	8830.017021
769.499479	8705.775264
769.825066	8552.967809
770.150607	8370.036939
770.476101	8306.899007
770.801548	8190.471039
771.126949	8052.320738
771.452303	7963.755227
771.777611	7802.909652
772.102872	7775.838655
772.428087	7663.753641
772.753256	7539.113633
773.078378	7451.803368
773.403453	7309.000083
773.728482	7208.822274
774.053465	7143.990515
774.378401	7059.410035
774.703291	6963.030736
775.028135	6863.798143
775.352932	6828.399160
775.677683	6751.226657
776.002388	6662.610734
776.327046	6661.574777
776.651658	6574.317445
776.976224	6503.476630
777.300743	6482.591130
777.625216	6416.017652
777.949643	6376.285798
778.274024	6381.412652
778.598359	6312.439585
778.922647	6308.336086
779.246889	6274.951044
779.571086	6280.473628
779.895236	6293.741945
780.219339	6285.855060
780.543397	6283.795749
780.867409	6335.858265
781.191374	6334.315672
781.515294	6301.308717
781.839167	6350.356623
782.162995	6322.584907
782.486776	6272.314521
782.810511	6235.423357
783.134201	6159.468292
783.457844	6151.117621
783.781441	6094.245843
784.104993	6055.383588
784.428498	6021.076016
784.751958	6006.174365
785.075372	5980.252752
785.398739	5944.405107
785.722061	5971.556762
786.045337	5968.232121
786.368568	6080.470891
786.691752	6098.924034
787.014891	6348.294792
787.337983	6627.594879
787.661030	7063.231230
787.984031	7489.957341
788.306987	7754.650686
788.629897	7844.105961
788.952760	7750.678257
789.275579	7569.272335
789.598351	7277.931452
789.921078	7011.176275
790.243759	6730.857875
790.566395	6530.121649
790.888984	6334.839952
791.211529	6192.321492
791.534027	6034.331730
791.856480	5898.298714
792.178888	5838.586247
792.501249	5773.487307
792.823566	5669.205998
793.145836	5661.384648
793.468062	5640.421010
793.790241	5600.447180
794.112375	5645.910826
794.434464	5742.486731
794.756507	5775.660044
795.078505	5896.342746
795.400457	6106.223625
795.722364	6351.465677
796.044226	6544.675460
796.366042	6699.426280
796.687812	6643.537528
797.009538	6679.196130
797.331218	6581.952272
797.652852	6513.674885
797.974442	6387.867849
798.295986	6322.509290
798.617484	6188.815369
798.938938	6085.123876
799.260346	6017.138875
799.581709	5878.570158
799.903026	5827.374721
800.224299	5755.883597
800.545526	5639.130474
800.866708	5575.639662
801.187845	5525.202918
801.508936	5446.414724
801.829983	5418.895066
802.150984	5313.827337
802.471940	5287.275580
802.792851	5274.755874
803.113717	5246.233026
803.434538	5222.348039
803.755314	5192.214542
804.076045	5180.362789
804.396731	5144.053878
804.717372	5158.292618
805.037967	5168.110265
805.358518	5190.240930
805.679024	5247.389971
805.999485	5261.520325
806.319901	5278.534219
806.640272	5293.108195
806.960598	5343.890258
807.280879	5332.928269
807.601115	5368.919587
807.921306	5337.064536
808.241453	5330.669832
808.561554	5340.258107
808.881611	5305.128826
809.201623	5304.826357
809.521590	5255.468420
809.841513	5240.574331
810.161390	5254.155199
810.481223	5164.674718
810.801011	5149.773068
811.120755	5121.955981
811.440453	5070.775666
811.760107	5041.562180
812.079716	5017.664590
812.399281	4967.986539
812.718801	4959.527483
813.038276	4927.745529
813.357707	4896.243358
813.677093	4912.972427
813.996434	4850.671327
814.315731	4877.598651
814.634983	4871.541704
814.954191	4874.463053
815.273354	4937.447229
815.592473	4979.508096
815.911547	5053.267739
816.230577	5105.446202
816.549562	5194.271332
816.868502	5242.313529
817.187399	5298.068690
817.506250	5381.792173
817.825058	5405.104989
818.143821	5561.925203
818.462539	5727.237241
818.781213	5960.093178
819.099843	6323.719167
819.418429	6949.815351
819.736970	7568.642191
820.055466	8278.189636
820.373919	9190.111682
820.692327	10640.701180
821.010691	13338.676307
821.329011	19562.058868
821.647286	29141.939963
821.965517	39515.606183
822.283704	44982.976983
822.601847	46452.412836
822.919945	41862.533000
823.237999	36739.407471
823.556010	31531.484694
823.873976	26815.432339
824.191897	22590.746290
824.509775	19533.725063
824.827609	16763.900891
825.145398	15198.380646
825.463144	14442.058855
825.780845	14743.996244
826.098502	15994.305742
826.416116	18459.845868
826.733685	20741.124259
827.051210	21269.948859
827.368692	19845.038998
827.686129	17271.028365
828.003522	14800.121931
828.320872	12577.910739
828.638177	10921.304406
828.955439	9672.388788
829.272656	8614.366542
829.589830	7771.273891
829.906960	7042.378497
830.224046	6508.575757
830.541088	6101.217759
830.858086	5844.575138
831.175041	5636.758611
831.491952	5580.542184
831.808819	5613.223985
832.125642	5864.906111
832.442421	6410.094297
832.759157	7514.389293
833.075849	9289.613976
833.392497	11137.559824
833.709101	12253.441913
834.025662	12005.971671
834.342179	10951.110228
834.658653	9636.808324
834.975083	8535.676651
835.291469	7627.555636
835.607811	6892.988944
835.924110	6368.245158
836.240366	5882.509820
836.556578	5431.520635
836.872746	5077.238425
837.188871	4805.661385
837.504952	4589.312706
837.820990	4418.657046
838.136984	4302.428203
838.452935	4256.412550
838.768842	4285.764669
839.084706	4566.020055
839.400526	5303.611439
839.716303	6212.269337
840.032037	6774.110975
840.347727	6629.291228
840.663373	6033.510022
840.978977	5450.246001
841.294537	5009.634032
841.610054	4678.349566
841.925527	4441.286785
842.240957	4232.348603
842.556344	4051.832445
842.871687	3891.707755
843.186987	3740.304261
843.502244	3621.149028
843.817458	3535.000750
844.132629	3465.296716
844.447756	3418.071186
844.762840	3370.439844
845.077881	3334.143537
845.392879	3300.269503
845.707833	3273.143054
846.022745	3246.740011
846.337613	3236.597210
846.652438	3216.162892
846.967221	3205.397508
847.281960	3187.226669
847.596656	3172.735873
847.911309	3164.450736
848.225919	3150.156545
848.540485	3141.493322
848.855009	3130.342289
849.169490	3121.295939
849.483928	3114.684466
849.798323	3109.265225
850.112675	3095.260900
850.426984	3098.033534
850.741251	3091.245621
851.055474	3088.702359
851.369654	3089.829057
851.683792	3085.123139
851.997887	3091.666557
852.311938	3089.324941
852.625947	3088.490630
852.939914	3086.643047
853.253837	3089.876947
853.567718	3086.789241
853.881555	3080.185329
854.195350	3086.005341
854.509103	3082.179106
854.822812	3081.034764
855.136479	3076.119639
855.450103	3078.438569
855.763685	3075.401274
856.077224	3075.628126
856.390720	3082.811770
856.704173	3092.642020
857.017584	3104.249277
857.330953	3104.650049
857.644278	3114.165227
857.957561	3120.020527
858.270802	3112.410905
858.584000	3113.293107
858.897155	3109.711367
859.210268	3096.574120
859.523339	3086.930393
859.836367	3083.469641
860.149352	3078.947726
860.462295	3075.958322
860.775195	3062.566497
861.088054	3061.835529
861.400869	3061.167576
861.713642	3059.720765
862.026373	3067.547157
862.339062	3070.007240
862.651708	3080.671801
862.964312	3095.291147
863.276873	3106.114504
863.589392	3136.616005
863.901869	3160.564007
864.214303	3182.903880
864.526696	3203.595296
864.839045	3219.429560
865.151353	3234.023701
865.463619	3233.648135
865.775842	3232.604616
866.088023	3238.429669
866.400162	3232.904564
866.712258	3231.886251
867.024313	3230.751992
867.336325	3230.988926
867.648296	3230.263000
867.960224	3224.793348
868.272110	3233.648135
868.583954	3230.822568
868.895755	3240.100812
869.207515	3237.214751
869.519233	3257.850714
869.830909	3263.206940
870.142542	3273.163219
870.454134	3278.824435
870.765684	3293.390849
871.077191	3312.569919
871.388657	3323.231959
871.700081	3339.945905
872.011463	3361.146477
872.322803	3383.609859
872.634101	3394.730644
872.945357	3417.146135
873.256571	3447.985393
873.567744	3460.195068
873.878874	3466.226808
874.189963	3484.178357
874.501010	3486.547700
874.812015	3481.138542
875.122979	3499.536233
875.433900	3493.242352
875.744780	3500.433558
876.055618	3506.906399
876.366415	3505.610823
876.677169	3509.321112
876.987882	3527.386087
877.298554	3547.346536
877.609183	3585.210642
877.919771	3631.188486
878.230317	3700.020400
878.540822	3805.183911
878.851285	3958.651757
879.161707	4179.434131
879.472087	4554.785844
879.782425	5183.281617
880.092722	6368.822370
880.402977	8312.656005
880.713191	10696.587412
881.023363	13091.536261
881.333494	14440.256643
881.643583	14905.164453
881.953631	14504.082692
882.263637	13646.010252
882.573602	12601.536107
882.883526	11644.062195
883.193408	10687.687255
883.503248	9765.153580
883.813048	8929.589892
884.122806	8162.222933
884.432522	7392.070737
884.742197	6730.273101
885.051831	6162.540875
885.361424	5662.362632
885.670975	5264.461838
885.980485	4940.673568
886.289954	4668.499151
886.599382	4454.970998
886.908768	4271.994757
887.218113	4111.718832
887.527417	3979.721260
887.836680	3854.161241
888.145901	3755.732712
888.455082	3677.592307
888.764221	3609.864405
889.073319	3550.512380
889.382376	3516.484592
889.691392	3491.248576
890.000366	3484.649705
890.309300	3477.899600
890.618193	3481.761124
890.927044	3478.706185
891.235855	3481.108295
891.544625	3498.401973
891.853353	3525.614121
892.162041	3585.346753
892.470687	3680.107843
892.779293	3797.196203
893.087858	3972.615753
893.396381	4253.718054
893.704864	4662.769880
894.013306	5242.245473
894.321707	5810.499458
894.630068	6173.470097
894.938387	6213.746395
895.246665	6030.755031
895.554903	5712.748964
895.863100	5374.469897
896.171256	5100.727682
896.479371	4860.310014
896.787446	4632.013800
897.095480	4435.756640
897.403473	4287.385400
897.711425	4143.646980
898.019336	4018.840614
898.327207	3896.201943
898.635038	3795.202426
898.942827	3685.252340
899.250576	3604.871142
899.558284	3517.288656
899.865952	3460.794965
900.173579	3397.689801
900.481165	3354.870241
900.788711	3311.150834
901.096216	3276.021553
901.403681	3251.783686
901.711105	3239.304309
902.018489	3237.229874
902.325832	3268.956376
902.633135	3324.756908
902.940397	3499.185872
903.247619	3903.551946
903.554800	4659.205784
903.861941	5628.556654
904.169041	6340.856569
904.476101	6550.238373
904.783121	6274.550273
905.090100	5871.643613
905.397039	5456.701199
905.703938	5090.526907
906.010796	4768.555972
906.317614	4511.424359
906.624391	4273.718832
906.931129	4078.172474
907.237826	3893.598187
907.544483	3723.837332
907.851099	3548.861402
908.157675	3390.901888
908.464211	3248.151534
908.770707	3146.385762
909.077163	3068.930953
909.383578	3006.584483
909.689954	2965.506641
909.996289	2932.378698
910.302584	2913.040832
910.608839	2897.632546
910.915054	2888.881103
911.221229	2886.257182
911.527363	2890.642986
911.833458	2896.291599
912.139513	2907.707292
912.445527	2923.090373
912.751502	2957.370219
913.057436	3001.513082
913.363331	3055.735733
913.669186	3146.539517
913.975000	3263.116199
914.280775	3449.170064
914.586510	3718.350036
914.892205	4095.834156
915.197859	4597.726392
915.503475	5185.144323
915.809050	5681.130847
916.114585	5975.224201
916.420081	6041.825405
916.725536	5978.296784
917.030952	5733.626903
917.336328	5530.170975
917.641665	5314.699457
917.946961	5083.116411
918.252218	4882.279362
918.557435	4653.650432
918.862612	4455.578457
919.167750	4285.668887
919.472848	4091.460955
919.777906	3925.072632
920.082925	3763.012138
920.387904	3607.449692
920.692843	3495.750326
920.997743	3398.017476
921.302603	3303.838640
921.607423	3237.464288
921.912204	3173.502128
922.216946	3125.948924
922.521647	3076.006213
922.826310	3033.169008
923.130932	2995.718276
923.435516	2954.932821
923.740059	2929.878286
924.044564	2897.995509
924.349028	2875.776623
924.653454	2843.135152
924.957840	2817.347129
925.262186	2800.464305
925.566493	2774.464554
925.870761	2749.919176
926.174989	2741.192939
926.479178	2723.972357
926.783328	2710.260419
927.087438	2699.346321
927.391509	2685.833508
927.695541	2672.270283
927.999533	2663.002122
928.303486	2654.623724
928.607400	2648.786068
928.911275	2643.911272
929.215110	2633.549181
929.518906	2632.568676
929.822663	2635.008595
930.126381	2631.855353
930.430060	2635.956332
930.733699	2636.402474
931.037299	2643.283649
931.340861	2639.835500
931.644383	2642.593011
931.947866	2643.926396
932.251309	2641.025212
932.554714	2639.384316
932.858080	2639.913637
933.161407	2636.745272
933.464694	2627.736730
933.767943	2627.187245
934.071153	2622.279681
934.374323	2619.045781
934.677455	2616.583177
934.980548	2614.039915
935.283602	2609.031529
935.586617	2605.822835
935.889593	2612.646036
936.192530	2613.364401
936.495428	2622.095679
936.798287	2626.002573
937.101108	2642.149389
937.403890	2663.420538
937.706632	2688.497758
938.009336	2722.281050
938.312002	2754.047881
938.614628	2774.567898
938.917216	2795.990281
939.219765	2801.956487
939.522275	2817.521049
939.824747	2813.488126
940.127179	2807.103505
940.429573	2802.405149
940.731929	2800.948256
941.034246	2792.164045
941.336524	2792.090949
941.638763	2782.991666
941.940964	2778.121911
942.243126	2760.598861
942.545250	2751.050915
942.847335	2737.797722
943.149381	2724.441185
943.451389	2710.847713
943.753359	2695.479756
944.055290	2687.169414
944.357182	2679.665656
944.659036	2675.095850
944.960851	2672.650891
945.262628	2666.470436
945.564367	2667.332473
945.866067	2667.932371
946.167729	2664.726197
946.469352	2664.027997
946.770937	2662.581186
947.072484	2653.393683
947.373992	2654.724547
947.675462	2651.720020
947.976893	2643.757517
948.278286	2642.275418
948.579641	2636.677217
948.880958	2635.958852
949.182236	2634.920375
949.483476	2630.141361
949.784678	2632.185549
950.085841	2629.975003
950.386967	2638.229892
950.688054	2645.332878
950.989103	2648.110554
951.290114	2658.671771
951.591087	2669.003616
951.892021	2681.528362
952.192917	2693.377595
952.493776	2704.800849
952.794596	2707.946529
953.095378	2711.291335
953.396122	2708.478371
953.696828	2704.967207
953.997496	2701.788760
954.298126	2689.604291
954.598718	2683.509536
954.899272	2670.286589
955.199788	2660.736123
955.500266	2647.447642
955.800706	2633.589510
956.101108	2617.278857
956.401472	2605.648915
956.701798	2594.157605
957.002087	2577.887281
957.302337	2567.953687
957.602550	2556.169990
957.902724	2543.554502
958.202861	2535.556712
958.502960	2530.094622
958.803022	2519.399814
959.103045	2510.988648
959.403031	2508.163082
959.702979	2501.503718
960.002889	2497.299395
960.302762	2493.153046
960.602596	2486.433188
960.902393	2485.006542
961.202153	2481.223156
961.501875	2481.165182
961.801559	2476.756693
962.101205	2472.577577
962.400814	2473.580766
962.700385	2469.215127
962.999918	2467.581793
963.299414	2468.027935
963.598873	2466.177832
963.898293	2463.261524
964.197677	2465.000723
964.497022	2458.870679
964.796331	2462.051647
965.095601	2459.949486
965.394835	2460.922429
965.694030	2458.921091
965.993189	2460.544342
966.292309	2458.263220
966.591393	2459.248766
966.890439	2455.624176
967.189447	2458.729527
967.488419	2453.648044
967.787353	2455.442695
968.086249	2458.686677
968.385108	2460.256997
968.683930	2457.517130
968.982714	2461.582820
969.281462	2460.400670
969.580172	2460.929991
969.878844	2463.816051
970.177480	2468.590024
970.476078	2470.341825
970.774639	2473.772330
971.073162	2476.812146
971.371649	2479.163844
971.670098	2474.959522
971.968510	2479.854482
972.266885	2477.379276
972.565223	2483.690800
972.863524	2484.797334
973.161788	2485.475369
973.460014	2486.216418
973.758204	2488.971409
974.056356	2489.271358
974.354471	2489.553662
974.652550	2486.954947
974.950591	2486.907057
975.248595	2486.602067
975.546563	2485.775318
975.844493	2486.884371
976.142386	2483.978146
976.440243	2479.138638
976.738062	2481.807929
977.035845	2478.100161
977.333590	2474.586477
977.631299	2471.178657
977.928971	2469.555405
978.226606	2471.211424
978.524204	2468.882411
978.821765	2464.161370
979.119290	2464.983078
979.416777	2467.435600
979.714228	2467.251598
980.011642	2466.949128
980.309020	2473.689151
980.606360	2475.750983
980.903664	2483.988228
981.200931	2496.263438
981.498162	2515.676922
981.795356	2543.567105
982.092513	2584.362643
982.389633	2629.685136
982.686717	2669.979079
982.983764	2702.862526
983.280775	2721.804661
983.577749	2722.339023
983.874686	2709.721015
984.171587	2693.470856
984.468451	2681.661953
984.765279	2662.079591
985.062070	2644.254071
985.358824	2625.140536
985.655543	2603.173708
985.952224	2580.359967
986.248869	2554.413148
986.545478	2522.321162
986.842050	2506.065962
987.138586	2482.027220
987.435086	2474.470530
987.731549	2460.622480
988.027975	2460.531740
988.324366	2451.903805
988.620719	2447.293670
988.917037	2440.833431
989.213318	2442.343257
989.509563	2438.811928
989.805772	2435.802359
990.101944	2435.696495
990.398080	2435.590631
990.694180	2435.086516
990.990244	2435.215065
991.286271	2433.216248
991.582262	2436.122473
991.878217	2437.352514
992.174136	2434.484098
992.470019	2437.844027
992.765865	2437.090374
993.061676	2441.292176
993.357450	2443.348967
993.653188	2447.439863
993.948890	2455.178034
994.244556	2459.541153
994.540186	2467.387709
994.835780	2479.015130
995.131337	2494.347800
995.426859	2508.561333
995.722345	2530.147554
996.017795	2548.411654
996.313208	2564.248439
996.608586	2572.089954
996.903928	2576.538772
997.199234	2575.938875
997.494504	2569.287072
997.789738	2565.181052
998.084936	2554.123281
998.380099	2542.006868
998.675225	2532.153933
998.970316	2516.475944
999.265371	2506.522186
999.560390	2490.090545
999.855373	2480.172075
1000.150320	2466.455095
1000.445232	2459.515947
1000.740108	2454.482355
1001.034948	2447.631427
1001.329752	2444.145469
1001.624521	2438.096084
1001.919254	2429.934456
1002.213951	2429.226174
1002.508613	2427.610484
1002.803239	2425.871286
1003.097829	2422.163518
1003.392384	2425.059661
1003.686903	2423.877510
1003.981386	2423.529670
1004.275834	2421.039340
1004.570246	2420.406676
1004.864623	2419.494227
1005.158964	2421.228384
1005.453270	2420.575554
1005.747540	2419.174113
1006.041775	2417.076993
1006.335974	2415.526839
1006.630138	2416.245203
1006.924266	2414.062383
1007.218359	2417.132446
1007.512416	2416.749318
1007.806438	2415.887281
1008.100425	2414.609349
1008.394376	2416.202353
1008.688292	2414.649678
1008.982172	2413.467527
1009.276017	2414.188412
1009.569827	2413.119688
1009.863602	2413.926272
1010.157341	2413.918711
1010.451045	2411.128432
1010.744714	2412.718916
1011.038347	2413.036509
1011.331945	2413.621282
1011.625508	2411.337640
1011.919036	2414.069945
1012.212528	2410.989800
1012.505986	2410.641961
1012.799408	2409.432084
1013.092795	2411.481313
1013.386147	2411.572053
1013.679464	2408.040725
1013.972745	2409.147258
1014.265992	2411.360325
1014.559204	2407.592062
1014.852380	2408.358318
1015.145521	2410.369738
1015.438628	2409.815211
1015.731699	2411.912331
1016.024736	2411.947619
1016.317737	2411.072979
1016.610703	2412.280336
1016.903635	2409.364028
1017.196531	2406.356980
1017.489393	2408.002917
1017.782219	2408.842269
1018.075011	2412.555078
1018.367768	2412.973494
1018.660490	2408.103740
1018.953177	2408.103740
1019.245829	2408.103740
