Dividing Wavelength (nm)	Counts (n)	Blue Motor Position (mm): 24.600000	Red Motor Position (mm): 0.000000	
326.493990	1972.807667
326.888308	1972.807667
327.282561	1972.807667
327.676750	1946.805395
328.070874	1949.237752
328.464933	1954.662033
328.858929	1966.828858
329.252859	1977.833697
329.646726	1993.869607
330.040528	2007.263953
330.434265	2024.736592
330.827938	2044.757535
331.221547	2062.204968
331.615091	2085.255644
332.008571	2105.208531
332.401986	2126.646038
332.795338	2147.700417
333.188625	2168.447286
333.581847	2186.837415
333.975006	2204.743593
334.368100	2220.668598
334.761129	2237.299365
335.154095	2253.000039
335.546996	2290.291974
335.939833	2358.617253
336.332606	2373.526465
336.725315	2382.625748
337.117960	2393.391132
337.510540	2400.562173
337.903056	2413.036509
338.295508	2416.993814
338.687896	2423.590164
339.080220	2433.143151
339.472480	2437.355035
339.864676	2439.754624
340.256807	2444.042125
340.648875	2445.304934
341.040879	2451.029165
341.432818	2448.715275
341.824694	2448.153186
342.216506	2446.401385
342.608253	2449.181582
342.999937	2445.998093
343.391557	2447.243258
343.783113	2442.270160
344.174605	2444.581529
344.566033	2439.956270
344.957397	2439.870571
345.348697	2437.352514
345.739934	2435.915785
346.131106	2436.001485
346.522215	2431.754313
346.913260	2431.293047
347.304241	2430.738520
347.695159	2428.694332
348.086012	2425.959507
348.476802	2427.600402
348.867528	2425.828437
349.258191	2423.645617
349.648789	2423.138981
350.039324	2420.797365
350.429796	2422.496234
350.820203	2419.516912
351.210548	2419.907601
351.600828	2416.756880
351.991045	2418.780903
352.381198	2413.129770
352.771288	2417.187899
353.161314	2416.051119
353.551276	2415.277302
353.941175	2414.949627
354.331010	2415.395769
354.720782	2417.502971
355.110490	2418.012128
355.500135	2415.277302
355.889717	2415.564647
356.279235	2416.361150
356.668689	2417.384504
357.058080	2420.099165
357.447408	2415.864596
357.836672	2413.407033
358.225873	2416.875347
358.615010	2413.951478
359.004084	2417.591191
359.393095	2418.672519
359.782043	2420.351223
360.170927	2422.498754
360.559748	2420.923394
360.948505	2423.123857
361.337199	2426.491348
361.725830	2425.639393
362.114398	2425.646955
362.502903	2426.337593
362.891344	2426.070412
363.279722	2424.490010
363.668037	2427.474373
364.056289	2426.259455
364.444478	2428.023859
364.832603	2428.830444
365.220665	2425.904054
365.608665	2428.855649
365.996601	2428.694333
366.384474	2426.816503
366.772284	2431.955959
367.160031	2429.919333
367.547715	2428.081832
367.935336	2430.342790
368.322893	2430.196596
368.710388	2431.653490
369.097820	2432.918819
369.485189	2435.578028
369.872495	2429.594178
370.259738	2432.051741
370.646918	2435.671289
371.034035	2433.881680
371.421090	2436.084664
371.808081	2435.988882
372.195010	2435.716660
372.581875	2435.746907
372.968678	2435.033583
373.355418	2434.494180
373.742096	2435.802359
374.128710	2437.216403
374.515262	2436.797987
374.901751	2437.513831
375.288177	2436.072061
375.674540	2437.135745
376.060841	2437.695313
376.447079	2438.643050
376.833254	2438.022988
377.219367	2435.545261
377.605417	2438.506938
377.991404	2435.651125
378.377329	2437.995261
378.763191	2434.746238
379.148991	2439.542896
379.534727	2440.611620
379.920402	2441.007351
380.306013	2442.106322
380.691563	2442.489450
381.077049	2440.931733
381.462474	2442.315530
381.847835	2441.982814
382.233134	2443.311158
382.618371	2442.746549
383.003545	2444.274018
383.388657	2442.759152
383.773706	2445.690583
384.158693	2442.867537
384.543618	2447.565892
384.928480	2445.685542
385.313280	2445.539348
385.698017	2446.479523
386.082692	2445.226797
386.467305	2447.008844
386.851856	2447.359205
387.236344	2446.144287
387.620770	2454.023610
388.005133	2447.843155
388.389435	2450.509926
388.773674	2447.941458
389.157851	2453.824484
389.541965	2448.967333
389.926018	2450.104113
390.310008	2450.199895
390.693936	2449.980605
391.077802	2451.550924
391.461606	2449.307611
391.845348	2451.641665
392.229027	2453.176696
392.612645	2452.072683
392.996200	2452.014710
393.379694	2454.295832
393.763125	2454.008487
394.146494	2454.343723
394.529801	2453.010338
394.913047	2456.612242
395.296230	2457.217181
395.679351	2455.243569
396.062410	2454.449588
396.445408	2456.377829
396.828343	2456.282047
397.211217	2452.760801
397.594028	2453.864814
397.976778	2452.440688
398.359466	2455.500668
398.742092	2453.222067
399.124656	2456.624845
399.507158	2456.539146
399.889598	2460.365382
400.271977	2457.111317
400.654294	2460.796400
401.036549	2458.280864
401.418742	2461.232460
401.800874	2460.647686
402.182944	2460.461163
402.564952	2460.748509
402.946898	2464.337811
403.328783	2461.653396
403.710606	2459.851184
404.092367	2461.484518
404.474067	2463.727831
404.855705	2461.537450
405.237282	2461.665999
405.618797	2464.826803
406.000250	2462.989302
406.381642	2463.984930
406.762972	2464.360496
407.144240	2466.114818
407.525447	2467.065075
407.906593	2465.184725
408.287677	2464.872173
408.668700	2467.314612
409.049661	2464.990640
409.430560	2466.563480
409.811399	2469.023563
410.192176	2469.366362
410.572891	2467.652369
410.953545	2467.080198
411.334138	2467.246557
411.714669	2470.480457
412.095139	2470.775364
412.475547	2468.244705
412.855894	2470.787967
413.236180	2473.580766
413.616405	2472.111270
413.996568	2470.639253
414.376670	2471.728142
414.756711	2472.514562
415.136691	2472.759058
415.516609	2470.876187
415.896466	2475.529172
416.276262	2474.704944
416.655997	2470.833337
417.035670	2470.702267
417.415283	2475.380458
417.794834	2470.651856
418.174324	2475.297279
418.553753	2473.916003
418.933121	2475.902218
419.312428	2473.696713
419.691674	2477.149903
420.070859	2477.969091
420.449983	2478.286683
420.829045	2477.273412
421.208047	2480.207363
421.586988	2477.018833
421.965867	2479.834318
422.344686	2478.379945
422.723444	2481.873464
423.102141	2479.733495
423.480777	2483.088383
423.859352	2480.227528
424.237866	2484.608290
424.616319	2484.693990
424.994712	2485.593836
425.373044	2486.082828
425.751314	2485.772797
426.129524	2483.932776
426.507673	2486.234063
426.885762	2485.074597
427.263789	2489.319249
427.641756	2487.161635
428.019662	2485.805564
428.397508	2489.659527
428.775292	2486.692807
429.153016	2487.852273
429.530679	2493.475680
429.908282	2490.650113
430.285824	2490.309835
430.663305	2489.268837
431.040726	2490.758498
431.418086	2491.232367
431.795385	2492.220433
432.172624	2492.641369
432.549802	2492.381750
432.926920	2493.110196
433.303977	2494.214209
433.680974	2493.463077
434.057910	2495.224960
434.434786	2497.138078
434.811601	2498.194200
435.188355	2495.514827
435.565050	2495.766884
435.941683	2496.964158
436.318257	2500.059427
436.694770	2494.078098
437.071222	2498.567245
437.447614	2497.100270
437.823946	2495.839981
438.200218	2502.166629
438.576429	2501.367606
438.952580	2504.357011
439.328670	2506.096209
439.704700	2504.888852
440.080670	2504.407422
440.456580	2505.950015
440.832429	2509.345232
441.208218	2506.328102
441.583947	2507.933709
441.959616	2506.686024
442.335224	2510.320696
442.710773	2510.408916
443.086261	2512.805984
443.461689	2511.888494
443.837057	2516.236490
444.212365	2519.049453
444.587612	2518.835204
444.962800	2517.411078
445.337927	2520.758405
445.712995	2517.925276
446.088002	2525.595392
446.462949	2525.023221
446.837837	2529.749303
447.212664	2529.310722
447.587431	2536.620395
447.962139	2546.944678
448.336786	2552.946172
448.711374	2553.984650
449.085901	2544.421581
449.460369	2544.860161
449.834776	2546.758156
450.209124	2559.285423
450.583412	2562.231977
450.957640	2567.237843
451.331808	2564.974365
451.705917	2562.630228
452.079965	2567.615930
452.453954	2568.964438
452.827883	2576.392578
453.201752	2579.639082
453.575562	2580.738053
453.949311	2594.447471
454.323001	2598.127513
454.696632	2605.424583
455.070202	2619.169289
455.443713	2625.780763
455.817164	2638.013122
456.190556	2643.354225
456.563888	2654.865700
456.937160	2662.608912
457.310373	2669.162412
457.683526	2678.128104
458.056619	2692.008921
458.429653	2706.088864
458.802628	2721.703838
459.175542	2742.652353
459.548398	2773.973042
459.921194	2813.427632
460.293930	2849.144207
460.666607	2901.499111
461.039224	2954.978191
461.411782	2988.602687
461.784280	2996.534943
462.156719	3012.686800
462.529099	3033.738658
462.901419	3045.552602
463.273680	3060.025755
463.645882	3095.855756
464.018024	3138.045173
464.390106	3198.685212
464.762130	3328.096673
465.134094	3512.786905
465.505999	3760.622631
465.877845	3977.926609
466.249631	4080.698092
466.621358	4080.541816
466.993026	4072.289447
467.364634	4074.336156
467.736184	4078.364038
468.107674	4115.209831
468.479105	4168.255372
468.850477	4223.075400
469.221790	4246.395778
469.593043	4244.333946
469.964238	4286.225934
470.335373	4371.867576
470.706449	4571.058688
471.077467	4852.481102
471.448425	5278.377943
471.819324	5600.565647
472.190164	5580.721145
472.560945	5435.435091
472.931667	5323.912165
473.302330	5350.703378
473.672934	5402.947375
474.043479	5563.548455
474.413965	5618.698678
474.784393	5705.081369
475.154761	5912.691208
475.525070	6047.605088
475.895321	6134.736391
476.265513	6328.402398
476.635645	6577.387508
477.005719	6707.290480
477.375734	6913.014928
477.745691	7152.673902
478.115588	7489.027248
478.485427	7944.785365
478.855207	8627.765929
479.224928	9238.809228
479.594591	9703.656545
479.964194	9737.959076
480.333739	9961.869486
480.703226	10192.603097
481.072653	10567.367515
481.442022	10908.416697
481.811333	11200.871675
482.180584	11179.625732
482.549777	11324.914307
482.918912	11459.210645
483.287988	11650.955973
483.657005	11712.576517
484.025964	11814.899337
484.394864	12068.020713
484.763706	12214.950183
485.132489	12261.432142
485.501213	12475.398876
485.869879	12786.080146
486.238487	12956.894603
486.607036	13277.922842
486.975527	13404.347418
487.343959	13717.879461
487.712333	14023.358261
488.080648	14264.524540
488.448905	14667.481611
488.817104	14903.198403
489.185244	15501.051523
489.553326	16364.200405
489.921350	17650.564235
490.289315	19107.641699
490.657222	19717.790193
491.025070	20188.545742
491.392861	20152.241873
491.760593	19980.469596
492.128267	19638.162647
492.495883	19365.552171
492.863440	19136.136821
493.230939	18918.157329
493.598380	18793.882804
493.965763	18966.854875
494.333088	18953.165622
494.700354	19050.976609
495.067563	19227.853053
495.434713	19475.890426
495.801805	19825.582665
496.168839	19954.782397
496.535815	20104.126580
496.902733	20408.387941
497.269593	20518.189312
497.636395	20789.695776
498.003139	21279.126280
498.369825	21298.449023
498.736453	21758.847521
499.103023	21807.877783
499.469535	22037.467053
499.835989	22384.573180
500.202385	22481.585145
500.568723	22789.708030
500.935003	23190.482281
501.301226	23357.412529
501.667390	24008.961499
502.033497	24440.264978
502.399546	24413.665330
502.765537	24273.085193
503.131470	24785.435302
503.497345	25289.394411
503.863163	24746.477266
504.228923	25400.695527
504.594625	25935.211589
504.960269	25746.072538
505.325856	26460.383874
505.691385	26301.375799
506.056856	26656.905695
506.422270	27211.740128
506.787625	27185.919338
507.152924	27568.673985
507.518164	27912.581500
507.883347	27617.873126
508.248472	28033.123051
508.613540	28621.579460
508.978550	29090.618496
509.343503	29151.291303
509.708398	29536.080055
510.073236	30182.088797
510.438016	30412.993808
510.802738	30225.273842
511.167403	30928.096388
511.532010	31333.448007
511.896561	31785.510957
512.261053	32660.362878
512.625488	32554.773390
512.989866	32658.177538
513.354186	32748.416712
513.718449	32938.758078
514.082655	33710.672158
514.446803	33636.078205
514.810894	34274.086636
515.174927	34403.203188
515.538904	34531.540883
515.902822	35272.683760
516.266684	35007.756002
516.630488	35530.838728
516.994235	35590.034477
517.357925	36239.236790
517.721558	36561.568167
518.085133	37000.582090
518.448651	37278.034595
518.812112	37260.042717
519.175516	37501.554316
519.538863	37954.212122
519.902152	38076.666790
520.265385	38625.502251
520.628560	38816.375459
520.991678	38776.426835
521.354739	39132.082760
521.717743	39545.124659
522.080690	39590.542934
522.443580	40207.854908
522.806413	40401.049567
523.169189	40486.013174
523.531908	40751.112332
523.894569	40743.437175
524.257174	41007.696980
524.619722	41401.771538
524.982213	41492.073727
525.344647	41544.589947
525.707025	41684.802080
526.069345	42157.422856
526.431608	42178.918336
526.793815	42558.426479
527.155964	42221.939542
527.518057	42467.055566
527.880093	42340.275588
528.242072	42925.724949
528.603995	42738.988007
528.965860	42814.199502
529.327669	42972.821928
529.689421	42950.484576
530.051117	42986.831295
530.412755	43191.446688
530.774337	43304.250068
531.135862	43205.400602
531.497331	43468.591683
531.858743	43415.029423
532.220098	43802.777333
532.581396	43570.901900
532.942638	43281.960606
533.303824	43648.150021
533.664953	43648.714630
534.026025	43441.465234
534.387040	43926.542701
534.747999	43912.656843
535.108902	44113.191422
535.469748	43699.816807
535.830537	43857.257083
536.191270	44076.431328
536.551947	43763.216878
536.912567	44084.492133
537.273131	44232.644083
537.633638	43769.067137
537.994089	44143.849199
538.354483	43784.251093
538.714821	44367.247932
539.075103	44724.264968
539.435328	44523.695101
539.795497	44445.700889
540.155609	44432.573724
540.515665	44911.377475
540.875665	44388.234256
541.235609	44728.076080
541.595496	44725.487448
541.955328	45391.423871
542.315102	44805.679603
542.674821	44615.615500
543.034483	44675.322926
543.394090	44652.927600
543.753640	44624.538342
544.113134	45620.279653
544.472571	44676.255539
544.831953	45903.491676
545.191278	45140.213092
545.550548	44887.489968
545.909761	45351.165216
546.268918	45552.413119
546.628019	45857.518873
546.987064	45446.059896
547.346053	44749.654739
547.704986	45615.069620
548.063863	45190.662440
548.422684	45401.571714
548.781449	45247.695534
549.140158	45646.251677
549.498811	45505.565676
549.857408	44947.688907
550.215949	45794.703576
550.574434	45699.884513
550.932864	45511.526841
551.291237	46209.887965
551.649555	45829.774883
552.007817	46079.606906
552.366022	45740.090236
552.724173	45919.051197
553.082267	46305.929508
553.440305	46601.101668
553.798288	45946.071782
554.156215	46252.405057
554.514086	46450.895448
554.871902	46215.705457
555.229661	46247.570590
555.587365	46078.152533
555.945014	46169.959506
556.302606	46101.326717
556.660143	46326.247878
557.017625	46420.109122
557.375050	46215.256794
557.732421	46564.122284
558.089735	46552.192394
558.446994	46471.370095
558.804197	46934.357226
559.161345	46867.012452
559.518437	46153.119532
559.875474	46446.547453
560.232455	46623.260060
560.589381	46791.770710
560.946251	46487.116139
561.303065	47157.798808
561.659825	46973.385839
562.016528	46659.153076
562.373177	46400.468787
562.729770	46875.852115
563.086307	46383.520427
563.442789	46845.890017
563.799216	46894.806853
564.155587	46695.759414
564.511904	46719.861171
564.868164	46829.009713
565.224370	47062.715085
565.580520	46802.372256
565.936615	47000.960950
566.292654	46741.656599
566.648638	46990.513159
567.004567	46937.593647
567.360441	46979.377250
567.716260	46843.896241
568.072023	47155.626071
568.427732	47124.678427
568.783385	46682.044955
569.138982	47075.479287
569.494525	47046.727066
569.850013	46808.925756
570.205445	46786.795091
570.560823	46733.505054
570.916145	46630.423540
571.271412	46643.578431
571.626625	46429.964578
571.981782	46486.758217
572.336884	46159.229410
572.691931	46499.451842
573.046923	46104.432068
573.401860	45936.508713
573.756743	45938.802438
574.111570	46046.300002
574.466342	45897.729637
574.821059	46023.476178
575.175722	45547.213169
575.530330	45575.000009
575.884882	45311.254401
576.239380	45258.556700
576.593823	45234.409573
576.948211	45160.423078
577.302544	44698.776894
577.656823	44725.469804
578.011047	44945.180933
578.365216	44681.722671
578.719330	44480.469727
579.073389	44329.131768
579.427394	44426.032827
579.781344	44409.669242
580.135239	44061.398608
580.489080	44156.540304
580.842866	43632.824913
581.196597	44105.259167
581.550273	44033.972210
581.903895	43903.819700
582.257463	44333.885576
582.610975	43721.158532
582.964434	44007.082696
583.317837	43655.202595
583.671186	43503.133669
584.024481	43729.161363
584.377721	43259.950928
584.730906	43552.383222
585.084037	43569.124893
585.437113	43289.456802
585.790135	43327.643542
586.143103	42937.382617
586.496016	43060.931215
586.848874	43090.568159
587.201679	43107.503915
587.554428	42600.363838
587.907124	42789.538177
588.259765	42547.905591
588.612352	42801.067296
588.964884	42203.579660
589.317362	42481.604336
589.669786	42429.221706
590.022155	42217.939387
590.374470	42640.221721
590.726731	42163.812518
591.078937	41680.665813
591.431090	41780.861266
591.783188	41441.342075
592.135232	41139.414768
592.487222	41369.782896
592.839157	41464.574233
593.191038	41151.805925
593.542866	40910.485890
593.894639	40325.021406
594.246358	40592.394123
594.598022	40569.678684
594.949633	40184.330364
595.301190	40148.175208
595.652692	39991.062607
596.004141	40309.928191
596.355535	39342.344245
596.706876	39283.327457
597.058162	39128.190989
597.409395	39585.141338
597.760573	39667.738123
598.111698	39240.071837
598.462768	39252.462993
598.813785	39295.811875
599.164748	38766.654558
599.515657	39144.995675
599.866511	38631.241604
600.217312	39245.879246
600.568060	38216.173161
600.918753	38963.602357
601.269392	38915.965974
601.619978	38576.839993
601.970510	38794.340575
602.320988	38958.621697
602.671412	39241.170808
603.021783	39000.622070
603.372100	38665.854167
603.722363	38769.606154
604.072572	38844.043832
604.422728	38860.583857
604.772830	38663.119341
605.122878	38774.740569
605.472872	38710.226403
605.822813	38988.271243
606.172701	38807.283738
606.522534	39029.843118
606.872314	39321.229373
607.222041	39076.987989
607.571714	39455.447573
607.921333	38917.639637
608.270899	39194.709014
608.620411	39534.434892
608.969870	39339.304430
609.319276	39343.879277
609.668627	39401.638297
610.017926	39857.451866
610.367171	40005.807982
610.716362	40115.937029
611.065500	40070.707797
611.414585	40247.649777
611.763616	40546.585158
612.112594	40461.041819
612.461518	40690.563033
612.810389	40980.802424
613.159207	40855.063445
613.507971	40906.944479
613.856682	41389.448437
614.205340	41277.968361
614.553945	41953.344345
614.902496	41417.129413
615.250994	41887.648028
615.599439	41960.709471
615.947830	42173.068077
616.296169	42229.264339
616.644454	42367.901111
616.992686	42523.299719
617.340864	43041.101837
617.688990	42777.323462
618.037063	43365.371537
618.385082	43337.930016
618.733048	43629.336435
619.080961	43640.923527
619.428821	43652.296370
619.776628	43756.643214
620.124382	43584.397069
620.472083	43722.575096
620.819731	43836.916027
621.167326	43514.619938
621.514868	43494.662010
621.862357	43067.890528
622.209793	43090.081687
622.557176	42754.711366
622.904506	42506.598377
623.251783	42166.670852
623.599007	41955.091105
623.946179	41714.900289
624.293297	41683.630011
624.640363	41095.594539
624.987376	41088.720925
625.334336	40844.441733
625.681243	40492.324699
626.028097	40471.950876
626.374899	40324.766828
626.721647	40287.628647
627.068343	40179.190907
627.414987	39953.450559
627.761577	39734.314122
628.108115	40062.664636
628.454600	39504.767702
628.801032	39705.173732
629.147412	39676.786994
629.493739	39678.914361
629.840014	39344.771561
630.186236	39684.058859
630.532405	39296.222729
630.878521	39516.805977
631.224585	39386.613138
631.570597	39102.279458
631.916556	39258.260320
632.262462	39226.846370
632.608316	39241.513607
632.954117	39139.732711
633.299866	39120.861151
633.645562	39030.967296
633.991206	38551.994666
634.336797	38127.421127
634.682336	38117.399313
635.027823	37860.895323
635.373257	37701.829276
635.718639	37464.403532
636.063968	37318.694022
636.409245	36753.714266
636.754470	36795.087016
637.099642	36562.394916
637.444762	36092.514007
637.789829	36239.173775
638.134845	35905.469555
638.479808	35854.974838
638.824719	35753.428355
639.169577	35366.925610
639.514383	35432.369870
639.859137	35136.073532
640.203839	35370.073811
640.548489	35006.079818
640.893086	35068.600208
641.237632	34834.113457
641.582125	34950.238957
641.926566	34874.394797
642.270955	34843.069067
642.615292	34867.763159
642.959576	34848.072412
643.303809	34837.095300
643.647990	34986.494935
643.992118	34940.998522
644.336195	34962.894774
644.680219	35039.628697
645.024192	35346.829051
645.368112	35830.852917
645.711981	35869.153083
646.055797	36726.197128
646.399562	36657.516448
646.743274	37585.580268
647.086935	38026.033441
647.430544	37910.555730
647.774101	38043.458189
648.117606	38277.531565
648.461059	38579.529448
648.804460	38194.468473
649.147810	37582.154804
649.491108	37324.940011
649.834354	36987.941397
650.177548	36172.958219
650.520690	35718.815793
650.863781	35725.265949
651.206820	35579.790852
651.549807	35142.632073
651.892742	34663.762787
652.235626	34465.330368
652.578458	34340.917212
652.921238	33745.244391
653.263967	34080.617233
653.606644	33762.016310
653.949269	33722.254209
654.291843	33339.796990
654.634365	33721.452666
654.976836	33324.930628
655.319255	33325.616225
655.661622	33325.848118
656.003938	33099.185238
656.346203	32964.435196
656.688416	33178.701878
657.030577	32990.800430
657.372687	32811.930209
657.714746	33097.440999
658.056753	33212.984245
658.398708	32665.036028
658.740612	32718.510067
659.082465	32988.010152
659.424266	32821.563854
659.766016	32940.076340
660.107715	32822.498988
660.449362	32942.493573
660.790958	32935.972841
661.132503	32948.830304
661.473996	32976.619664
661.815438	33088.830708
662.156829	33283.933444
662.498168	33051.659760
662.839456	33080.333843
663.180693	33231.870928
663.521879	33403.227309
663.863013	33338.655169
664.204097	33331.237111
664.545129	33810.373578
664.886110	33773.603402
665.227040	33834.835777
665.567918	33950.184939
665.908746	34016.909652
666.249522	34182.594734
666.590248	34160.106147
666.930922	34297.253258
667.271545	34251.522431
667.612118	34337.723641
667.952639	34132.152949
668.293109	34176.033673
668.633528	34093.474696
668.973896	33992.412164
669.314213	34031.367681
669.654480	33774.024339
669.994695	33795.484531
670.334859	33693.612894
670.674973	33598.012452
671.015035	33745.209103
671.355047	33706.397260
671.695008	33659.375897
672.034918	33535.618091
672.374777	33626.126967
672.714585	33469.599140
673.054342	33684.863971
673.394049	33473.206086
673.733705	33749.612551
674.073310	33407.320726
674.412864	33471.134172
674.752368	33066.692481
675.091820	33371.437792
675.431223	32941.719756
675.770574	32692.636345
676.109875	32547.352812
676.449125	32273.114042
676.788324	32193.610005
677.127473	31667.381599
677.466571	31585.661975
677.805619	31239.085168
678.144616	31235.488305
678.483562	31156.841264
678.822458	30839.041884
679.161303	30773.650557
679.500098	30680.512719
679.838842	30561.354966
680.177535	30729.237992
680.516179	30992.154329
680.854771	31229.703581
681.193314	32086.805599
681.531805	33212.051631
681.870247	33988.245651
682.208638	34734.069239
682.546978	34952.527641
682.885268	35025.984814
683.223508	34495.746170
683.561697	34181.410063
683.899836	33985.470496
684.237925	33465.243583
684.575963	33323.088086
684.913951	32875.047976
685.251889	33035.908675
685.589776	33028.967006
685.927614	33003.431041
686.265401	33155.913342
686.603137	33248.539503
686.940824	33760.783748
687.278460	34147.289013
687.616046	34278.253149
687.953582	34905.874283
688.291068	34762.317344
688.628504	35041.267072
688.965889	34985.406046
689.303224	34585.594655
689.640510	34262.396200
689.977745	33518.594114
690.314930	32717.448904
690.652065	32205.686089
690.989150	31454.448302
691.326185	30561.813711
691.663170	29858.406391
692.000105	29097.902963
692.336990	28431.958978
692.673825	27980.929464
693.010610	27463.833108
693.347345	26890.411941
693.684030	26233.111014
694.020665	25956.654137
694.357251	25294.508662
694.693786	25259.475163
695.030272	25021.416755
695.366707	24483.303829
695.703093	24194.153327
696.039429	24193.339180
696.375716	23916.587396
696.711952	23879.996181
697.048139	23740.217588
697.384276	23558.317633
697.720363	23680.603423
698.056400	23481.941632
698.392388	23255.487960
698.728326	23228.268250
699.064214	23017.033821
699.400053	22968.663950
699.735842	22614.185135
700.071581	22333.203823
700.407270	22044.779247
700.742910	21853.938806
701.078501	21594.891554
701.414042	21305.030249
701.749533	21015.158862
702.084974	20666.772281
702.420366	20870.878518
702.755709	20432.383833
703.091002	20144.828856
703.426246	20159.390229
703.761440	20050.034999
704.096584	19778.692372
704.431679	19738.559747
704.766725	19662.042593
705.101721	19588.179607
705.436668	19682.466828
705.771565	19355.427013
706.106413	19700.267142
706.441212	19681.448515
706.775961	19811.777465
707.110661	19890.830319
707.445311	20232.759182
707.779913	20074.441745
708.114465	20327.550518
708.448967	20614.029209
708.783421	21299.207716
709.117825	21568.760733
709.452180	21800.769756
709.786485	22182.349814
710.120742	22988.415191
710.454949	23007.954703
710.789107	23466.470331
711.123216	24174.240769
711.457275	24302.931344
711.791286	24844.953685
712.125247	24902.856378
712.459159	24594.173926
712.793023	25263.440031
713.126837	24157.267204
713.460602	24408.452777
713.794318	24028.387585
714.127985	23647.125120
714.461602	22755.196291
714.795171	22707.519578
715.128691	21696.702697
715.462162	21166.963127
715.795584	20748.297821
716.128957	20474.800101
716.462281	20077.431149
716.795556	19845.220480
717.128782	19353.400469
717.461960	18799.964956
717.795088	18726.767402
718.128167	18326.013316
718.461198	17865.939972
718.794180	17718.203917
719.127113	17361.123867
719.459997	17162.041139
719.792833	16826.060838
720.125619	16799.211653
720.458357	16471.680326
720.791046	16310.426417
721.123686	16158.869168
721.456278	15916.795481
721.788821	15874.492638
722.121315	15614.288442
722.453761	15693.348857
722.786158	15622.563496
723.118506	15619.397651
723.450805	15487.954606
723.783056	15644.951260
724.115259	15541.897472
724.447412	15486.560727
724.779518	15733.221864
725.111574	15751.450676
725.443582	15945.875377
725.775542	15925.957778
726.107453	16392.077986
726.439315	16267.584171
726.771129	16673.790266
727.102895	17045.295578
727.434612	17248.842247
727.766281	17372.360598
728.097901	17620.531561
728.429473	17662.040422
728.760996	17642.042165
729.092471	17727.953508
729.423897	17610.429089
729.755276	17475.253069
730.086606	17595.635823
730.417887	18103.295139
730.749120	18619.796638
731.080305	18792.655283
731.411442	19119.253997
731.742530	19189.830151
732.073570	19289.365213
732.404562	19583.690459
732.735506	19396.666172
733.066401	19107.654302
733.397249	18589.040559
733.728048	17958.583776
734.058798	17127.352960
734.389501	16446.250225
734.720156	15988.788199
735.050762	15473.557070
735.381320	15112.048366
735.711831	14875.683786
736.042293	14530.762998
736.372707	14535.834399
736.703073	14331.339993
737.033391	14517.194733
737.363661	14481.831039
737.693883	14580.551954
738.024056	14759.399490
738.354182	14948.999807
738.684260	15225.192023
739.014290	15450.264419
739.344272	15638.974972
739.674207	15923.023827
740.004093	16036.543049
740.333931	16014.372055
740.663722	16067.513378
740.993464	16050.048301
741.323159	15883.344905
741.652806	15599.419558
741.982405	15395.678805
742.311956	15052.976125
742.641460	14927.985757
742.970915	14632.127999
743.300323	14295.056289
743.629683	14086.213888
743.958996	13811.511332
744.288260	13534.648642
744.617477	13234.498343
744.946647	13168.428980
745.275768	12889.214592
745.604842	12701.413967
745.933869	12539.469421
746.262847	12493.345383
746.591778	12412.906212
746.920662	12315.458188
747.249498	12318.238384
747.578286	12438.706837
747.907027	12579.438209
748.235720	12798.617496
748.564365	12825.857371
748.892963	12723.390878
749.221514	12783.738530
749.550017	12641.963640
749.878473	12608.926438
750.206881	12388.103735
750.535242	12297.423460
750.863555	12207.375849
751.191821	12106.726692
751.520039	12132.534879
751.848210	12036.795806
752.176334	12072.416599
752.504411	11976.193575
752.832440	11825.556336
753.160421	11882.100438
753.488356	11764.003848
753.816243	11670.964312
754.144082	11529.988445
754.471875	11476.012811
754.799620	11419.100705
755.127318	11392.458207
755.454969	11352.660818
755.782572	11311.603140
756.110129	11316.863584
756.437638	11240.318704
756.765100	11238.750905
757.092515	11231.388300
757.419882	11246.647873
757.747203	11245.415311
758.074477	11330.555358
758.401703	11289.653956
758.728882	11441.511154
759.056014	11479.450878
759.383099	11598.399423
759.710138	11699.822398
760.037129	11776.689912
760.364073	11804.544807
760.690970	11788.463526
761.017820	11785.673248
761.344623	11970.282822
761.671379	12292.223510
761.998088	12914.223756
762.324751	14452.047902
762.651366	17294.696582
762.977935	20949.260898
763.304456	23154.198576
763.630931	23628.563592
763.957359	22444.212551
764.283740	20538.243023
764.610074	18687.610240
764.936362	16566.174234
765.262602	15060.006014
765.588796	13597.216923
765.914943	12572.446128
766.241044	11734.409754
766.567097	11098.584143
766.893104	10560.443491
767.219064	10197.041833
767.544978	9816.656529
767.870845	9504.911575
768.196665	9319.545827
768.522438	9128.339903
768.848165	8959.645251
769.173846	8797.148698
769.499479	8676.244185
769.825066	8522.463787
770.150607	8336.775406
770.476101	8274.701158
770.801548	8165.706370
771.126949	8021.627673
771.452303	7937.947040
771.777611	7771.520907
772.102872	7749.843946
772.428087	7639.732543
772.753256	7513.645723
773.078378	7427.918382
773.403453	7284.429499
773.728482	7182.237749
774.053465	7125.628112
774.378401	7031.272835
774.703291	6939.987621
775.028135	6847.600915
775.352932	6810.656819
775.677683	6727.603810
776.002388	6634.874305
776.327046	6637.982177
776.651658	6547.127982
776.976224	6474.018648
777.300743	6463.923737
777.625216	6392.712398
777.949643	6354.903744
778.274024	6359.919692
778.598359	6287.175842
778.922647	6293.202542
779.246889	6255.401450
779.571086	6257.881697
779.895236	6271.296208
780.219339	6261.014774
780.543397	6261.100474
780.867409	6316.507796
781.191374	6310.216436
781.515294	6280.214009
781.839167	6328.777964
782.162995	6300.764272
782.486776	6249.256283
782.810511	6209.819337
783.134201	6135.079190
783.457844	6124.845647
783.781441	6078.293112
784.104993	6033.562954
784.428498	6006.270147
784.751958	5983.990768
785.075372	5965.567871
785.398739	5926.274597
785.722061	5944.911743
786.045337	5943.593481
786.368568	6056.356531
786.691752	6074.776907
787.014891	6325.758313
787.337983	6603.420026
787.661030	7034.398351
787.984031	7462.442724
788.306987	7724.237405
788.629897	7810.957854
788.952760	7721.016107
789.275579	7546.738378
789.598351	7248.302070
789.921078	6987.767678
790.243759	6709.420368
790.566395	6502.483523
790.888984	6309.389687
791.211529	6172.305590
791.534027	6011.034038
791.856480	5876.102514
792.178888	5816.926929
792.501249	5753.108442
792.823566	5646.324201
793.145836	5640.143746
793.468062	5625.171519
793.790241	5582.447740
794.112375	5622.877794
794.434464	5715.955138
794.756507	5750.209779
795.078505	5871.663778
795.400457	6085.683444
795.722364	6322.514331
796.044226	6516.132447
796.366042	6672.788823
796.687812	6617.706656
797.009538	6647.031048
797.331218	6555.599641
797.652852	6488.403580
797.974442	6369.719695
798.295986	6290.991996
798.617484	6170.798285
798.938938	6061.196039
799.260346	5993.556357
799.581709	5856.752045
799.903026	5806.257327
800.224299	5733.410133
800.545526	5619.437207
800.866708	5555.054110
801.187845	5503.377242
801.508936	5432.128094
801.829983	5405.561214
802.150984	5296.654647
802.471940	5271.811840
802.792851	5250.691926
803.113717	5231.570830
803.434538	5202.135533
803.755314	5171.636552
804.076045	5161.339995
804.396731	5123.730467
804.717372	5146.269466
805.037967	5145.593951
805.358518	5175.997150
805.679024	5228.762907
805.999485	5245.350824
806.319901	5258.450262
806.640272	5277.888951
806.960598	5322.553574
807.280879	5314.003778
807.601115	5352.361917
807.921306	5316.680630
808.241453	5314.409590
808.561554	5319.964942
808.881611	5287.290703
809.201623	5283.739210
809.521590	5236.485955
809.841513	5221.738059
810.161390	5232.936983
810.481223	5149.092512
810.801011	5134.803361
811.120755	5112.402994
811.440453	5052.521648
811.760107	5027.073903
812.079716	5001.094317
812.399281	4951.093633
812.718801	4943.783960
813.038276	4908.599226
813.357707	4872.310480
813.677093	4895.792175
813.996434	4836.293957
814.315731	4854.621072
814.634983	4853.587635
814.954191	4859.379921
815.273354	4918.626081
815.592473	4958.315086
815.911547	5034.958268
816.230577	5086.015074
816.549562	5170.971119
816.868502	5225.022371
817.187399	5275.338128
817.506250	5357.350139
817.825058	5379.334611
818.143821	5538.120875
818.462539	5702.454928
818.781213	5932.359270
819.099843	6290.412263
819.418429	6915.646410
819.736970	7529.159874
820.055466	8231.352276
820.373919	9135.957087
820.692327	10574.445295
821.010691	13250.486362
821.329011	19441.885322
821.647286	28990.566715
821.965517	39310.895007
822.283704	44786.228311
822.601847	46248.752741
822.919945	41664.829028
823.237999	36552.612557
823.556010	31370.782792
823.873976	26664.762333
824.191897	22478.925936
824.509775	19431.790412
824.827609	16665.774831
825.145398	15115.453666
825.463144	14371.157547
825.780845	14656.837215
826.098502	15900.792338
826.416116	18354.722687
826.733685	20631.103597
827.051210	21146.062503
827.368692	19719.930163
827.686129	17167.583888
828.003522	14709.673548
828.320872	12504.007424
828.638177	10866.534790
828.955439	9630.471594
829.272656	8574.117970
829.589830	7737.185608
829.906960	7008.350709
830.224046	6482.066850
830.541088	6065.770886
830.858086	5813.158667
831.175041	5614.998471
831.491952	5557.017640
831.808819	5590.831179
832.125642	5833.396379
832.442421	6381.193362
832.759157	7476.426884
833.075849	9233.747909
833.392497	11077.028169
833.709101	12185.008250
834.025662	11937.598501
834.342179	10894.939172
834.658653	9591.430378
834.975083	8489.590423
835.291469	7591.886952
835.607811	6862.084150
835.924110	6340.332289
836.240366	5856.084092
836.556578	5406.508951
836.872746	5060.693358
837.188871	4787.833345
837.504952	4564.356474
837.820990	4404.546856
838.136984	4287.214000
838.452935	4241.924274
838.768842	4272.950056
839.084706	4550.256367
839.400526	5287.467144
839.716303	6181.591396
840.032037	6744.461428
840.347727	6603.523370
840.663373	6008.967164
840.978977	5425.786323
841.294537	4988.778778
841.610054	4660.118233
841.925527	4421.822890
842.240957	4222.568764
842.556344	4039.380795
842.871687	3881.590159
843.186987	3734.156574
843.502244	3615.255919
843.817458	3530.710728
844.132629	3459.164152
844.447756	3408.679517
844.762840	3365.675954
845.077881	3325.974347
845.392879	3293.214408
845.707833	3268.358999
846.022745	3242.626430
846.337613	3231.135119
846.652438	3208.296172
846.967221	3200.283258
847.281960	3178.802901
847.596656	3168.400480
847.911309	3158.227432
848.225919	3144.674290
848.540485	3136.648773
848.855009	3127.609984
849.169490	3115.760752
849.483928	3107.407560
849.798323	3102.958742
850.112675	3088.931731
850.426984	3093.209150
850.741251	3084.908890
851.055474	3084.261102
851.369654	3083.295721
851.683792	3078.403281
851.997887	3083.015937
852.311938	3084.366966
852.625947	3085.854107
852.939914	3079.305648
853.253837	3085.788572
853.567718	3078.015113
853.881555	3077.611820
854.195350	3080.371852
854.509103	3076.464958
854.822812	3072.762230
855.136479	3069.740058
855.450103	3074.330029
855.763685	3067.514389
856.077224	3072.313568
856.390720	3078.509146
856.704173	3087.273192
857.017584	3094.628235
857.330953	3100.060078
857.644278	3109.678600
857.957561	3109.466871
858.270802	3108.362859
858.584000	3108.060389
858.897155	3102.603340
859.210268	3089.216556
859.523339	3078.390678
859.836367	3077.972263
860.149352	3071.832137
860.462295	3068.363823
860.775195	3059.350240
861.088054	3055.753377
861.400869	3053.822615
861.713642	3050.654250
862.026373	3063.378122
862.339062	3068.517579
862.651708	3073.914134
862.964312	3089.352667
863.276873	3100.334821
863.589392	3129.802886
863.901869	3154.015548
864.214303	3174.520441
864.526696	3194.032227
864.839045	3213.400340
865.151353	3226.414079
865.463619	3228.178483
865.775842	3227.293760
866.088023	3230.164697
866.400162	3224.410220
866.712258	3225.436095
867.024313	3224.924418
867.336325	3221.100703
867.648296	3222.653378
867.960224	3219.908470
868.272110	3223.089438
868.583954	3225.839387
868.895755	3232.803741
869.207515	3229.080849
869.519233	3246.987028
869.830909	3254.112699
870.142542	3265.929163
870.454134	3271.665996
870.765684	3283.696710
871.077191	3303.105152
871.388657	3313.580670
871.700081	3329.833350
872.011463	3351.459900
872.322803	3372.116028
872.634101	3391.748802
872.945357	3409.448293
873.256571	3440.348045
873.567744	3451.988069
873.878874	3458.148359
874.189963	3474.733756
874.501010	3477.120742
874.812015	3469.664875
875.122979	3487.180364
875.433900	3483.094509
875.744780	3487.182885
876.055618	3497.227384
876.366415	3494.679081
876.677169	3497.592868
876.987882	3516.746732
877.298554	3535.817417
877.609183	3571.518868
877.919771	3618.532669
878.230317	3686.442052
878.540822	3791.688742
878.851285	3940.584262
879.161707	4157.361439
879.472087	4533.151732
879.782425	5152.104601
880.092722	6328.215876
880.402977	8262.574662
880.713191	10639.650100
881.023363	13039.519115
881.333494	14379.692221
881.643583	14843.301934
881.953631	14423.608232
882.263637	13575.998707
882.573602	12537.873895
882.883526	11585.045407
883.193408	10626.762390
883.503248	9713.249860
883.813048	8881.449393
884.122806	8116.411447
884.432522	7355.222422
884.742197	6694.546443
885.051831	6129.634743
885.361424	5635.518487
885.670975	5246.820320
885.980485	4916.773457
886.289954	4654.835103
886.599382	4437.435344
886.908768	4258.794496
887.218113	4095.703086
887.527417	3962.651913
887.836680	3840.542564
888.145901	3744.059920
888.455082	3664.490348
888.764221	3594.196499
889.073319	3536.069474
889.382376	3502.434896
889.691392	3478.980928
890.000366	3478.396154
890.309300	3469.417859
890.618193	3472.961790
890.927044	3466.919967
891.235855	3471.673775
891.544625	3489.910149
891.853353	3515.360414
892.162041	3579.294848
892.470687	3665.969927
892.779293	3786.894605
893.087858	3957.388948
893.396381	4235.504365
893.704864	4649.488960
894.013306	5213.740269
894.321707	5786.990037
894.630068	6137.582123
894.938387	6177.800448
895.246665	6005.070353
895.554903	5683.946332
895.863100	5352.311506
896.171256	5079.731276
896.479371	4840.258824
896.787446	4613.404381
897.095480	4419.753497
897.403473	4273.194552
897.711425	4126.428919
898.019336	4007.825692
898.327207	3884.350191
898.635038	3780.436887
898.942827	3673.803880
899.250576	3593.619287
899.558284	3507.642408
899.865952	3455.184161
900.173579	3393.881210
900.481165	3346.910259
900.788711	3304.365441
901.096216	3271.416459
901.403681	3244.784043
901.711105	3232.569328
902.018489	3227.538256
902.325832	3257.157556
902.633135	3316.292811
902.940397	3488.775890
903.247619	3888.912435
903.554800	4641.491169
903.861941	5606.998160
904.169041	6312.462270
904.476101	6517.939701
904.783121	6245.989615
905.090100	5843.009859
905.397039	5429.607518
905.703938	5071.073094
906.010796	4748.653497
906.317614	4495.471628
906.624391	4257.481275
906.931129	4063.757294
907.237826	3882.842886
907.544483	3712.736711
907.851099	3543.573232
908.157675	3385.545662
908.464211	3241.764392
908.770707	3142.746048
909.077163	3063.960376
909.383578	3003.015346
909.689954	2957.115640
909.996289	2928.948193
910.302584	2908.675193
910.608839	2897.619943
910.915054	2883.444218
911.221229	2878.599669
911.527363	2884.109650
911.833458	2892.271278
912.139513	2904.004564
912.445527	2914.467479
912.751502	2949.324537
913.057436	2992.363388
913.363331	3050.664332
913.669186	3136.772281
913.975000	3252.928027
914.280775	3439.480967
914.586510	3708.547512
914.892205	4081.865119
915.197859	4578.595213
915.503475	5161.249254
915.809050	5654.702598
916.114585	5951.288803
916.420081	6010.779459
916.725536	5945.027690
917.030952	5704.610022
917.336328	5499.016644
917.641665	5292.004182
917.946961	5062.402310
918.252218	4863.352350
918.557435	4634.277278
918.862612	4436.394346
919.167750	4266.076442
919.472848	4079.707505
919.777906	3911.857247
920.082925	3751.475458
920.387904	3600.273610
920.692843	3487.220694
920.997743	3387.143708
921.302603	3293.746250
921.607423	3231.460274
921.912204	3169.247394
922.216946	3118.127574
922.521647	3070.201324
922.826310	3024.533511
923.130932	2989.807523
923.435516	2948.424691
923.740059	2923.365115
924.044564	2891.505023
924.349028	2866.931919
924.653454	2838.739266
924.957840	2812.762200
925.262186	2796.769139
925.566493	2774.467075
925.870761	2746.798702
926.174989	2733.643811
926.479178	2722.339023
926.783328	2707.235727
927.087438	2694.910105
927.391509	2682.604649
927.695541	2669.036383
927.999533	2660.257214
928.303486	2650.525266
928.607400	2645.156437
928.911275	2639.306178
929.215110	2632.563635
929.518906	2629.412914
929.822663	2631.010960
930.126381	2630.108593
930.430060	2633.914664
930.733699	2632.848460
931.037299	2641.163844
931.340861	2636.140334
931.644383	2642.678710
931.947866	2640.692496
932.251309	2635.628657
932.554714	2633.518934
932.858080	2635.137144
933.161407	2629.070116
933.464694	2625.997532
933.767943	2626.846967
934.071153	2618.380349
934.374323	2617.646861
934.677455	2616.499998
934.980548	2609.419698
935.283602	2608.408947
935.586617	2605.343925
935.889593	2607.945160
936.192530	2610.284256
936.495428	2614.405399
936.798287	2625.805968
937.101108	2636.145375
937.403890	2660.789056
937.706632	2686.924918
938.009336	2716.821481
938.312002	2749.228538
938.614628	2770.358534
938.917216	2790.286216
939.219765	2799.877011
939.522275	2808.910758
939.824747	2810.710450
940.127179	2802.478246
940.429573	2799.229222
940.731929	2799.138482
941.034246	2788.179013
941.336524	2787.185906
941.638763	2780.042591
941.940964	2776.034874
942.243126	2755.156935
942.545250	2746.569329
942.847335	2732.315467
943.149381	2720.481358
943.451389	2705.068030
943.753359	2692.707121
944.055290	2684.364012
944.357182	2677.250943
944.659036	2670.059737
944.960851	2669.202741
945.262628	2663.289468
945.564367	2663.634787
945.866067	2664.421207
946.167729	2662.044303
946.469352	2658.455001
946.770937	2659.788387
947.072484	2652.541728
947.373992	2651.604073
947.675462	2646.497384
947.976893	2642.895480
948.278286	2638.378606
948.579641	2632.732514
948.880958	2633.304685
949.182236	2631.189921
949.483476	2630.627832
949.784678	2626.594909
950.085841	2627.996350
950.386967	2634.128913
950.688054	2637.529172
950.989103	2646.772127
951.290114	2653.600370
951.591087	2667.478667
951.892021	2676.940912
952.192917	2691.046061
952.493776	2697.987730
952.794596	2703.248174
953.095378	2705.105839
953.396122	2704.735314
953.696828	2702.144161
953.997496	2699.109387
954.298126	2686.781245
954.598718	2678.922086
954.899272	2669.994202
955.199788	2657.865186
955.500266	2647.339257
955.800706	2630.388377
956.101108	2613.936572
956.401472	2604.466764
956.701798	2587.273909
957.002087	2573.027608
957.302337	2568.059551
957.602550	2552.404248
957.902724	2542.800850
958.202861	2534.979500
958.502960	2527.576565
958.803022	2521.917870
959.103045	2508.916734
959.403031	2504.472957
959.702979	2503.638646
960.002889	2496.008860
960.302762	2488.797489
960.602596	2488.139619
960.902393	2484.167189
961.202153	2483.612662
961.501875	2476.958339
961.801559	2477.026395
962.101205	2469.646146
962.400814	2471.851651
962.700385	2469.323512
962.999918	2470.177987
963.299414	2464.748665
963.598873	2463.193469
963.898293	2462.608695
964.197677	2461.454271
964.497022	2459.609208
964.796331	2458.757253
965.095601	2456.856738
965.394835	2459.783128
965.694030	2456.650051
965.993189	2458.384208
966.292309	2452.486058
966.591393	2456.934876
966.890439	2456.128292
967.189447	2453.819443
967.488419	2455.394804
967.787353	2457.736420
968.086249	2455.369598
968.385108	2458.311111
968.683930	2458.588375
968.982714	2459.861266
969.281462	2460.809003
969.580172	2461.144240
969.878844	2467.942236
970.177480	2467.493573
970.476078	2468.610189
970.774639	2471.241671
971.073162	2471.460961
971.371649	2474.142855
971.670098	2475.670325
971.968510	2475.788792
972.266885	2477.167547
972.565223	2479.189050
972.863524	2482.155769
973.161788	2483.007724
973.460014	2483.174082
973.758204	2487.413693
974.056356	2486.460914
974.354471	2485.470328
974.652550	2487.181799
974.950591	2488.492499
975.248595	2485.853455
975.546563	2485.490492
975.844493	2483.703403
976.142386	2479.380614
976.440243	2482.964874
976.738062	2477.580922
977.035845	2475.201497
977.333590	2470.409881
977.631299	2470.241002
977.928971	2466.195476
978.226606	2468.796711
978.524204	2464.345372
978.821765	2465.945939
979.119290	2464.337811
979.416777	2464.589868
979.714228	2466.442492
980.011642	2463.493418
980.309020	2469.298306
980.606360	2472.680920
980.903664	2482.765749
981.200931	2494.801503
981.498162	2515.868485
981.795356	2542.027033
982.092513	2578.915676
982.389633	2623.295474
982.686717	2668.761640
982.983764	2699.099304
983.280775	2717.451625
983.577749	2719.037068
983.874686	2708.211190
984.171587	2693.564117
984.468451	2677.485357
984.765279	2660.438695
985.062070	2639.343987
985.358824	2622.430916
985.655543	2601.555498
985.952224	2576.243864
986.248869	2551.471634
986.545478	2521.426358
986.842050	2504.566218
987.138586	2487.101141
987.435086	2472.837196
987.731549	2460.839250
988.027975	2458.333797
988.324366	2449.105964
988.620719	2445.753597
988.917037	2441.506425
989.213318	2437.992741
989.509563	2435.968718
989.805772	2435.963676
990.101944	2432.613830
990.398080	2434.426124
990.694180	2430.529312
990.990244	2433.402770
991.286271	2432.601227
991.582262	2430.725918
991.878217	2435.905703
992.174136	2434.340425
992.470019	2435.194900
992.765865	2436.213213
993.061676	2441.642536
993.357450	2441.599686
993.653188	2443.326282
993.948890	2451.818105
994.244556	2456.161059
994.540186	2464.350414
994.835780	2476.630664
995.131337	2490.670278
995.426859	2505.070334
995.722345	2525.000536
996.017795	2545.606252
996.313208	2561.518654
996.608586	2571.744635
996.903928	2573.675397
997.199234	2573.362845
997.494504	2567.643656
997.789738	2563.749365
998.084936	2552.860472
998.380099	2538.672145
998.675225	2530.946577
998.970316	2513.652898
999.265371	2499.761999
999.560390	2486.395379
999.855373	2479.685604
1000.150320	2466.424848
1000.445232	2460.438478
1000.740108	2450.336006
1001.034948	2447.371808
1001.329752	2440.720005
1001.624521	2437.380241
1001.919254	2431.073757
1002.213951	2429.432862
1002.508613	2424.046389
1002.803239	2424.237952
1003.097829	2417.886099
1003.392384	2422.622263
1003.686903	2420.910791
1003.981386	2421.510688
1004.275834	2419.950451
1004.570246	2419.093455
1004.864623	2419.249731
1005.158964	2418.186047
1005.453270	2418.748136
1005.747540	2416.817374
1006.041775	2418.400296
1006.335974	2413.482651
1006.630138	2412.711354
1006.924266	2416.225038
1007.218359	2413.165058
1007.512416	2413.510377
1007.806438	2413.112126
1008.100425	2415.534400
1008.394376	2410.170613
1008.688292	2412.665984
1008.982172	2413.452404
1009.276017	2414.042219
1009.569827	2410.793195
1009.863602	2411.503998
1010.157341	2408.910324
1010.451045	2410.296642
1010.744714	2408.960736
1011.038347	2411.609862
1011.331945	2409.679100
1011.625508	2411.572053
1011.919036	2409.104409
1012.212528	2411.256981
1012.505986	2407.309758
1012.799408	2411.040212
1013.092795	2407.350087
1013.386147	2407.092988
1013.679464	2409.994172
1013.972745	2407.123235
1014.265992	2406.467885
1014.559204	2410.261353
1014.852380	2406.493091
1015.145521	2407.556774
1015.438628	2407.977711
1015.731699	2409.943761
1016.024736	2410.001734
1016.317737	2409.885788
1016.610703	2407.720612
1016.903635	2405.958729
1017.196531	2405.101732
1017.489393	2408.711199
1017.782219	2405.167268
1018.075011	2411.430901
1018.367768	2410.372259
1018.660490	2407.881929
1018.953177	2407.881929
1019.245829	2407.881929
