Dividing Wavelength (nm)	Counts (n)	Blue Motor Position (mm): 12.000000	Red Motor Position (mm): 0.000000	
326.493990	1976.225569
326.888308	1976.225569
327.282561	1976.225569
327.676750	1948.116095
328.070874	1951.158432
328.464933	1958.468105
328.858929	1968.741976
329.252859	1981.044912
329.646726	1994.479587
330.040528	2009.474499
330.434265	2029.697088
330.827938	2049.876827
331.221547	2068.057748
331.615091	2087.574575
332.008571	2108.868409
332.401986	2127.626543
332.795338	2148.509522
333.188625	2168.545588
333.581847	2187.225584
333.975006	2204.302493
334.368100	2222.780842
334.761129	2240.896228
335.154095	2253.967940
335.546996	2285.122271
335.939833	2334.933912
336.332606	2347.241889
336.725315	2359.965762
337.117960	2370.169057
337.510540	2375.111908
337.903056	2384.685059
338.295508	2393.290309
338.687896	2397.971020
339.080220	2408.254974
339.472480	2410.392423
339.864676	2416.673701
340.256807	2421.513209
340.648875	2420.772159
341.040879	2419.363157
341.432818	2421.263672
341.824694	2424.527819
342.216506	2423.038158
342.608253	2422.755853
342.999937	2421.616553
343.391557	2421.097314
343.783113	2418.029772
344.174605	2417.109761
344.566033	2414.667322
344.957397	2414.664801
345.348697	2413.026426
345.739934	2411.080541
346.131106	2409.391754
346.522215	2404.436300
346.913260	2406.911507
347.304241	2406.583832
347.695159	2399.047307
348.086012	2402.485374
348.476802	2398.253325
348.867528	2400.421021
349.258191	2396.423386
349.648789	2394.122099
350.039324	2393.975906
350.429796	2395.047151
350.820203	2390.434495
351.210548	2392.032541
351.600828	2388.607077
351.991045	2393.307953
352.381198	2390.295864
352.771288	2391.452808
353.161314	2389.025493
353.551276	2388.612118
353.941175	2387.162787
354.331010	2390.396687
354.720782	2391.407438
355.110490	2394.013715
355.500135	2390.424413
355.889717	2389.300236
356.279235	2393.373488
356.668689	2390.943652
357.058080	2394.842984
357.447408	2388.617159
357.836672	2389.136398
358.225873	2390.774773
358.615010	2387.402241
359.004084	2392.889537
359.393095	2393.900289
359.782043	2396.844323
360.170927	2396.330125
360.559748	2394.008673
360.948505	2398.371792
361.337199	2394.691750
361.725830	2397.333314
362.114398	2396.882131
362.502903	2398.863305
362.891344	2398.681823
363.279722	2399.148130
363.668037	2400.693243
364.056289	2399.279200
364.444478	2401.000754
364.832603	2401.207441
365.220665	2400.068140
365.608665	2402.369427
365.996601	2402.525703
366.384474	2401.658624
366.772284	2402.452606
367.160031	2398.838099
367.547715	2401.341032
367.935336	2402.956722
368.322893	2403.985117
368.710388	2405.202556
369.097820	2402.697102
369.485189	2401.328429
369.872495	2406.601476
370.259738	2406.135169
370.646918	2406.810684
371.034035	2404.224572
371.421090	2407.949984
371.808081	2405.126938
372.195010	2405.593245
372.581875	2404.970662
372.968678	2406.654408
373.355418	2404.600138
373.742096	2406.150292
374.128710	2406.266239
374.515262	2407.808832
374.901751	2408.489388
375.288177	2408.489388
375.674540	2408.660787
376.060841	2406.208266
376.447079	2406.107443
376.833254	2407.176167
377.219367	2406.016702
377.605417	2407.864285
377.991404	2404.963101
378.377329	2408.197001
378.763191	2404.383368
379.148991	2410.667166
379.534727	2409.502660
379.920402	2409.500139
380.306013	2411.178843
380.691563	2409.900911
381.077049	2410.432753
381.462474	2409.989131
381.847835	2412.650860
382.233134	2410.140366
382.618371	2412.948288
383.003545	2411.751014
383.388657	2412.514749
383.773706	2410.815880
384.158693	2409.701785
384.543618	2414.846283
384.928480	2415.042888
385.313280	2413.107085
385.698017	2414.324523
386.082692	2413.480130
386.467305	2413.734708
386.851856	2414.780748
387.236344	2415.783938
387.620770	2417.513053
388.005133	2416.562796
388.389435	2413.835532
388.773674	2415.451221
389.157851	2418.186047
389.541965	2416.477096
389.926018	2415.806623
390.310008	2416.454411
390.693936	2417.258475
391.077802	2419.542118
391.461606	2417.644123
391.845348	2417.787796
392.229027	2416.729154
392.612645	2419.731161
392.996200	2419.358116
393.379694	2418.450708
393.763125	2417.477765
394.146494	2420.618404
394.529801	2421.099834
394.913047	2420.144536
395.296230	2420.966244
395.679351	2420.656213
396.062410	2417.921387
396.445408	2421.591347
396.828343	2420.341141
397.211217	2413.729667
397.594028	2421.074628
397.976778	2416.683783
398.359466	2421.203178
398.742092	2416.409041
399.124656	2420.525143
399.507158	2421.104875
399.889598	2423.978333
400.271977	2421.190575
400.654294	2426.503951
401.036549	2422.990267
401.418742	2425.382294
401.800874	2422.649989
402.182944	2421.659402
402.564952	2421.714855
402.946898	2422.564289
403.328783	2425.142840
403.710606	2424.578230
404.092367	2427.255083
404.474067	2424.406831
404.855705	2424.275761
405.237282	2424.777356
405.618797	2423.839701
406.000250	2427.474373
406.381642	2427.328180
406.762972	2426.632501
407.144240	2426.234249
407.525447	2427.754157
407.906593	2426.002356
408.287677	2425.704928
408.668700	2427.885227
409.049661	2426.377922
409.430560	2427.628128
409.811399	2427.398756
410.192176	2427.514702
410.572891	2429.049734
410.953545	2428.603592
411.334138	2430.753644
411.714669	2428.701894
412.095139	2429.715166
412.475547	2426.148550
412.855894	2430.662903
413.236180	2428.913623
413.616405	2429.843716
413.996568	2431.189704
414.376670	2431.245156
414.756711	2427.386153
415.136691	2429.190886
415.516609	2432.351690
415.896466	2427.363468
416.276262	2429.548808
416.655997	2427.880186
417.035670	2426.705597
417.415283	2430.010074
417.794834	2425.886410
418.174324	2431.592996
418.553753	2430.695671
418.933121	2428.182655
419.312428	2430.390681
419.691674	2430.312543
420.070859	2432.069385
420.449983	2431.043510
420.829045	2432.132399
421.208047	2432.326484
421.586988	2430.985537
421.965867	2432.981834
422.344686	2432.747420
422.723444	2433.624581
423.102141	2433.100301
423.480777	2432.727256
423.859352	2431.693819
424.237866	2431.895465
424.616319	2433.218768
424.994712	2433.576690
425.373044	2431.542584
425.751314	2433.564087
426.129524	2433.750610
426.507673	2432.001329
426.885762	2431.449323
427.263789	2435.338573
427.641756	2431.729107
428.019662	2436.868563
428.397508	2432.150043
428.775292	2434.663059
429.153016	2434.655497
429.530679	2434.710950
429.908282	2432.601227
430.285824	2432.676844
430.663305	2435.116763
431.040726	2434.496701
431.418086	2431.829930
431.795385	2436.999633
432.172624	2433.249015
432.549802	2436.394695
432.926920	2435.575508
433.303977	2437.304623
433.680974	2436.268666
434.057910	2434.083326
434.434786	2434.083326
434.811601	2436.369489
435.188355	2435.570466
435.565050	2437.302103
435.941683	2438.098605
436.318257	2433.617019
436.694770	2432.979313
437.071222	2435.356217
437.447614	2431.973603
437.823946	2433.773295
438.200218	2436.954263
438.576429	2437.097936
438.952580	2438.262442
439.328670	2437.634819
439.704700	2434.589962
440.080670	2436.457709
440.456580	2438.887546
440.832429	2437.803698
441.208218	2439.063986
441.583947	2438.322936
441.959616	2439.071548
442.335224	2437.589448
442.710773	2438.481733
443.086261	2440.825869
443.461689	2439.212700
443.837057	2439.749583
444.212365	2439.636157
444.587612	2442.038267
444.962800	2440.883843
445.337927	2440.367124
445.712995	2437.886877
446.088002	2440.742690
446.462949	2438.743873
446.837837	2440.762855
447.212664	2442.497012
447.587431	2441.264450
447.962139	2445.078083
448.336786	2445.766200
448.711374	2446.051025
449.085901	2441.266970
449.460369	2442.746549
449.834776	2443.855603
450.209124	2445.793926
450.583412	2444.725202
450.957640	2447.044132
451.331808	2444.924327
451.705917	2445.136056
452.079965	2445.279729
452.453954	2445.786365
452.827883	2447.366766
453.201752	2446.139245
453.575562	2446.028340
453.949311	2446.706375
454.323001	2446.955912
454.696632	2445.867023
455.070202	2450.749381
455.443713	2448.150666
455.817164	2448.448094
456.190556	2447.505398
456.563888	2449.957919
456.937160	2447.134873
457.310373	2450.479679
457.683526	2449.516818
458.056619	2450.794751
458.429653	2449.970522
458.802628	2451.848352
459.175542	2450.497323
459.548398	2456.012345
459.921194	2451.954216
460.293930	2455.273816
460.666607	2457.295319
461.039224	2460.312449
461.411782	2459.974692
461.784280	2457.098714
462.156719	2455.777932
462.529099	2457.829681
462.901419	2454.714248
463.273680	2458.117027
463.645882	2455.248610
464.018024	2457.643158
464.390106	2458.059054
464.762130	2459.697429
465.134094	2463.135496
465.505999	2469.691516
465.877845	2468.595065
466.249631	2469.812504
466.621358	2469.968780
466.993026	2473.369038
467.364634	2472.943060
467.736184	2468.620271
468.107674	2465.910651
468.479105	2466.845785
468.850477	2466.906279
469.221790	2464.685650
469.593043	2465.373768
469.964238	2462.517954
470.335373	2465.494756
470.706449	2466.089612
471.077467	2464.242029
471.448425	2471.622278
471.819324	2473.386682
472.190164	2474.838534
472.560945	2467.304530
472.931667	2469.230251
473.302330	2466.442492
473.672934	2463.851339
474.043479	2467.528861
474.413965	2464.768829
474.784393	2463.410238
475.154761	2464.423510
475.525070	2465.013325
475.895321	2462.102059
476.265513	2465.535085
476.635645	2466.548357
477.005719	2468.340487
477.375734	2469.746969
477.745691	2468.027935
478.115588	2471.493729
478.485427	2471.554222
478.855207	2477.303658
479.224928	2478.982363
479.594591	2477.512866
479.964194	2480.189719
480.333739	2479.783906
480.703226	2477.013792
481.072653	2481.036633
481.442022	2482.110399
481.811333	2480.938330
482.180584	2479.075624
482.549777	2480.857672
482.918912	2479.690645
483.287988	2481.815491
483.657005	2478.480768
484.025964	2480.194760
484.394864	2477.452373
484.763706	2478.934472
485.132489	2479.897332
485.501213	2477.704430
485.869879	2477.931282
486.238487	2480.663588
486.607036	2478.752990
486.975527	2478.836169
487.343959	2478.430356
487.712333	2481.412199
488.080648	2481.959164
488.448905	2483.045533
488.817104	2483.806747
489.185244	2484.084010
489.553326	2486.899495
489.921350	2491.199599
490.289315	2496.964158
490.657222	2497.037255
491.025070	2500.525734
491.392861	2502.007833
491.760593	2498.937770
492.128267	2498.486587
492.495883	2498.791577
492.863440	2495.512306
493.230939	2497.730414
493.598380	2497.009529
493.965763	2495.577841
494.333088	2496.984323
494.700354	2494.725886
495.067563	2500.868532
495.434713	2495.406442
495.801805	2506.186949
496.168839	2503.832731
496.535815	2506.827176
496.902733	2505.957577
497.269593	2511.137362
497.636395	2510.048473
498.003139	2512.992507
498.369825	2514.204905
498.736453	2521.378467
499.103023	2517.108609
499.469535	2521.950638
499.835989	2520.506347
500.202385	2524.602284
500.568723	2526.459950
500.935003	2528.282327
501.301226	2528.990609
501.667390	2535.561753
502.033497	2540.786909
502.399546	2537.459747
502.765537	2540.272711
503.131470	2542.236241
503.497345	2547.355532
503.863163	2545.487785
504.228923	2548.283105
504.594625	2552.767211
504.960269	2551.345606
505.325856	2558.138560
505.691385	2560.160063
506.056856	2564.447564
506.422270	2568.893862
506.787625	2568.551064
507.152924	2572.145406
507.518164	2575.175140
507.883347	2574.537434
508.248472	2581.108578
508.613540	2582.283167
508.978550	2588.892119
509.343503	2591.815989
509.708398	2595.435537
510.073236	2601.701691
510.438016	2602.909048
510.802738	2602.911568
511.167403	2609.833072
511.532010	2612.532610
511.896561	2617.001593
512.261053	2623.509723
512.625488	2621.170628
512.989866	2624.218005
513.354186	2629.123048
513.718449	2626.872172
514.082655	2637.914820
514.446803	2639.374234
514.810894	2643.845737
515.174927	2650.190030
515.538904	2649.494350
515.902822	2653.912922
516.266684	2654.722027
516.630488	2658.084477
516.994235	2660.889879
517.357925	2668.993533
517.721558	2671.529234
518.085133	2674.619461
518.448651	2679.955522
518.812112	2679.690862
519.175516	2682.806295
519.538863	2685.614218
519.902152	2689.440453
520.265385	2695.268027
520.628560	2700.427648
520.991678	2699.928574
521.354739	2704.218596
521.717743	2705.748586
522.080690	2710.935933
522.443580	2715.263764
522.806413	2719.006821
523.169189	2718.805175
523.531908	2726.500496
523.894569	2726.583675
524.257174	2728.655589
524.619722	2737.543143
524.982213	2733.691702
525.344647	2736.827300
525.707025	2740.477095
526.069345	2744.820049
526.431608	2747.063362
526.793815	2752.792634
527.155964	2749.677201
527.518057	2755.053591
527.880093	2753.311873
528.242072	2761.629777
528.603995	2762.796804
528.965860	2761.697832
529.327669	2764.591454
529.689421	2765.539191
530.051117	2768.568925
530.412755	2770.461878
530.774337	2774.025974
531.135862	2774.661159
531.497331	2776.531427
531.858743	2772.927002
532.220098	2782.479989
532.581396	2778.152158
532.942638	2779.566202
533.303824	2784.703138
533.664953	2786.613735
534.026025	2784.625000
534.387040	2793.754529
534.747999	2795.854170
535.108902	2797.449695
535.469748	2795.526495
535.830537	2799.236784
536.191270	2803.632670
536.551947	2798.793163
536.912567	2805.691982
537.273131	2807.920172
537.633638	2805.800367
537.994089	2814.214052
538.354483	2808.822538
538.714821	2817.034578
539.075103	2821.601863
539.435328	2821.664878
539.795497	2826.025476
540.155609	2824.356854
540.515665	2828.372133
540.875665	2829.226608
541.235609	2833.819100
541.595496	2835.465036
541.955328	2845.607838
542.315102	2838.646004
542.674821	2837.307578
543.034483	2843.029288
543.394090	2843.183043
543.753640	2846.255626
544.113134	2856.925228
544.472571	2855.430526
544.831953	2866.942001
545.191278	2860.509489
545.550548	2864.116434
545.909761	2868.106508
546.268918	2877.495657
546.628019	2878.960112
546.987064	2882.226779
547.346053	2876.953733
547.704986	2889.037378
548.063863	2888.124929
548.422684	2894.295302
548.781449	2896.233625
549.140158	2904.193607
549.498811	2909.698547
549.857408	2907.729977
550.215949	2916.012593
550.574434	2920.917635
550.932864	2925.036258
551.291237	2933.860798
551.649555	2941.624175
552.007817	2949.813529
552.366022	2950.388221
552.724173	2959.462298
553.082267	2972.158443
553.440305	2984.030361
553.798288	2985.225114
554.156215	2993.772391
554.514086	3004.938546
554.871902	3008.006088
555.229661	3021.080321
555.587365	3028.321938
555.945014	3036.750748
556.302606	3044.529248
556.660143	3061.374264
557.017625	3074.582087
557.375050	3084.240938
557.732421	3101.234667
558.089735	3111.080041
558.446994	3122.412554
558.804197	3140.543064
559.161345	3150.814415
559.518437	3156.989829
559.875474	3178.245854
560.232455	3193.633976
560.589381	3212.457644
560.946251	3223.739747
561.303065	3251.022471
561.659825	3262.077722
562.016528	3279.429373
562.373177	3292.672484
562.729770	3320.673573
563.086307	3330.372753
563.442789	3360.334851
563.799216	3385.084396
564.155587	3401.808424
564.511904	3424.957402
564.868164	3447.496401
565.224370	3483.223059
565.580520	3500.027745
565.936615	3533.642159
566.292654	3552.581774
566.648638	3591.375973
567.004567	3617.652988
567.360441	3648.968635
567.716260	3678.005682
568.072023	3716.661249
568.427732	3745.804160
568.783385	3773.401956
569.138982	3817.812001
569.494525	3857.470758
569.850013	3887.223648
570.205445	3928.455246
570.560823	3965.364054
570.916145	4001.156246
571.271412	4042.833985
571.626625	4080.375458
571.981782	4127.840442
572.336884	4157.676511
572.691931	4220.113722
573.046923	4254.456583
573.401860	4291.884629
573.756743	4336.287112
574.111570	4396.009662
574.466342	4435.315539
574.821059	4486.939475
575.175722	4518.976007
575.530330	4576.508176
575.884882	4610.130151
576.239380	4662.326258
576.593823	4719.681986
576.948211	4771.386580
577.302544	4806.437723
577.656823	4864.307649
578.011047	4938.289102
578.365216	4986.490094
578.719330	5035.555645
579.073389	5084.628757
579.427394	5156.997041
579.781344	5217.881577
580.135239	5271.534577
580.489080	5342.017469
580.842866	5376.040217
581.196597	5478.083253
581.550273	5550.340632
581.903895	5608.175269
582.257463	5721.588628
582.610975	5755.215644
582.964434	5854.007136
583.317837	5904.390948
583.671186	5965.666173
584.024481	6065.289456
584.377721	6097.527635
584.730906	6194.842068
585.084037	6277.128823
585.437113	6326.315361
585.790135	6411.278968
586.143103	6451.146933
586.496016	6548.720986
586.848874	6623.844261
587.201679	6720.861267
587.554428	6750.616677
587.907124	6857.340425
588.259765	6922.038593
588.612352	7040.654422
588.964884	7068.925213
589.317362	7181.595002
589.669786	7271.733353
590.022155	7330.354411
590.374470	7470.059907
590.726731	7500.657190
591.078937	7528.272631
591.431090	7629.541850
591.783188	7668.293200
592.135232	7713.721558
592.487222	7834.406781
592.839157	7936.107018
593.191038	7983.967733
593.542866	8039.450672
593.894639	8049.843011
594.246358	8179.327568
594.598022	8268.056917
594.949633	8297.832492
595.301190	8380.935913
595.652692	8443.584853
596.004141	8586.128519
596.355535	8521.405145
596.706876	8597.619829
597.058162	8660.634252
597.409395	8828.479469
597.760573	8938.182539
598.111698	8966.413000
598.462768	9058.691322
598.813785	9156.935848
599.164748	9162.811313
599.515657	9327.326848
599.866511	9336.756327
600.217312	9542.427842
600.568060	9454.298390
600.918753	9689.465697
601.269392	9786.366756
601.619978	9819.106529
601.970510	9954.474113
602.320988	10101.045661
602.671412	10261.787893
603.021783	10311.723042
603.372100	10348.611685
603.722363	10468.392021
604.072572	10584.661194
604.422728	10694.936434
604.772830	10761.807340
605.122878	10886.021371
605.472872	10985.957204
605.822813	11161.485140
606.172701	11223.435880
606.522534	11390.293031
606.872314	11563.691079
607.222041	11626.274484
607.571714	11833.450783
607.921333	11807.256948
608.270899	12001.323727
608.620411	12205.056918
608.969870	12273.079728
609.319276	12389.396791
609.668627	12521.222964
610.017926	12793.465437
610.367171	12963.541364
610.716362	13112.285650
611.065500	13228.814442
611.414585	13403.654260
611.763616	13618.767856
612.112594	13726.646028
612.461518	13922.683898
612.810389	14140.371003
613.159207	14228.324015
613.507971	14378.268095
613.856682	14666.833823
614.205340	14760.493420
614.553945	15119.521877
614.902496	15078.030660
615.250994	15363.773342
615.599439	15529.367684
615.947830	15753.250368
616.296169	15906.188893
616.644454	16097.241062
616.992686	16311.414483
617.340864	16639.084442
617.688990	16688.666711
618.037063	17055.224131
618.385082	17196.421809
618.733048	17452.444368
619.080961	17622.805122
619.428821	17770.216022
619.776628	17956.496739
620.124382	18022.268673
620.472083	18205.007979
620.819731	18387.313746
621.167326	18394.298265
621.514868	18517.846863
621.862357	18465.212176
622.209793	18601.950954
622.557176	18597.643288
622.904506	18616.053582
623.251783	18598.505325
623.599007	18633.937075
623.946179	18658.890786
624.293297	18754.188759
624.640363	18650.794693
624.987376	18756.684130
625.334336	18783.165311
625.681243	18761.080016
626.028097	18870.306696
626.374899	18929.237785
626.721647	19059.274348
627.068343	19135.378127
627.414987	19150.186517
627.761577	19181.290436
628.108115	19453.689184
628.454600	19336.615948
628.801032	19549.334996
629.147412	19661.851029
629.493739	19785.114802
629.840014	19754.388970
630.186236	20036.423883
630.532405	19979.952878
630.878521	20213.532221
631.224585	20272.049935
631.570597	20242.604555
631.916556	20453.299580
632.262462	20539.490708
632.608316	20674.911224
632.954117	20738.354145
633.299866	20848.901608
633.645562	20913.221690
633.991206	20782.862492
634.336797	20669.945687
634.682336	20772.182808
635.027823	20753.795199
635.373257	20767.718866
635.718639	20740.514279
636.063968	20783.540528
636.409245	20579.335988
636.754470	20719.124664
637.099642	20685.742143
637.444762	20532.569204
637.789829	20721.234387
638.134845	20627.214347
638.479808	20708.994465
638.824719	20766.637539
639.169577	20637.457971
639.514383	20782.827204
639.859137	20706.385668
640.203839	20942.997265
640.548489	20849.191474
640.893086	20965.322015
641.237632	20927.820871
641.582125	21087.509502
641.926566	21136.166718
642.270955	21224.984288
642.615292	21327.927170
642.959576	21406.680075
643.303809	21501.988130
643.647990	21674.791322
643.992118	21745.995099
644.336195	21842.437413
644.680219	21982.667190
645.024192	22255.968305
645.368112	22652.618892
645.711981	22762.200974
646.055797	23388.060224
646.399562	23432.939096
646.743274	24106.853145
647.086935	24485.746268
647.430544	24511.188972
647.774101	24673.584702
648.117606	24915.754171
648.461059	25202.953746
648.804460	25055.182404
649.147810	24761.963690
649.491108	24689.847464
649.834354	24555.397370
650.177548	24109.121664
650.520690	23913.746706
650.863781	24012.933928
651.206820	24009.929401
651.549807	23802.811074
651.892742	23572.359767
652.235626	23536.267626
652.578458	23532.519528
652.921238	23206.863511
653.263967	23507.863245
653.606644	23382.600654
653.949269	23424.401902
654.291843	23240.752667
654.634365	23581.398556
654.976836	23376.891548
655.319255	23464.227017
655.661622	23521.391181
656.003938	23453.542292
656.346203	23433.851545
656.688416	23665.782430
657.030577	23588.388116
657.372687	23550.960069
657.714746	23818.884793
658.056753	23961.698161
658.398708	23658.432428
658.740612	23756.929012
659.082465	24012.744885
659.424266	23966.414161
659.766016	24122.692450
660.107715	24112.428661
660.449362	24272.165183
660.790958	24317.369209
661.132503	24403.615790
661.473996	24486.822554
661.815438	24629.610717
662.156829	24836.489588
662.498168	24751.054633
662.839456	24828.685882
663.180693	24996.614278
663.521879	25180.311404
663.863013	25222.301695
664.204097	25270.948829
664.545129	25680.061149
664.886110	25725.539919
665.227040	25821.563817
665.567918	25970.030839
665.908746	26074.410450
666.249522	26259.047751
666.590248	26317.444477
666.930922	26476.233261
667.271545	26490.444274
667.612118	26624.818750
667.952639	26521.601125
668.293109	26630.371581
668.633528	26614.459179
668.973896	26615.316175
669.314213	26703.700205
669.654480	26564.551756
669.994695	26642.755176
670.334859	26626.623483
670.674973	26611.280732
671.015035	26787.816898
671.355047	26819.707238
671.695008	26830.326428
672.034918	26800.724773
672.374777	26916.762052
672.714585	26839.279517
673.054342	27064.082211
673.394049	26934.660669
673.733705	27205.582359
674.073310	26985.541034
674.412864	27100.358354
674.752368	26846.077513
675.091820	27134.005536
675.431223	26857.883896
675.770574	26683.185230
676.109875	26633.781922
676.449125	26466.324873
676.788324	26459.242052
677.127473	26084.195330
677.466571	26073.583701
677.805619	25848.806213
678.144616	25897.831434
678.483562	25873.044080
678.822458	25663.271586
679.161303	25651.238352
679.500098	25604.395951
679.838842	25569.995117
680.177535	25752.804999
680.516179	26012.084144
680.854771	26253.908294
681.193314	26985.490623
681.531805	27941.810110
681.870247	28621.831517
682.208638	29270.507030
682.546978	29495.208901
682.885268	29614.596027
683.223508	29201.914570
683.561697	28970.457553
683.899836	28841.971144
684.237925	28455.997720
684.575963	28363.825263
684.913951	28034.153967
685.251889	28179.508076
685.589776	28205.449854
685.927614	28223.547596
686.265401	28367.817857
686.603137	28492.964502
686.940824	28932.482541
687.278460	29270.517112
687.616046	29401.740867
687.953582	29929.012792
688.291068	29836.784882
688.628504	30096.381620
688.965889	30076.670709
689.303224	29796.508584
689.640510	29548.574555
689.977745	28965.706265
690.314930	28331.440891
690.652065	27923.775383
690.989150	27319.189802
691.326185	26611.482378
691.663170	26045.829628
692.000105	25428.764671
692.336990	24903.962912
692.673825	24553.713625
693.010610	24141.957220
693.347345	23682.849257
693.684030	23140.839519
694.020665	22931.278753
694.357251	22384.011092
694.693786	22364.252289
695.030272	22172.842198
695.366707	21730.745609
695.703093	21494.416317
696.039429	21506.384016
696.375716	21307.195424
696.711952	21288.603649
697.048139	21171.192655
697.384276	21026.047754
697.720363	21150.486116
698.056400	20995.084987
698.392388	20823.736168
698.728326	20818.047226
699.064214	20654.131588
699.400053	20623.977926
699.735842	20327.651341
700.071581	20109.999524
700.407270	19878.310614
700.742910	19730.052800
701.078501	19499.646863
701.414042	19271.670763
701.749533	19031.868115
702.084974	18736.680831
702.420366	18934.024360
702.755709	18561.914110
703.091002	18315.041244
703.426246	18354.178242
703.761440	18274.366694
704.096584	18048.976706
704.431679	18014.719545
704.766725	17955.387685
705.101721	17907.610149
705.436668	17994.998551
705.771565	17720.245584
706.106413	18044.290953
706.441212	18043.408752
706.775961	18185.203806
707.110661	18254.141585
707.445311	18595.465509
707.779913	18453.919992
708.114465	18688.817596
708.448967	18960.576118
708.783421	19580.403627
709.117825	19830.860753
709.452180	20035.327433
709.786485	20400.637167
710.120742	21127.493413
710.454949	21127.931994
710.789107	21558.139022
711.123216	22189.888860
711.457275	22292.246968
711.791286	22791.124594
712.125247	22846.957893
712.459159	22588.253440
712.793023	23197.736502
713.126837	22201.365047
713.460602	22449.649435
713.794318	22123.058283
714.127985	21791.085700
714.461602	21017.450066
714.795171	20993.870069
715.128691	20094.031669
715.462162	19618.202199
715.795584	19255.312218
716.128957	19042.562923
716.462281	18683.917595
716.795556	18482.692377
717.128782	18032.628244
717.461960	17541.856794
717.795088	17476.011763
718.128167	17124.010675
718.461198	16718.419601
718.794180	16586.091833
719.127113	16274.977023
719.459997	16102.428410
719.792833	15793.960206
720.125619	15774.730724
720.458357	15505.361710
720.791046	15340.914230
721.123686	15204.301482
721.456278	14991.080838
721.788821	14959.193020
722.121315	14729.565942
722.453761	14803.650738
722.786158	14747.295680
723.118506	14756.485703
723.450805	14634.293175
723.783056	14779.617038
724.115259	14695.354151
724.447412	14643.447910
724.779518	14872.268404
725.111574	14895.493000
725.443582	15077.748355
725.775542	15067.545060
726.107453	15502.153015
726.439315	15397.813734
726.771129	15769.689571
727.102895	16106.844460
727.434612	16290.622244
727.766281	16410.218578
728.097901	16644.017211
728.429473	16688.046649
728.760996	16682.763520
729.092471	16761.821415
729.423897	16661.376425
729.755276	16557.417750
730.086606	16663.385324
730.417887	17151.356414
730.749120	17646.927043
731.080305	17816.816448
731.411442	18140.282084
731.742530	18222.984734
732.073570	18319.658941
732.404562	18599.316951
732.735506	18422.533768
733.066401	18151.846491
733.397249	17677.872166
733.728048	17083.172288
734.058798	16341.159812
734.389501	15706.672627
734.720156	15292.824143
735.050762	14801.478001
735.381320	14466.566425
735.711831	14253.348302
736.042293	13929.111369
736.372707	13941.424388
736.703073	13746.034306
737.033391	13925.423765
737.363661	13894.375299
737.693883	14002.964273
738.024056	14158.378005
738.354182	14344.154607
738.684260	14598.710191
739.014290	14804.301047
739.344272	14988.845087
739.674207	15244.819756
740.004093	15346.860271
740.333931	15344.866495
740.663722	15383.390992
740.993464	15384.444594
741.323159	15224.587085
741.652806	14967.843640
741.982405	14782.208191
742.311956	14468.542557
742.641460	14360.772770
742.970915	14071.977669
743.300323	13776.525725
743.629683	13571.542327
743.958996	13310.513901
744.288260	13050.264334
744.617477	12767.362342
744.946647	12698.643853
745.275768	12442.593567
745.604842	12277.299174
745.933869	12120.720935
746.262847	12080.202661
746.591778	12016.888289
746.920662	11925.303127
747.249498	11930.167840
747.578286	12035.512832
747.907027	12175.873679
748.235720	12376.735933
748.564365	12408.107034
748.892963	12321.810042
749.221514	12364.972401
749.550017	12245.338258
749.878473	12205.515663
750.206881	12006.226249
750.535242	11916.841550
750.863555	11847.273627
751.191821	11755.045718
751.520039	11776.843667
751.848210	11690.662621
752.176334	11717.975593
752.504411	11631.892850
752.832440	11481.195117
753.160421	11548.149202
753.488356	11423.428535
753.816243	11343.100269
754.144082	11207.425175
754.471875	11155.846610
754.799620	11104.036151
755.127318	11075.924157
755.454969	11044.550536
755.782572	10995.721919
756.110129	11007.808086
756.437638	10930.383524
756.765100	10922.557133
757.092515	10931.086765
757.419882	10947.740217
757.747203	10951.362286
758.074477	11021.411639
758.401703	10977.208282
758.728882	11136.942283
759.056014	11179.058602
759.383099	11284.832093
759.710138	11388.987372
760.037129	11467.034516
760.364073	11480.648152
760.690970	11468.602315
761.017820	11475.856535
761.344623	11654.328505
761.671379	11968.306690
761.998088	12564.236609
762.324751	14091.232356
762.651366	16829.022516
762.977935	20344.503918
763.304456	22481.081030
763.630931	22927.606273
763.957359	21802.710601
764.283740	19960.559559
764.610074	18155.105597
764.936362	16116.836027
765.262602	14664.472043
765.588796	13253.700098
765.914943	12255.811255
766.241044	11451.958945
766.567097	10837.918681
766.893104	10301.544953
767.219064	9963.059198
767.544978	9589.804606
767.870845	9293.906519
768.196665	9117.239282
768.522438	8928.188451
768.848165	8773.266232
769.173846	8608.657435
769.499479	8493.658634
769.825066	8342.585335
770.150607	8166.777616
770.476101	8109.595807
770.801548	8004.840631
771.126949	7870.322481
771.452303	7771.503263
771.777611	7625.133361
772.102872	7602.743076
772.428087	7483.040878
772.753256	7369.206583
773.078378	7286.458563
773.403453	7144.960937
773.728482	7054.898203
774.053465	6987.243398
774.378401	6906.138794
774.703291	6817.661503
775.028135	6724.795887
775.352932	6691.672986
775.677683	6608.877075
776.002388	6524.780547
776.327046	6524.594024
776.651658	6439.804337
776.976224	6365.969077
777.300743	6351.029617
777.625216	6281.018073
777.949643	6245.977013
778.274024	6251.585296
778.598359	6185.417631
778.922647	6184.495100
779.246889	6145.176621
779.571086	6157.882849
779.895236	6170.127812
780.219339	6165.253016
780.543397	6161.015926
780.867409	6210.966199
781.191374	6207.074428
781.515294	6175.138719
781.839167	6225.915741
782.162995	6192.825607
782.486776	6151.019318
782.810511	6110.110355
783.134201	6043.983019
783.457844	6021.330594
783.781441	5982.178473
784.104993	5941.176248
784.428498	5909.923615
784.751958	5894.656480
785.075372	5867.048601
785.398739	5826.195091
785.722061	5856.792374
786.045337	5855.355645
786.368568	5963.750535
786.691752	5986.723073
787.014891	6225.653601
787.337983	6496.860116
787.661030	6913.728251
787.984031	7328.456416
788.306987	7587.864111
788.629897	7675.713778
788.952760	7589.681447
789.275579	7414.884478
789.598351	7123.036959
789.921078	6875.458332
790.243759	6600.778461
790.566395	6405.431229
790.888984	6207.099634
791.211529	6081.922743
791.534027	5923.086068
791.856480	5788.124297
792.178888	5725.976952
792.501249	5662.637375
792.823566	5562.872940
793.145836	5561.690789
793.468062	5539.797058
793.790241	5498.487323
794.112375	5542.068098
794.434464	5636.405731
794.756507	5669.450494
795.078505	5786.483401
795.400457	5992.618703
795.722364	6226.802984
796.044226	6417.038486
796.366042	6568.111784
796.687812	6521.387850
797.009538	6542.810233
797.331218	6455.883097
797.652852	6387.527571
797.974442	6271.419716
798.295986	6198.809457
798.617484	6073.453604
798.938938	5971.357636
799.260346	5904.592595
799.581709	5769.335916
799.903026	5718.929419
800.224299	5649.106918
800.545526	5530.924627
800.866708	5470.574454
801.187845	5428.241365
801.508936	5353.085323
801.829983	5321.525179
802.150984	5221.672524
802.471940	5193.754614
802.792851	5176.667623
803.113717	5155.782123
803.434538	5127.725581
803.755314	5101.526705
804.076045	5088.868367
804.396731	5054.591042
804.717372	5068.514709
805.037967	5077.087191
805.358518	5100.876396
805.679024	5153.082585
805.999485	5162.184388
806.319901	5182.951422
806.640272	5201.714596
806.960598	5246.054065
807.280879	5238.787242
807.601115	5274.135812
807.921306	5241.441409
808.241453	5234.656016
808.561554	5243.835957
808.881611	5207.791707
809.201623	5211.577614
809.521590	5159.822608
809.841513	5142.027335
810.161390	5159.673894
810.481223	5074.485955
810.801011	5060.161517
811.120755	5036.261406
811.440453	4980.697809
811.760107	4952.265701
812.079716	4930.072021
812.399281	4881.190473
812.718801	4871.748392
813.038276	4841.042724
813.357707	4811.060461
813.677093	4832.389583
813.996434	4768.371970
814.315731	4788.239158
814.634983	4787.971977
814.954191	4789.398623
815.273354	4850.782233
815.592473	4887.547368
815.911547	4959.421619
816.230577	5012.590668
816.549562	5098.368422
816.868502	5145.513293
817.187399	5200.182085
817.506250	5278.214106
817.825058	5305.569927
818.143821	5449.099139
818.462539	5617.718173
818.781213	5839.566751
819.099843	6195.605803
819.418429	6803.823535
819.736970	7406.997593
820.055466	8097.250022
820.373919	8983.626020
820.692327	10386.664835
821.010691	13003.477385
821.329011	19034.242499
821.647286	28308.861563
821.965517	38333.281686
822.283704	43625.361485
822.601847	45064.968830
822.919945	40589.364390
823.237999	35629.133666
823.556010	30580.239128
823.873976	26019.494641
824.191897	21942.065737
824.509775	18970.479464
824.827609	16282.206038
825.145398	14787.317400
825.463144	14061.676071
825.780845	14351.794475
826.098502	15571.234467
826.416116	17956.753837
826.733685	20180.510143
827.051210	20688.950837
827.368692	19292.276479
827.686129	16801.694421
828.003522	14403.882197
828.320872	12241.033113
828.638177	10645.669237
828.955439	9439.437069
829.272656	8414.499916
829.589830	7591.990295
829.906960	6887.189097
830.224046	6369.628955
830.541088	5968.743798
830.858086	5723.068206
831.175041	5526.327095
831.491952	5471.857428
831.808819	5500.879351
832.125642	5740.412296
832.442421	6273.786538
832.759157	7349.480548
833.075849	9063.472856
833.392497	10864.795592
833.709101	11951.262549
834.025662	11704.256093
834.342179	10672.893989
834.658653	9402.641687
834.975083	8331.247780
835.291469	7452.050385
835.607811	6735.823411
835.924110	6231.846658
836.240366	5761.227220
836.556578	5323.261857
836.872746	4981.857274
837.188871	4716.606882
837.504952	4499.638141
837.820990	4341.857588
838.136984	4233.543356
838.452935	4182.141231
838.768842	4213.159450
839.084706	4482.747755
839.400526	5205.891192
839.716303	6085.443989
840.032037	6632.270549
840.347727	6487.531461
840.663373	5903.886833
840.978977	5339.680895
841.294537	4913.395884
841.610054	4589.400927
841.925527	4360.761914
842.240957	4163.015093
842.556344	3983.466837
842.871687	3837.359075
843.186987	3682.325950
843.502244	3568.249680
843.817458	3487.671877
844.132629	3419.472627
844.447756	3369.446737
844.762840	3328.038699
845.077881	3287.659057
845.392879	3257.376846
845.707833	3233.217116
846.022745	3205.599155
846.337613	3191.693132
846.652438	3170.144720
846.967221	3163.071981
847.281960	3142.143631
847.596656	3133.424955
847.911309	3123.108234
848.225919	3109.943260
848.540485	3101.947990
848.855009	3095.457505
849.169490	3080.432346
849.483928	3074.486305
849.798323	3068.999009
850.112675	3060.171948
850.426984	3065.013977
850.741251	3052.607697
851.055474	3047.576626
851.369654	3050.437480
851.683792	3048.904970
851.997887	3052.980742
852.311938	3050.240875
852.625947	3052.249775
852.939914	3046.717109
853.253837	3050.661812
853.567718	3048.549568
853.881555	3043.647046
854.195350	3048.410937
854.509103	3045.295503
854.822812	3043.392468
855.136479	3036.899462
855.450103	3042.971532
855.763685	3035.626570
856.077224	3039.946839
856.390720	3045.610576
856.704173	3054.911504
857.017584	3060.207237
857.330953	3065.434913
857.644278	3074.365317
857.957561	3079.290524
858.270802	3075.373548
858.584000	3075.565112
858.897155	3066.891807
859.210268	3056.940569
859.523339	3042.606048
859.836367	3041.048331
860.149352	3037.116231
860.462295	3038.212682
860.775195	3027.288502
861.088054	3023.898326
861.400869	3019.668798
861.713642	3023.610980
862.026373	3031.218081
862.339062	3029.925025
862.651708	3039.798125
862.964312	3058.586506
863.276873	3061.071794
863.589392	3092.674788
863.901869	3119.551700
864.214303	3141.256387
864.526696	3158.610560
864.839045	3175.168229
865.151353	3187.549303
865.463619	3186.029395
865.775842	3188.663398
866.088023	3190.548790
866.400162	3189.154911
866.712258	3187.256916
867.024313	3187.302287
867.336325	3187.690456
867.648296	3186.117616
867.960224	3183.135773
868.272110	3187.922349
868.583954	3185.568130
868.895755	3194.135571
869.207515	3195.670602
869.519233	3209.057386
869.830909	3214.653067
870.142542	3227.082032
870.454134	3230.961200
870.765684	3245.391502
871.077191	3260.845160
871.388657	3275.930813
871.700081	3290.903039
872.011463	3311.428097
872.322803	3333.286540
872.634101	3348.490660
872.945357	3366.502703
873.256571	3395.378432
873.567744	3407.522572
873.878874	3413.007347
874.189963	3429.504523
874.501010	3428.801282
874.812015	3428.133329
875.122979	3443.002213
875.433900	3440.138837
875.744780	3442.765278
876.055618	3448.265177
876.366415	3444.905248
876.677169	3450.679890
876.987882	3470.113538
877.298554	3486.819922
877.609183	3523.078421
877.919771	3568.942839
878.230317	3633.711583
878.540822	3734.955597
878.851285	3880.710478
879.161707	4093.096810
879.472087	4456.518632
879.782425	5063.274429
880.092722	6206.381270
880.402977	8072.873522
880.713191	10367.954593
881.023363	12661.908965
881.333494	13954.327221
881.643583	14396.489345
881.953631	14008.668339
882.263637	13183.544880
882.573602	12182.459946
882.883526	11265.254772
883.193408	10343.920892
883.503248	9454.709244
883.813048	8652.863313
884.122806	7911.720437
884.432522	7175.838004
884.742197	6539.573812
885.051831	5995.255226
885.361424	5515.206310
885.670975	5132.532321
885.980485	4823.204601
886.289954	4563.411258
886.599382	4358.687480
886.908768	4186.887477
887.218113	4031.186399
887.527417	3899.937438
887.836680	3782.566774
888.145901	3684.438194
888.455082	3610.446658
888.764221	3545.488870
889.073319	3487.318996
889.382376	3455.146352
889.691392	3430.437137
890.000366	3425.325407
890.309300	3421.912546
890.618193	3421.970519
890.927044	3418.053542
891.235855	3423.152669
891.544625	3437.812345
891.853353	3466.685553
892.162041	3525.339378
892.470687	3612.470682
892.779293	3728.691963
893.087858	3896.322931
893.396381	4163.572141
893.704864	4564.747164
894.013306	5107.999546
894.321707	5662.254247
894.630068	6007.074211
894.938387	6045.263472
895.246665	5871.716710
895.554903	5566.742026
895.863100	5235.192899
896.171256	4977.158919
896.479371	4743.904730
896.787446	4526.152090
897.095480	4338.162422
897.403473	4192.357129
897.711425	4054.935275
898.019336	3936.173252
898.327207	3818.530366
898.635038	3719.065880
898.942827	3617.690796
899.250576	3534.073177
899.558284	3452.255251
899.865952	3403.776995
900.173579	3339.182170
900.481165	3295.729944
900.788711	3254.155548
901.096216	3224.929459
901.403681	3198.014739
901.711105	3187.166176
902.018489	3182.876154
902.325832	3216.883777
902.633135	3273.919392
902.940397	3435.415276
903.247619	3826.119823
903.554800	4553.747366
903.861941	5487.679089
904.169041	6163.289487
904.476101	6363.927410
904.783121	6097.293221
905.090100	5703.984918
905.397039	5307.278878
905.703938	4960.513029
906.010796	4651.437366
906.317614	4409.187238
906.624391	4175.262576
906.931129	3989.750635
907.237826	3815.258657
907.544483	3652.633554
907.851099	3483.825477
908.157675	3333.324349
908.464211	3196.315870
908.770707	3097.783997
909.077163	3024.026875
909.383578	2964.994964
909.689954	2924.375867
909.996289	2893.972668
910.302584	2873.795450
910.608839	2862.402442
910.915054	2847.904083
911.221229	2844.307220
911.527363	2850.023889
911.833458	2856.796679
912.139513	2871.625233
912.445527	2882.400699
912.751502	2911.977149
913.057436	2952.946606
913.363331	3010.430883
913.669186	3095.883482
913.975000	3208.649053
914.280775	3389.860889
914.586510	3645.596103
914.892205	4005.267307
915.197859	4486.523579
915.503475	5050.051483
915.809050	5528.620820
916.114585	5804.528211
916.420081	5865.027099
916.725536	5804.145084
917.030952	5572.279733
917.336328	5373.882603
917.641665	5167.286036
917.946961	4955.103871
918.252218	4757.178088
918.557435	4540.955438
918.862612	4348.917723
919.167750	4180.515459
919.472848	4003.523068
919.777906	3839.315043
920.082925	3684.574305
920.387904	3539.898231
920.692843	3433.721448
920.997743	3336.520441
921.302603	3245.767068
921.607423	3183.186185
921.912204	3120.297790
922.216946	3074.282138
922.521647	3028.299253
922.826310	2991.476145
923.130932	2952.243365
923.435516	2914.129722
923.740059	2887.948489
924.044564	2857.159642
924.349028	2835.447392
924.653454	2805.404636
924.957840	2780.836573
925.262186	2764.480549
925.566493	2739.662949
925.870761	2720.025134
926.174989	2707.870912
926.479178	2694.010259
926.783328	2675.841941
927.087438	2665.787360
927.391509	2654.381749
927.695541	2643.659215
927.999533	2634.411218
928.303486	2625.049795
928.607400	2619.446553
928.911275	2613.787858
929.215110	2607.962804
929.518906	2604.073554
929.822663	2605.900972
930.126381	2604.318050
930.430060	2610.478340
930.733699	2613.170316
931.037299	2613.641664
931.340861	2615.224587
931.644383	2617.120060
931.947866	2613.820625
932.251309	2612.789709
932.554714	2609.074379
932.858080	2610.856427
933.161407	2606.936930
933.464694	2602.750251
933.767943	2598.740013
934.071153	2596.325301
934.374323	2590.265834
934.677455	2590.926225
934.980548	2585.640575
935.283602	2584.050091
935.586617	2579.800398
935.889593	2586.447160
936.192530	2585.912797
936.495428	2591.528643
936.798287	2599.738162
937.101108	2614.239041
937.403890	2635.031280
937.706632	2656.741009
938.009336	2691.711493
938.312002	2719.871379
938.614628	2742.949781
938.917216	2761.907040
939.219765	2771.959101
939.522275	2777.307765
939.824747	2779.868671
940.127179	2772.581683
940.429573	2767.732093
940.731929	2763.968872
941.034246	2754.690628
941.336524	2758.257245
941.638763	2751.827253
941.940964	2740.663618
942.243126	2727.239025
942.545250	2716.410627
942.847335	2702.197093
943.149381	2692.084539
943.451389	2676.709019
943.753359	2665.333656
944.055290	2656.383087
944.357182	2651.170534
944.659036	2645.123670
944.960851	2639.863226
945.262628	2636.140334
945.564367	2640.195942
945.866067	2636.909110
946.167729	2636.818369
946.469352	2638.660911
946.770937	2632.916516
947.072484	2626.171452
947.373992	2626.264713
947.675462	2624.580968
947.976893	2617.873713
948.278286	2612.061263
948.579641	2610.715274
948.880958	2611.030347
949.182236	2610.821139
949.483476	2603.067844
949.784678	2603.546754
950.085841	2602.195724
950.386967	2606.440376
950.688054	2612.305758
950.989103	2621.843622
951.290114	2629.637245
951.591087	2644.821201
951.892021	2652.128353
952.192917	2666.530930
952.493776	2674.604338
952.794596	2680.404185
953.095378	2681.251099
953.396122	2677.679442
953.696828	2676.363700
953.997496	2669.981600
954.298126	2661.449447
954.598718	2655.967192
954.899272	2644.203659
955.199788	2632.704787
955.500266	2620.893364
955.800706	2604.935592
956.101108	2586.651327
956.401472	2579.228227
956.701798	2566.743810
957.002087	2552.154711
957.302337	2542.533669
957.602550	2530.939015
957.902724	2522.369053
958.202861	2513.862106
958.502960	2503.721825
958.803022	2499.451968
959.103045	2492.850577
959.403031	2486.982674
959.702979	2483.342961
960.002889	2478.558906
960.302762	2470.137658
960.602596	2465.156998
960.902393	2464.678089
961.202153	2461.726493
961.501875	2459.768005
961.801559	2458.807665
962.101205	2456.405555
962.400814	2454.026131
962.700385	2453.920266
962.999918	2447.530604
963.299414	2447.202929
963.598873	2447.132353
963.898293	2447.258382
964.197677	2445.582198
964.497022	2445.108329
964.796331	2443.686724
965.095601	2442.796960
965.394835	2442.237392
965.694030	2441.476178
965.993189	2442.315530
966.292309	2441.191353
966.591393	2437.483584
966.890439	2438.932916
967.189447	2438.564912
967.488419	2439.255550
967.787353	2441.655139
968.086249	2439.802515
968.385108	2441.130859
968.683930	2441.292176
968.982714	2443.588422
969.281462	2442.955757
969.580172	2442.416353
969.878844	2448.309462
970.177480	2450.300718
970.476078	2453.151490
970.774639	2454.706686
971.073162	2462.908644
971.371649	2459.097531
971.670098	2458.457305
971.968510	2463.372430
972.266885	2461.371092
972.565223	2466.069447
972.863524	2465.817389
973.161788	2470.664459
973.460014	2467.357462
973.758204	2470.351907
974.056356	2469.925930
974.354471	2469.378965
974.652550	2471.760910
974.950591	2469.872998
975.248595	2467.428038
975.546563	2468.436269
975.844493	2466.344190
976.142386	2464.831844
976.440243	2466.694550
976.738062	2464.610033
977.035845	2459.279013
977.333590	2456.816409
977.631299	2457.436471
977.928971	2454.232818
978.226606	2453.373301
978.524204	2452.793568
978.821765	2452.183589
979.119290	2449.083279
979.416777	2450.086469
979.714228	2445.980449
980.011642	2448.606890
980.309020	2454.731892
980.606360	2454.963785
980.903664	2468.849643
981.200931	2479.599904
981.498162	2498.862153
981.795356	2526.283509
982.092513	2562.799107
982.389633	2602.883842
982.686717	2645.199287
982.983764	2674.354801
983.280775	2691.734178
983.577749	2692.341637
983.874686	2683.726306
984.171587	2667.062772
984.468451	2654.636327
984.765279	2635.484984
985.062070	2615.118722
985.358824	2600.401074
985.655543	2580.591860
985.952224	2558.178890
986.248869	2533.893131
986.545478	2506.645694
986.842050	2490.014928
987.138586	2471.405508
987.435086	2459.752881
987.731549	2448.508588
988.027975	2444.737805
988.324366	2436.379572
988.620719	2434.070723
988.917037	2430.463778
989.213318	2426.443457
989.509563	2427.103848
989.805772	2423.060843
990.101944	2422.952458
990.398080	2422.677715
990.694180	2421.608991
990.990244	2419.277457
991.286271	2421.046902
991.582262	2420.489855
991.878217	2423.133940
992.174136	2425.772984
992.470019	2424.633683
992.765865	2428.036462
993.061676	2429.016966
993.357450	2431.245156
993.653188	2432.429827
993.948890	2439.928544
994.244556	2443.202773
994.540186	2456.251800
994.835780	2463.649693
995.131337	2480.842548
995.426859	2491.628097
995.722345	2513.907477
996.017795	2528.914992
996.313208	2540.668442
996.608586	2550.211346
996.903928	2555.779300
997.199234	2554.332489
997.494504	2550.521377
997.789738	2543.234389
998.084936	2534.611495
998.380099	2524.645134
998.675225	2511.969153
998.970316	2499.404077
999.265371	2488.794969
999.560390	2473.414408
999.855373	2466.780250
1000.150320	2451.354319
1000.445232	2448.344750
1000.740108	2439.353852
1001.034948	2435.031063
1001.329752	2430.433531
1001.624521	2427.383632
1001.919254	2418.924576
1002.213951	2418.974988
1002.508613	2416.088927
1002.803239	2416.441808
1003.097829	2411.549368
1003.392384	2415.216808
1003.686903	2410.873854
1003.981386	2413.888464
1004.275834	2409.366549
1004.570246	2412.161868
1004.864623	2411.078020
1005.158964	2409.646333
1005.453270	2409.374110
1005.747540	2408.554923
1006.041775	2406.213307
1006.335974	2404.592576
1006.630138	2407.352608
1006.924266	2405.391599
1007.218359	2404.854716
1007.512416	2405.910838
1007.806438	2407.957546
1008.100425	2404.572411
1008.394376	2402.598800
1008.688292	2405.396640
1008.982172	2404.138872
1009.276017	2405.348749
1009.569827	2404.075858
1009.863602	2403.314643
1010.157341	2407.168606
1010.451045	2406.178019
1010.744714	2401.381361
1011.038347	2406.351939
1011.331945	2401.588048
1011.625508	2404.799263
1011.919036	2404.322874
1012.212528	2404.012843
1012.505986	2401.096536
1012.799408	2401.492266
1013.092795	2401.532596
1013.386147	2401.716598
1013.679464	2400.738614
1013.972745	2401.716598
1014.265992	2400.693243
1014.559204	2402.003943
1014.852380	2401.252812
1015.145521	2403.007133
1015.438628	2403.682648
1015.731699	2399.964797
1016.024736	2402.044273
1016.317737	2404.103584
1016.610703	2405.820097
1016.903635	2400.799108
1017.196531	2399.702657
1017.489393	2400.612585
1017.782219	2398.316339
1018.075011	2404.983265
1018.367768	2403.302041
1018.660490	2406.561147
1018.953177	2406.561147
1019.245829	2406.561147
