Dividing Wavelength (nm)	Counts (n)	Blue Motor Position (mm): 5.400000	Red Motor Position (mm): 0.000000	
326.493990	1977.460652
326.888308	1977.460652
327.282561	1977.460652
327.676750	1951.453339
328.070874	1955.587085
328.464933	1960.693774
328.858929	1971.723819
329.252859	1984.064563
329.646726	1996.780874
330.040528	2013.227638
330.434265	2032.631039
330.827938	2048.205684
331.221547	2071.815928
331.615091	2088.366036
332.008571	2108.944026
332.401986	2131.089815
332.795338	2151.609832
333.188625	2173.934582
333.581847	2190.371264
333.975006	2208.441280
334.368100	2222.024669
334.761129	2241.801115
335.154095	2260.604619
335.546996	2272.484098
335.939833	2288.280554
336.332606	2303.267904
336.725315	2312.309214
337.117960	2321.658033
337.510540	2329.980978
337.903056	2337.083964
338.295508	2343.226610
338.687896	2350.523680
339.080220	2360.479959
339.472480	2364.482635
339.864676	2364.855681
340.256807	2369.932123
340.648875	2372.162833
341.040879	2371.262987
341.432818	2374.748945
341.824694	2373.304655
342.216506	2372.757689
342.608253	2376.049563
342.999937	2373.186188
343.391557	2372.629140
343.783113	2370.262318
344.174605	2368.649149
344.566033	2367.008253
344.957397	2365.984899
345.348697	2364.870804
345.739934	2363.585310
346.131106	2364.144878
346.522215	2360.043899
346.913260	2357.321676
347.304241	2354.581809
347.695159	2356.845287
348.086012	2353.515605
348.476802	2352.923270
348.867528	2351.789010
349.258191	2348.313134
349.648789	2348.537466
350.039324	2345.152331
350.429796	2347.088134
350.820203	2345.737105
351.210548	2344.726353
351.600828	2345.076714
351.991045	2342.117556
352.381198	2341.126970
352.771288	2345.472444
353.161314	2343.536641
353.551276	2342.530931
353.941175	2343.030005
354.331010	2344.272650
354.720782	2343.057732
355.110490	2343.831549
355.500135	2344.381034
355.889717	2342.508246
356.279235	2338.886177
356.668689	2345.149810
357.058080	2342.896415
357.447408	2343.516477
357.836672	2340.975735
358.225873	2344.993535
358.615010	2342.909018
359.004084	2347.171313
359.393095	2347.713237
359.782043	2347.209122
360.170927	2347.514112
360.559748	2349.102075
360.948505	2347.312465
361.337199	2347.471262
361.725830	2348.847497
362.114398	2351.786489
362.502903	2350.753053
362.891344	2351.834380
363.279722	2351.388238
363.668037	2349.545697
364.056289	2348.978567
364.444478	2352.923270
364.832603	2353.629031
365.220665	2352.315811
365.608665	2354.435616
365.996601	2353.681963
366.384474	2353.523167
366.772284	2352.938393
367.160031	2356.615915
367.547715	2353.729854
367.935336	2356.726820
368.322893	2355.302694
368.710388	2353.734895
369.097820	2357.427541
369.485189	2355.648013
369.872495	2359.701101
370.259738	2357.230936
370.646918	2358.087932
371.034035	2357.485514
371.421090	2357.523323
371.808081	2359.829650
372.195010	2358.692870
372.581875	2357.306553
372.968678	2358.471059
373.355418	2360.968951
373.742096	2358.095493
374.128710	2360.001050
374.515262	2360.386698
374.901751	2360.714373
375.288177	2357.268744
375.674540	2360.979033
376.060841	2360.137161
376.447079	2360.094311
376.833254	2358.587006
377.219367	2358.408045
377.605417	2359.043230
377.991404	2356.923425
378.377329	2358.148426
378.763191	2355.741275
379.148991	2360.298478
379.534727	2362.004908
379.920402	2363.832327
380.306013	2362.826616
380.691563	2362.685464
381.077049	2364.170084
381.462474	2362.004908
381.847835	2363.572707
382.233134	2361.833509
382.618371	2363.849971
383.003545	2363.955835
383.388657	2364.449868
383.773706	2365.758047
384.158693	2362.141019
384.543618	2365.387523
384.928480	2365.195959
385.313280	2364.046576
385.698017	2366.851978
386.082692	2365.105218
386.467305	2365.863912
386.851856	2367.071268
387.236344	2369.281814
387.620770	2367.323326
388.005133	2365.551360
388.389435	2368.303830
388.773674	2368.830631
389.157851	2369.745600
389.541965	2367.582945
389.926018	2367.240147
390.310008	2368.117307
390.693936	2367.424149
391.077802	2368.021525
391.461606	2368.606299
391.845348	2370.224510
392.229027	2371.764582
392.612645	2370.088398
392.996200	2368.787781
393.379694	2369.808614
393.763125	2368.944057
394.146494	2366.879704
394.529801	2369.327184
394.913047	2371.174767
395.296230	2368.507997
395.679351	2369.480939
396.062410	2370.564788
396.445408	2369.259129
396.828343	2369.296937
397.211217	2367.688809
397.594028	2370.723584
397.976778	2369.453213
398.359466	2372.893801
398.742092	2369.301978
399.124656	2371.774664
399.507158	2371.630992
399.889598	2371.767103
400.271977	2371.557895
400.654294	2375.706764
401.036549	2373.375231
401.418742	2371.091588
401.800874	2373.168543
402.182944	2373.813811
402.564952	2374.527134
402.946898	2371.678882
403.328783	2373.947402
403.710606	2374.595190
404.092367	2374.179295
404.474067	2376.157948
404.855705	2375.250540
405.237282	2374.224665
405.618797	2375.525283
406.000250	2377.017464
406.381642	2374.857330
406.762972	2377.173740
407.144240	2374.811960
407.525447	2375.434542
407.906593	2377.708103
408.287677	2375.159799
408.668700	2377.529142
409.049661	2376.866230
409.430560	2377.544265
409.811399	2375.016126
410.192176	2377.072917
410.572891	2376.122660
410.953545	2378.292876
411.334138	2374.421270
411.714669	2377.793802
412.095139	2378.600387
412.475547	2376.016795
412.855894	2379.855634
413.236180	2377.468648
413.616405	2379.984183
413.996568	2377.869419
414.376670	2381.620038
414.756711	2378.368494
415.136691	2380.145500
415.516609	2380.445449
415.896466	2378.146683
416.276262	2381.879657
416.655997	2375.588297
417.035670	2374.340612
417.415283	2378.355891
417.794834	2373.234078
418.174324	2379.018802
418.553753	2379.661550
418.933121	2380.246323
419.312428	2379.500233
419.691674	2377.564430
420.070859	2379.618700
420.449983	2381.642723
420.829045	2380.793289
421.208047	2381.204143
421.586988	2381.781355
421.965867	2379.691797
422.344686	2380.689945
422.723444	2381.388145
423.102141	2379.719523
423.480777	2381.519215
423.859352	2381.133567
424.237866	2383.084493
424.616319	2382.484596
424.994712	2384.896788
425.373044	2382.429143
425.751314	2382.151880
426.129524	2381.819163
426.507673	2384.753115
426.885762	2382.953423
427.263789	2382.913094
427.641756	2383.646582
428.019662	2381.879657
428.397508	2381.735984
428.775292	2384.808568
429.153016	2384.901829
429.530679	2385.678167
429.908282	2383.807899
430.285824	2385.446274
430.663305	2383.402086
431.040726	2383.780172
431.418086	2384.105327
431.795385	2387.084649
432.172624	2383.495347
432.549802	2384.231356
432.926920	2383.606253
433.303977	2384.271685
433.680974	2382.963505
434.057910	2386.497354
434.434786	2384.483413
434.811601	2384.178423
435.188355	2385.267313
435.565050	2385.640358
435.941683	2385.738661
436.318257	2382.177085
436.694770	2378.555016
437.071222	2382.658516
437.447614	2382.119112
437.823946	2382.121633
438.200218	2383.409648
438.576429	2388.029865
438.952580	2386.353681
439.328670	2388.884341
439.704700	2387.011552
440.080670	2385.390821
440.456580	2385.975595
440.832429	2385.403424
441.208218	2386.457025
441.583947	2386.683877
441.959616	2387.447612
442.335224	2387.160266
442.710773	2385.569782
443.086261	2386.971223
443.461689	2386.063815
443.837057	2388.864176
444.212365	2384.957282
444.587612	2388.468445
444.962800	2388.899464
445.337927	2387.298898
445.712995	2386.328476
446.088002	2391.838457
446.462949	2386.315873
446.837837	2388.415513
447.212664	2389.126316
447.587431	2388.660009
447.962139	2391.533467
448.336786	2391.291492
448.711374	2389.249824
449.085901	2389.390977
449.460369	2389.862324
449.834776	2387.951727
450.209124	2388.586912
450.583412	2387.966851
450.957640	2385.912580
451.331808	2389.519526
451.705917	2387.487941
452.079965	2390.870555
452.453954	2387.886192
452.827883	2391.251162
453.201752	2390.540360
453.575562	2387.513147
453.949311	2388.975081
454.323001	2390.394166
454.696632	2391.165463
455.070202	2391.306615
455.443713	2388.302087
455.817164	2389.194372
456.190556	2386.116747
456.563888	2388.707900
456.937160	2385.862169
457.310373	2391.568755
457.683526	2389.262427
458.056619	2389.403579
458.429653	2390.396687
458.802628	2390.106820
459.175542	2389.963148
459.548398	2386.058774
459.921194	2391.861142
460.293930	2390.875596
460.666607	2390.666388
461.039224	2391.072201
461.411782	2391.757798
461.784280	2393.615463
462.156719	2390.628580
462.529099	2391.004146
462.901419	2390.386604
463.273680	2393.265103
463.645882	2391.009187
464.018024	2392.753426
464.390106	2390.184958
464.762130	2392.342572
465.134094	2390.752088
465.505999	2394.772408
465.877845	2392.415669
466.249631	2391.551111
466.621358	2392.403066
466.993026	2393.108828
467.364634	2395.939435
467.736184	2390.184958
468.107674	2392.173693
468.479105	2394.603530
468.850477	2393.197048
469.221790	2389.726213
469.593043	2394.028838
469.964238	2391.573796
470.335373	2395.213509
470.706449	2393.365926
471.077467	2393.386091
471.448425	2394.079250
471.819324	2393.076060
472.190164	2391.430123
472.560945	2395.334497
472.931667	2391.213354
473.302330	2391.402397
473.672934	2396.529250
474.043479	2394.953890
474.413965	2394.646379
474.784393	2389.098590
475.154761	2392.569424
475.525070	2387.568599
475.895321	2391.583878
476.265513	2388.687736
476.635645	2395.536143
477.005719	2395.493293
477.375734	2395.740310
477.745691	2393.378529
478.115588	2393.368447
478.485427	2394.127141
478.855207	2394.268293
479.224928	2394.495145
479.594591	2394.588406
479.964194	2397.711401
480.333739	2395.016904
480.703226	2395.243756
481.072653	2394.797614
481.442022	2394.147305
481.811333	2395.344579
482.180584	2393.882645
482.549777	2395.952038
482.918912	2390.817623
483.287988	2393.943138
483.657005	2395.581513
484.025964	2394.326266
484.394864	2394.038920
484.763706	2396.990516
485.132489	2395.483211
485.501213	2396.327604
485.869879	2399.402708
486.238487	2398.391957
486.607036	2394.255690
486.975527	2396.693088
487.343959	2396.688047
487.712333	2396.627553
488.080648	2397.623181
488.448905	2396.672923
488.817104	2397.320712
489.185244	2395.168139
489.553326	2396.088149
489.921350	2397.461864
490.289315	2396.088149
490.657222	2397.935732
491.025070	2396.549415
491.392861	2400.683161
491.760593	2397.681154
492.128267	2398.298695
492.495883	2395.894065
492.863440	2397.540002
493.230939	2394.071688
493.598380	2396.025135
493.965763	2393.174363
494.333088	2394.996740
494.700354	2393.403735
495.067563	2397.217368
495.434713	2389.582540
495.801805	2398.916237
496.168839	2396.627553
496.535815	2396.806514
496.902733	2399.662328
497.269593	2396.962790
497.636395	2395.122768
498.003139	2396.897255
498.369825	2398.523027
498.736453	2396.652759
499.103023	2395.737789
499.469535	2396.602347
499.835989	2397.792059
500.202385	2397.608057
500.568723	2396.136040
500.935003	2398.051679
501.301226	2397.524878
501.667390	2399.821124
502.033497	2397.739127
502.399546	2397.575290
502.765537	2397.164436
503.131470	2398.278531
503.497345	2397.844992
503.863163	2399.369941
504.228923	2397.638304
504.594625	2395.692419
504.960269	2396.378016
505.325856	2396.894734
505.691385	2394.669065
506.056856	2397.862636
506.422270	2396.869528
506.787625	2397.202244
507.152924	2398.938922
507.518164	2398.177708
507.883347	2399.478325
508.248472	2394.522871
508.613540	2397.892883
508.978550	2400.892369
509.343503	2396.834240
509.708398	2398.984292
510.073236	2398.586041
510.438016	2399.221227
510.802738	2397.416493
511.167403	2399.125445
511.532010	2397.287944
511.896561	2399.193500
512.261053	2399.957235
512.625488	2398.056720
512.989866	2392.216543
513.354186	2398.502862
513.718449	2395.198386
514.082655	2400.564694
514.446803	2397.729045
514.810894	2397.650907
515.174927	2400.151319
515.538904	2399.047307
515.902822	2400.720970
516.266684	2400.894890
516.630488	2398.109652
516.994235	2399.440517
517.357925	2396.854405
517.721558	2399.178377
518.085133	2399.400187
518.448651	2399.354817
518.812112	2398.202913
519.175516	2398.520506
519.538863	2398.512944
519.902152	2399.213665
520.265385	2399.347255
520.628560	2400.398336
520.991678	2400.068140
521.354739	2400.736093
521.717743	2396.912378
522.080690	2401.313305
522.443580	2398.008829
522.806413	2401.235168
523.169189	2398.565877
523.531908	2399.677451
523.894569	2399.357338
524.257174	2398.911196
524.619722	2398.328942
524.982213	2400.763820
525.344647	2401.058727
525.707025	2400.320198
526.069345	2399.518655
526.431608	2401.086453
526.793815	2400.962945
527.155964	2402.082081
527.518057	2398.717111
527.880093	2403.876732
528.242072	2400.768861
528.603995	2401.832544
528.965860	2402.051834
529.327669	2402.545867
529.689421	2401.164591
530.051117	2403.385220
530.412755	2403.047462
530.774337	2403.604510
531.135862	2403.365055
531.497331	2400.481515
531.858743	2398.487739
532.220098	2404.184243
532.581396	2399.415311
532.942638	2403.959911
533.303824	2404.963101
533.664953	2406.919068
534.026025	2402.790363
534.387040	2403.730539
534.747999	2408.060890
535.108902	2402.939077
535.469748	2407.972670
535.830537	2406.631723
536.191270	2404.869839
536.551947	2404.075858
536.912567	2403.208779
537.273131	2404.345559
537.633638	2406.039387
537.994089	2405.726836
538.354483	2402.994530
538.714821	2406.394788
539.075103	2408.164233
539.435328	2406.692217
539.795497	2405.764644
540.155609	2408.146589
540.515665	2408.449059
540.875665	2409.835376
541.235609	2408.796898
541.595496	2409.336302
541.955328	2409.066600
542.315102	2405.958729
542.674821	2403.594428
543.034483	2410.067269
543.394090	2407.975190
543.753640	2406.709861
544.113134	2409.641292
544.472571	2409.908473
544.831953	2408.683472
545.191278	2411.970305
545.550548	2410.309244
545.909761	2410.329409
546.268918	2409.318658
546.628019	2412.880233
546.987064	2411.811508
547.346053	2415.148752
547.704986	2412.978535
548.063863	2413.122208
548.422684	2415.758732
548.781449	2408.509553
549.140158	2412.706313
549.498811	2411.446025
549.857408	2412.355953
550.215949	2410.805798
550.574434	2407.387896
550.932864	2411.544327
551.291237	2410.820922
551.649555	2413.240675
552.007817	2415.920049
552.366022	2417.815522
552.724173	2413.812846
553.082267	2417.434915
553.440305	2413.883422
553.798288	2415.557086
554.156215	2414.853845
554.514086	2416.910635
554.871902	2415.438618
555.229661	2413.908628
555.587365	2414.730336
555.945014	2419.658064
556.302606	2412.741601
556.660143	2415.587333
557.017625	2417.886099
557.375050	2415.783937
557.732421	2416.053639
558.089735	2418.574216
558.446994	2419.063208
558.804197	2417.203022
559.161345	2417.324010
559.518437	2417.989442
559.875474	2418.458270
560.232455	2417.109761
560.589381	2416.298135
560.946251	2420.537746
561.303065	2420.540266
561.659825	2419.244690
562.016528	2417.631520
562.373177	2419.897519
562.729770	2416.761921
563.086307	2416.968609
563.442789	2418.334761
563.799216	2422.092942
564.155587	2418.596901
564.511904	2420.600760
564.868164	2416.025913
565.224370	2418.244021
565.580520	2417.704617
565.936615	2417.054308
566.292654	2417.165214
566.648638	2418.387693
567.004567	2415.776376
567.360441	2417.505492
567.716260	2417.414751
568.072023	2418.591860
568.427732	2412.350912
568.783385	2415.375604
569.138982	2409.719429
569.494525	2413.666653
569.850013	2411.196488
570.205445	2416.051119
570.560823	2414.831159
570.916145	2415.738567
571.271412	2416.250244
571.626625	2416.711510
571.981782	2415.448701
572.336884	2418.304514
572.691931	2416.640934
573.046923	2415.398289
573.401860	2414.937024
573.756743	2415.075655
574.111570	2416.966088
574.466342	2414.034657
574.821059	2415.783938
575.175722	2416.101530
575.530330	2414.954668
575.884882	2413.913669
576.239380	2415.652867
576.593823	2416.797209
576.948211	2414.894174
577.302544	2412.121539
577.656823	2416.416602
578.011047	2414.102713
578.365216	2411.677918
578.719330	2412.852507
579.073389	2413.303690
579.427394	2415.105902
579.781344	2412.300500
580.135239	2413.097002
580.489080	2412.499626
580.842866	2415.257137
581.196597	2414.087589
581.550273	2413.359142
581.903895	2414.455593
582.257463	2413.840573
582.610975	2411.761097
582.964434	2408.600293
583.317837	2414.170768
583.671186	2415.368042
584.024481	2411.597259
584.377721	2410.899059
584.730906	2408.166754
585.084037	2409.144738
585.437113	2410.667166
585.790135	2408.769172
586.143103	2411.229255
586.496016	2410.861251
586.848874	2404.244736
587.201679	2408.875036
587.554428	2407.556774
587.907124	2408.562485
588.259765	2402.961763
588.612352	2409.169944
588.964884	2410.828483
589.317362	2408.317989
589.669786	2407.624830
590.022155	2409.026271
590.374470	2407.070303
590.726731	2408.817063
591.078937	2407.350087
591.431090	2409.679100
591.783188	2407.995355
592.135232	2407.967628
592.487222	2406.951836
592.839157	2407.813873
593.191038	2406.722463
593.542866	2408.247412
593.894639	2408.680952
594.246358	2407.849161
594.598022	2405.585683
594.949633	2407.594583
595.301190	2407.042577
595.652692	2409.669018
596.004141	2408.416291
596.355535	2407.564336
596.706876	2406.372103
597.058162	2403.599469
597.409395	2406.437638
597.760573	2405.898235
598.111698	2406.004099
598.462768	2408.862433
598.813785	2404.461506
599.164748	2406.835889
599.515657	2408.517114
599.866511	2404.663152
600.217312	2406.697258
600.568060	2405.109294
600.918753	2407.760941
601.269392	2403.808677
601.619978	2404.665673
601.970510	2407.521486
602.320988	2406.097360
602.671412	2405.041239
603.021783	2406.046949
603.372100	2405.431928
603.722363	2408.209604
604.072572	2404.960580
604.422728	2406.530900
604.772830	2404.390930
605.122878	2402.233316
605.472872	2407.725653
605.822813	2401.086453
606.172701	2406.919068
606.522534	2405.573080
606.872314	2404.070817
607.222041	2404.789181
607.571714	2408.249933
607.921333	2405.197514
608.270899	2408.007958
608.620411	2404.244736
608.969870	2406.979562
609.319276	2408.738925
609.668627	2404.426218
610.017926	2401.575445
610.367171	2406.457803
610.716362	2404.073337
611.065500	2404.070817
611.414585	2404.940416
611.763616	2406.271280
612.112594	2404.731208
612.461518	2406.750190
612.810389	2407.937382
613.159207	2405.986455
613.507971	2402.923954
613.856682	2402.223234
614.205340	2406.893863
614.553945	2407.307237
614.902496	2406.377144
615.250994	2404.524520
615.599439	2406.503173
615.947830	2404.955539
616.296169	2407.415622
616.644454	2407.924779
616.992686	2406.354459
617.340864	2406.188101
617.688990	2406.631723
618.037063	2407.496281
618.385082	2406.208266
618.733048	2405.205076
619.080961	2405.815056
619.428821	2405.936043
619.776628	2408.058369
620.124382	2403.506207
620.472083	2407.975190
620.819731	2406.571229
621.167326	2406.102402
621.514868	2405.308420
621.862357	2404.050652
622.209793	2408.070972
622.557176	2405.810015
622.904506	2406.596435
623.251783	2400.468912
623.599007	2403.188615
623.946179	2400.766340
624.293297	2405.300858
624.640363	2408.086096
624.987376	2406.170457
625.334336	2406.175498
625.681243	2406.992165
626.028097	2407.075344
626.374899	2408.335633
626.721647	2406.044428
627.068343	2407.045097
627.414987	2407.372772
627.761577	2406.147772
628.108115	2405.560478
628.454600	2407.085427
628.801032	2407.972670
629.147412	2408.330592
629.493739	2406.893863
629.840014	2406.064593
630.186236	2406.730025
630.532405	2407.861764
630.878521	2407.544172
631.224585	2407.110632
631.570597	2408.711199
631.916556	2409.144738
632.262462	2410.616755
632.608316	2410.200860
632.954117	2408.857392
633.299866	2411.380490
633.645562	2409.487536
633.991206	2412.013154
634.336797	2410.321847
634.682336	2409.999213
635.027823	2408.880077
635.373257	2413.591036
635.718639	2411.786302
636.063968	2411.899728
636.409245	2410.059707
636.754470	2410.581467
637.099642	2413.643968
637.444762	2409.976528
637.789829	2412.204718
638.134845	2411.047773
638.479808	2414.281674
638.824719	2410.052146
639.169577	2412.497105
639.514383	2413.742270
639.859137	2412.189595
640.203839	2411.947619
640.548489	2411.834193
640.893086	2411.478792
641.237632	2409.694224
641.582125	2411.229255
641.926566	2412.313103
642.270955	2413.913669
642.615292	2415.930131
642.959576	2417.109761
643.303809	2414.508526
643.647990	2416.905594
643.992118	2418.102868
644.336195	2418.790986
644.680219	2418.896850
645.024192	2418.289391
645.368112	2418.004566
645.711981	2421.069587
646.055797	2419.022879
646.399562	2420.227715
646.743274	2422.332396
647.086935	2425.959507
647.430544	2423.948086
647.774101	2426.226688
648.117606	2426.481266
648.461059	2429.079981
648.804460	2431.151895
649.147810	2428.792635
649.491108	2427.706266
649.834354	2428.384302
650.177548	2428.270876
650.520690	2430.917481
650.863781	2432.422266
651.206820	2432.727256
651.549807	2430.945208
651.892742	2431.224992
652.235626	2432.568459
652.578458	2432.029056
652.921238	2433.490990
653.263967	2435.099118
653.606644	2436.225816
653.949269	2438.209510
654.291843	2439.341249
654.634365	2436.954263
654.976836	2436.535847
655.319255	2439.391661
655.661622	2440.495674
656.003938	2441.612289
656.346203	2441.274532
656.688416	2445.279729
657.030577	2442.965839
657.372687	2442.065993
657.714746	2444.553802
658.056753	2445.161262
658.398708	2439.807556
658.740612	2444.667228
659.082465	2444.246292
659.424266	2447.170161
659.766016	2449.529421
660.107715	2449.693259
660.449362	2455.982098
660.790958	2455.172993
661.132503	2455.301542
661.473996	2456.690380
661.815438	2460.801441
662.156829	2460.619960
662.498168	2464.045424
662.839456	2461.494600
663.180693	2466.180353
663.521879	2467.538943
663.863013	2467.980044
664.204097	2468.698409
664.545129	2472.350725
664.886110	2474.959522
665.227040	2475.700572
665.567918	2476.353401
665.908746	2477.858185
666.249522	2481.495378
666.590248	2484.424288
666.930922	2486.153404
667.271545	2486.818836
667.612118	2488.356388
667.952639	2488.343785
668.293109	2493.941987
668.633528	2491.129023
668.973896	2495.424086
669.314213	2493.488283
669.654480	2498.138747
669.994695	2497.115393
670.334859	2501.140754
670.674973	2500.498007
671.015035	2506.396157
671.355047	2503.525220
671.695008	2506.060921
672.034918	2506.116373
672.374777	2508.374810
672.714585	2513.030316
673.054342	2513.605007
673.394049	2516.922087
673.733705	2520.271933
674.073310	2520.576923
674.412864	2522.535411
674.752368	2521.065915
675.091820	2522.951307
675.431223	2523.800741
675.770574	2525.895340
676.109875	2522.275792
676.449125	2521.900226
676.788324	2522.376615
677.127473	2525.363499
677.466571	2522.318642
677.805619	2525.487007
678.144616	2526.908612
678.483562	2529.651000
678.822458	2529.615712
679.161303	2534.931609
679.500098	2532.607637
679.838842	2536.380940
680.177535	2535.793646
680.516179	2539.423277
680.854771	2543.622558
681.193314	2552.898281
681.531805	2560.744837
681.870247	2574.534913
682.208638	2577.206725
682.546978	2581.952971
682.885268	2584.977663
683.223508	2583.314083
683.561697	2583.767787
683.899836	2586.767273
684.237925	2585.648137
684.575963	2588.130905
684.913951	2589.817171
685.251889	2589.746595
685.589776	2595.566607
685.927614	2597.704056
686.265401	2602.409973
686.603137	2606.954574
686.940824	2615.368259
687.278460	2623.976030
687.616046	2627.409055
687.953582	2637.889614
688.291068	2643.175264
688.628504	2644.357415
688.965889	2648.649957
689.303224	2647.462765
689.640510	2646.908238
689.977745	2642.562764
690.314930	2633.471043
690.652065	2633.118162
690.989150	2625.715228
691.326185	2621.203395
691.663170	2615.411109
692.000105	2612.232662
692.336990	2604.108842
692.673825	2602.707402
693.010610	2601.316043
693.347345	2593.081318
693.684030	2589.887747
694.020665	2588.889599
694.357251	2583.268712
694.693786	2592.599888
695.030272	2590.071749
695.366707	2585.529670
695.703093	2587.289033
696.039429	2588.556883
696.375716	2590.228025
696.711952	2594.306319
697.048139	2591.516040
697.384276	2592.496544
697.720363	2595.929570
698.056400	2594.427306
698.392388	2592.040320
698.728326	2597.053747
699.064214	2596.267327
699.400053	2594.971751
699.735842	2596.411000
700.071581	2592.463777
700.407270	2592.189034
700.742910	2590.938828
701.078501	2587.054619
701.414042	2586.832808
701.749533	2586.205184
702.084974	2584.135791
702.420366	2586.442119
702.755709	2584.304669
703.091002	2583.941706
703.426246	2583.079669
703.761440	2583.762745
704.096584	2583.510688
704.431679	2585.300297
704.766725	2583.384659
705.101721	2584.831470
705.436668	2586.895822
705.771565	2586.870617
706.106413	2589.897830
706.441212	2595.286823
706.775961	2598.132554
707.110661	2598.929057
707.445311	2604.660849
707.779913	2605.601024
708.114465	2613.286263
708.448967	2619.927983
708.783421	2627.174642
709.117825	2633.060189
709.452180	2640.863895
709.786485	2648.634834
710.120742	2662.596309
710.454949	2667.629901
710.789107	2677.034174
711.123216	2686.907274
711.457275	2692.447502
711.791286	2700.594006
712.125247	2708.284287
712.459159	2708.420398
712.793023	2716.816439
713.126837	2705.836806
713.460602	2711.026674
713.794318	2705.015098
714.127985	2700.858667
714.461602	2690.879703
714.795171	2689.967254
715.128691	2677.823114
715.462162	2669.623678
715.795584	2666.208296
716.128957	2663.475991
716.462281	2657.517347
716.795556	2655.130360
717.128782	2648.919659
717.461960	2643.182826
717.795088	2643.865902
718.128167	2638.214769
718.461198	2630.264869
718.794180	2635.545478
719.127113	2629.362502
719.459997	2625.304374
719.792833	2625.022069
720.125619	2625.342182
720.458357	2620.868158
720.791046	2621.193313
721.123686	2619.277674
721.456278	2619.254989
721.788821	2618.277005
722.121315	2617.094855
722.453761	2619.189454
722.786158	2617.561161
723.118506	2617.659464
723.450805	2620.815226
723.783056	2621.745319
724.115259	2627.487193
724.447412	2626.599950
724.779518	2634.953142
725.111574	2638.325674
725.443582	2642.066210
725.775542	2642.091416
726.107453	2651.785555
726.439315	2654.303611
726.771129	2667.556805
727.102895	2674.218689
727.434612	2679.244720
727.766281	2684.147242
728.097901	2690.103365
728.429473	2688.724610
728.760996	2695.923377
729.092471	2695.628470
729.423897	2697.375230
729.755276	2695.444468
730.086606	2700.722556
730.417887	2715.024309
730.749120	2726.203068
731.080305	2729.119375
731.411442	2737.550705
731.742530	2743.201839
732.073570	2744.908269
732.404562	2752.404465
732.735506	2750.786255
733.066401	2751.426481
733.397249	2740.068762
733.728048	2730.765312
734.058798	2712.077755
734.389501	2700.021835
734.720156	2690.360464
735.050762	2680.063907
735.381320	2676.610717
735.711831	2673.054183
736.042293	2667.576969
736.372707	2671.433452
736.703073	2668.171825
737.033391	2674.216169
737.363661	2673.482681
737.693883	2678.062569
738.024056	2687.693694
738.354182	2694.179138
738.684260	2706.270346
739.014290	2708.682538
739.344272	2719.642006
739.674207	2723.909343
740.004093	2730.538460
740.333931	2735.975345
740.663722	2736.983575
740.993464	2738.644636
741.323159	2736.653380
741.652806	2733.928636
741.982405	2728.590054
742.311956	2722.971688
742.641460	2719.510936
742.970915	2713.264947
743.300323	2706.897969
743.629683	2701.987885
743.958996	2698.481763
744.288260	2689.379960
744.617477	2684.542972
744.946647	2680.210101
745.275768	2678.412929
745.604842	2673.316323
745.933869	2670.004285
746.262847	2669.343894
746.591778	2674.669873
746.920662	2671.357835
747.249498	2672.025787
747.578286	2678.763290
747.907027	2685.798220
748.235720	2693.453212
748.564365	2695.361289
748.892963	2696.876155
749.221514	2697.886907
749.550017	2694.768953
749.878473	2695.671320
750.206881	2692.097142
750.535242	2693.929601
750.863555	2690.483972
751.191821	2693.874148
751.520039	2692.777697
751.848210	2690.552028
752.176334	2695.668799
752.504411	2695.048737
752.832440	2693.180990
753.160421	2694.433716
753.488356	2693.004549
753.816243	2693.692667
754.144082	2688.832994
754.471875	2688.840556
754.799620	2692.666792
755.127318	2689.160669
755.454969	2689.891637
755.782572	2687.895340
756.110129	2690.078159
756.437638	2692.109744
756.765100	2692.765094
757.092515	2694.138809
757.419882	2695.331042
757.747203	2697.781042
758.074477	2702.159285
758.401703	2702.635674
758.728882	2707.248329
759.056014	2711.911397
759.383099	2717.655792
759.710138	2722.850701
760.037129	2728.153994
760.364073	2730.470405
760.690970	2730.961917
761.017820	2733.643811
761.344623	2740.870305
761.671379	2752.505288
761.998088	2772.117897
762.324751	2830.038234
762.651366	2931.201589
762.977935	3060.638255
763.304456	3138.582055
763.630931	3160.435457
763.957359	3122.556227
764.283740	3062.316959
764.610074	2993.946310
764.936362	2924.862338
765.262602	2873.079606
765.588796	2819.194712
765.914943	2783.215997
766.241044	2758.708428
766.567097	2737.419635
766.893104	2716.380380
767.219064	2706.005685
767.544978	2690.705783
767.870845	2681.485513
768.196665	2676.444359
768.522438	2667.879438
768.848165	2664.872390
769.173846	2658.341575
769.499479	2655.084990
769.825066	2648.891932
770.150607	2645.476551
770.476101	2640.984883
770.801548	2639.898514
771.126949	2636.127731
771.452303	2632.714870
771.777611	2627.202368
772.102872	2626.864611
772.428087	2624.180196
772.753256	2620.240535
773.078378	2618.919752
773.403453	2609.606221
773.728482	2607.463730
774.053465	2606.175715
774.378401	2602.830910
774.703291	2599.125662
775.028135	2595.901844
775.352932	2598.024170
775.677683	2593.461925
776.002388	2590.248190
776.327046	2590.648962
776.651658	2587.099989
776.976224	2585.471697
777.300743	2585.930442
777.625216	2583.530852
777.949643	2581.045563
778.274024	2584.002200
778.598359	2576.929461
778.922647	2576.591704
779.246889	2578.809812
779.571086	2575.344018
779.895236	2582.270564
780.219339	2584.236614
780.543397	2582.164700
780.867409	2590.001173
781.191374	2587.412541
781.515294	2583.394741
781.839167	2591.742892
782.162995	2590.260793
782.486776	2589.204671
782.810511	2587.818354
783.134201	2583.160327
783.457844	2583.515729
783.781441	2583.223342
784.104993	2579.969277
784.428498	2581.640420
784.751958	2580.874164
785.075372	2580.536407
785.398739	2577.312589
785.722061	2580.271746
786.045337	2582.661253
786.368568	2586.172417
786.691752	2590.646441
787.014891	2604.938112
787.337983	2620.101903
787.661030	2640.001858
787.984031	2663.959941
788.306987	2677.462672
788.629897	2685.790658
788.952760	2682.576922
789.275579	2678.168433
789.598351	2662.316525
789.921078	2649.365801
790.243759	2636.399953
790.566395	2627.623304
790.888984	2616.815071
791.211529	2610.692589
791.534027	2600.262442
791.856480	2594.802872
792.178888	2591.740371
792.501249	2589.124013
792.823566	2584.113106
793.145836	2581.587487
793.468062	2582.525142
793.790241	2579.583629
794.112375	2586.434557
794.434464	2591.558890
794.756507	2592.909919
795.078505	2605.772423
795.400457	2611.824328
795.722364	2622.715741
796.044226	2633.402987
796.366042	2646.242806
796.687812	2643.407157
797.009538	2649.252375
797.331218	2648.629792
797.652852	2644.488485
797.974442	2634.975827
798.295986	2632.977010
798.617484	2629.266721
798.938938	2622.219187
799.260346	2618.004783
799.581709	2612.146962
799.903026	2610.891715
800.224299	2605.313678
800.545526	2594.863366
800.866708	2591.866400
801.187845	2591.110227
801.508936	2586.888261
801.829983	2589.113930
802.150984	2581.927765
802.471940	2576.639595
802.792851	2581.501788
803.113717	2574.935685
803.434538	2576.233782
803.755314	2575.769996
804.076045	2575.742270
804.396731	2571.656414
804.717372	2572.594069
805.037967	2577.143710
805.358518	2576.448031
805.679024	2578.925758
805.999485	2582.504977
806.319901	2585.063363
806.640272	2584.332396
806.960598	2589.681060
807.280879	2590.666606
807.601115	2592.627614
807.921306	2591.591657
808.241453	2590.268354
808.561554	2594.318922
808.881611	2594.308839
809.201623	2591.906729
809.521590	2591.848756
809.841513	2587.936821
810.161390	2590.800196
810.481223	2585.872468
810.801011	2586.676532
811.120755	2586.575709
811.440453	2583.087231
811.760107	2581.549679
812.079716	2578.303176
812.399281	2574.308061
812.718801	2576.538772
813.038276	2569.423183
813.357707	2571.830334
813.677093	2576.843762
813.996434	2572.296641
814.315731	2571.928637
814.634983	2575.165058
814.954191	2575.838052
815.273354	2581.196798
815.592473	2584.022365
815.911547	2592.741040
816.230577	2594.586103
816.549562	2603.841661
816.868502	2607.975407
817.187399	2613.150152
817.506250	2621.089969
817.825058	2624.586009
818.143821	2635.903400
818.462539	2650.439567
818.781213	2663.952380
819.099843	2690.872141
819.418429	2734.122721
819.736970	2779.465379
820.055466	2830.998574
820.373919	2898.892834
820.692327	3003.834534
821.010691	3174.137313
821.329011	3507.062675
821.647286	3949.446610
821.965517	4426.387655
822.283704	4702.259758
822.601847	4851.117470
822.919945	4701.158266
823.237999	4488.890401
823.556010	4237.268769
823.873976	3986.141169
824.191897	3752.980242
824.509775	3573.081626
824.827609	3410.476688
825.145398	3316.890188
825.463144	3278.040535
825.780845	3297.524595
826.098502	3374.210627
826.416116	3519.965508
826.733685	3661.702590
827.051210	3708.779405
827.368692	3639.143427
827.686129	3483.339005
828.003522	3320.892864
828.320872	3168.834020
828.638177	3053.449570
828.955439	2961.997998
829.272656	2885.611914
829.589830	2820.500371
829.906960	2774.088988
830.224046	2733.381671
830.541088	2700.210879
830.858086	2683.259999
831.175041	2668.784326
831.491952	2667.929850
831.808819	2672.633247
832.125642	2691.502285
832.442421	2739.678072
832.759157	2821.347285
833.075849	2950.574743
833.392497	3083.840166
833.709101	3169.121365
834.025662	3157.488903
834.342179	3088.246134
834.658653	2994.231136
834.975083	2911.357087
835.291469	2844.778568
835.607811	2781.461676
835.924110	2738.823597
836.240366	2701.680375
836.556578	2660.083294
836.872746	2634.426342
837.188871	2611.244596
837.504952	2593.040989
837.820990	2574.792012
838.136984	2568.916547
838.452935	2565.017215
838.768842	2566.824468
839.084706	2593.509816
839.400526	2651.730102
839.716303	2726.089642
840.032037	2775.041766
840.347727	2766.945673
840.663373	2720.715772
840.978977	2672.633247
841.294537	2636.039511
841.610054	2603.561877
841.925527	2585.096131
842.240957	2564.717266
842.556344	2546.339740
842.871687	2530.593696
843.186987	2517.688342
843.502244	2507.366579
843.817458	2501.481032
844.132629	2493.679847
844.447756	2490.294712
844.762840	2480.139308
845.077881	2479.962867
845.392879	2475.861888
845.707833	2476.323154
846.022745	2470.727473
846.337613	2470.301496
846.652438	2473.850468
846.967221	2471.345015
847.281960	2468.370734
847.596656	2468.048100
847.911309	2464.617595
848.225919	2465.227574
848.540485	2463.518623
848.855009	2464.098356
849.169490	2463.158181
849.483928	2462.049127
849.798323	2459.929322
850.112675	2462.956535
850.426984	2462.079374
850.741251	2460.919908
851.055474	2460.267079
851.369654	2461.240022
851.683792	2461.355968
851.997887	2459.518468
852.311938	2461.202213
852.625947	2461.968468
852.939914	2460.793880
853.253837	2459.725155
853.567718	2460.443519
853.881555	2460.151133
854.195350	2459.120217
854.509103	2460.945114
854.822812	2462.480146
855.136479	2463.437965
855.450103	2460.322532
855.763685	2461.786987
856.077224	2460.856894
856.390720	2464.436113
856.704173	2463.526185
857.017584	2467.685137
857.330953	2464.852008
857.644278	2468.368213
857.957561	2472.401136
858.270802	2467.606999
858.584000	2468.111114
858.897155	2465.363686
859.210268	2465.066258
859.523339	2463.054837
859.836367	2465.376288
860.149352	2465.109107
860.462295	2463.493417
860.775195	2460.635083
861.088054	2459.483180
861.400869	2460.816565
861.713642	2457.018055
862.026373	2465.509879
862.339062	2462.696915
862.651708	2465.525002
862.964312	2466.979375
863.276873	2466.379478
863.589392	2472.741414
863.901869	2477.306179
864.214303	2473.732001
864.526696	2480.366159
864.839045	2478.833649
865.151353	2481.520584
865.463619	2481.598722
865.775842	2484.467138
866.088023	2486.251707
866.400162	2483.206850
866.712258	2484.348671
867.024313	2485.004021
867.336325	2485.873620
867.648296	2485.568630
867.960224	2482.032261
868.272110	2486.463435
868.583954	2487.333034
868.895755	2487.459063
869.207515	2486.549135
869.519233	2489.319249
869.830909	2492.031389
870.142542	2491.759167
870.454134	2493.387460
870.765684	2495.701349
871.077191	2494.647748
871.388657	2499.935919
871.700081	2500.397184
872.011463	2499.741834
872.322803	2503.182422
872.634101	2504.311640
872.945357	2508.969666
873.256571	2512.203567
873.567744	2511.525531
873.878874	2513.108454
874.189963	2513.771365
874.501010	2517.839577
874.812015	2515.366891
875.122979	2519.069618
875.433900	2519.785462
875.744780	2522.389218
876.055618	2520.440812
876.366415	2523.284023
876.677169	2523.873838
876.987882	2525.721421
877.298554	2527.816020
877.609183	2534.545960
877.919771	2540.509645
878.230317	2551.085986
878.540822	2564.936556
878.851285	2587.173086
879.161707	2614.574278
879.472087	2658.797800
879.782425	2722.175186
880.092722	2832.112669
880.402977	2973.837148
880.713191	3113.456945
881.023363	3239.193404
881.333494	3317.328768
881.643583	3368.584700
881.953631	3384.550034
882.263637	3357.403420
882.573602	3309.714105
882.883526	3250.233531
883.193408	3185.313552
883.503248	3109.633229
883.813048	3046.361708
884.122806	2978.480050
884.432522	2910.232910
884.742197	2854.933973
885.051831	2807.055614
885.361424	2761.118099
885.670975	2723.062429
885.980485	2689.974816
886.289954	2663.428100
886.599382	2639.361631
886.908768	2621.503344
887.218113	2602.810745
887.527417	2585.615369
887.836680	2571.147258
888.145901	2559.839950
888.455082	2552.391645
888.764221	2545.913762
889.073319	2538.193235
889.382376	2535.927237
889.691392	2528.365506
890.000366	2529.711494
890.309300	2528.221833
890.618193	2531.886752
890.927044	2530.765095
891.235855	2529.109076
891.544625	2531.339787
891.853353	2534.253573
892.162041	2542.977290
892.470687	2555.018086
892.779293	2570.076013
893.087858	2586.789958
893.396381	2618.876902
893.704864	2662.578665
894.013306	2717.633106
894.321707	2781.827159
894.630068	2820.959116
894.938387	2830.007987
895.246665	2819.424085
895.554903	2788.410906
895.863100	2756.412182
896.171256	2723.402707
896.479371	2696.745085
896.787446	2673.764986
897.095480	2647.873619
897.403473	2630.889972
897.711425	2617.775410
898.019336	2597.782194
898.327207	2587.394897
898.635038	2572.636919
898.942827	2559.671071
899.250576	2548.318393
899.558284	2535.463450
899.865952	2531.591844
900.173579	2521.133971
900.481165	2515.447549
900.788711	2510.943278
901.096216	2505.524038
901.403681	2504.881291
901.711105	2502.320384
902.018489	2503.583193
902.325832	2508.132835
902.633135	2515.888650
902.940397	2539.650129
903.247619	2583.810636
903.554800	2660.773932
903.861941	2753.299270
904.169041	2822.907522
904.476101	2850.412057
904.783121	2832.021928
905.090100	2798.157977
905.397039	2757.425454
905.703938	2718.038919
906.010796	2686.282171
906.317614	2655.815957
906.624391	2624.192799
906.931129	2601.948708
907.237826	2579.268557
907.544483	2559.837429
907.851099	2541.601055
908.157675	2519.941738
908.464211	2503.888183
908.770707	2485.868579
909.077163	2478.170737
909.383578	2470.838379
909.689954	2466.513069
909.996289	2457.577623
910.302584	2459.566359
910.608839	2457.345730
910.915054	2456.559310
911.221229	2456.639969
911.527363	2456.811368
911.833458	2457.040741
912.139513	2464.007615
912.445527	2460.640124
912.751502	2465.953501
913.057436	2470.548512
913.363331	2479.995635
913.669186	2494.216730
913.975000	2508.858761
914.280775	2536.002854
914.586510	2566.789180
914.892205	2611.582353
915.197859	2665.084119
915.503475	2724.277347
915.809050	2773.128648
916.114585	2807.534523
916.420081	2816.616162
916.725536	2815.993580
917.030952	2795.723100
917.336328	2775.349277
917.641665	2754.451173
917.946961	2729.696587
918.252218	2709.529452
918.557435	2680.459638
918.862612	2658.137409
919.167750	2636.062196
919.472848	2615.375821
919.777906	2592.289857
920.082925	2575.018864
920.387904	2553.810730
920.692843	2540.572660
920.997743	2530.775177
921.302603	2514.235152
921.607423	2508.130314
921.912204	2500.026659
922.216946	2492.258241
922.521647	2482.851448
922.826310	2478.541262
923.130932	2474.052114
923.435516	2466.329067
923.740059	2464.252111
924.044564	2456.846656
924.349028	2454.356326
924.653454	2451.364401
924.957840	2447.059256
925.262186	2443.994234
925.566493	2441.718153
925.870761	2436.180446
926.174989	2435.565425
926.479178	2434.080805
926.783328	2432.865887
927.087438	2432.399581
927.391509	2427.643252
927.695541	2427.055957
927.999533	2427.106369
928.303486	2425.654517
928.607400	2425.039496
928.911275	2419.353074
929.215110	2421.414906
929.518906	2420.187385
929.822663	2420.305852
930.126381	2421.556059
930.430060	2422.725606
930.733699	2419.728640
931.037299	2420.631007
931.340861	2416.973650
931.644383	2422.216450
931.947866	2424.001018
932.251309	2420.729309
932.554714	2422.410534
932.858080	2422.576892
933.161407	2423.993457
933.464694	2421.954310
933.767943	2420.520102
934.071153	2417.192940
934.374323	2418.969947
934.677455	2419.829463
934.980548	2420.124371
935.283602	2417.485327
935.586617	2416.472055
935.889593	2416.996335
936.192530	2418.551531
936.495428	2419.874834
936.798287	2421.301480
937.101108	2422.594536
937.403890	2425.735175
937.706632	2429.334559
938.009336	2435.441917
938.312002	2440.677155
938.614628	2442.870057
938.917216	2446.139245
939.219765	2448.949689
939.522275	2449.272322
939.824747	2450.623352
940.127179	2445.909873
940.429573	2445.201591
940.731929	2449.118567
941.034246	2442.922989
941.336524	2448.659822
941.638763	2445.410799
941.940964	2444.301745
942.243126	2442.897783
942.545250	2440.243616
942.847335	2434.103491
943.149381	2438.748914
943.451389	2436.177925
943.753359	2433.375044
944.055290	2429.909251
944.357182	2429.742892
944.659036	2428.558221
944.960851	2429.528643
945.262628	2426.166194
945.564367	2432.114755
945.866067	2429.619384
946.167729	2427.865063
946.469352	2426.047727
946.770937	2423.670823
947.072484	2426.471184
947.373992	2425.604105
947.675462	2426.551842
947.976893	2423.378436
948.278286	2424.172418
948.579641	2420.346182
948.880958	2423.469177
949.182236	2423.685946
949.483476	2423.746440
949.784678	2424.653848
950.085841	2423.446491
950.386967	2425.820875
950.688054	2426.007397
950.989103	2427.187027
951.290114	2428.507810
951.591087	2428.321287
951.892021	2429.994950
952.192917	2432.036618
952.493776	2435.477205
952.794596	2434.201793
953.095378	2433.932091
953.396122	2433.566608
953.696828	2433.271700
953.997496	2432.250867
954.298126	2430.423448
954.598718	2429.747934
954.899272	2427.209713
955.199788	2426.357758
955.500266	2425.036975
955.800706	2421.868610
956.101108	2415.844431
956.401472	2414.702610
956.701798	2413.308731
957.002087	2413.873340
957.302337	2410.495767
957.602550	2411.052815
957.902724	2408.280180
958.202861	2407.130797
958.502960	2406.374624
958.803022	2404.660632
959.103045	2401.835065
959.403031	2401.890518
959.702979	2403.420508
960.002889	2403.309602
960.302762	2399.813562
960.602596	2399.354817
960.902393	2400.549571
961.202153	2398.601165
961.501875	2397.114024
961.801559	2397.857594
962.101205	2398.230640
962.400814	2400.156361
962.700385	2396.163767
962.999918	2396.418345
963.299414	2398.132337
963.598873	2398.172667
963.898293	2397.892883
964.197677	2393.900289
964.497022	2394.233005
964.796331	2395.715104
965.095601	2392.087994
965.394835	2393.736451
965.694030	2395.921791
965.993189	2396.345248
966.292309	2394.648900
966.591393	2396.390619
966.890439	2391.397356
967.189447	2395.775598
967.488419	2395.281565
967.787353	2396.582183
968.086249	2392.014897
968.385108	2395.556308
968.683930	2395.931874
968.982714	2396.188973
969.281462	2395.384908
969.580172	2396.284754
969.878844	2395.543705
970.177480	2396.456154
970.476078	2398.996895
970.774639	2399.571587
971.073162	2398.533109
971.371649	2396.156205
971.670098	2393.885165
971.968510	2398.805331
972.266885	2394.522871
972.565223	2399.763151
972.863524	2396.372975
973.161788	2397.436658
973.460014	2400.887328
973.758204	2400.630229
974.056356	2397.991185
974.354471	2400.211813
974.652550	2402.240878
974.950591	2401.986299
975.248595	2398.444889
975.546563	2401.565363
975.844493	2400.844478
976.142386	2400.577297
976.440243	2399.160733
976.738062	2399.112842
977.035845	2396.559497
977.333590	2399.145609
977.631299	2399.977400
977.928971	2396.572100
978.226606	2396.493962
978.524204	2396.287275
978.821765	2400.153840
979.119290	2392.869373
979.416777	2396.249466
979.714228	2398.162584
980.011642	2397.371123
980.309020	2401.008316
980.606360	2398.717111
980.903664	2400.799108
981.200931	2402.182904
981.498162	2404.738769
981.795356	2408.141548
982.092513	2414.470717
982.389633	2419.700914
982.686717	2422.037489
982.983764	2426.957655
983.280775	2429.904209
983.577749	2431.000660
983.874686	2430.904878
984.171587	2425.987233
984.468451	2426.869435
984.765279	2425.223498
985.062070	2419.658064
985.358824	2417.553382
985.655543	2413.709503
985.952224	2414.836201
986.248869	2404.922772
986.545478	2401.358676
986.842050	2397.860115
987.138586	2396.201575
987.435086	2394.427089
987.731549	2393.030690
988.027975	2398.028994
988.324366	2395.271483
988.620719	2394.732079
988.917037	2394.769888
989.213318	2392.801317
989.509563	2391.457850
989.805772	2394.013715
990.101944	2393.323077
990.398080	2393.277706
990.694180	2392.304763
990.990244	2394.167470
991.286271	2392.793755
991.582262	2390.900802
991.878217	2394.033879
992.174136	2392.516492
992.470019	2394.651421
992.765865	2393.255021
993.061676	2393.423900
993.357450	2394.878272
993.653188	2393.010525
993.948890	2394.220402
994.244556	2396.105793
994.540186	2397.731566
994.835780	2397.222409
995.131337	2403.463358
995.426859	2401.668707
995.722345	2406.535941
996.017795	2410.258833
996.313208	2412.071128
996.608586	2413.233114
996.903928	2409.742115
997.199234	2414.052301
997.494504	2410.006775
997.789738	2410.422670
998.084936	2410.284039
998.380099	2406.745149
998.675225	2403.682648
998.970316	2402.135013
999.265371	2401.986299
999.560390	2401.746845
999.855373	2398.051679
1000.150320	2399.405229
1000.445232	2394.220402
1000.740108	2393.113869
1001.034948	2394.782491
1001.329752	2392.710576
1001.624521	2391.919115
1001.919254	2386.346120
1002.213951	2389.655637
1002.508613	2388.231511
1002.803239	2389.343086
1003.097829	2385.234545
1003.392384	2389.922818
1003.686903	2390.862993
1003.981386	2392.370298
1004.275834	2392.208982
1004.570246	2393.189486
1004.864623	2388.675133
1005.158964	2389.330483
1005.453270	2387.049361
1005.747540	2388.423075
1006.041775	2388.347458
1006.335974	2389.149001
1006.630138	2387.293857
1006.924266	2388.095400
1007.218359	2388.768394
1007.512416	2388.801162
1007.806438	2390.522716
1008.100425	2388.816285
1008.394376	2388.627242
1008.688292	2387.460215
1008.982172	2386.509957
1009.276017	2387.815616
1009.569827	2387.939124
1009.863602	2389.635473
1010.157341	2388.097921
1010.451045	2391.369629
1010.744714	2388.823847
1011.038347	2387.987015
1011.331945	2386.371325
1011.625508	2388.231511
1011.919036	2388.246635
1012.212528	2388.458363
1012.505986	2386.356202
1012.799408	2387.452653
1013.092795	2387.712272
1013.386147	2385.489123
1013.679464	2387.790410
1013.972745	2387.480379
1014.265992	2387.901316
1014.559204	2390.805020
1014.852380	2386.202447
1015.145521	2390.623539
1015.438628	2390.371481
1015.731699	2387.490462
1016.024736	2386.542725
1016.317737	2388.382746
1016.610703	2388.397869
1016.903635	2385.103475
1017.196531	2384.667415
1017.489393	2386.794782
1017.782219	2384.553989
1018.075011	2390.386604
1018.367768	2388.178579
1018.660490	2388.483569
1018.953177	2388.483569
1019.245829	2388.483569
