Dividing Wavelength (nm)	Counts (n)	Blue Motor Position (mm): 7.600000	Red Motor Position (mm): 0.000000	
326.493990	1978.957874
326.888308	1978.957874
327.282561	1978.957874
327.676750	1951.869234
328.070874	1954.389811
328.464933	1959.945163
328.858929	1969.062089
329.252859	1981.077680
329.646726	1997.496718
330.040528	2011.828718
330.434265	2029.026614
330.827938	2049.667619
331.221547	2068.652604
331.615091	2091.463825
332.008571	2108.727257
332.401986	2131.122583
332.795338	2150.926756
333.188625	2170.120949
333.581847	2190.709021
333.975006	2208.529500
334.368100	2225.646738
334.761129	2242.484192
335.154095	2258.167221
335.546996	2278.283946
335.939833	2302.506690
336.332606	2317.335244
336.725315	2325.736327
337.117960	2336.526917
337.510540	2342.480519
337.903056	2354.491068
338.295508	2358.634897
338.687896	2368.780219
339.080220	2376.795654
339.472480	2380.029554
339.864676	2382.287991
340.256807	2384.029709
340.648875	2388.682694
341.040879	2389.275030
341.432818	2390.023641
341.824694	2391.067160
342.216506	2392.294681
342.608253	2393.602861
342.999937	2388.632283
343.391557	2389.912736
343.783113	2385.395862
344.174605	2386.550286
344.566033	2383.172713
344.957397	2384.894267
345.348697	2378.618031
345.739934	2378.731457
346.131106	2377.720705
346.522215	2373.304655
346.913260	2374.985879
347.304241	2372.699716
347.695159	2371.638553
348.086012	2369.039838
348.476802	2367.227544
348.867528	2367.764427
349.258191	2364.636391
349.648789	2363.176977
350.039324	2358.619773
350.429796	2364.013808
350.820203	2361.044568
351.210548	2362.350227
351.600828	2359.290247
351.991045	2355.728672
352.381198	2358.987778
352.771288	2358.796214
353.161314	2357.898888
353.551276	2357.235977
353.941175	2355.763960
354.331010	2359.996008
354.720782	2361.347038
355.110490	2360.681605
355.500135	2358.705473
355.889717	2356.366378
356.279235	2359.171780
356.668689	2357.790504
357.058080	2360.164887
357.447408	2358.536594
357.836672	2358.874352
358.225873	2356.570544
358.615010	2356.900740
359.004084	2360.815196
359.393095	2362.481297
359.782043	2363.791997
360.170927	2362.264528
360.559748	2363.360979
360.948505	2363.872656
361.337199	2365.828623
361.725830	2364.868284
362.114398	2366.128572
362.502903	2365.553881
362.891344	2367.875332
363.279722	2367.555219
363.668037	2367.424149
364.056289	2367.426669
364.444478	2369.508666
364.832603	2368.523120
365.220665	2366.587317
365.608665	2368.598738
365.996601	2370.768954
366.384474	2369.987575
366.772284	2370.269880
367.160031	2369.526310
367.547715	2370.209386
367.935336	2372.072093
368.322893	2371.278111
368.710388	2371.184849
369.097820	2373.100488
369.485189	2373.718029
369.872495	2374.766589
370.259738	2370.990765
370.646918	2374.456558
371.034035	2374.708616
371.421090	2371.825076
371.808081	2375.643750
372.195010	2375.704244
372.581875	2374.459079
372.968678	2374.270036
373.355418	2376.203318
373.742096	2377.511498
374.128710	2374.638040
374.515262	2376.054604
374.901751	2375.827752
375.288177	2375.928575
375.674540	2375.091744
376.060841	2375.643750
376.447079	2375.227855
376.833254	2373.896990
377.219367	2372.762731
377.605417	2374.242309
377.991404	2370.647967
378.377329	2376.508308
378.763191	2371.759541
379.148991	2375.681559
379.534727	2376.321785
379.920402	2378.625592
380.306013	2377.123329
380.691563	2379.754811
381.077049	2381.826725
381.462474	2376.770448
381.847835	2377.675335
382.233134	2382.199771
382.618371	2379.374204
383.003545	2379.285984
383.388657	2380.085007
383.773706	2378.829759
384.158693	2380.659698
384.543618	2379.976622
384.928480	2379.858155
385.313280	2379.626262
385.698017	2381.791437
386.082692	2381.257075
386.467305	2381.241951
386.851856	2382.086345
387.236344	2381.463762
387.620770	2383.208001
388.005133	2379.873278
388.389435	2383.392003
388.773674	2382.812271
389.157851	2386.719165
389.541965	2382.116592
389.926018	2382.383773
390.310008	2383.984339
390.693936	2381.884698
391.077802	2382.729092
391.461606	2385.355533
391.845348	2382.219935
392.229027	2386.073897
392.612645	2385.849566
392.996200	2386.278064
393.379694	2383.255892
393.763125	2383.533156
394.146494	2387.026675
394.529801	2388.158414
394.913047	2384.755636
395.296230	2384.523743
395.679351	2383.160110
396.062410	2387.213198
396.445408	2387.253527
396.828343	2387.714793
397.211217	2379.603576
397.594028	2386.870400
397.976778	2381.884698
398.359466	2388.720503
398.742092	2381.993083
399.124656	2388.377705
399.507158	2387.745040
399.889598	2386.053733
400.271977	2387.059443
400.654294	2390.215205
401.036549	2389.033055
401.418742	2387.848383
401.800874	2389.819475
402.182944	2389.907695
402.564952	2387.165307
402.946898	2389.101110
403.328783	2389.509444
403.710606	2389.569938
404.092367	2390.558004
404.474067	2391.228477
404.855705	2388.410472
405.237282	2390.104300
405.618797	2391.218395
406.000250	2390.731923
406.381642	2391.515823
406.762972	2392.745864
407.144240	2391.732592
407.525447	2391.064640
407.906593	2389.181769
408.287677	2389.867366
408.668700	2391.440206
409.049661	2390.409290
409.430560	2390.358878
409.811399	2392.987840
410.192176	2391.384753
410.572891	2393.290309
410.953545	2393.255021
411.334138	2393.365926
411.714669	2393.852398
412.095139	2393.953221
412.475547	2394.512789
412.855894	2392.556821
413.236180	2390.817623
413.616405	2393.464229
413.996568	2393.549928
414.376670	2395.402553
414.756711	2391.992212
415.136691	2393.988509
415.516609	2397.045969
415.896466	2396.516647
416.276262	2397.476987
416.655997	2391.306615
417.035670	2391.752757
417.415283	2397.358520
417.794834	2389.529608
418.174324	2396.766185
418.553753	2395.432799
418.933121	2394.207799
419.312428	2398.767523
419.691674	2397.058572
420.070859	2398.190311
420.449983	2397.580331
420.829045	2395.463046
421.208047	2397.134189
421.586988	2396.141082
421.965867	2396.473798
422.344686	2395.505896
422.723444	2397.862636
423.102141	2397.834909
423.480777	2397.557646
423.859352	2396.347769
424.237866	2398.754920
424.616319	2396.730897
424.994712	2398.265928
425.373044	2397.844992
425.751314	2399.803480
426.129524	2395.674775
426.507673	2396.138561
426.885762	2399.926988
427.263789	2398.928840
427.641756	2397.290465
428.019662	2396.002450
428.397508	2399.322050
428.775292	2398.724673
429.153016	2400.413459
429.530679	2401.215003
429.908282	2397.061092
430.285824	2399.133006
430.663305	2394.422048
431.040726	2396.088149
431.418086	2399.266597
431.795385	2398.742317
432.172624	2402.303892
432.549802	2400.736093
432.926920	2399.201062
433.303977	2399.052348
433.680974	2399.410270
434.057910	2400.937739
434.434786	2399.069992
434.811601	2400.902451
435.188355	2399.672410
435.565050	2400.484036
435.941683	2398.200393
436.318257	2400.161402
436.694770	2395.929353
437.071222	2396.758623
437.447614	2397.406411
437.823946	2397.988664
438.200218	2397.925650
438.576429	2401.162071
438.952580	2399.707698
439.328670	2401.787174
439.704700	2399.954714
440.080670	2400.930178
440.456580	2401.237688
440.832429	2400.811711
441.208218	2398.162584
441.583947	2406.419994
441.959616	2402.250960
442.335224	2403.927144
442.710773	2401.462019
443.086261	2404.101063
443.461689	2400.027811
443.837057	2400.121073
444.212365	2402.119890
444.587612	2399.135527
444.962800	2401.598131
445.337927	2401.640980
445.712995	2403.165929
446.088002	2404.290107
446.462949	2404.824469
446.837837	2401.217523
447.212664	2400.950342
447.587431	2405.366393
447.962139	2401.598131
448.336786	2404.572411
448.711374	2403.496125
449.085901	2401.545198
449.460369	2405.159706
449.834776	2404.171640
450.209124	2402.939078
450.583412	2403.483522
450.957640	2403.352452
451.331808	2405.124418
451.705917	2404.073337
452.079965	2407.090468
452.453954	2404.232133
452.827883	2407.206414
453.201752	2403.758265
453.575562	2403.390261
453.949311	2404.779099
454.323001	2403.798594
454.696632	2404.658111
455.070202	2405.399161
455.443713	2407.254305
455.817164	2402.581156
456.190556	2404.027967
456.563888	2402.555950
456.937160	2402.079561
457.310373	2406.130128
457.683526	2406.024264
458.056619	2407.266908
458.429653	2406.735066
458.802628	2406.835889
459.175542	2408.348236
459.548398	2408.570046
459.921194	2407.725653
460.293930	2408.040725
460.666607	2408.804460
461.039224	2406.356980
461.411782	2408.471744
461.784280	2409.837897
462.156719	2410.505849
462.529099	2412.131622
462.901419	2407.602145
463.273680	2409.081723
463.645882	2408.973339
464.018024	2409.132135
464.390106	2411.627506
464.762130	2410.276477
465.134094	2409.714388
465.505999	2411.919893
465.877845	2413.180182
466.249631	2412.126580
466.621358	2413.744791
466.993026	2414.606828
467.364634	2413.429719
467.736184	2414.359812
468.107674	2411.388051
468.479105	2414.455593
468.850477	2411.120870
469.221790	2411.846796
469.593043	2410.087434
469.964238	2411.163720
470.335373	2409.863102
470.706449	2413.099523
471.077467	2411.549368
471.448425	2412.608011
471.819324	2412.875192
472.190164	2414.327044
472.560945	2413.401992
472.931667	2412.703792
473.302330	2411.882084
473.672934	2411.899728
474.043479	2411.410737
474.413965	2411.952661
474.784393	2407.125756
475.154761	2412.418967
475.525070	2406.225910
475.895321	2410.609193
476.265513	2409.114491
476.635645	2414.740419
477.005719	2413.076838
477.375734	2414.138001
477.745691	2413.223031
478.115588	2418.062539
478.485427	2413.338978
478.855207	2414.876530
479.224928	2417.155131
479.594591	2417.976839
479.964194	2417.240831
480.333739	2419.632858
480.703226	2414.170768
481.072653	2415.519277
481.442022	2417.787796
481.811333	2418.090265
482.180584	2416.237641
482.549777	2417.697055
482.918912	2415.287384
483.287988	2416.325862
483.657005	2415.851993
484.025964	2418.473393
484.394864	2418.843918
484.763706	2419.930287
485.132489	2417.513053
485.501213	2417.800399
485.869879	2413.588515
486.238487	2418.614545
486.607036	2417.623959
486.975527	2416.608166
487.343959	2416.870306
487.712333	2418.871644
488.080648	2417.016500
488.448905	2415.990625
488.817104	2415.806623
489.185244	2418.884247
489.553326	2414.974832
489.921350	2418.536407
490.289315	2421.056984
490.657222	2418.831315
491.025070	2418.397776
491.392861	2418.591860
491.760593	2421.457756
492.128267	2419.980698
492.495883	2419.610173
492.863440	2417.475245
493.230939	2419.937848
493.598380	2416.784607
493.965763	2411.516601
494.333088	2417.271078
494.700354	2417.984401
495.067563	2415.665470
495.434713	2416.063722
495.801805	2417.911304
496.168839	2420.116809
496.535815	2417.074473
496.902733	2418.090265
497.269593	2419.146387
497.636395	2417.013979
498.003139	2420.472211
498.369825	2418.170924
498.736453	2418.695204
499.103023	2418.082704
499.469535	2416.900553
499.835989	2417.923907
500.202385	2418.654875
500.568723	2418.589340
500.935003	2418.957344
501.301226	2417.240831
501.667390	2418.415420
502.033497	2420.293250
502.399546	2418.881727
502.765537	2419.905081
503.131470	2419.184196
503.497345	2420.114289
503.863163	2420.618404
504.228923	2417.666808
504.594625	2419.413568
504.960269	2419.902560
505.325856	2421.082190
505.691385	2421.825760
506.056856	2419.947931
506.422270	2420.457087
506.787625	2417.407189
507.152924	2419.698393
507.518164	2418.826274
507.883347	2419.269895
508.248472	2418.123033
508.613540	2421.402303
508.978550	2419.632858
509.343503	2422.045051
509.708398	2422.206368
510.073236	2421.679567
510.438016	2420.860379
510.802738	2421.520771
511.167403	2422.239135
511.532010	2422.443302
511.896561	2422.367684
512.261053	2424.769794
512.625488	2421.881213
512.989866	2420.822571
513.354186	2421.651841
513.718449	2421.379618
514.082655	2426.428334
514.446803	2426.841708
514.810894	2427.565114
515.174927	2427.071081
515.538904	2428.129723
515.902822	2428.250711
516.266684	2432.157605
516.630488	2430.047882
516.994235	2433.778336
517.357925	2436.077102
517.721558	2434.703388
518.085133	2436.792946
518.448651	2434.000147
518.812112	2436.929057
519.175516	2438.199428
519.538863	2436.525765
519.902152	2439.484922
520.265385	2441.264450
520.628560	2443.595983
520.991678	2441.816456
521.354739	2445.103288
521.717743	2442.749069
522.080690	2446.401385
522.443580	2445.027671
522.806413	2447.480192
523.169189	2449.715944
523.531908	2451.540842
523.894569	2450.152004
524.257174	2453.317848
524.619722	2453.718620
524.982213	2459.067284
525.344647	2457.524691
525.707025	2457.670885
526.069345	2460.526698
526.431608	2464.030300
526.793815	2463.816051
527.155964	2463.042234
527.518057	2465.003243
527.880093	2466.923923
528.242072	2468.501804
528.603995	2469.245374
528.965860	2468.882411
529.327669	2472.421301
529.689421	2473.709316
530.051117	2473.384161
530.412755	2476.854996
530.774337	2479.025212
531.135862	2478.359780
531.497331	2475.660242
531.858743	2476.239975
532.220098	2481.233238
532.581396	2481.397075
532.942638	2480.840028
533.303824	2485.861017
533.664953	2488.006028
534.026025	2487.121306
534.387040	2487.932931
534.747999	2490.778663
535.108902	2492.386791
535.469748	2489.256234
535.830537	2492.323776
536.191270	2492.507778
536.551947	2498.025321
536.912567	2496.170177
537.273131	2499.744355
537.633638	2496.376864
537.994089	2500.593789
538.354483	2501.826351
538.714821	2502.249808
539.075103	2503.421877
539.435328	2502.791732
539.795497	2502.834582
540.155609	2507.606034
540.515665	2505.408091
540.875665	2507.109481
541.235609	2509.093175
541.595496	2509.894718
541.955328	2512.561488
542.315102	2514.436798
542.674821	2513.640295
543.034483	2516.218846
543.394090	2514.963598
543.753640	2517.116171
544.113134	2520.062725
544.472571	2515.634072
544.831953	2524.771163
545.191278	2521.411234
545.550548	2520.234125
545.909761	2525.333252
546.268918	2523.213447
546.628019	2528.108407
546.987064	2526.459950
547.346053	2525.171935
547.704986	2526.122192
548.063863	2525.592871
548.422684	2528.214271
548.781449	2529.595547
549.140158	2530.669313
549.498811	2530.613860
549.857408	2526.129754
550.215949	2529.005732
550.574434	2527.473222
550.932864	2530.823068
551.291237	2530.273583
551.649555	2532.320291
552.007817	2532.809283
552.366022	2533.678882
552.724173	2534.109901
553.082267	2534.346835
553.440305	2535.022349
553.798288	2536.590148
554.156215	2537.018646
554.514086	2538.644418
554.871902	2538.102494
555.229661	2535.223996
555.587365	2535.130734
555.945014	2537.696682
556.302606	2538.430169
556.660143	2537.656352
557.017625	2535.765920
557.375050	2536.093595
557.732421	2537.336239
558.089735	2536.401105
558.446994	2536.844727
558.804197	2538.367155
559.161345	2537.159799
559.518437	2536.091074
559.875474	2533.976310
560.232455	2534.825744
560.589381	2537.631147
560.946251	2535.453368
561.303065	2535.536547
561.659825	2536.567463
562.016528	2531.178470
562.373177	2536.000333
562.729770	2534.792977
563.086307	2533.300795
563.442789	2535.060158
563.799216	2532.612678
564.155587	2531.460774
564.511904	2529.182173
564.868164	2532.373223
565.224370	2532.809283
565.580520	2529.018335
565.936615	2532.176618
566.292654	2529.156967
566.648638	2528.655372
567.004567	2530.122348
567.360441	2530.223171
567.716260	2528.945238
568.072023	2529.202337
568.427732	2522.081707
568.783385	2523.682274
569.138982	2521.958199
569.494525	2523.566327
569.850013	2516.982580
570.205445	2520.934845
570.560823	2521.529701
570.916145	2519.442663
571.271412	2518.562982
571.626625	2522.101872
571.981782	2520.435771
572.336884	2518.212622
572.691931	2515.321520
573.046923	2515.442508
573.401860	2518.018538
573.756743	2515.268588
574.111570	2512.876561
574.466342	2514.083917
574.821059	2511.893536
575.175722	2510.507218
575.530330	2509.851868
575.884882	2508.596621
576.239380	2508.599142
576.593823	2508.921775
576.948211	2507.177536
577.302544	2504.876249
577.656823	2504.173008
578.011047	2504.349449
578.365216	2505.070334
578.719330	2504.420025
579.073389	2502.471619
579.427394	2501.100425
579.781344	2501.743172
580.135239	2496.558346
580.489080	2498.834427
580.842866	2500.162771
581.196597	2500.193017
581.550273	2500.087153
581.903895	2498.295023
582.257463	2500.238388
582.610975	2495.676144
582.964434	2498.410970
583.317837	2499.497338
583.671186	2496.107162
584.024481	2500.132524
584.377721	2496.518016
584.730906	2498.237050
585.084037	2497.627070
585.437113	2495.950887
585.790135	2492.961482
586.143103	2493.619353
586.496016	2496.848212
586.848874	2490.080463
587.201679	2496.336535
587.554428	2491.802017
587.907124	2495.245125
588.259765	2489.611636
588.612352	2496.311329
588.964884	2496.323932
589.317362	2498.232009
589.669786	2496.775115
590.022155	2498.799138
590.374470	2501.491115
590.726731	2496.112203
591.078937	2496.364261
591.431090	2499.436844
591.783188	2502.764006
592.135232	2497.306957
592.487222	2495.787049
592.839157	2501.516320
593.191038	2498.398367
593.542866	2501.523882
593.894639	2496.646566
594.246358	2500.220744
594.598022	2503.555467
594.949633	2502.489263
595.301190	2499.661176
595.652692	2502.027998
596.004141	2503.275683
596.355535	2502.985817
596.706876	2500.407267
597.058162	2503.099243
597.409395	2504.147803
597.760573	2506.255005
598.111698	2505.697958
598.462768	2508.662156
598.813785	2505.161075
599.164748	2503.691578
599.515657	2506.091168
599.866511	2509.672907
600.217312	2514.028464
600.568060	2512.085099
600.918753	2516.385204
601.269392	2515.132477
601.619978	2513.247085
601.970510	2520.962571
602.320988	2518.489885
602.671412	2521.746471
603.021783	2521.383508
603.372100	2526.948942
603.722363	2524.080525
604.072572	2526.638911
604.422728	2529.739220
604.772830	2527.901720
605.122878	2526.003725
605.472872	2530.124868
605.822813	2529.582944
606.172701	2538.747762
606.522534	2541.991745
606.872314	2545.505429
607.222041	2545.419729
607.571714	2548.288146
607.921333	2547.075748
608.270899	2552.754608
608.620411	2556.507747
608.969870	2561.102759
609.319276	2561.760629
609.668627	2565.448233
610.017926	2569.718091
610.367171	2573.700602
610.716362	2577.287383
611.065500	2581.060687
611.414585	2586.374063
611.763616	2591.599219
612.112594	2592.970413
612.461518	2597.837647
612.810389	2603.488780
613.159207	2609.303751
613.507971	2611.884822
613.856682	2618.375308
614.205340	2622.524177
614.553945	2630.849643
614.902496	2634.161681
615.250994	2641.589821
615.599439	2644.743063
615.947830	2654.182623
616.296169	2658.772594
616.644454	2669.515293
616.992686	2677.873526
617.340864	2687.043385
617.688990	2692.268541
618.037063	2704.783205
618.385082	2714.517673
618.733048	2724.950341
619.080961	2734.407546
619.428821	2739.277300
619.776628	2748.863054
620.124382	2753.957140
620.472083	2759.373860
620.819731	2765.294695
621.167326	2765.992895
621.514868	2769.287289
621.862357	2769.627567
622.209793	2773.542023
622.557176	2774.104112
622.904506	2774.187291
623.251783	2773.819287
623.599007	2780.319854
623.946179	2783.289094
624.293297	2788.267233
624.640363	2789.020886
624.987376	2796.655713
625.334336	2802.279121
625.681243	2804.595531
626.028097	2809.833290
626.374899	2818.554486
626.721647	2826.375836
627.068343	2833.347752
627.414987	2840.354956
627.761577	2843.921572
628.108115	2859.521422
628.454600	2861.346320
628.801032	2871.418546
629.147412	2881.042108
629.493739	2896.064747
629.840014	2904.140675
630.186236	2918.109713
630.532405	2926.775456
630.878521	2938.786005
631.224585	2950.854527
631.570597	2958.685960
631.916556	2975.551140
632.262462	2986.404744
632.608316	2999.211796
632.954117	3006.718074
633.299866	3018.786596
633.645562	3025.705580
633.991206	3028.637011
634.336797	3027.744726
634.682336	3033.794111
635.027823	3035.528268
635.373257	3038.482384
635.718639	3043.001778
636.063968	3048.501677
636.409245	3046.054197
636.754470	3049.958571
637.099642	3059.924932
637.444762	3061.785118
637.789829	3071.685944
638.134845	3075.673497
638.479808	3083.015937
638.824719	3092.629418
639.169577	3098.368771
639.514383	3105.698609
639.859137	3114.283694
640.203839	3126.054788
640.548489	3130.811117
640.893086	3141.447951
641.237632	3145.178405
641.582125	3159.265910
641.926566	3166.978875
642.270955	3186.536031
642.615292	3197.634132
642.959576	3212.923951
643.303809	3219.656412
643.647990	3237.522261
643.992118	3249.074065
644.336195	3261.954213
644.680219	3278.337963
645.024192	3303.440389
645.368112	3328.613391
645.711981	3352.689942
646.055797	3398.844226
646.399562	3421.504212
646.743274	3470.965493
647.086935	3509.028725
647.430544	3521.878626
647.774101	3549.935168
648.117606	3568.705904
648.461059	3596.049123
648.804460	3599.184721
649.147810	3587.534614
649.491108	3585.563523
649.834354	3584.643512
650.177548	3567.513672
650.520690	3564.554514
650.863781	3577.827872
651.206820	3584.731733
651.549807	3586.024788
651.892742	3580.713933
652.235626	3588.109306
652.578458	3599.285544
652.921238	3593.173145
653.263967	3620.017289
653.606644	3623.808237
653.949269	3636.332983
654.291843	3637.500010
654.634365	3671.618540
654.976836	3666.476563
655.319255	3685.048173
655.661622	3700.897561
656.003938	3709.139848
656.346203	3712.056155
656.688416	3738.852408
657.030577	3745.531937
657.372687	3752.738267
657.714746	3775.448665
658.056753	3798.204433
658.398708	3786.768576
658.740612	3805.942604
659.082465	3832.219619
659.424266	3846.503728
659.766016	3864.356975
660.107715	3886.681724
660.449362	3907.027821
660.790958	3926.572375
661.132503	3943.939150
661.473996	3963.549238
661.815438	3982.415757
662.156829	4009.627905
662.498168	4018.427239
662.839456	4033.437275
663.180693	4060.800658
663.521879	4086.394596
663.863013	4105.916464
664.204097	4120.462713
664.545129	4165.560876
664.886110	4186.975697
665.227040	4213.459399
665.567918	4235.690888
665.908746	4263.623921
666.249522	4299.937873
666.590248	4320.049556
666.930922	4349.162219
667.271545	4364.482286
667.612118	4390.383734
667.952639	4397.080907
668.293109	4417.474895
668.633528	4428.608283
668.973896	4444.664358
669.314213	4462.764621
669.654480	4469.449191
669.994695	4482.765399
670.334859	4496.346268
670.674973	4509.523844
671.015035	4540.378226
671.355047	4559.116195
671.695008	4576.858536
672.034918	4595.183130
672.374777	4617.291110
672.714585	4636.805417
673.054342	4672.804296
673.394049	4678.616747
673.733705	4720.115525
674.073310	4724.942430
674.412864	4743.700563
674.752368	4734.346702
675.091820	4775.479997
675.431223	4760.827884
675.770574	4756.127008
676.109875	4759.456690
676.449125	4760.129684
676.788324	4770.716107
677.127473	4750.861522
677.466571	4756.353860
677.805619	4749.616357
678.144616	4771.414307
678.483562	4780.296820
678.822458	4776.253814
679.161303	4789.817039
679.500098	4797.451866
679.838842	4813.308816
680.177535	4846.139330
680.516179	4893.319489
680.854771	4937.033855
681.193314	5045.111152
681.531805	5187.183470
681.870247	5292.977125
682.208638	5388.514552
682.546978	5437.948107
682.885268	5463.025326
683.223508	5439.457932
683.561697	5427.560809
683.899836	5436.786121
684.237925	5419.129479
684.575963	5431.172796
684.913951	5417.163429
685.251889	5465.611438
685.589776	5493.002548
685.927614	5528.509915
686.265401	5574.825516
686.603137	5622.381241
686.940824	5714.964552
687.278460	5793.644360
687.616046	5851.426066
687.953582	5950.875428
688.291068	5974.175641
688.628504	6033.850300
688.965889	6054.450975
689.303224	6041.154932
689.640510	6018.976375
689.977745	5954.265604
690.314930	5879.391867
690.652065	5832.279763
690.989150	5760.029946
691.326185	5680.578841
691.663170	5607.499754
692.000105	5535.053332
692.336990	5472.568231
692.673825	5437.068425
693.010610	5393.182660
693.347345	5342.153581
693.684030	5282.899858
694.020665	5273.024238
694.357251	5210.634918
694.693786	5224.346856
695.030272	5215.552563
695.366707	5173.358106
695.703093	5153.175846
696.039429	5176.962531
696.375716	5161.425695
696.711952	5180.140978
697.048139	5183.952091
697.384276	5183.639539
697.720363	5217.944591
698.056400	5216.013829
698.392388	5211.685998
698.728326	5215.895362
699.064214	5211.938056
699.400053	5221.531372
699.735842	5190.182957
700.071581	5172.491027
700.407270	5145.457840
700.742910	5135.161283
701.078501	5116.750989
701.414042	5092.923976
701.749533	5066.969595
702.084974	5034.630593
702.420366	5078.758333
702.755709	5035.646386
703.091002	5005.946428
703.426246	5028.404768
703.761440	5028.934089
704.096584	5010.342314
704.431679	5017.664590
704.766725	5023.789592
705.101721	5026.726064
705.436668	5057.623296
705.771565	5026.879819
706.106413	5098.645685
706.441212	5115.674703
706.775961	5156.036701
707.110661	5181.204662
707.445311	5259.632413
707.779913	5259.569398
708.114465	5316.579807
708.448967	5384.521958
708.783421	5515.002143
709.117825	5582.397329
709.452180	5645.467205
709.786485	5734.594805
710.120742	5887.797991
710.454949	5921.495583
710.789107	6022.653897
711.123216	6161.814949
711.457275	6208.019645
711.791286	6321.120452
712.125247	6361.394230
712.459159	6333.398182
712.793023	6460.503314
713.126837	6301.654036
713.460602	6350.661613
713.794318	6308.169727
714.127985	6255.565287
714.461602	6120.883300
714.795171	6130.509384
715.128691	5967.644826
715.462162	5889.796808
715.795584	5828.163661
716.128957	5793.155368
716.462281	5738.897429
716.795556	5710.825764
717.128782	5635.561337
717.461960	5554.113935
717.795088	5553.395571
718.128167	5492.526159
718.461198	5426.781951
718.794180	5416.613943
719.127113	5362.018247
719.459997	5340.250545
719.792833	5292.314213
720.125619	5300.501047
720.458357	5253.126804
720.791046	5233.637703
721.123686	5217.821083
721.456278	5189.401578
721.788821	5190.495508
722.121315	5156.974356
722.453761	5183.914282
722.786158	5184.252039
723.118506	5197.175037
723.450805	5186.782698
723.783056	5229.841714
724.115259	5229.204008
724.447412	5228.445314
724.779518	5288.830776
725.111574	5313.053520
725.443582	5368.468404
725.775542	5379.569024
726.107453	5494.086396
726.439315	5485.534078
726.771129	5586.883956
727.102895	5680.336866
727.434612	5737.831225
727.766281	5781.399397
728.097901	5849.409604
728.429473	5876.725096
728.760996	5884.236415
729.092471	5915.501652
729.423897	5913.016363
729.755276	5899.760649
730.086606	5944.763029
730.417887	6074.794551
730.749120	6212.113062
731.080305	6270.996259
731.411442	6363.960177
731.742530	6399.908645
732.073570	6439.219563
732.404562	6520.949270
732.735506	6501.782803
733.066401	6449.468229
733.397249	6350.326377
733.728048	6220.335183
734.058798	6045.681888
734.389501	5902.112347
734.720156	5803.847656
735.050762	5696.103074
735.381320	5616.760354
735.711831	5573.257717
736.042293	5501.272561
736.372707	5521.406929
736.703073	5482.320343
737.033391	5538.929980
737.363661	5545.372574
737.693883	5580.539664
738.024056	5637.444208
738.354182	5689.945305
738.684260	5778.558707
739.014290	5839.034909
739.344272	5898.785185
739.674207	5985.127548
740.004093	6024.529206
740.333931	6039.186361
740.663722	6056.396860
740.993464	6071.111988
741.323159	6046.143153
741.652806	5995.061142
741.982405	5952.395336
742.311956	5881.705756
742.641460	5864.316296
742.970915	5803.313293
743.300323	5730.067848
743.629683	5680.412483
743.958996	5625.443742
744.288260	5561.340429
744.617477	5493.486498
744.946647	5482.514427
745.275768	5428.183392
745.604842	5391.834152
745.933869	5352.477864
746.262847	5351.295713
746.591778	5343.078632
746.920662	5328.134132
747.249498	5334.377601
747.578286	5381.824941
747.907027	5428.604328
748.235720	5497.774000
748.564365	5519.382906
748.892963	5501.592674
749.221514	5532.144587
749.550017	5501.486810
749.878473	5504.635010
750.206881	5451.493687
750.535242	5433.234628
750.863555	5423.850520
751.191821	5407.159259
751.520039	5425.254481
751.848210	5407.575155
752.176334	5426.456796
752.504411	5405.876286
752.832440	5369.269947
753.160421	5393.575870
753.488356	5363.757445
753.816243	5345.999981
754.144082	5309.499507
754.471875	5305.143950
754.799620	5293.387979
755.127318	5297.284791
755.454969	5290.138955
755.782572	5288.750117
756.110129	5299.883506
756.437638	5280.563283
756.765100	5283.396412
757.092515	5290.844717
757.419882	5309.375998
757.747203	5315.790867
758.074477	5341.243652
758.401703	5336.310883
758.728882	5396.484616
759.056014	5409.614301
759.383099	5458.425273
759.710138	5500.992777
760.037129	5531.302714
760.364073	5545.004570
760.690970	5554.292896
761.017820	5559.364297
761.344623	5638.031503
761.671379	5760.395430
761.998088	5978.316949
762.324751	6492.446586
762.651366	7403.380565
762.977935	8575.380779
763.304456	9307.288262
763.630931	9516.002113
763.957359	9186.403913
764.283740	8602.718956
764.610074	8002.178901
764.936362	7323.490880
765.262602	6833.145407
765.588796	6343.349420
765.914943	6008.324417
766.241044	5731.451645
766.567097	5514.500548
766.893104	5331.463814
767.219064	5213.132810
767.544978	5093.428091
767.870845	4986.845496
768.196665	4930.871044
768.522438	4870.382239
768.848165	4815.058096
769.173846	4768.107310
769.499479	4726.137183
769.825066	4677.658927
770.150607	4619.655411
770.476101	4606.145119
770.801548	4572.724790
771.126949	4528.891957
771.452303	4505.765664
771.777611	4447.991520
772.102872	4445.763330
772.428087	4413.048762
772.753256	4373.016959
773.078378	4343.937063
773.403453	4296.449394
773.728482	4263.316411
774.053465	4244.333946
774.378401	4217.068865
774.703291	4187.005944
775.028135	4157.580729
775.352932	4144.597237
775.677683	4118.748721
776.002388	4090.210749
776.327046	4095.887088
776.651658	4065.496492
776.976224	4035.083211
777.300743	4034.692522
777.625216	4011.369624
777.949643	3999.038961
778.274024	4006.444416
778.598359	3978.604644
778.922647	3982.803925
779.246889	3973.548367
779.571086	3976.144561
779.895236	3983.683607
780.219339	3980.898369
780.543397	3985.019512
780.867409	4007.702184
781.191374	4010.036238
781.515294	4002.633304
781.839167	4027.496275
782.162995	4022.059390
782.486776	4007.954242
782.810511	3994.544773
783.134201	3971.824292
783.457844	3970.032162
783.781441	3955.528762
784.104993	3939.482770
784.428498	3935.699384
784.751958	3927.971295
785.075372	3923.232610
785.398739	3915.194491
785.722061	3927.867951
786.045337	3932.097479
786.368568	3979.590190
786.691752	3990.118640
787.014891	4093.232921
787.337983	4199.724775
787.661030	4377.463257
787.984031	4548.494484
788.306987	4668.960417
788.629897	4719.618972
788.952760	4704.745047
789.275579	4647.217920
789.598351	4531.142832
789.921078	4423.821708
790.243759	4313.150737
790.566395	4233.281216
790.888984	4152.683248
791.211529	4097.966564
791.534027	4032.305536
791.856480	3972.562821
792.178888	3948.037608
792.501249	3923.487189
792.823566	3881.932957
793.145836	3877.718553
793.468062	3874.383830
793.790241	3862.564844
794.112375	3880.342473
794.434464	3923.870316
794.756507	3937.788942
795.078505	3990.274915
795.400457	4075.848502
795.722364	4176.018749
796.044226	4260.248868
796.366042	4334.343748
796.687812	4321.284639
797.009538	4343.463195
797.331218	4308.210406
797.652852	4288.005462
797.974442	4239.494438
798.295986	4215.319585
798.617484	4156.814474
798.938938	4113.808390
799.260346	4088.617745
799.581709	4029.202705
799.903026	4003.139940
800.224299	3976.386537
800.545526	3922.549534
800.866708	3896.968199
801.187845	3874.134292
801.508936	3840.545084
801.829983	3832.244825
802.150984	3783.229686
802.471940	3768.880041
802.792851	3763.498610
803.113717	3760.378135
803.434538	3741.998088
803.755314	3729.869072
804.076045	3728.684401
804.396731	3710.011967
804.717372	3715.353070
805.037967	3715.753842
805.358518	3729.191037
805.679024	3753.653236
805.999485	3762.500461
806.319901	3766.142695
806.640272	3780.411681
806.960598	3801.513951
807.280879	3800.762819
807.601115	3819.861230
807.921306	3805.758602
808.241453	3809.068120
808.561554	3818.129594
808.881611	3804.221050
809.201623	3803.870690
809.521590	3786.440901
809.841513	3781.067031
810.161390	3791.260244
810.481223	3754.260695
810.801011	3753.955705
811.120755	3744.806011
811.440453	3718.143348
811.760107	3708.668500
812.079716	3699.964948
812.399281	3676.228675
812.718801	3678.517359
813.038276	3662.932632
813.357707	3651.700941
813.677093	3661.536232
813.996434	3638.039414
814.315731	3649.379489
814.634983	3648.618275
814.954191	3654.549193
815.273354	3689.577650
815.592473	3711.945250
815.911547	3746.207452
816.230577	3779.973100
816.549562	3817.328050
816.868502	3850.377855
817.187399	3886.480078
817.506250	3928.780400
817.825058	3950.737146
818.143821	4031.879558
818.462539	4120.152683
818.781213	4240.520313
819.099843	4421.606121
819.418429	4729.844952
819.736970	5039.081932
820.055466	5401.863527
820.373919	5881.118462
820.692327	6611.057374
821.010691	7863.801749
821.329011	10411.104349
821.647286	14012.726467
821.965517	17979.643197
822.283704	20262.938049
822.601847	21305.897327
822.919945	19806.698503
823.237999	17955.664948
823.556010	15863.414703
823.873976	13908.573708
824.191897	12050.094370
824.509775	10704.771725
824.827609	9501.632304
825.145398	8811.163106
825.463144	8485.779310
825.780845	8630.326835
826.098502	9186.227473
826.416116	10267.620508
826.733685	11305.294136
827.051210	11607.574323
827.368692	11018.606237
827.686129	9882.851920
828.003522	8708.114360
828.320872	7634.570401
828.638177	6812.126316
828.955439	6186.206572
829.272656	5651.756044
829.589830	5231.510336
829.906960	4864.789079
830.224046	4589.085854
830.541088	4381.894431
830.858086	4253.145883
831.175041	4149.560253
831.491952	4122.847179
831.808819	4145.713853
832.125642	4287.269453
832.442421	4576.745110
832.759157	5146.067819
833.075849	6026.797726
833.392497	6941.729340
833.709101	7509.650609
834.025662	7415.612925
834.342179	6915.686739
834.658653	6266.502070
834.975083	5690.167116
835.291469	5226.078493
835.607811	4836.530891
835.924110	4562.314807
836.240366	4300.590702
836.556578	4061.171182
836.872746	3875.563460
837.188871	3724.520408
837.504952	3606.895165
837.820990	3520.514994
838.136984	3456.595684
838.452935	3428.304729
838.768842	3444.474230
839.084706	3590.027465
839.400526	3975.406032
839.716303	4445.796097
840.032037	4755.388479
840.347727	4697.319427
840.663373	4390.867685
840.978977	4080.045262
841.294537	3842.201103
841.610054	3664.636542
841.925527	3527.814585
842.240957	3415.885846
842.556344	3316.517142
842.871687	3231.203175
843.186987	3148.929024
843.502244	3081.112902
843.817458	3035.051879
844.132629	2996.015704
844.447756	2968.022177
844.762840	2940.026129
845.077881	2919.455701
845.392879	2898.005591
845.707833	2886.060577
846.022745	2869.618854
846.337613	2864.439068
846.652438	2851.823581
846.967221	2850.855679
847.281960	2834.076198
847.596656	2832.906651
847.911309	2825.123109
848.225919	2816.263281
848.540485	2813.309165
848.855009	2809.397230
849.169490	2804.343473
849.483928	2799.793832
849.798323	2795.662606
850.112675	2789.691359
850.426984	2793.527677
850.741251	2785.177006
851.055474	2785.030813
851.369654	2787.599281
851.683792	2783.296656
851.997887	2784.955195
852.311938	2785.489558
852.625947	2786.119702
852.939914	2780.675256
853.253837	2787.780762
853.567718	2783.662139
853.881555	2782.117026
854.195350	2786.764970
854.509103	2784.907304
854.822812	2782.331275
855.136479	2779.241047
855.450103	2781.675925
855.763685	2778.978907
856.077224	2781.539814
856.390720	2786.351595
856.704173	2791.647327
857.017584	2797.026238
857.330953	2795.592030
857.644278	2803.849440
857.957561	2807.199287
858.270802	2805.820531
858.584000	2806.359935
858.897155	2803.259625
859.210268	2795.518933
859.523339	2788.216822
859.836367	2787.011986
860.149352	2786.218004
860.462295	2784.191461
860.775195	2777.111160
861.088054	2773.897424
861.400869	2778.028650
861.713642	2773.801642
862.026373	2779.921603
862.339062	2783.039557
862.651708	2788.171452
862.964312	2798.601599
863.276873	2803.236940
863.589392	2819.845021
863.901869	2835.704491
864.214303	2846.900894
864.526696	2854.621421
864.839045	2869.828062
865.151353	2873.397198
865.463619	2876.578167
865.775842	2877.225955
866.088023	2882.967829
866.400162	2881.478168
866.712258	2878.534134
867.024313	2882.471275
867.336325	2881.732746
867.648296	2882.395658
867.960224	2881.452962
868.272110	2886.390773
868.583954	2886.012686
868.895755	2888.989487
869.207515	2888.248438
869.519233	2899.462484
869.830909	2901.252094
870.142542	2912.105698
870.454134	2915.546286
870.765684	2921.383942
871.077191	2933.596137
871.388657	2943.365893
871.700081	2949.322017
872.011463	2965.070581
872.322803	2973.436376
872.634101	2982.868375
872.945357	2993.328769
873.256571	3009.140348
873.567744	3017.087727
873.878874	3022.285157
874.189963	3030.613143
874.501010	3032.128010
874.812015	3034.956097
875.122979	3046.177705
875.433900	3043.301727
875.744780	3044.836758
876.055618	3051.125598
876.366415	3054.107440
876.677169	3056.272616
876.987882	3071.683423
877.298554	3083.943509
877.609183	3108.181377
877.919771	3140.653970
878.230317	3182.286339
878.540822	3244.728591
878.851285	3341.052438
879.161707	3478.794405
879.472087	3706.223540
879.782425	4071.334149
880.092722	4724.738263
880.402977	5656.698895
880.713191	6676.433578
881.023363	7644.806464
881.333494	8216.029689
881.643583	8524.104683
881.953631	8510.256633
882.263637	8240.247392
882.573602	7823.422107
882.883526	7380.529015
883.193408	6914.323107
883.503248	6448.656603
883.813048	6015.346745
884.122806	5611.633501
884.432522	5209.437644
884.742197	4864.267319
885.051831	4567.628183
885.361424	4297.848314
885.670975	4080.105756
885.980485	3901.507758
886.289954	3747.167792
886.599382	3622.033750
886.908768	3520.749408
887.218113	3425.658123
887.527417	3348.029395
887.836680	3273.634567
888.145901	3214.489229
888.455082	3168.297137
888.764221	3126.881537
889.073319	3089.390476
889.382376	3073.931778
889.691392	3055.266906
890.000366	3051.415464
890.309300	3049.456976
890.618193	3050.087120
890.927044	3046.187788
891.235855	3049.971174
891.544625	3063.804100
891.853353	3078.625092
892.162041	3108.635081
892.470687	3165.658093
892.779293	3238.606109
893.087858	3337.400122
893.396381	3503.710308
893.704864	3739.532964
894.013306	4061.335020
894.321707	4393.902460
894.630068	4608.070840
894.938387	4646.834792
895.246665	4559.234662
895.554903	4378.161457
895.863100	4182.385727
896.171256	4020.940254
896.479371	3879.162843
896.787446	3748.486053
897.095480	3628.738485
897.403473	3538.877397
897.711425	3451.748615
898.019336	3375.753220
898.327207	3301.733958
898.635038	3243.672469
898.942827	3177.358611
899.250576	3125.427164
899.558284	3073.818352
899.865952	3042.147303
900.173579	3001.147599
900.481165	2975.936788
900.788711	2948.802778
901.096216	2930.921805
901.403681	2913.224834
901.711105	2904.415418
902.018489	2904.342321
902.325832	2925.424427
902.633135	2963.026393
902.940397	3065.959193
903.247619	3301.582724
903.554800	3721.588977
903.861941	4255.278291
904.169041	4656.612110
904.476101	4794.419612
904.783121	4663.959592
905.090100	4446.365748
905.397039	4208.942525
905.703938	3996.188189
906.010796	3808.634581
906.317614	3660.177641
906.624391	3518.243954
906.931129	3396.487486
907.237826	3288.004376
907.544483	3192.449305
907.851099	3086.781679
908.157675	2991.087976
908.464211	2905.786612
908.770707	2844.836541
909.077163	2796.575055
909.383578	2760.866042
909.689954	2731.597102
909.996289	2714.961295
910.302584	2704.548792
910.608839	2694.960517
910.915054	2689.059846
911.221229	2683.776717
911.527363	2689.339630
911.833458	2693.428006
912.139513	2701.259439
912.445527	2708.243957
912.751502	2729.159705
913.057436	2756.195413
913.363331	2794.273768
913.669186	2850.129753
913.975000	2921.106678
914.280775	3035.117414
914.586510	3196.668751
914.892205	3418.318203
915.197859	3704.232284
915.503475	4041.724932
915.809050	4327.139939
916.114585	4498.118233
916.420081	4551.304927
916.725536	4524.322151
917.030952	4388.664701
917.336328	4275.677320
917.641665	4153.381448
917.946961	4013.517155
918.252218	3899.423241
918.557435	3758.308742
918.862612	3640.217192
919.167750	3541.798746
919.472848	3423.926487
919.777906	3321.649037
920.082925	3227.818040
920.387904	3132.136940
920.692843	3067.315263
920.997743	3005.064575
921.302603	2949.322017
921.607423	2910.306006
921.912204	2868.842516
922.216946	2840.299503
922.521647	2805.228196
922.826310	2783.795730
923.130932	2759.900661
923.435516	2734.026939
923.740059	2714.883157
924.044564	2697.811289
924.349028	2680.459638
924.653454	2662.061947
924.957840	2648.241624
925.262186	2634.302833
925.566493	2619.749022
925.870761	2604.733945
926.174989	2597.562904
926.479178	2586.870617
926.783328	2573.516600
927.087438	2566.443861
927.391509	2555.807027
927.695541	2548.116747
927.999533	2541.101981
928.303486	2539.629964
928.607400	2534.213244
928.911275	2531.806093
929.215110	2526.656555
929.518906	2526.603623
929.822663	2522.515247
930.126381	2524.589682
930.430060	2526.591020
930.733699	2526.800228
931.037299	2532.196783
931.340861	2530.951618
931.644383	2533.210055
931.947866	2531.788449
932.251309	2532.930271
932.554714	2530.087060
932.858080	2529.313243
933.161407	2525.809641
933.464694	2521.779238
933.767943	2523.248735
934.071153	2518.651202
934.374323	2516.884278
934.677455	2513.922600
934.980548	2510.187105
935.283602	2511.906138
935.586617	2511.558299
935.889593	2515.296314
936.192530	2514.182219
936.495428	2518.832684
936.798287	2522.704290
937.101108	2532.451361
937.403890	2549.916438
937.706632	2563.149467
938.009336	2587.367170
938.312002	2609.001282
938.614628	2624.091976
938.917216	2634.212092
939.219765	2644.904380
939.522275	2651.873775
939.824747	2650.595842
940.127179	2643.258443
940.429573	2639.648977
940.731929	2639.280973
941.034246	2635.827782
941.336524	2636.261322
941.638763	2629.531381
941.940964	2626.846967
942.243126	2615.945472
942.545250	2609.076899
942.847335	2598.051896
943.149381	2591.712645
943.451389	2582.358784
943.753359	2570.302865
944.055290	2564.011505
944.357182	2558.904816
944.659036	2557.400031
944.960851	2552.968857
945.262628	2548.898125
945.564367	2552.273178
945.866067	2548.520039
946.167729	2549.114895
946.469352	2548.933413
946.770937	2545.880995
947.072484	2541.931251
947.373992	2542.705068
947.675462	2538.992258
947.976893	2539.299768
948.278286	2535.801208
948.579641	2534.508152
948.880958	2529.419107
949.182236	2533.832637
949.483476	2526.626308
949.784678	2529.837523
950.085841	2529.640918
950.386967	2531.271731
950.688054	2536.471681
950.989103	2540.224820
951.290114	2549.833259
951.591087	2552.868034
951.892021	2563.053685
952.192917	2569.309757
952.493776	2577.176478
952.794596	2580.501119
953.095378	2581.451376
953.396122	2577.090778
953.696828	2575.772517
953.997496	2570.547361
954.298126	2564.810527
954.598718	2564.334138
954.899272	2555.086142
955.199788	2547.877292
955.500266	2537.212731
955.800706	2528.428520
956.101108	2514.348578
956.401472	2510.035870
956.701798	2502.703512
957.002087	2492.172542
957.302337	2488.000987
957.602550	2479.317599
957.902724	2473.487505
958.202861	2465.898048
958.502960	2458.905968
958.803022	2458.532922
959.103045	2450.111675
959.403031	2448.322065
959.702979	2444.810901
960.002889	2442.741508
960.302762	2437.589448
960.602596	2435.542740
960.902393	2433.596855
961.202153	2430.496545
961.501875	2432.986875
961.801559	2432.175249
962.101205	2427.930598
962.400814	2426.020000
962.700385	2422.350040
962.999918	2423.852304
963.299414	2423.968251
963.598873	2422.193765
963.898293	2421.805596
964.197677	2419.305183
964.497022	2419.912642
964.796331	2416.892991
965.095601	2417.162693
965.394835	2416.540111
965.694030	2416.645975
965.993189	2419.085893
966.292309	2417.394586
966.591393	2415.393248
966.890439	2413.926272
967.189447	2416.035995
967.488419	2413.815367
967.787353	2416.235121
968.086249	2415.342837
968.385108	2416.729154
968.683930	2416.441808
968.982714	2419.164031
969.281462	2420.031110
969.580172	2418.922056
969.878844	2422.198806
970.177480	2423.111255
970.476078	2425.772984
970.774639	2430.244487
971.073162	2428.880855
971.371649	2428.492686
971.670098	2430.698191
971.968510	2431.666093
972.266885	2428.898499
972.565223	2436.372010
972.863524	2434.698347
973.161788	2437.410487
973.460014	2436.442586
973.758204	2436.598862
974.056356	2437.075251
974.354471	2439.293358
974.652550	2439.462237
974.950591	2437.145827
975.248595	2436.157761
975.546563	2437.987700
975.844493	2435.870415
976.142386	2434.111052
976.440243	2432.230702
976.738062	2433.062492
977.035845	2429.977306
977.333590	2429.054775
977.631299	2427.363468
977.928971	2428.976637
978.226606	2424.144691
978.524204	2426.047727
978.821765	2424.681574
979.119290	2423.809454
979.416777	2423.900195
979.714228	2422.967582
980.011642	2423.454053
980.309020	2430.299940
980.606360	2428.689291
980.903664	2438.176743
981.200931	2444.500870
981.498162	2458.747171
981.795356	2474.818370
982.092513	2500.949191
982.389633	2528.552028
982.686717	2552.689073
982.983764	2572.289079
983.280775	2587.064701
983.577749	2582.885585
983.874686	2582.018506
984.171587	2567.008471
984.468451	2560.858263
984.765279	2543.040305
985.062070	2532.504293
985.358824	2521.237314
985.655543	2505.960098
985.952224	2493.752943
986.248869	2476.925572
986.545478	2459.294136
986.842050	2446.908021
987.138586	2437.498708
987.435086	2428.109559
987.731549	2421.165369
988.027975	2420.658733
988.324366	2414.503484
988.620719	2412.517270
988.917037	2410.790675
989.213318	2409.152300
989.509563	2407.329922
989.805772	2407.982752
990.101944	2406.969480
990.398080	2407.876888
990.694180	2405.777247
990.990244	2405.308420
991.286271	2405.315982
991.582262	2406.180539
991.878217	2404.743811
992.174136	2408.212124
992.470019	2406.893863
992.765865	2409.747156
993.061676	2409.303534
993.357450	2413.601118
993.653188	2414.425347
993.948890	2417.243352
994.244556	2419.675708
994.540186	2427.504620
994.835780	2432.165167
995.131337	2445.012548
995.426859	2454.918415
995.722345	2465.903089
996.017795	2476.648308
996.313208	2487.970740
996.608586	2493.647079
996.903928	2497.213696
997.199234	2492.243118
997.494504	2491.461739
997.789738	2487.385966
998.084936	2482.072590
998.380099	2473.890797
998.675225	2466.936526
998.970316	2460.221709
999.265371	2449.766356
999.560390	2441.186312
999.855373	2439.089192
1000.150320	2429.498397
1000.445232	2422.551687
1000.740108	2418.538928
1001.034948	2417.079514
1001.329752	2409.303534
1001.624521	2411.304872
1001.919254	2402.659293
1002.213951	2401.462019
1002.508613	2403.433111
1002.803239	2402.006464
1003.097829	2396.269631
1003.392384	2402.334139
1003.686903	2398.628891
1003.981386	2400.947822
1004.275834	2396.183931
1004.570246	2399.415311
1004.864623	2397.575290
1005.158964	2398.497821
1005.453270	2396.249466
1005.747540	2395.226112
1006.041775	2394.981616
1006.335974	2396.352810
1006.630138	2396.309960
1006.924266	2396.370454
1007.218359	2393.673437
1007.512416	2397.151833
1007.806438	2396.105793
1008.100425	2395.394991
1008.394376	2396.183931
1008.688292	2396.511606
1008.982172	2393.496996
1009.276017	2395.195865
1009.569827	2393.328118
1009.863602	2396.035217
1010.157341	2393.731410
1010.451045	2393.565052
1010.744714	2393.383570
1011.038347	2393.449105
1011.331945	2393.832233
1011.625508	2391.694784
1011.919036	2393.207130
1012.212528	2392.087994
1012.505986	2392.322408
1012.799408	2390.568086
1013.092795	2391.185627
1013.386147	2392.766029
1013.679464	2393.527243
1013.972745	2392.098076
1014.265992	2394.848026
1014.559204	2393.552449
1014.852380	2394.996740
1015.145521	2394.706873
1015.438628	2391.273848
1015.731699	2394.845505
1016.024736	2390.865514
1016.317737	2393.522202
1016.610703	2393.522202
1016.903635	2393.948180
1017.196531	2390.258055
1017.489393	2391.583878
1017.782219	2390.721841
1018.075011	2396.730897
1018.367768	2391.251162
1018.660490	2396.942625
1018.953177	2396.942625
1019.245829	2396.942625
