Dividing Wavelength (nm)	Counts (n)	Blue Motor Position (mm): 22.400000	Red Motor Position (mm): 0.000000	
326.493990	1972.764817
326.888308	1972.764817
327.282561	1972.764817
327.676750	1948.380756
328.070874	1949.376384
328.464933	1957.502724
328.858929	1964.872891
329.252859	1977.702627
329.646726	1991.669144
330.040528	2007.256392
330.434265	2029.407222
330.827938	2048.472865
331.221547	2064.536502
331.615091	2088.008114
332.008571	2107.308172
332.401986	2128.234002
332.795338	2148.454070
333.188625	2168.699343
333.581847	2188.508558
333.975006	2204.791484
334.368100	2223.015256
334.761129	2239.250292
335.154095	2254.845101
335.546996	2290.917077
335.939833	2357.803107
336.332606	2372.039325
336.725315	2382.154400
337.117960	2392.927346
337.510540	2398.991854
337.903056	2410.493247
338.295508	2413.480130
338.687896	2424.041347
339.080220	2430.962852
339.472480	2434.680703
339.864676	2440.611620
340.256807	2442.441559
340.648875	2444.324430
341.040879	2446.913062
341.432818	2445.446087
341.824694	2451.921449
342.216506	2445.466251
342.608253	2450.729216
342.999937	2445.834256
343.391557	2445.436004
343.783113	2443.941302
344.174605	2438.766558
344.566033	2439.258070
344.957397	2439.573142
345.348697	2436.992072
345.739934	2436.044335
346.131106	2430.640218
346.522215	2430.272214
346.913260	2430.451175
347.304241	2429.881524
347.695159	2425.251224
348.086012	2427.368509
348.476802	2423.882551
348.867528	2423.282654
349.258191	2420.676377
349.648789	2419.658064
350.039324	2418.574216
350.429796	2419.794175
350.820203	2414.843762
351.210548	2418.458270
351.600828	2413.843093
351.991045	2415.211767
352.381198	2414.069945
352.771288	2415.998187
353.161314	2413.545665
353.551276	2410.531055
353.941175	2414.455593
354.331010	2412.976015
354.720782	2416.265368
355.110490	2417.737385
355.500135	2414.775707
355.889717	2416.202353
356.279235	2415.549524
356.668689	2419.600091
357.058080	2415.191602
357.447408	2414.069945
357.836672	2411.302352
358.225873	2414.163207
358.615010	2413.079358
359.004084	2418.412899
359.393095	2420.696542
359.782043	2418.155800
360.170927	2419.151428
360.559748	2419.920204
360.948505	2421.782911
361.337199	2422.846594
361.725830	2425.094949
362.114398	2423.015473
362.502903	2425.006728
362.891344	2422.602098
363.279722	2422.720565
363.668037	2425.334403
364.056289	2425.430185
364.444478	2427.076122
364.832603	2424.058992
365.220665	2427.139137
365.608665	2425.362130
365.996601	2427.232398
366.384474	2428.913623
366.772284	2430.209199
367.160031	2428.714497
367.547715	2428.840526
367.935336	2425.868766
368.322893	2428.938828
368.710388	2428.921184
369.097820	2429.145516
369.485189	2430.635177
369.872495	2432.452513
370.259738	2431.487132
370.646918	2432.293716
371.034035	2429.727769
371.421090	2431.119128
371.808081	2431.658531
372.195010	2432.961669
372.581875	2431.822368
372.968678	2434.045517
373.355418	2432.815476
373.742096	2435.008378
374.128710	2434.463933
374.515262	2433.584252
374.901751	2434.035435
375.288177	2437.082812
375.674540	2434.761361
376.060841	2436.896290
376.447079	2434.363110
376.833254	2436.906372
377.219367	2432.427307
377.605417	2433.551484
377.991404	2430.201637
378.377329	2435.625919
378.763191	2434.879828
379.148991	2440.341918
379.534727	2437.022319
379.920402	2437.473502
380.306013	2440.543565
380.691563	2438.393512
381.077049	2440.480550
381.462474	2439.053904
381.847835	2439.857968
382.233134	2441.813935
382.618371	2439.142124
383.003545	2441.897114
383.388657	2440.346960
383.773706	2444.084975
384.158693	2440.480550
384.543618	2440.914089
384.928480	2442.628082
385.313280	2444.826025
385.698017	2442.799481
386.082692	2444.067331
386.467305	2442.212187
386.851856	2446.091354
387.236344	2444.901642
387.620770	2445.017589
388.005133	2441.279573
388.389435	2446.494647
388.773674	2444.763010
389.157851	2449.673094
389.541965	2447.311314
389.926018	2446.802157
390.310008	2444.563885
390.693936	2447.492795
391.077802	2448.818619
391.461606	2446.378700
391.845348	2448.226283
392.229027	2448.450614
392.612645	2448.921962
392.996200	2449.761314
393.379694	2452.052519
393.763125	2448.468258
394.146494	2453.191820
394.529801	2451.359360
394.913047	2451.545883
395.296230	2450.429267
395.679351	2452.533949
396.062410	2453.567386
396.445408	2452.412961
396.828343	2451.679473
397.211217	2450.159566
397.594028	2453.101079
397.976778	2450.162086
398.359466	2451.908846
398.742092	2447.729729
399.124656	2454.689042
399.507158	2453.065791
399.889598	2456.125771
400.271977	2453.537139
400.654294	2455.152828
401.036549	2457.282716
401.418742	2454.903291
401.800874	2454.111830
402.182944	2455.213322
402.564952	2459.793211
402.946898	2456.687860
403.328783	2458.215329
403.710606	2456.821450
404.092367	2458.404373
404.474067	2458.439661
404.855705	2459.026955
405.237282	2459.576441
405.618797	2457.381018
406.000250	2459.208437
406.381642	2458.152315
406.762972	2462.154991
407.144240	2457.595268
407.525447	2463.899230
407.906593	2458.638786
408.287677	2461.855043
408.668700	2458.795062
409.049661	2462.916205
409.430560	2463.014508
409.811399	2462.351596
410.192176	2462.001236
410.572891	2462.404528
410.953545	2463.117852
411.334138	2463.415280
411.714669	2466.412246
412.095139	2461.502162
412.475547	2467.480970
412.855894	2462.328911
413.236180	2461.184569
413.616405	2464.310084
413.996568	2466.061885
414.376670	2466.308902
414.756711	2464.310084
415.136691	2468.148923
415.516609	2466.056844
415.896466	2468.416104
416.276262	2469.356279
416.655997	2464.947790
417.035670	2462.228088
417.415283	2469.941053
417.794834	2459.614250
418.174324	2468.025415
418.553753	2468.448872
418.933121	2468.481639
419.312428	2469.620940
419.691674	2471.312247
420.070859	2471.566825
420.449983	2471.468523
420.829045	2470.157823
421.208047	2471.329891
421.586988	2473.210242
421.965867	2473.366517
422.344686	2473.414408
422.723444	2476.716364
423.102141	2473.537917
423.480777	2475.589666
423.859352	2474.258802
424.237866	2474.316775
424.616319	2474.851137
424.994712	2476.849955
425.373044	2476.590335
425.751314	2475.640078
426.129524	2476.285345
426.507673	2478.518577
426.885762	2478.695017
427.263789	2477.787609
427.641756	2478.944554
428.019662	2478.760552
428.397508	2477.343988
428.775292	2479.362970
429.153016	2481.049236
429.530679	2480.817343
429.908282	2479.307517
430.285824	2481.606283
430.663305	2482.337251
431.040726	2480.890439
431.418086	2480.892960
431.795385	2483.607621
432.172624	2480.976139
432.549802	2482.932107
432.926920	2482.755666
433.303977	2481.860862
433.680974	2484.467138
434.057910	2484.086531
434.434786	2486.518888
434.811601	2485.598877
435.188355	2486.760863
435.565050	2488.893271
435.941683	2485.694659
436.318257	2485.858497
436.694770	2483.589977
437.071222	2486.302118
437.447614	2483.791623
437.823946	2485.440081
438.200218	2490.778663
438.576429	2489.450319
438.952580	2490.090545
439.328670	2492.220433
439.704700	2490.685401
440.080670	2489.246152
440.456580	2489.452839
440.832429	2494.194044
441.208218	2492.311173
441.583947	2490.866883
441.959616	2491.411328
442.335224	2492.190186
442.710773	2492.205309
443.086261	2497.496000
443.461689	2494.698160
443.837057	2496.167656
444.212365	2497.105311
444.587612	2498.668068
444.962800	2499.121772
445.337927	2497.203613
445.712995	2496.762512
446.088002	2501.344921
446.462949	2502.862308
446.837837	2503.948677
447.212664	2503.409274
447.587431	2507.948833
447.962139	2512.748011
448.336786	2519.964423
448.711374	2516.569206
449.085901	2513.620131
449.460369	2514.154493
449.834776	2513.960409
450.209124	2519.109947
450.583412	2519.982067
450.957640	2522.137160
451.331808	2520.909639
451.705917	2518.689011
452.079965	2521.065915
452.453954	2522.026255
452.827883	2523.624301
453.201752	2524.398118
453.575562	2526.008766
453.949311	2530.951618
454.323001	2527.896678
454.696632	2532.940353
455.070202	2535.077802
455.443713	2536.423790
455.817164	2538.699871
456.190556	2536.847247
456.563888	2540.978473
456.937160	2538.377237
457.310373	2544.421581
457.683526	2545.714637
458.056619	2546.375028
458.429653	2546.377548
458.802628	2550.617159
459.175542	2550.586912
459.548398	2556.389280
459.921194	2565.884293
460.293930	2573.027608
460.666607	2578.572877
461.039224	2585.592684
461.411782	2589.136615
461.784280	2587.543611
462.156719	2589.285329
462.529099	2592.499065
462.901419	2585.995977
463.273680	2587.052098
463.645882	2586.522777
464.018024	2593.444281
464.390106	2597.636001
464.762130	2616.089144
465.134094	2636.130252
465.505999	2663.027328
465.877845	2689.332069
466.249631	2701.395550
466.621358	2696.603933
466.993026	2695.290712
467.364634	2692.800383
467.736184	2688.578416
468.107674	2686.776204
468.479105	2691.988757
468.850477	2696.903882
469.221790	2695.946062
469.593043	2693.732996
469.964238	2698.441434
470.335373	2704.027032
470.706449	2728.025445
471.077467	2762.451485
471.448425	2810.544092
471.819324	2849.197139
472.190164	2846.374093
472.560945	2832.636949
472.931667	2821.019610
473.302330	2827.948676
473.672934	2842.300841
474.043479	2863.360261
474.413965	2875.849720
474.784393	2887.509909
475.154761	2923.833943
475.525070	2943.166768
475.895321	2967.046713
476.265513	3001.770181
476.635645	3050.946637
477.005719	3080.213056
477.375734	3122.793162
477.745691	3168.834020
478.115588	3236.319946
478.485427	3325.250941
478.855207	3458.803709
479.224928	3588.517639
479.594591	3682.146989
479.964194	3706.727656
480.333739	3762.205554
480.703226	3833.910926
481.072653	3944.594500
481.442022	4046.478740
481.811333	4135.818068
482.180584	4167.663037
482.549777	4238.183738
482.918912	4309.984892
483.287988	4395.553438
483.657005	4451.341367
484.025964	4513.327394
484.394864	4608.093525
484.763706	4692.043860
485.132489	4752.993931
485.501213	4850.023539
485.869879	4974.363599
486.238487	5070.853804
486.607036	5203.796593
486.975527	5294.968381
487.343959	5432.007107
487.712333	5574.454991
488.080648	5704.095824
488.448905	5878.237442
488.817104	6013.436147
489.185244	6254.297437
489.553326	6601.544717
489.921350	7075.594660
490.289315	7605.314065
490.657222	7892.591778
491.025070	8142.315417
491.392861	8210.975932
491.760593	8236.577432
492.128267	8213.272178
492.495883	8206.872433
492.863440	8223.954382
493.230939	8250.070080
493.598380	8299.503635
493.965763	8456.681770
494.333088	8553.789517
494.700354	8679.566305
495.067563	8844.298610
495.434713	9033.843474
495.801805	9271.309547
496.168839	9423.723792
496.535815	9583.503163
496.902733	9815.476899
497.269593	9960.987284
497.636395	10183.375265
498.003139	10485.733591
498.369825	10625.176947
498.736453	10915.260063
499.103023	11056.336753
499.469535	11266.573033
499.835989	11537.414065
500.202385	11702.249713
500.568723	11960.571039
500.935003	12270.087803
501.301226	12480.679484
501.667390	12915.254672
502.033497	13268.324485
502.399546	13372.578067
502.765537	13450.509264
503.131470	13822.927025
503.497345	14204.353328
503.863163	14075.196446
504.228923	14527.990364
504.594625	14957.282422
504.960269	14995.824564
505.325856	15515.348236
505.691385	15582.982876
506.056856	15914.952939
506.422270	16358.753439
506.787625	16497.080180
507.152924	16865.548197
507.518164	17205.266513
507.883347	17183.650045
508.248472	17578.916836
508.613540	18094.538654
508.978550	18527.563688
509.343503	18724.584583
509.708398	19113.645713
510.073236	19663.905299
510.438016	19967.801177
510.802738	20020.352685
511.167403	20618.752770
511.532010	21039.124507
511.896561	21502.857729
512.261053	22225.360939
512.625488	22328.543276
512.989866	22547.626781
513.354186	22786.148975
513.718449	23082.311723
514.082655	23761.231637
514.446803	23884.588672
514.810894	24475.905936
515.174927	24738.454269
515.538904	24984.702032
515.902822	25681.422261
516.266684	25642.292825
516.630488	26198.112804
516.994235	26399.758957
517.357925	27038.536164
517.721558	27438.236650
518.085133	27928.561958
518.448651	28306.469536
518.812112	28427.495037
519.175516	28794.775862
519.538863	29287.478074
519.902152	29538.104079
520.265385	30128.236671
520.628560	30430.665573
520.991678	30548.293336
521.354739	30975.314355
521.717743	31452.217591
522.080690	31642.518628
522.443580	32304.870791
522.806413	32594.898454
523.169189	32798.220792
523.531908	33188.151521
523.894569	33314.828155
524.257174	33684.934547
524.619722	34158.147659
524.982213	34367.922673
525.344647	34541.068664
525.707025	34806.293850
526.069345	35335.627607
526.431608	35486.131255
526.793815	35952.609385
527.155964	35801.520963
527.518057	36139.462273
527.880093	36168.622827
528.242072	36792.437889
528.603995	36747.294357
528.965860	36945.136960
529.327669	37224.366471
529.689421	37315.752508
530.051117	37464.960580
530.412755	37758.476721
530.774337	37997.855912
531.135862	37991.776280
531.497331	38344.956998
531.858743	38427.810882
532.220098	38880.050273
532.581396	38785.309348
532.942638	38644.837596
533.303824	39034.269252
533.664953	39171.877628
534.026025	39088.033157
534.387040	39621.919076
534.747999	39718.573119
535.108902	40000.340851
535.469748	39708.667251
535.830537	39945.911513
536.191270	40243.700032
536.551947	40052.194160
536.912567	40451.302310
537.273131	40665.251399
537.633638	40318.379686
537.994089	40745.156208
538.354483	40496.728147
538.714821	41119.199742
539.075103	41550.893910
539.435328	41432.147011
539.795497	41429.064345
540.155609	41527.631506
540.515665	42040.760473
540.875665	41634.214101
541.235609	42026.415870
541.595496	42090.531785
541.955328	42807.741784
542.315102	42320.544512
542.674821	42201.764845
543.034483	42309.350630
543.394090	42361.309802
543.753640	42404.988880
544.113134	43436.741673
544.472571	42584.741303
544.831953	43828.245242
545.191278	43153.138960
545.550548	42962.081750
545.909761	43471.870953
546.268918	43731.427362
546.628019	44093.659472
546.987064	43740.589659
547.346053	43123.307932
547.704986	44009.595711
548.063863	43660.210982
548.422684	43893.634049
548.781449	43817.784848
549.140158	44243.608593
549.498811	44160.810162
549.857408	43666.492259
550.215949	44525.187282
550.574434	44508.448131
550.932864	44353.052043
551.291237	45071.658441
551.649555	44740.467237
552.007817	45028.425506
552.366022	44740.338687
552.724173	44947.217559
553.082267	45370.407301
553.440305	45691.763214
553.798288	45079.167240
554.156215	45394.509057
554.514086	45664.167938
554.871902	45441.399350
555.229661	45498.072001
555.587365	45362.785076
555.945014	45483.934085
556.302606	45440.675944
556.660143	45695.513833
557.017625	45793.397917
557.375050	45632.554862
557.732421	46005.330545
558.089735	46011.437903
558.446994	45953.837679
558.804197	46419.610048
559.161345	46402.550783
559.518437	45711.816924
559.875474	46022.921652
560.232455	46220.025726
560.589381	46391.896304
560.946251	46100.394104
561.303065	46791.932027
561.659825	46625.548744
562.016528	46328.118147
562.373177	46069.491831
562.729770	46555.428815
563.086307	46111.230064
563.442789	46567.333499
563.799216	46630.942779
564.155587	46431.454239
564.511904	46468.163921
564.868164	46575.333811
565.224370	46823.272880
565.580520	46570.287616
565.936615	46795.352450
566.292654	46545.175108
566.648638	46776.339738
567.004567	46755.774351
567.360441	46799.486196
567.716260	46666.883685
568.072023	46974.000860
568.427732	46966.119016
568.783385	46536.847122
569.138982	46915.964576
569.494525	46914.338804
569.850013	46661.993766
570.205445	46651.535892
570.560823	46616.086498
570.916145	46504.848398
571.271412	46530.240689
571.626625	46303.827347
571.981782	46362.957561
572.336884	46059.364153
572.691931	46399.773107
573.046923	45995.588515
573.401860	45841.414907
573.756743	45839.930287
574.111570	45963.483927
574.466342	45814.606051
574.821059	45957.537886
575.175722	45478.376213
575.530330	45499.511251
575.884882	45252.698879
576.239380	45199.996136
576.593823	45176.048135
576.948211	45096.712976
577.302544	44641.920241
577.656823	44683.229976
578.011047	44912.219348
578.365216	44624.644206
578.719330	44445.582422
579.073389	44310.834900
579.427394	44387.263833
579.781344	44365.382705
580.135239	44037.511100
580.489080	44117.030261
580.842866	43617.933345
581.196597	44052.430395
581.550273	43992.957382
581.903895	43873.703847
582.257463	44305.506400
582.610975	43699.022825
582.964434	43984.478162
583.317837	43644.608611
583.671186	43486.379394
584.024481	43713.501019
584.377721	43255.486986
584.730906	43526.943039
585.084037	43565.959049
585.437113	43283.563693
585.790135	43330.721166
586.143103	42937.952267
586.496016	43064.800301
586.848874	43075.162393
587.201679	43115.756284
587.554428	42603.965743
587.907124	42787.773774
588.259765	42554.847260
588.612352	42809.874192
588.964884	42212.522667
589.317362	42496.231244
589.669786	42439.389714
590.022155	42216.401835
590.374470	42626.303095
590.726731	42172.442973
591.078937	41714.229815
591.431090	41783.797738
591.783188	41458.534930
592.135232	41149.935657
592.487222	41372.787424
592.839157	41490.185815
593.191038	41164.476865
593.542866	40943.303802
593.894639	40357.945182
594.246358	40631.813426
594.598022	40596.066604
594.949633	40209.662162
595.301190	40183.422956
595.652692	40028.644409
596.004141	40346.779026
596.355535	39371.887927
596.706876	39330.951238
597.058162	39167.766567
597.409395	39623.716247
597.760573	39693.851300
598.111698	39288.847521
598.462768	39296.391607
598.813785	39344.065799
599.164748	38804.969848
599.515657	39213.835152
599.866511	38693.555307
600.217312	39287.380545
600.568060	38272.886142
600.918753	39010.119604
601.269392	38972.058892
601.619978	38642.150661
601.970510	38844.247998
602.320988	39023.075369
602.671412	39323.946554
603.021783	39065.342924
603.372100	38723.401458
603.722363	38837.122327
604.072572	38911.935571
604.422728	38936.352400
604.772830	38748.680324
605.122878	38850.420891
605.472872	38787.492168
605.822813	39065.315198
606.172701	38901.195393
606.522534	39120.654464
606.872314	39381.687931
607.222041	39149.472220
607.571714	39547.423425
607.921333	39000.546453
608.270899	39280.229668
608.620411	39634.484152
608.969870	39426.186196
609.319276	39419.100854
609.668627	39476.617899
610.017926	39962.819543
610.367171	40099.616294
610.716362	40201.981964
611.065500	40158.791878
611.414585	40334.367705
611.763616	40642.588892
612.112594	40558.227703
612.461518	40783.983175
612.810389	41047.824565
613.159207	40934.259972
613.507971	41022.258353
613.856682	41488.141627
614.205340	41364.096475
614.553945	42066.220821
614.902496	41513.528878
615.250994	41984.120589
615.599439	42057.197155
615.947830	42256.191662
616.296169	42314.679129
616.644454	42454.762712
616.992686	42625.887200
617.340864	43146.628310
617.688990	42858.531409
618.037063	43474.189884
618.385082	43424.501751
618.733048	43721.874376
619.080961	43747.420423
619.428821	43743.266512
619.776628	43824.812217
620.124382	43655.787369
620.472083	43800.813804
620.819731	43921.972895
621.167326	43615.790855
621.514868	43581.735340
621.862357	43157.960824
622.209793	43169.255529
622.557176	42847.675284
622.904506	42606.367852
623.251783	42259.231478
623.599007	42045.809189
623.946179	41822.647390
624.293297	41769.977415
624.640363	41192.540968
624.987376	41183.875225
625.334336	40934.232245
625.681243	40577.419376
626.028097	40551.127238
626.374899	40404.661554
626.721647	40389.775027
627.068343	40287.134614
627.414987	40041.085977
627.761577	39822.635137
628.108115	40160.263895
628.454600	39620.633582
628.801032	39802.808279
629.147412	39763.598184
629.493739	39786.928644
629.840014	39432.359088
630.186236	39763.525088
630.532405	39395.230990
630.878521	39600.617680
631.224585	39486.107871
631.570597	39187.527890
631.916556	39357.704641
632.262462	39311.323505
632.608316	39324.879168
632.954117	39210.974297
633.299866	39196.861587
633.645562	39127.734764
633.991206	38640.048500
634.336797	38214.121412
634.682336	38202.990544
635.027823	37958.091290
635.373257	37770.436859
635.718639	37544.678866
636.063968	37406.253823
636.409245	36841.090065
636.754470	36899.524600
637.099642	36644.790055
637.444762	36183.290064
637.789829	36330.252302
638.134845	35979.098128
638.479808	35934.700686
638.824719	35841.971181
639.169577	35452.370648
639.514383	35509.857445
639.859137	35219.217282
640.203839	35458.750228
640.548489	35095.406544
640.893086	35161.198642
641.237632	34913.211682
641.582125	35031.114188
641.926566	34960.278415
642.270955	34932.635248
642.615292	34952.149554
642.959576	34933.141884
643.303809	34920.896921
643.647990	35075.332669
643.992118	35031.618303
644.336195	35026.332654
644.680219	35132.811905
645.024192	35430.282832
645.368112	35945.700483
645.711981	35945.597140
646.055797	36820.718762
646.399562	36760.527385
646.743274	37678.387910
647.086935	38117.767318
647.430544	37992.222422
647.774101	38138.867067
648.117606	38371.057572
648.461059	38671.230557
648.804460	38285.042885
649.147810	37667.947681
649.491108	37414.647344
649.834354	37057.728610
650.177548	36231.049956
650.520690	35799.602804
650.863781	35814.012942
651.206820	35664.336043
651.549807	35236.291670
651.892742	34757.697127
652.235626	34572.293571
652.578458	34427.264616
652.921238	33846.858929
653.263967	34160.960623
653.606644	33854.952502
653.949269	33804.863597
654.291843	33402.579520
654.634365	33801.733041
654.976836	33422.466872
655.319255	33402.140940
655.661622	33399.713624
656.003938	33172.828934
656.346203	33043.888821
656.688416	33273.193266
657.030577	33085.506067
657.372687	32904.347162
657.714746	33168.586803
658.056753	33290.232366
658.398708	32744.116608
658.740612	32804.076092
659.082465	33065.590989
659.424266	32904.415218
659.766016	33030.060936
660.107715	32903.346493
660.449362	33024.752601
660.790958	33008.653677
661.132503	33037.579817
661.473996	33070.269179
661.815438	33179.286652
662.156829	33376.678072
662.498168	33137.470281
662.839456	33178.041487
663.180693	33310.525531
663.521879	33484.462982
663.863013	33425.852007
664.204097	33423.623817
664.545129	33882.991400
664.886110	33869.902044
665.227040	33919.239816
665.567918	34035.824061
665.908746	34100.439050
666.249522	34261.748412
666.590248	34253.891773
666.930922	34367.315214
667.271545	34325.811395
667.612118	34419.168523
667.952639	34201.854463
668.293109	34263.071714
668.633528	34171.731048
668.973896	34072.246397
669.314213	34116.714415
669.654480	33851.826987
669.994695	33889.083634
670.334859	33778.246305
670.674973	33678.393650
671.015035	33833.910726
671.355047	33781.132366
671.695008	33735.643514
672.034918	33636.317660
672.374777	33717.510483
672.714585	33560.917122
673.054342	33784.663694
673.394049	33568.408276
673.733705	33820.564271
674.073310	33479.242868
674.412864	33556.100299
674.752368	33166.194775
675.091820	33461.029179
675.431223	33036.501010
675.770574	32769.216513
676.109875	32621.742598
676.449125	32363.058309
676.788324	32274.684362
677.127473	31746.174834
677.466571	31674.172033
677.805619	31321.863435
678.144616	31310.760294
678.483562	31243.102968
678.822458	30921.552970
679.161303	30844.599756
679.500098	30759.835275
679.838842	30648.992905
680.177535	30817.012042
680.516179	31084.924163
680.854771	31323.249752
681.193314	32177.334640
681.531805	33298.940959
681.870247	34073.504165
682.208638	34804.219415
682.546978	35042.240015
682.885268	35117.360769
683.223508	34584.651959
683.561697	34253.788430
683.899836	34074.837550
684.237925	33555.412182
684.575963	33415.323557
684.913951	32944.008440
685.251889	33111.596559
685.589776	33096.183231
685.927614	33098.895372
686.265401	33233.259766
686.603137	33331.090918
686.940824	33839.947508
687.278460	34223.324737
687.616046	34348.907441
687.953582	34963.895443
688.291068	34833.624466
688.628504	35108.594202
688.965889	35046.487187
689.303224	34655.454965
689.640510	34310.662727
689.977745	33583.705658
690.314930	32778.504839
690.652065	32262.346138
690.989150	31519.224608
691.326185	30621.271600
691.663170	29904.636292
692.000105	29164.809157
692.336990	28482.047883
692.673825	28028.278502
693.010610	27516.624072
693.347345	26945.453779
693.684030	26299.422352
694.020665	26028.596444
694.357251	25358.997623
694.693786	25307.966022
695.030272	25071.298972
695.366707	24532.974318
695.703093	24244.418672
696.039429	24231.586415
696.375716	23982.359330
696.711952	23928.350928
697.048139	23783.742910
697.384276	23610.939718
697.720363	23735.020158
698.056400	23530.427450
698.392388	23314.915602
698.728326	23263.193364
699.064214	23074.961720
699.400053	23007.564014
699.735842	22651.209890
700.071581	22387.819683
700.407270	22090.568047
700.742910	21901.645765
701.078501	21640.143471
701.414042	21360.896316
701.749533	21067.733055
702.084974	20707.837520
702.420366	20913.481309
702.755709	20471.651901
703.091002	20190.552121
703.426246	20205.824297
703.761440	20101.343863
704.096584	19830.429734
704.431679	19781.903588
704.766725	19704.572288
705.101721	19637.802205
705.436668	19729.636904
705.771565	19409.160672
706.106413	19750.550131
706.441212	19731.628160
706.775961	19857.243632
707.110661	19936.656928
707.445311	20281.285329
707.779913	20128.813110
708.114465	20367.007629
708.448967	20652.157976
708.783421	21350.360304
709.117825	21624.180658
709.452180	21852.071058
709.786485	22246.201069
710.120742	23041.712790
710.454949	23055.069327
710.789107	23520.304813
711.123216	24232.055242
711.457275	24348.291647
711.791286	24890.137547
712.125247	24948.148625
712.459159	24643.544466
712.793023	25311.356198
713.126837	24193.319016
713.460602	24444.880154
713.794318	24077.679988
714.127985	23680.064019
714.461602	22786.098564
714.795171	22744.521647
715.128691	21741.052248
715.462162	21197.015966
715.795584	20773.667428
716.128957	20511.214876
716.462281	20109.318968
716.795556	19879.107116
717.128782	19391.839268
717.461960	18837.854268
717.795088	18769.680224
718.128167	18364.270632
718.461198	17910.327331
718.794180	17764.542203
719.127113	17403.953510
719.459997	17208.505454
719.792833	16858.089809
720.125619	16826.449007
720.458357	16518.890732
720.791046	16347.224320
721.123686	16193.799323
721.456278	15952.030626
721.788821	15915.991417
722.121315	15652.097095
722.453761	15723.724330
722.786158	15649.057280
723.118506	15653.604400
723.450805	15532.321801
723.783056	15685.507342
724.115259	15578.902062
724.447412	15519.113977
724.779518	15767.428613
725.111574	15787.588187
725.443582	15987.031357
725.775542	15961.901205
726.107453	16425.069818
726.439315	16316.276676
726.771129	16712.904579
727.102895	17078.307574
727.434612	17271.129188
727.766281	17412.543636
728.097901	17672.541145
728.429473	17697.751956
728.760996	17688.851799
729.092471	17760.899969
729.423897	17652.336201
729.755276	17510.737751
730.086606	17624.826624
730.417887	18146.782652
730.749120	18669.429318
731.080305	18826.957814
731.411442	19167.638991
731.742530	19237.209435
732.073570	19326.858794
732.404562	19627.619074
732.735506	19430.121790
733.066401	19150.073091
733.397249	18628.709398
733.728048	17989.087798
734.058798	17158.280439
734.389501	16483.796739
734.720156	16022.049732
735.050762	15497.179917
735.381320	15147.026412
735.711831	14917.535445
736.042293	14566.124172
736.372707	14573.655656
736.703073	14369.839285
737.033391	14549.904260
737.363661	14518.702038
737.693883	14630.799655
738.024056	14798.758299
738.354182	14985.785106
738.684260	15265.523774
739.014290	15487.064842
739.344272	15674.051320
739.674207	15952.484330
740.004093	16061.320321
740.333931	16047.830193
740.663722	16096.782317
740.993464	16082.772951
741.323159	15904.283337
741.652806	15625.537776
741.982405	15414.623461
742.311956	15075.202573
742.641460	14961.607732
742.970915	14656.743954
743.300323	14331.017360
743.629683	14113.486530
743.958996	13829.115042
744.288260	13569.336822
744.617477	13280.027523
744.946647	13194.811859
745.275768	12921.412442
745.604842	12737.866551
745.933869	12571.263978
746.262847	12521.719518
746.591778	12447.740585
746.920662	12344.457425
747.249498	12352.810617
747.578286	12469.961991
747.907027	12616.047068
748.235720	12827.268894
748.564365	12857.427597
748.892963	12765.645829
749.221514	12824.639932
749.550017	12677.138291
749.878473	12630.888225
750.206881	12416.576172
750.535242	12326.977224
750.863555	12231.601114
751.191821	12140.809933
751.520039	12159.805001
751.848210	12070.034654
752.176334	12098.970877
752.504411	12001.469920
752.832440	11853.900224
753.160421	11910.711507
753.488356	11780.974892
753.816243	11694.808970
754.144082	11555.710933
754.471875	11504.492810
754.799620	11446.993409
755.127318	11412.227091
755.454969	11381.594520
755.782572	11329.446304
756.110129	11340.340237
756.437638	11261.294945
756.765100	11257.241858
757.092515	11255.341342
757.419882	11263.628999
757.747203	11273.570155
758.074477	11354.909172
758.401703	11307.534929
758.728882	11468.395628
759.056014	11507.494817
759.383099	11626.128290
759.710138	11719.167826
760.037129	11805.051443
760.364073	11822.652632
760.690970	11811.433544
761.017820	11808.517236
761.344623	11997.610917
761.671379	12320.111173
761.998088	12943.906070
762.324751	14495.038862
762.651366	17349.045262
762.977935	20995.662199
763.304456	23212.325601
763.630931	23663.788654
763.957359	22488.022698
764.283740	20579.603169
764.610074	18718.525116
764.936362	16594.858400
765.262602	15085.960395
765.588796	13625.409576
765.914943	12591.325250
766.241044	11752.220151
766.567097	11118.257246
766.893104	10571.667620
767.219064	10219.676614
767.544978	9837.337862
767.870845	9525.933186
768.196665	9336.083332
768.522438	9146.336822
768.848165	8977.790885
769.173846	8810.686717
769.499479	8691.443264
769.825066	8535.953915
770.150607	8355.672171
770.476101	8293.829816
770.801548	8175.886981
771.126949	8042.649284
771.452303	7950.358360
771.777611	7788.494472
772.102872	7768.453365
772.428087	7647.647154
772.753256	7524.519492
773.078378	7438.454393
773.403453	7294.912578
773.728482	7196.171498
774.053465	7134.109853
774.378401	7046.759260
774.703291	6949.424661
775.028135	6857.831937
775.352932	6820.827347
775.677683	6742.674339
776.002388	6652.228478
776.327046	6649.707901
776.651658	6564.020888
776.976224	6490.475495
777.300743	6471.893802
777.625216	6409.063381
777.949643	6361.116966
778.274024	6370.448142
778.598359	6300.713861
778.922647	6302.344674
779.246889	6264.518376
779.571086	6269.627586
779.895236	6282.618639
780.219339	6278.086642
780.543397	6273.630262
780.867409	6326.842161
781.191374	6323.613302
781.515294	6291.912006
781.839167	6342.081569
782.162995	6310.589481
782.486776	6263.434528
782.810511	6221.194700
783.134201	6147.631663
783.457844	6138.197143
783.781441	6090.832982
784.104993	6038.962030
784.428498	6016.266755
784.751958	5998.693293
785.075372	5974.520960
785.398739	5934.443787
785.722061	5955.246108
786.045337	5954.996571
786.368568	6068.656947
786.691752	6088.602272
787.014891	6333.902297
787.337983	6611.959741
787.661030	7050.603140
787.984031	7470.231306
788.306987	7733.099753
788.629897	7820.425141
788.952760	7736.845330
789.275579	7553.738020
789.598351	7260.415963
789.921078	6994.046435
790.243759	6716.745164
790.566395	6520.858529
790.888984	6322.617674
791.211529	6186.375451
791.534027	6022.686665
791.856480	5886.668772
792.178888	5827.261295
792.501249	5758.041211
792.823566	5656.167054
793.145836	5654.339635
793.468062	5632.408096
793.790241	5588.837403
794.112375	5630.139576
794.434464	5737.879116
794.756507	5765.756697
795.078505	5878.764243
795.400457	6099.123160
795.722364	6337.862124
796.044226	6531.870929
796.366042	6682.737541
796.687812	6634.468493
797.009538	6659.202914
797.331218	6565.013995
797.652852	6499.710888
797.974442	6378.887034
798.295986	6308.383977
798.617484	6180.010994
798.938938	6071.505198
799.260346	6002.680846
799.581709	5865.231265
799.903026	5816.810983
800.224299	5744.369602
800.545526	5629.403568
800.866708	5562.585594
801.187845	5512.463922
801.508936	5433.829484
801.829983	5409.127830
802.150984	5298.897960
802.471940	5274.080360
802.792851	5257.560498
803.113717	5237.703393
803.434538	5212.966452
803.755314	5178.933622
804.076045	5169.882230
804.396731	5132.607939
804.717372	5151.532430
805.037967	5151.028315
805.358518	5176.594527
805.679024	5236.513681
805.999485	5249.910547
806.319901	5266.425368
806.640272	5281.304333
806.960598	5331.831818
807.280879	5324.620447
807.601115	5363.215521
807.921306	5321.638605
808.241453	5317.915713
808.561554	5326.737732
808.881611	5294.376045
809.201623	5292.215911
809.521590	5239.639197
809.841513	5227.439604
810.161390	5240.556687
810.481223	5151.635774
810.801011	5139.637828
811.120755	5116.914827
811.440453	5060.857196
811.760107	5034.668402
812.079716	5007.368033
812.399281	4954.216628
812.718801	4949.830824
813.038276	4914.938477
813.357707	4880.172160
813.677093	4906.771808
813.996434	4839.671530
814.315731	4861.537535
814.634983	4858.832956
814.954191	4867.496178
815.273354	4924.012554
815.592473	4961.589315
815.911547	5038.361047
816.230577	5094.393472
816.549562	5178.290875
816.868502	5232.415223
817.187399	5281.936998
817.506250	5365.002610
817.825058	5392.295417
818.143821	5544.102204
818.462539	5713.127051
818.781213	5940.921670
819.099843	6296.040711
819.418429	6926.106804
819.736970	7544.268212
820.055466	8246.248885
820.373919	9155.829315
820.692327	10602.370767
821.010691	13278.820167
821.329011	19466.206369
821.647286	28987.826848
821.965517	39283.703023
822.283704	44730.838633
822.601847	46211.241515
822.919945	41621.959056
823.237999	36526.678341
823.556010	31358.676461
823.873976	26666.115883
824.191897	22492.557216
824.509775	19424.621891
824.827609	16677.855957
825.145398	15124.560510
825.463144	14388.478952
825.780845	14672.921016
826.098502	15913.385140
826.416116	18368.106950
826.733685	20634.897065
827.051210	21158.506592
827.368692	19734.821731
827.686129	17188.885284
828.003522	14728.519902
828.320872	12515.952438
828.638177	10875.200534
828.955439	9637.551894
829.272656	8581.624248
829.589830	7742.027637
829.906960	7018.216247
830.224046	6489.028683
830.541088	6079.439975
830.858086	5820.536395
831.175041	5619.417042
831.491952	5561.325306
831.808819	5596.048773
832.125642	5842.588923
832.442421	6387.152005
832.759157	7484.291084
833.075849	9251.747349
833.392497	11086.928995
833.709101	12198.009385
834.025662	11945.273658
834.342179	10892.191743
834.658653	9593.391387
834.975083	8493.285588
835.291469	7600.358611
835.607811	6870.465069
835.924110	6346.008628
836.240366	5860.784968
836.556578	5418.262401
836.872746	5070.505964
837.188871	4791.488181
837.504952	4572.815530
837.820990	4408.002567
838.136984	4297.389569
838.452935	4244.157505
838.768842	4273.567597
839.084706	4554.415319
839.400526	5292.581394
839.716303	6192.374424
840.032037	6752.834785
840.347727	6603.271312
840.663373	6008.619325
840.978977	5437.658240
841.294537	4992.726002
841.610054	4670.321528
841.925527	4426.352367
842.240957	4220.877457
842.556344	4042.539078
842.871687	3882.089233
843.186987	3734.156574
843.502244	3616.763224
843.817458	3527.376005
844.132629	3462.670274
844.447756	3413.123294
844.762840	3366.800131
845.077881	3330.075325
845.392879	3295.503092
845.707833	3268.878238
846.022745	3244.080802
846.337613	3230.452043
846.652438	3208.591079
846.967221	3201.846016
847.281960	3178.628982
847.596656	3168.511386
847.911309	3160.904285
848.225919	3142.925009
848.540485	3135.907723
848.855009	3129.487814
849.169490	3117.210084
849.483928	3108.675410
849.798323	3103.021756
850.112675	3094.353492
850.426984	3096.165787
850.741251	3088.304108
851.055474	3083.421750
851.369654	3083.701534
851.683792	3086.683377
851.997887	3088.667071
852.311938	3086.905187
852.625947	3086.171699
852.939914	3079.829928
853.253837	3086.340578
853.567718	3080.689445
853.881555	3077.957139
854.195350	3084.505598
854.509103	3078.378076
854.822812	3079.305648
855.136479	3072.767271
855.450103	3079.280442
855.763685	3068.328535
856.077224	3074.166192
856.390720	3079.172057
856.704173	3089.738316
857.017584	3097.743668
857.330953	3103.835902
857.644278	3110.485184
857.957561	3109.890328
858.270802	3108.161213
858.584000	3108.418311
858.897155	3104.380347
859.210268	3094.504727
859.523339	3083.172213
859.836367	3078.814135
860.149352	3073.062179
860.462295	3069.011612
860.775195	3059.861918
861.088054	3057.111968
861.400869	3058.208419
861.713642	3053.999056
862.026373	3065.835685
862.339062	3067.879873
862.651708	3075.499577
862.964312	3093.143615
863.276873	3100.786004
863.589392	3130.480921
863.901869	3158.086280
864.214303	3181.837676
864.526696	3195.423586
864.839045	3215.431925
865.151353	3225.123543
865.463619	3225.536918
865.775842	3226.832495
866.088023	3232.327352
866.400162	3227.094635
866.712258	3227.843246
867.024313	3226.340982
867.336325	3228.007083
867.648296	3224.400138
867.960224	3224.478276
868.272110	3225.627659
868.583954	3225.804099
868.895755	3235.233577
869.207515	3232.264338
869.519233	3251.246803
869.830909	3256.958430
870.142542	3267.718773
870.454134	3274.025256
870.765684	3285.992956
871.077191	3304.234371
871.388657	3316.552430
871.700081	3334.967765
872.011463	3354.436701
872.322803	3371.722818
872.634101	3390.047412
872.945357	3414.867533
873.256571	3438.349228
873.567744	3452.053604
873.878874	3459.786734
874.189963	3474.186790
874.501010	3477.806339
874.812015	3473.962459
875.122979	3487.999552
875.433900	3486.469562
875.744780	3486.807319
876.055618	3496.592199
876.366415	3496.665295
876.677169	3503.937160
876.987882	3517.913759
877.298554	3538.317829
877.609183	3575.032552
877.919771	3624.274543
878.230317	3688.682845
878.540822	3791.023310
878.851285	3945.088533
879.161707	4165.823016
879.472087	4537.759347
879.782425	5160.974511
880.092722	6341.068297
880.402977	8263.207327
880.713191	10630.087031
881.023363	12991.562618
881.333494	14328.479139
881.643583	14793.931394
881.953631	14385.476945
882.263637	13547.700190
882.573602	12509.179648
882.883526	11557.492981
883.193408	10613.405853
883.503248	9697.410555
883.813048	8873.300368
884.122806	8108.254861
884.432522	7344.154569
884.742197	6687.027563
885.051831	6124.979238
885.361424	5635.523529
885.670975	5240.087859
885.980485	4917.005350
886.289954	4654.058766
886.599382	4437.934418
886.908768	4263.462604
887.218113	4097.923715
887.527417	3963.274495
887.836680	3838.866380
888.145901	3742.237543
888.455082	3669.176101
888.764221	3599.298147
889.073319	3539.731873
889.382376	3509.409332
889.691392	3484.281701
890.000366	3473.420535
890.309300	3469.125472
890.618193	3476.107470
890.927044	3465.596664
891.235855	3473.118066
891.544625	3490.152125
891.853353	3520.323430
892.162041	3578.712595
892.470687	3669.347500
892.779293	3784.870581
893.087858	3960.690904
893.396381	4230.475814
893.704864	4648.878980
894.013306	5209.402356
894.321707	5783.569614
894.630068	6139.152442
894.938387	6176.625859
895.246665	5996.439897
895.554903	5681.140930
895.863100	5349.332184
896.171256	5082.151030
896.479371	4836.687167
896.787446	4616.577787
897.095480	4417.810132
897.403473	4272.440899
897.711425	4129.864465
898.019336	4005.736134
898.327207	3883.921693
898.635038	3782.120632
898.942827	3678.804704
899.250576	3588.936055
899.558284	3506.724918
899.865952	3454.087710
900.173579	3388.388873
900.481165	3344.714836
900.788711	3299.079791
901.096216	3271.723970
901.403681	3245.426791
901.711105	3230.933473
902.018489	3226.497258
902.325832	3260.015890
902.633135	3318.778100
902.940397	3485.690703
903.247619	3888.357908
903.554800	4642.214575
903.861941	5600.583291
904.169041	6302.531197
904.476101	6510.801427
904.783121	6239.108440
905.090100	5832.945196
905.397039	5423.142238
905.703938	5067.945058
906.010796	4746.571501
906.317614	4493.687059
906.624391	4254.368363
906.931129	4065.045309
907.237826	3881.333060
907.544483	3714.082699
907.851099	3543.631205
908.157675	3381.169940
908.464211	3244.214393
908.770707	3142.405771
909.077163	3063.297464
909.383578	3002.377640
909.689954	2961.287195
909.996289	2926.740168
910.302584	2909.650656
910.608839	2895.968965
910.915054	2883.635782
911.221229	2880.669063
911.527363	2883.139228
911.833458	2890.050650
912.139513	2904.768299
912.445527	2917.408992
912.751502	2952.991977
913.057436	2992.769201
913.363331	3052.771535
913.669186	3138.332518
913.975000	3256.156887
914.280775	3441.202521
914.586510	3702.916543
914.892205	4081.514759
915.197859	4572.228236
915.503475	5157.433101
915.809050	5651.055324
916.114585	5940.382266
916.420081	6005.355178
916.725536	5941.239263
917.030952	5700.506522
917.336328	5496.803578
917.641665	5285.470847
917.946961	5056.922575
918.252218	4857.045867
918.557435	4632.293584
918.862612	4433.021814
919.167750	4263.898664
919.472848	4071.823141
919.777906	3906.619488
920.082925	3749.154006
920.387904	3597.576592
920.692843	3488.198677
920.997743	3390.347361
921.302603	3299.707415
921.607423	3232.544122
921.912204	3167.787980
922.216946	3119.236627
922.521647	3069.278793
922.826310	3029.607433
923.130932	2988.774087
923.435516	2950.668005
923.740059	2924.673295
924.044564	2894.771691
924.349028	2868.023328
924.653454	2838.804801
924.957840	2812.414360
925.262186	2793.237811
925.566493	2773.801642
925.870761	2746.637385
926.174989	2734.780591
926.479178	2724.542008
926.783328	2705.362938
927.087438	2694.537060
927.391509	2681.137673
927.695541	2670.054696
927.999533	2659.574137
928.303486	2652.229176
928.607400	2644.914462
928.911275	2640.044707
929.215110	2633.299644
929.518906	2633.571866
929.822663	2630.854684
930.126381	2628.863428
930.430060	2634.887607
930.733699	2635.394243
931.037299	2639.739718
931.340861	2636.662093
931.644383	2644.180974
931.947866	2640.349697
932.251309	2638.678555
932.554714	2635.852988
932.858080	2635.716877
933.161407	2635.442134
933.464694	2628.046761
933.767943	2625.916874
934.071153	2619.549897
934.374323	2617.039402
934.677455	2613.346757
934.980548	2612.061262
935.283602	2607.970366
935.586617	2606.558843
935.889593	2611.186622
936.192530	2613.475306
936.495428	2618.778600
936.798287	2625.226236
937.101108	2638.323153
937.403890	2662.467760
937.706632	2687.199661
938.009336	2720.640155
938.312002	2750.650143
938.614628	2773.370624
938.917216	2791.105403
939.219765	2800.088739
939.522275	2809.278763
939.824747	2808.724236
940.127179	2804.391364
940.429573	2799.110755
940.731929	2795.327369
941.034246	2787.296811
941.336524	2787.402676
941.638763	2779.820780
941.940964	2772.795932
942.243126	2758.315218
942.545250	2747.391037
942.847335	2731.246742
943.149381	2723.276678
943.451389	2709.524410
943.753359	2695.550332
944.055290	2686.665298
944.357182	2676.330933
944.659036	2669.386743
944.960851	2668.214675
945.262628	2661.625887
945.564367	2665.157215
945.866067	2664.829540
946.167729	2664.370795
946.469352	2660.297543
946.770937	2659.191010
947.072484	2651.858652
947.373992	2654.845535
947.675462	2648.254227
947.976893	2641.884729
948.278286	2640.420273
948.579641	2638.996147
948.880958	2632.838378
949.182236	2633.100518
949.483476	2631.189921
949.784678	2628.243366
950.085841	2629.639766
950.386967	2634.007926
950.688054	2638.996147
950.989103	2647.046870
951.290114	2657.035917
951.591087	2667.123265
951.892021	2680.472241
952.192917	2689.924404
952.493776	2702.817155
952.794596	2705.277238
953.095378	2709.836962
953.396122	2706.754296
953.696828	2701.070395
953.997496	2699.258101
954.298126	2688.475072
954.598718	2681.069617
954.899272	2667.992864
955.199788	2660.194199
955.500266	2646.386479
955.800706	2630.716052
956.101108	2613.175357
956.401472	2602.815786
956.701798	2589.088724
957.002087	2574.234965
957.302337	2565.791032
957.602550	2559.136709
957.902724	2544.119112
958.202861	2535.874304
958.502960	2528.771319
958.803022	2520.108096
959.103045	2512.367404
959.403031	2505.748369
959.702979	2501.057575
960.002889	2495.426607
960.302762	2490.735813
960.602596	2487.685915
960.902393	2487.234732
961.202153	2481.031592
961.501875	2481.215594
961.801559	2475.151086
962.101205	2474.062197
962.400814	2472.703606
962.700385	2467.518779
962.999918	2466.686988
963.299414	2466.578604
963.598873	2464.642801
963.898293	2465.489714
964.197677	2464.531895
964.497022	2462.089456
964.796331	2461.718931
965.095601	2459.949486
965.394835	2459.009311
965.694030	2458.449743
965.993189	2457.426389
966.292309	2455.530915
966.591393	2456.950000
966.890439	2453.297684
967.189447	2456.864300
967.488419	2457.295319
967.787353	2456.750874
968.086249	2456.783642
968.385108	2457.542335
968.683930	2459.823458
968.982714	2461.290433
969.281462	2460.330093
969.580172	2463.798407
969.878844	2465.890486
970.177480	2469.361321
970.476078	2472.295272
970.774639	2475.141003
971.073162	2474.735191
971.371649	2474.142855
971.670098	2478.619400
971.968510	2481.255923
972.266885	2480.169554
972.565223	2482.422950
972.863524	2483.499237
973.161788	2483.184164
973.460014	2487.426295
973.758204	2488.124495
974.056356	2485.508136
974.354471	2489.926708
974.652550	2487.149032
974.950591	2487.073415
975.248595	2485.135091
975.546563	2486.503764
975.844493	2484.109216
976.142386	2485.029227
976.440243	2478.621920
976.738062	2480.275419
977.035845	2475.919862
977.333590	2472.887608
977.631299	2469.817545
977.928971	2470.651856
978.226606	2467.886783
978.524204	2469.729325
978.821765	2466.548357
979.119290	2465.681278
979.416777	2462.699436
979.714228	2467.226392
980.011642	2466.543316
980.309020	2472.113791
980.606360	2471.450879
980.903664	2481.205512
981.200931	2496.008860
981.498162	2515.230779
981.795356	2545.276056
982.092513	2584.549165
982.389633	2629.148253
982.686717	2668.812052
982.983764	2699.227854
983.280775	2719.286605
983.577749	2716.521532
983.874686	2710.716643
984.171587	2693.198634
984.468451	2677.649195
984.765279	2657.640855
985.062070	2641.299955
985.358824	2620.956378
985.655543	2602.024325
985.952224	2579.253433
986.248869	2552.101779
986.545478	2524.347706
986.842050	2505.198883
987.138586	2486.271871
987.435086	2474.064717
987.731549	2460.945114
988.027975	2459.152984
988.324366	2449.413475
988.620719	2446.434153
988.917037	2442.239913
989.213318	2439.714295
989.509563	2436.447627
989.805772	2437.476023
990.101944	2434.070723
990.398080	2436.031732
990.694180	2435.769592
990.990244	2436.228337
991.286271	2432.722214
991.582262	2435.956115
991.878217	2435.653645
992.174136	2435.499890
992.470019	2438.527103
992.765865	2441.176229
993.061676	2441.030036
993.357450	2445.982970
993.653188	2445.153700
993.948890	2449.705862
994.244556	2459.394959
994.540186	2466.981896
994.835780	2477.177630
995.131337	2495.822337
995.426859	2505.977742
995.722345	2528.446164
996.017795	2545.409647
996.313208	2562.307595
996.608586	2570.386044
996.903928	2573.975345
997.199234	2570.920406
997.494504	2567.318502
997.789738	2559.119065
998.084936	2552.598332
998.380099	2541.674152
998.675225	2530.013963
998.970316	2514.774555
999.265371	2501.291989
999.560390	2490.491317
999.855373	2478.397589
1000.150320	2470.498101
1000.445232	2457.597788
1000.740108	2455.835905
1001.034948	2445.181426
1001.329752	2443.046498
1001.624521	2436.843358
1001.919254	2433.528799
1002.213951	2430.143664
1002.508613	2427.509661
1002.803239	2426.801379
1003.097829	2422.755853
1003.392384	2423.234763
1003.686903	2420.573034
1003.981386	2425.336924
1004.275834	2419.738723
1004.570246	2419.413568
1004.864623	2419.889957
1005.158964	2417.749987
1005.453270	2417.087076
1005.747540	2418.980029
1006.041775	2416.018351
1006.335974	2415.166396
1006.630138	2417.699576
1006.924266	2414.778227
1007.218359	2417.034144
1007.512416	2417.414751
1007.806438	2416.842580
1008.100425	2418.007086
1008.394376	2414.412744
1008.688292	2416.777045
1008.982172	2414.019534
1009.276017	2413.616241
1009.569827	2414.115316
1009.863602	2411.627506
1010.157341	2412.164389
1010.451045	2412.877712
1010.744714	2411.438463
1011.038347	2410.397465
1011.331945	2410.198339
1011.625508	2411.771179
1011.919036	2411.035171
1012.212528	2412.698751
1012.505986	2409.401837
1012.799408	2407.922258
1013.092795	2410.150448
1013.386147	2409.580798
1013.679464	2411.781261
1013.972745	2407.823956
1014.265992	2409.724471
1014.559204	2410.064748
1014.852380	2408.645664
1015.145521	2409.782444
1015.438628	2411.592218
1015.731699	2408.996024
1016.024736	2411.072979
1016.317737	2411.468710
1016.610703	2413.482651
1016.903635	2408.459141
1017.196531	2407.017371
1017.489393	2411.246899
1017.782219	2407.103071
1018.075011	2413.028947
1018.367768	2412.512229
1018.660490	2412.257650
1018.953177	2412.257650
1019.245829	2412.257650
