Dividing Wavelength (nm)	Counts (n)	Blue Motor Position (mm): 31.600000	Red Motor Position (mm): 0.000000	
326.493990	1970.917234
326.888308	1970.917234
327.282561	1970.917234
327.676750	1947.128029
328.070874	1946.666763
328.464933	1952.116251
328.858929	1963.663014
329.252859	1974.869499
329.646726	1987.545480
330.040528	2005.744045
330.434265	2023.960255
330.827938	2045.092772
331.221547	2064.352500
331.615091	2084.096179
332.008571	2102.302306
332.401986	2127.397170
332.795338	2146.843421
333.188625	2166.135917
333.581847	2183.409430
333.975006	2203.432893
334.368100	2221.500389
334.761129	2237.894221
335.154095	2251.956520
335.546996	2292.568055
335.939833	2371.182329
336.332606	2385.831922
336.725315	2397.484549
337.117960	2404.973183
337.510540	2413.568350
337.903056	2422.448343
338.295508	2425.843560
338.687896	2435.600713
339.080220	2442.640685
339.472480	2449.272322
339.864676	2451.276181
340.256807	2455.404886
340.648875	2456.592078
341.040879	2460.067953
341.432818	2460.793880
341.824694	2457.086111
342.216506	2457.098714
342.608253	2459.954528
342.999937	2459.102572
343.391557	2458.490072
343.783113	2456.057716
344.174605	2460.015021
344.566033	2450.489761
344.957397	2453.300204
345.348697	2449.340378
345.739934	2446.784513
346.131106	2446.063628
346.522215	2444.536158
346.913260	2440.694799
347.304241	2443.238061
347.695159	2442.381065
348.086012	2439.865529
348.476802	2439.013574
348.867528	2437.967535
349.258191	2434.428645
349.648789	2434.756320
350.039324	2430.743562
350.429796	2431.318253
350.820203	2428.792635
351.210548	2430.620053
351.600828	2430.859508
351.991045	2429.407656
352.381198	2426.236770
352.771288	2430.975455
353.161314	2429.226174
353.551276	2427.320618
353.941175	2426.541760
354.331010	2429.069898
354.720782	2429.294230
355.110490	2433.168357
355.500135	2427.199630
355.889717	2429.203489
356.279235	2428.482604
356.668689	2431.199786
357.058080	2428.812800
357.447408	2429.354724
357.836672	2429.758016
358.225873	2430.206679
358.615010	2429.755495
359.004084	2434.862184
359.393095	2433.480908
359.782043	2434.642894
360.170927	2433.375044
360.559748	2434.610127
360.948505	2435.862853
361.337199	2435.073913
361.725830	2435.855292
362.114398	2439.242947
362.502903	2435.605754
362.891344	2438.945519
363.279722	2438.635488
363.668037	2441.730756
364.056289	2438.416198
364.444478	2440.992227
364.832603	2443.565736
365.220665	2439.069027
365.608665	2441.322423
365.996601	2441.682865
366.384474	2443.391817
366.772284	2444.941971
367.160031	2443.933741
367.547715	2445.935079
367.935336	2441.680345
368.322893	2445.209152
368.710388	2446.376180
369.097820	2446.713937
369.485189	2445.816612
369.872495	2447.218052
370.259738	2448.075048
370.646918	2451.656788
371.034035	2449.892384
371.421090	2447.691921
371.808081	2450.119236
372.195010	2448.493464
372.581875	2446.960953
372.968678	2453.864814
373.355418	2453.388425
373.742096	2456.279526
374.128710	2450.502364
374.515262	2453.562344
374.901751	2454.681481
375.288177	2455.641820
375.674540	2454.187448
376.060841	2454.288271
376.447079	2453.156532
376.833254	2454.865483
377.219367	2451.520677
377.605417	2453.895061
377.991404	2453.370781
378.377329	2451.840790
378.763191	2453.111161
379.148991	2458.598457
379.534727	2456.955041
379.920402	2457.829681
380.306013	2460.617439
380.691563	2459.551235
381.077049	2457.648200
381.462474	2459.629373
381.847835	2460.057871
382.233134	2462.853191
382.618371	2458.923612
383.003545	2460.816565
383.388657	2463.853860
383.773706	2462.298664
384.158693	2463.243880
384.543618	2467.886783
384.928480	2465.668675
385.313280	2464.284879
385.698017	2464.418469
386.082692	2466.039200
386.467305	2466.694550
386.851856	2468.443831
387.236344	2467.309571
387.620770	2471.415591
388.005133	2470.777885
388.389435	2470.850982
388.773674	2469.885601
389.157851	2473.109418
389.541965	2471.350056
389.926018	2470.457772
390.310008	2472.663276
390.693936	2472.920375
391.077802	2474.001703
391.461606	2476.025726
391.845348	2474.619244
392.229027	2475.415746
392.612645	2477.553196
392.996200	2477.661580
393.379694	2479.544451
393.763125	2479.171406
394.146494	2479.819194
394.529801	2480.688793
394.913047	2481.538228
395.296230	2479.509163
395.679351	2482.264154
396.062410	2481.747436
396.445408	2481.356746
396.828343	2482.382621
397.211217	2480.063690
397.594028	2479.529328
397.976778	2478.881540
398.359466	2484.847745
398.742092	2481.248361
399.124656	2485.906387
399.507158	2487.033085
399.889598	2488.424444
400.271977	2488.096769
400.654294	2490.151039
401.036549	2489.099958
401.418742	2488.840339
401.800874	2490.582058
402.182944	2488.918477
402.564952	2494.544405
402.946898	2493.712614
403.328783	2493.447954
403.710606	2492.666575
404.092367	2495.519868
404.474067	2497.768223
404.855705	2498.408449
405.237282	2500.223264
405.618797	2500.064468
406.000250	2500.006495
406.381642	2502.839623
406.762972	2502.832062
407.144240	2498.768892
407.525447	2507.008657
407.906593	2506.812053
408.287677	2504.851044
408.668700	2507.543020
409.049661	2506.837258
409.430560	2510.630727
409.811399	2513.405882
410.192176	2508.863802
410.572891	2510.640809
410.953545	2516.057529
411.334138	2512.798423
411.714669	2514.978722
412.095139	2516.178516
412.475547	2515.876047
412.855894	2517.491737
413.236180	2518.792355
413.616405	2521.978364
413.996568	2522.187572
414.376670	2526.631349
414.756711	2524.241842
415.136691	2527.513551
415.516609	2527.566483
415.896466	2532.186700
416.276262	2535.289531
416.655997	2534.412370
417.035670	2539.889583
417.415283	2549.341747
417.794834	2544.010727
418.174324	2553.525905
418.553753	2557.770556
418.933121	2564.051834
419.312428	2566.698440
419.691674	2569.503842
420.070859	2582.691500
420.449983	2587.110072
420.829045	2597.063830
421.208047	2610.150665
421.586988	2622.894702
421.965867	2638.169398
422.344686	2653.660864
422.723444	2678.012158
423.102141	2679.529545
423.480777	2711.765203
423.859352	2726.994529
424.237866	2768.092536
424.616319	2792.383336
424.994712	2836.218689
425.373044	2866.924357
425.751314	2918.865886
426.129524	2937.041766
426.507673	3008.908455
426.885762	3049.061245
427.263789	3106.976541
427.641756	3169.317970
428.019662	3232.879359
428.397508	3295.601395
428.775292	3377.436966
429.153016	3450.311886
429.530679	3531.424051
429.908282	3613.501598
430.285824	3680.400230
430.663305	3821.522290
431.040726	3883.722567
431.418086	3960.948003
431.795385	4119.842652
432.172624	4268.755816
432.549802	4334.177390
432.926920	4463.997183
433.303977	4568.598605
433.680974	4716.387592
434.057910	4881.137541
434.434786	5016.623592
434.811601	5138.488445
435.188355	5437.622952
435.565050	5533.253641
435.941683	5665.858672
436.318257	5972.207071
436.694770	6094.568477
437.071222	6372.225149
437.447614	6350.369226
437.823946	6509.079873
438.200218	6714.592592
438.576429	6830.965108
438.952580	7067.153248
439.328670	7232.170378
439.704700	7518.278544
440.080670	7581.466887
440.456580	7937.947040
440.832429	8181.522991
441.208218	8065.523520
441.583947	8379.456335
441.959616	8600.052186
442.335224	8872.571922
442.710773	9117.972770
443.086261	9499.323456
443.461689	9468.610226
443.837057	9712.980159
444.212365	10154.663373
444.587612	10369.129182
444.962800	10402.448688
445.337927	10778.077664
445.712995	10439.206261
446.088002	11429.614031
446.462949	11747.937691
446.837837	12042.215046
447.212664	12248.630132
447.587431	13882.604204
447.962139	15617.537465
448.336786	17121.699306
448.711374	16588.607369
449.085901	14876.102202
449.460369	15066.985492
449.834776	15261.725265
450.209124	16928.156807
450.583412	16925.169923
450.957640	17474.461608
451.331808	16899.918783
451.705917	16298.935107
452.079965	16540.454267
452.453954	16979.125393
452.827883	17133.740102
453.201752	17218.176908
453.575562	17531.222480
453.949311	18510.350668
454.323001	18779.482748
454.696632	18829.473350
455.070202	20119.565113
455.443713	20445.372366
455.817164	21065.706511
456.190556	21675.912978
456.563888	21476.689099
456.937160	21988.588025
457.310373	20956.235335
457.683526	21471.968058
458.056619	21646.911220
458.429653	21794.211215
458.802628	22419.256319
459.175542	22688.184233
459.548398	23912.836777
459.921194	25339.669839
460.293930	26068.519862
460.666607	27919.039218
461.039224	29568.197247
461.411782	30073.063763
461.784280	29242.019469
462.156719	29003.131791
462.529099	28697.751294
462.901419	27746.422549
463.273680	27007.923758
463.645882	27224.554741
464.018024	27355.849073
464.390106	28226.592453
464.762130	30761.824010
465.134094	34528.191036
465.505999	39435.235067
465.877845	43819.975229
466.249631	45077.112970
466.621358	43581.223663
466.993026	41719.560835
467.364634	39919.468141
467.736184	38237.041018
468.107674	37188.347427
468.479105	36598.746676
468.850477	36066.373104
469.221790	34841.155949
469.593043	33319.513908
469.964238	32579.822883
470.335373	32572.258632
470.706449	34224.484202
471.077467	36701.654270
471.448425	41138.603143
471.819324	43976.893746
472.190164	42301.073055
472.560945	38940.050086
472.931667	36058.433286
473.302330	35062.329013
473.672934	34304.885565
474.043479	34841.798697
474.413965	34149.996113
474.784393	33837.467260
475.154761	34717.375458
475.525070	34794.245492
475.895321	34382.862133
476.265513	34997.305690
476.635645	35939.583043
477.005719	35795.007792
477.375734	36279.883613
477.745691	36970.352811
478.115588	38260.646221
478.485427	40216.319005
478.855207	43508.936037
479.224928	46127.099616
479.594591	47754.373996
479.964194	46729.802326
480.333739	46844.748196
480.703226	46883.134062
481.072653	47535.920635
481.442022	48053.952125
481.811333	48330.862705
482.180584	47084.797859
482.549777	46583.240860
482.918912	46071.500731
483.287988	45769.631397
483.657005	44963.941587
484.025964	44346.604407
484.394864	44357.178227
484.763706	43942.813025
485.132489	43091.135289
485.501213	42943.752115
485.869879	43096.007564
486.238487	42715.314749
486.607036	42937.962350
486.975527	42405.596339
487.343959	42609.858852
487.712333	42705.441649
488.080648	42621.965182
488.448905	43053.576172
488.817104	42888.158270
489.185244	43804.478723
489.553326	45460.986753
489.921350	48171.214404
490.289315	51115.948971
490.657222	51757.224069
491.025070	52051.594686
491.392861	51123.314097
491.760593	49833.605461
492.128267	48128.798136
492.495883	46618.118083
492.863440	45231.402524
493.230939	43914.832101
493.598380	42841.416692
493.965763	42539.859910
494.333088	41754.075095
494.700354	41293.384210
495.067563	41025.041070
495.434713	40906.725189
495.801805	40983.020532
496.168839	40608.009098
496.535815	40284.087237
496.902733	40319.697947
497.269593	39925.020972
497.636395	39855.984890
498.003139	40242.530485
498.369825	39735.758412
498.736453	40027.031240
499.103023	39568.739944
499.469535	39456.642327
499.835989	39549.076923
500.202385	39216.756500
500.568723	39236.059078
500.935003	39427.633007
501.301226	39238.698122
501.667390	39846.298313
502.033497	40088.001475
502.399546	39531.359788
502.765537	38860.934218
503.131470	39239.174511
503.497345	39579.417108
503.863163	38278.081051
504.228923	38875.672031
504.594625	39276.935274
504.960269	38569.800021
505.325856	39245.833876
505.691385	38617.277608
506.056856	38755.299359
506.422270	39188.883961
506.787625	38770.546329
507.152924	38965.865835
507.518164	39045.483298
507.883347	38290.081518
508.248472	38526.120944
508.613540	39000.793469
508.978550	39277.658680
509.343503	39033.253459
509.708398	39221.686749
510.073236	39742.836192
510.438016	39743.839382
510.802738	39198.883089
511.167403	39818.549282
511.532010	40050.081916
511.896561	40321.099388
512.261053	41143.140181
512.625488	40712.512217
512.989866	40591.741294
513.354186	40428.546541
513.718449	40408.414693
514.082655	41058.453838
514.446803	40755.954360
514.810894	41258.297779
515.174927	41180.694257
515.538904	41089.013312
515.902822	41731.611714
516.266684	41212.219112
516.630488	41625.659263
516.994235	41460.309417
517.357925	42016.094107
517.721558	42180.176103
518.085133	42490.191942
518.448651	42615.535191
518.812112	42395.022519
519.175516	42496.493384
519.538863	42838.452493
519.902152	42789.838126
520.265385	43249.230914
520.628560	43271.679173
520.991678	43064.180239
521.354739	43300.799398
521.717743	43605.784164
522.080690	43499.196528
522.443580	44035.623188
522.806413	44104.928971
523.169189	44050.930652
523.531908	44212.844952
523.894569	44100.603661
524.257174	44251.956744
524.619722	44545.046908
524.982213	44536.645825
525.344647	44445.068224
525.707025	44505.373027
526.069345	44885.531480
526.431608	44815.164534
526.793815	45108.458864
527.155964	44648.708154
527.518057	44820.533363
527.880093	44622.118588
528.242072	45130.297143
528.603995	44837.499366
528.965860	44839.760323
529.327669	44936.031238
529.689421	44834.754458
530.051117	44801.041741
530.412755	44936.346310
530.774337	45015.875553
531.135862	44827.200288
531.497331	45021.713210
531.858743	44928.270382
532.220098	45259.706083
532.581396	44970.001053
532.942638	44632.095032
533.303824	44932.157112
533.664953	44907.097536
534.026025	44626.610256
534.387040	45099.276403
534.747999	45041.361107
535.108902	45207.560387
535.469748	44722.465276
535.830537	44849.270460
536.191270	45036.743410
536.551947	44694.701121
536.912567	44997.515671
537.273131	45116.849865
537.633638	44610.881856
537.994089	44947.903156
538.354483	44560.278754
538.714821	45112.753928
539.075103	45454.581967
539.435328	45225.869858
539.795497	45114.949350
540.155609	45108.970542
540.515665	45558.369242
540.875665	45035.916661
541.235609	45353.980701
541.595496	45313.767417
541.955328	45979.023284
542.315102	45370.056940
542.674821	45153.562068
543.034483	45199.224839
543.394090	45154.567778
543.753640	45123.400844
544.113134	46088.721312
544.472571	45148.314227
544.831953	46364.711882
545.191278	45585.609117
545.550548	45308.070913
545.909761	45768.557631
546.268918	45963.357898
546.628019	46264.463497
546.987064	45829.449729
547.346053	45122.281708
547.704986	45976.404404
548.063863	45566.057002
548.422684	45768.030831
548.781449	45622.853162
549.140158	46009.623088
549.498811	45875.901441
549.857408	45306.742569
550.215949	46126.971067
550.574434	46062.729123
550.932864	45848.036463
551.291237	46543.355251
551.649555	46147.417987
552.007817	46416.983607
552.366022	46062.547641
552.724173	46226.249030
553.082267	46628.883467
553.440305	46924.877336
553.798288	46257.428567
554.156215	46570.698470
554.514086	46768.745240
554.871902	46517.796601
555.229661	46548.189718
555.587365	46367.960906
555.945014	46478.936867
556.302606	46401.056081
556.660143	46639.792524
557.017625	46703.356433
557.375050	46522.540327
557.732421	46870.379942
558.089735	46843.732403
558.446994	46765.768438
558.804197	47229.355467
559.161345	47168.932197
559.518437	46451.659183
559.875474	46760.026564
560.232455	46917.285358
560.589381	47092.515866
560.946251	46804.335786
561.303065	47456.202348
561.659825	47286.920402
562.016528	46965.572050
562.373177	46700.641772
562.729770	47176.224226
563.086307	46694.499126
563.442789	47148.613826
563.799216	47187.738221
564.155587	47002.405241
564.511904	47030.993624
564.868164	47118.855895
565.224370	47361.658029
565.580520	47102.509953
565.936615	47306.192733
566.292654	47035.273564
566.648638	47278.496634
567.004567	47229.355467
567.360441	47265.263605
567.716260	47148.175246
568.072023	47441.605687
568.427732	47413.307170
568.783385	46974.290726
569.138982	47375.571613
569.494525	47350.280144
569.850013	47106.558000
570.205445	47076.308556
570.560823	47034.073769
570.916145	46912.246725
571.271412	46935.254551
571.626625	46699.338633
571.981782	46775.800334
572.336884	46450.109028
572.691931	46763.764580
573.046923	46379.784932
573.401860	46221.107053
573.756743	46205.025772
574.111570	46317.355283
574.466342	46180.407298
574.821059	46308.563511
575.175722	45824.993349
575.530330	45841.911461
575.884882	45568.877527
576.239380	45533.188679
576.593823	45502.155336
576.948211	45416.879177
577.302544	44967.145240
577.656823	45001.601526
578.011047	45222.547738
578.365216	44940.646415
578.719330	44739.514458
579.073389	44580.413123
579.427394	44680.086816
579.781344	44659.176110
580.135239	44330.591182
580.489080	44400.980813
580.842866	43893.661775
581.196597	44339.632491
581.550273	44286.569306
581.903895	44160.840408
582.257463	44564.311677
582.610975	43967.731449
582.964434	44255.893885
583.317837	43898.652517
583.671186	43729.567176
584.024481	43968.366634
584.377721	43497.205272
584.730906	43777.715237
585.084037	43797.128720
585.437113	43517.753015
585.790135	43550.548242
586.143103	43155.107531
586.496016	43288.128457
586.848874	43297.338646
587.201679	43317.437726
587.554428	42800.996720
587.907124	42992.313550
588.259765	42757.305040
588.612352	43009.249306
588.964884	42401.848241
589.317362	42697.058210
589.669786	42629.486584
590.022155	42404.104157
590.374470	42818.759226
590.726731	42364.125287
591.078937	41888.086608
591.431090	41966.310193
591.783188	41637.052270
592.135232	41314.483959
592.487222	41551.524054
592.839157	41632.101857
593.191038	41309.901550
593.542866	41091.047418
593.894639	40496.597077
594.246358	40773.179983
594.598022	40748.944636
594.949633	40343.225012
595.301190	40310.578500
595.652692	40156.621662
596.004141	40462.836470
596.355535	39493.898974
596.706876	39465.101383
597.058162	39291.428592
597.409395	39750.014795
597.760573	39822.209159
598.111698	39401.580324
598.462768	39412.028115
598.813785	39467.087597
599.164748	38918.176520
599.515657	39308.006426
599.866511	38786.420923
600.217312	39393.305270
600.568060	38368.635298
600.918753	39112.089543
601.269392	39065.219416
601.619978	38721.203515
601.970510	38932.236298
602.320988	39109.679872
602.671412	39426.460938
603.021783	39145.981221
603.372100	38819.044750
603.722363	38924.407386
604.072572	38993.468673
604.422728	38998.356072
604.772830	38822.157662
605.122878	38920.868496
605.472872	38857.125626
605.822813	39129.625197
606.172701	38941.534706
606.522534	39184.150317
606.872314	39449.062952
607.222041	39207.939522
607.571714	39597.759346
607.921333	39057.403107
608.270899	39345.119401
608.620411	39675.241881
608.969870	39476.617899
609.319276	39480.577725
609.668627	39537.391529
610.017926	40009.966934
610.367171	40166.406541
610.716362	40248.617678
611.065500	40189.971415
611.414585	40399.575030
611.763616	40675.298419
612.112594	40603.088931
612.461518	40821.388537
612.810389	41111.101128
613.159207	40984.910965
613.507971	41072.087638
613.856682	41519.147244
614.205340	41414.626480
614.553945	42100.641819
614.902496	41559.831876
615.250994	42020.530323
615.599439	42081.981988
615.947830	42297.559371
616.296169	42338.448170
616.644454	42472.600835
616.992686	42658.649659
617.340864	43176.454297
617.688990	42894.447110
618.037063	43482.931245
618.385082	43460.180518
618.733048	43768.321047
619.080961	43774.738435
619.428821	43786.920384
619.776628	43883.037543
620.124382	43693.711970
620.472083	43843.938354
620.819731	43955.806599
621.167326	43611.543683
621.514868	43618.976864
621.862357	43174.173175
622.209793	43187.784290
622.557176	42865.437790
622.904506	42610.073101
623.251783	42266.765483
623.599007	42046.767008
623.946179	41827.847341
624.293297	41776.636779
624.640363	41192.722450
624.987376	41180.600995
625.334336	40936.677205
625.681243	40587.708371
626.028097	40551.323843
626.374899	40420.193349
626.721647	40396.353733
627.068343	40282.199324
627.414987	40044.556812
627.761577	39826.360550
628.108115	40153.060086
628.454600	39614.102767
628.801032	39790.444849
629.147412	39771.023804
629.493739	39766.862331
629.840014	39442.451478
630.186236	39752.091751
630.532405	39385.496522
630.878521	39601.464594
631.224585	39466.883431
631.570597	39183.018578
631.916556	39361.568686
632.262462	39303.272782
632.608316	39320.765586
632.954117	39214.346829
633.299866	39205.834840
633.645562	39119.157241
633.991206	38625.797158
634.336797	38197.954431
634.682336	38197.047024
635.027823	37951.938562
635.373257	37783.145608
635.718639	37525.174642
636.063968	37384.249186
636.409245	36825.792684
636.754470	36875.135497
637.099642	36636.073900
637.444762	36170.094844
637.789829	36302.460421
638.134845	35969.472044
638.479808	35922.919509
638.824719	35819.278427
639.169577	35435.727278
639.514383	35501.930231
639.859137	35197.477306
640.203839	35432.750477
640.548489	35078.485911
640.893086	35147.264893
641.237632	34898.725926
641.582125	35008.630642
641.926566	34948.910613
642.270955	34902.113582
642.615292	34928.529228
642.959576	34889.672014
643.303809	34893.357098
643.647990	35057.650822
643.992118	35013.119789
644.336195	35010.800859
644.680219	35100.523315
645.024192	35406.649903
645.368112	35903.526190
645.711981	35936.207991
646.055797	36803.697306
646.399562	36736.987717
646.743274	37653.706421
647.086935	38098.734441
647.430544	37982.573654
647.774101	38127.020356
648.117606	38353.342958
648.461059	38645.452617
648.804460	38261.535984
649.147810	37638.595562
649.491108	37400.829541
649.834354	37045.186220
650.177548	36222.563173
650.520690	35774.477693
650.863781	35782.251152
651.206820	35642.452394
651.549807	35198.188109
651.892742	34726.477261
652.235626	34536.796286
652.578458	34405.494393
652.921238	33803.469718
653.263967	34137.839371
653.606644	33814.681244
653.949269	33775.224133
654.291843	33366.038717
654.634365	33782.057417
654.976836	33373.116497
655.319255	33379.848958
655.661622	33373.315622
656.003938	33152.016530
656.346203	33012.668956
656.688416	33241.436517
657.030577	33039.175343
657.372687	32880.825138
657.714746	33137.961793
658.056753	33261.759929
658.398708	32723.102558
658.740612	32767.620988
659.082465	33041.673234
659.424266	32861.210009
659.766016	32983.034533
660.107715	32871.037738
660.449362	33001.270907
660.790958	32983.881447
661.132503	33000.164373
661.473996	33039.555950
661.815438	33144.784995
662.156829	33337.838502
662.498168	33125.038795
662.839456	33129.926194
663.180693	33289.082983
663.521879	33435.352062
663.863013	33390.684918
664.204097	33375.994996
664.545129	33861.707648
664.886110	33817.302644
665.227040	33876.740369
665.567918	34001.672764
665.908746	34069.811520
666.249522	34230.944441
666.590248	34230.301694
666.930922	34344.982903
667.271545	34303.852128
667.612118	34391.510232
667.952639	34179.055844
668.293109	34222.881115
668.633528	34121.158192
668.973896	34032.191909
669.314213	34079.551029
669.654480	33820.705423
669.994695	33849.543344
670.334859	33742.355810
670.674973	33645.651356
671.015035	33794.781290
671.355047	33742.670882
671.695008	33678.126469
672.034918	33595.832153
672.374777	33665.082483
672.714585	33506.076929
673.054342	33744.886469
673.394049	33498.651310
673.733705	33775.844195
674.073310	33442.805408
674.412864	33521.691903
674.752368	33120.428660
675.091820	33412.548402
675.431223	33005.596217
675.770574	32712.455641
676.109875	32585.857145
676.449125	32308.255926
676.788324	32234.090470
677.127473	31692.947811
677.466571	31615.896295
677.805619	31268.152461
678.144616	31277.970108
678.483562	31188.136747
678.822458	30885.493596
679.161303	30810.745888
679.500098	30709.615300
679.838842	30599.481212
680.177535	30760.530954
680.516179	31030.073889
680.854771	31268.807811
681.193314	32131.049286
681.531805	33266.579272
681.870247	34036.819689
682.208638	34775.154643
682.546978	34985.632898
682.885268	35080.968679
683.223508	34543.853901
683.561697	34208.430648
683.899836	34015.651884
684.237925	33518.047149
684.575963	33370.089284
684.913951	32912.244130
685.251889	33068.615681
685.589776	33047.001734
685.927614	33045.355797
686.265401	33190.714948
686.603137	33283.830100
686.940824	33806.481808
687.278460	34190.378276
687.616046	34325.554296
687.953582	34950.407836
688.291068	34803.463242
688.628504	35087.272642
688.965889	35015.544584
689.303224	34611.327225
689.640510	34278.439672
689.977745	33538.383164
690.314930	32745.455034
690.652065	32216.378376
690.989150	31474.537300
691.326185	30587.846229
691.663170	29885.565608
692.000105	29119.733680
692.336990	28449.953377
692.673825	27994.674170
693.010610	27485.767169
693.347345	26909.457420
693.684030	26260.764264
694.020665	25983.105072
694.357251	25318.028165
694.693786	25270.177533
695.030272	25037.389651
695.366707	24494.308668
695.703093	24211.447005
696.039429	24196.706671
696.375716	23945.253917
696.711952	23909.343258
697.048139	23752.293672
697.384276	23583.069699
697.720363	23706.560324
698.056400	23502.103727
698.392388	23294.756028
698.728326	23242.774170
699.064214	23034.362788
699.400053	22970.330052
699.735842	22626.785499
700.071581	22356.146114
700.407270	22065.833626
700.742910	21863.363243
701.078501	21603.960590
701.414042	21323.299390
701.749533	21024.583299
702.084974	20677.628406
702.420366	20885.732278
702.755709	20445.417736
703.091002	20144.281891
703.426246	20166.450365
703.761440	20068.967052
704.096584	19802.456372
704.431679	19762.880793
704.766725	19666.476288
705.101721	19608.387072
705.436668	19698.175063
705.771565	19373.532317
706.106413	19717.152487
706.441212	19697.121462
706.775961	19833.953501
707.110661	19901.154602
707.445311	20256.888665
707.779913	20115.663260
708.114465	20346.384269
708.448967	20631.012856
708.783421	21323.841314
709.117825	21596.930701
709.452180	21814.655615
709.786485	22220.402964
710.120742	23018.057176
710.454949	23031.900184
710.789107	23499.923428
711.123216	24205.223701
711.457275	24331.451672
711.791286	24869.211718
712.125247	24937.690752
712.459159	24634.127590
712.793023	25278.087103
713.126837	24185.522871
713.460602	24432.695686
713.794318	24062.455703
714.127985	23656.796574
714.461602	22769.929063
714.795171	22724.505746
715.128691	21712.814225
715.462162	21172.664672
715.795584	20748.154148
716.128957	20497.507979
716.462281	20094.681978
716.795556	19845.570840
717.128782	19362.968579
717.461960	18822.297268
717.795088	18739.362725
718.128167	18335.588987
718.461198	17877.877424
718.794180	17745.514368
719.127113	17373.983850
719.459997	17182.770364
719.792833	16847.883993
720.125619	16810.370247
720.458357	16488.800084
720.791046	16316.952191
721.123686	16167.113975
721.456278	15929.456339
721.788821	15888.232303
722.121315	15636.915661
722.453761	15702.748089
722.786158	15633.984230
723.118506	15632.534898
723.450805	15502.742830
723.783056	15658.184289
724.115259	15568.449230
724.447412	15496.610267
724.779518	15735.192955
725.111574	15763.609939
725.443582	15963.199302
725.775542	15939.916733
726.107453	16411.098260
726.439315	16305.672609
726.771129	16697.710541
727.102895	17065.402220
727.434612	17264.714320
727.766281	17390.932209
728.097901	17653.830903
728.429473	17687.649483
728.760996	17666.650557
729.092471	17749.615347
729.423897	17629.061193
729.755276	17495.674783
730.086606	17603.847863
730.417887	18133.237072
730.749120	18633.639647
731.080305	18818.402976
731.411442	19152.636518
731.742530	19213.034582
732.073570	19306.807605
732.404562	19598.849209
732.735506	19419.235418
733.066401	19139.469024
733.397249	18601.320809
733.728048	17966.332030
734.058798	17129.066952
734.389501	16458.744725
734.720156	16005.943246
735.050762	15475.775178
735.381320	15132.843126
735.711831	14895.069543
736.042293	14547.280339
736.372707	14553.546493
736.703073	14351.318086
737.033391	14536.767013
737.363661	14502.192259
737.693883	14608.719402
738.024056	14789.096927
738.354182	14967.936901
738.684260	15248.509880
739.014290	15474.164529
739.344272	15664.692418
739.674207	15950.301510
740.004093	16056.611883
740.333931	16042.547064
740.663722	16080.695995
740.993464	16063.457770
741.323159	15898.412913
741.652806	15623.458300
741.982405	15401.113169
742.311956	15071.935905
742.641460	14947.865547
742.970915	14641.688548
743.300323	14310.096571
743.629683	14098.748717
743.958996	13819.766222
744.288260	13556.698649
744.617477	13256.722269
744.946647	13184.643852
745.275768	12908.484403
745.604842	12717.109600
745.933869	12554.749158
746.262847	12502.863082
746.591778	12426.376175
746.920662	12336.689007
747.249498	12333.941578
747.578286	12451.786111
747.907027	12599.214655
748.235720	12825.159171
748.564365	12843.057787
748.892963	12744.011717
749.221514	12802.002631
749.550017	12667.431549
749.878473	12616.851132
750.206881	12401.525807
750.535242	12309.660861
750.863555	12215.900440
751.191821	12128.766617
751.520039	12149.349648
751.848210	12058.114846
752.176334	12085.952097
752.504411	11993.870381
752.832440	11839.480003
753.160421	11903.618604
753.488356	11781.993205
753.816243	11689.351921
754.144082	11547.806403
754.471875	11493.601397
754.799620	11436.394383
755.127318	11409.031000
755.454969	11372.704445
755.782572	11323.225520
756.110129	11343.130516
756.437638	11254.469223
756.765100	11247.603171
757.092515	11245.107800
757.419882	11269.577561
757.747203	11266.494895
758.074477	11341.126657
758.401703	11300.983949
758.728882	11461.448917
759.056014	11505.216215
759.383099	11626.246757
759.710138	11720.521375
760.037129	11802.762759
760.364073	11826.350318
760.690970	11814.864049
761.017820	11809.273409
761.344623	11993.497336
761.671379	12313.479535
761.998088	12944.127881
762.324751	14485.102747
762.651366	17344.301536
762.977935	20994.454843
763.304456	23206.828223
763.630931	23687.948384
763.957359	22493.890602
764.283740	20584.364539
764.610074	18710.146718
764.936362	16583.659476
765.262602	15078.020578
765.588796	13619.327424
765.914943	12587.849374
766.241044	11740.368398
766.567097	11112.384302
766.893104	10572.345655
767.219064	10217.009844
767.544978	9829.019958
767.870845	9529.648517
768.196665	9333.240122
768.522438	9141.489753
768.848165	8974.282242
769.173846	8812.889701
769.499479	8690.510650
769.825066	8537.433493
770.150607	8352.352571
770.476101	8286.517622
770.801548	8178.384872
771.126949	8040.095940
771.452303	7950.192002
771.777611	7783.259234
772.102872	7768.128211
772.428087	7646.248234
772.753256	7522.465222
773.078378	7439.502953
773.403453	7300.881305
773.728482	7193.829882
774.053465	7130.344111
774.378401	7042.983436
774.703291	6949.752336
775.028135	6856.856474
775.352932	6818.049672
775.677683	6745.308342
776.002388	6648.820658
776.327046	6648.840822
776.651658	6562.218676
776.976224	6486.853426
777.300743	6474.553010
777.625216	6408.687815
777.949643	6365.538058
778.274024	6369.162648
778.598359	6304.436753
778.922647	6303.065559
779.246889	6265.859323
779.571086	6269.660353
779.895236	6284.771212
780.219339	6278.794924
780.543397	6276.102948
780.867409	6319.088867
781.191374	6318.410832
781.515294	6286.200379
781.839167	6340.067628
782.162995	6308.434388
782.486776	6259.502428
782.810511	6222.664197
783.134201	6149.035624
783.457844	6135.328727
783.781441	6087.410039
784.104993	6042.392535
784.428498	6012.397670
784.751958	5990.657694
785.075372	5974.745292
785.398739	5938.080980
785.722061	5958.321212
786.045337	5961.398837
786.368568	6063.152007
786.691752	6087.246201
787.014891	6335.540672
787.337983	6613.777077
787.661030	7055.568676
787.984031	7476.714230
788.306987	7736.868016
788.629897	7826.366140
788.952760	7740.059066
789.275579	7556.825727
789.598351	7266.848475
789.921078	6996.677917
790.243759	6722.431586
790.566395	6515.404000
790.888984	6322.055586
791.211529	6184.343866
791.534027	6022.129617
791.856480	5886.215068
792.178888	5824.836500
792.501249	5757.673207
792.823566	5659.625285
793.145836	5651.776209
793.468062	5634.669053
793.790241	5593.737404
794.112375	5637.605525
794.434464	5730.697993
794.756507	5759.545996
795.078505	5882.761878
795.400457	6100.837152
795.722364	6342.386559
796.044226	6532.453183
796.366042	6690.838675
796.687812	6634.702906
797.009538	6663.515621
797.331218	6575.083700
797.652852	6503.824470
797.974442	6382.872066
798.295986	6309.200643
798.617484	6185.331932
798.938938	6076.448050
799.260346	6008.009345
799.581709	5869.029775
799.903026	5819.931457
800.224299	5747.835395
800.545526	5625.075737
800.866708	5569.159259
801.187845	5516.267473
801.508936	5442.036482
801.829983	5411.724024
802.150984	5306.595802
802.471940	5283.419097
802.792851	5264.272795
803.113717	5240.201285
803.434538	5217.710177
803.755314	5186.439900
804.076045	5170.885420
804.396731	5135.801510
804.717372	5155.214993
805.037967	5158.711033
805.358518	5184.037790
805.679024	5244.329990
805.999485	5251.231330
806.319901	5270.513743
806.640272	5285.548985
806.960598	5332.766952
807.280879	5328.373587
807.601115	5363.175192
807.921306	5330.798382
808.241453	5323.960056
808.561554	5335.955482
808.881611	5300.375018
809.201623	5295.888391
809.521590	5242.535339
809.841513	5229.655191
810.161390	5244.329990
810.481223	5158.337988
810.801011	5148.139734
811.120755	5120.476402
811.440453	5065.860541
811.760107	5038.920615
812.079716	5009.475235
812.399281	4956.228048
812.718801	4953.798212
813.038276	4920.145989
813.357707	4884.530237
813.677093	4909.385646
813.996434	4843.076829
814.315731	4867.135736
814.634983	4863.354871
814.954191	4868.890057
815.273354	4929.141928
815.592473	4964.777845
815.911547	5041.446233
816.230577	5096.094861
816.549562	5182.616185
816.868502	5235.906222
817.187399	5289.826404
817.506250	5366.903125
817.825058	5396.313217
818.143821	5548.558584
818.462539	5718.011929
818.781213	5946.305622
819.099843	6305.928935
819.418429	6934.659122
819.736970	7552.573513
820.055466	8258.917305
820.373919	9173.823714
820.692327	10616.145720
821.010691	13306.150783
821.329011	19527.542088
821.647286	29131.698858
821.965517	39525.098675
822.283704	45015.961253
822.601847	46502.768922
822.919945	41873.031203
823.237999	36723.091777
823.556010	31505.855468
823.873976	26774.936750
824.191897	22568.514802
824.509775	19494.845164
824.827609	16728.295221
825.145398	15171.085319
825.463144	14415.313014
825.780845	14712.625144
826.098502	15961.732326
826.416116	18437.258978
826.733685	20721.315045
827.051210	21245.373234
827.368692	19814.527415
827.686129	17247.972648
828.003522	14761.340334
828.320872	12549.987788
828.638177	10904.913095
828.955439	9658.732302
829.272656	8601.254501
829.589830	7762.898013
829.906960	7030.332660
830.224046	6501.021588
830.541088	6088.020018
830.858086	5826.313558
831.175041	5624.042301
831.491952	5570.613632
831.808819	5607.708962
832.125642	5847.118400
832.442421	6397.849334
832.759157	7504.710278
833.075849	9278.654508
833.392497	11122.285128
833.709101	12245.116448
834.025662	11994.434990
834.342179	10929.498802
834.658653	9624.770049
834.975083	8523.497223
835.291469	7621.896940
835.607811	6877.608384
835.924110	6359.997830
836.240366	5874.721238
836.556578	5424.422691
836.872746	5070.052261
837.188871	4800.804234
837.504952	4581.672838
837.820990	4411.503648
838.136984	4297.225732
838.452935	4252.750152
838.768842	4279.007002
839.084706	4558.241555
839.400526	5300.185975
839.716303	6210.086518
840.032037	6766.687876
840.347727	6621.311081
840.663373	6024.267066
840.978977	5446.271052
841.294537	5005.550697
841.610054	4674.893855
841.925527	4433.117596
842.240957	4231.312645
842.556344	4047.134090
842.871687	3891.959812
843.186987	3739.767378
843.502244	3622.973926
843.817458	3535.794732
844.132629	3463.040799
844.447756	3416.763007
844.762840	3373.305740
845.077881	3330.884431
845.392879	3295.979481
845.707833	3274.516769
846.022745	3245.630957
846.337613	3234.646283
846.652438	3208.316337
846.967221	3201.225954
847.281960	3183.675177
847.596656	3173.358455
847.911309	3162.625839
848.225919	3149.107985
848.540485	3141.296717
848.855009	3132.515027
849.169490	3121.787451
849.483928	3115.559106
849.798323	3112.196656
850.112675	3095.482711
850.426984	3100.559152
850.741251	3092.831064
851.055474	3086.630444
851.369654	3088.566247
851.683792	3084.603901
851.997887	3087.961309
852.311938	3086.201946
852.625947	3090.058429
852.939914	3081.821184
853.253837	3089.594643
853.567718	3087.686566
853.881555	3080.520566
854.195350	3086.567430
854.509103	3084.946699
854.822812	3079.872778
855.136479	3075.436562
855.450103	3081.591811
855.763685	3072.492528
856.077224	3077.662232
856.390720	3084.069538
856.704173	3093.133533
857.017584	3099.815582
857.330953	3107.853702
857.644278	3115.254116
857.957561	3116.002727
858.270802	3114.389558
858.584000	3112.020216
858.897155	3107.105091
859.210268	3095.228132
859.523339	3085.836463
859.836367	3083.547779
860.149352	3078.325143
860.462295	3077.112746
860.775195	3064.477094
861.088054	3058.873851
861.400869	3059.125909
861.713642	3061.742268
862.026373	3070.097980
862.339062	3070.085378
862.651708	3079.444280
862.964312	3095.487752
863.276873	3106.613578
863.589392	3136.522744
863.901869	3160.649706
864.214303	3182.082172
864.526696	3202.080429
864.839045	3218.565002
865.151353	3229.935325
865.463619	3230.242835
865.775842	3233.259966
866.088023	3234.656365
866.400162	3231.233422
866.712258	3231.384657
867.024313	3231.591344
867.336325	3229.905078
867.648296	3232.115624
867.960224	3227.036661
868.272110	3231.661920
868.583954	3231.447671
868.895755	3237.139134
869.207515	3235.210892
869.519233	3253.638830
869.830909	3260.918256
870.142542	3270.554422
870.454134	3277.175977
870.765684	3292.473359
871.077191	3312.307779
871.388657	3326.271775
871.700081	3337.836182
872.011463	3364.282075
872.322803	3378.810680
872.634101	3399.275244
872.945357	3420.677463
873.256571	3445.863067
873.567744	3461.442753
873.878874	3467.900472
874.189963	3486.232628
874.501010	3485.489057
874.812015	3482.391268
875.122979	3499.148064
875.433900	3493.290243
875.744780	3499.816017
876.055618	3505.966224
876.366415	3501.797190
876.677169	3511.945033
876.987882	3523.993390
877.298554	3546.981052
877.609183	3587.277515
877.919771	3632.552118
878.230317	3702.601471
878.540822	3806.527378
878.851285	3956.025316
879.161707	4176.822813
879.472087	4553.066810
879.782425	5182.921175
880.092722	6376.459718
880.402977	8320.989032
880.713191	10722.960208
881.023363	13144.808654
881.333494	14505.864740
881.643583	14954.020796
881.953631	14544.994176
882.263637	13691.872149
882.573602	12640.121098
882.883526	11674.936742
883.193408	10709.575945
883.503248	9779.692268
883.813048	8950.074621
884.122806	8174.034357
884.432522	7402.160606
884.742197	6738.064204
885.051831	6172.938255
885.361424	5670.289846
885.670975	5271.733703
885.980485	4945.840750
886.289954	4672.080891
886.599382	4456.440494
886.908768	4279.495994
887.218113	4112.308647
887.527417	3980.522803
887.836680	3856.891026
888.145901	3756.269595
888.455082	3679.235723
888.764221	3610.247533
889.073319	3551.898698
889.382376	3517.349150
889.691392	3492.408041
890.000366	3484.667349
890.309300	3477.350114
890.618193	3484.574088
890.927044	3477.208962
891.235855	3487.997031
891.544625	3500.468846
891.853353	3526.937424
892.162041	3588.094182
892.470687	3682.441897
892.779293	3802.950680
893.087858	3972.056185
893.396381	4257.962705
893.704864	4677.122045
894.013306	5244.531636
894.321707	5820.372558
894.630068	6186.362848
894.938387	6223.851388
895.246665	6043.448657
895.554903	5721.412187
895.863100	5383.400301
896.171256	5111.921564
896.479371	4867.705386
896.787446	4641.599554
897.095480	4445.286941
897.403473	4294.402686
897.711425	4149.371210
898.019336	4026.092313
898.327207	3898.157911
898.635038	3799.479845
898.942827	3694.117209
899.250576	3604.850977
899.558284	3520.237731
899.865952	3464.354020
900.173579	3404.107190
900.481165	3357.993235
900.788711	3314.132676
901.096216	3281.594549
901.403681	3251.564395
901.711105	3244.859661
902.018489	3234.303485
902.325832	3271.618105
902.633135	3329.430058
902.940397	3503.463291
903.247619	3907.239550
903.554800	4667.019572
903.861941	5644.859746
904.169041	6354.951635
904.476101	6573.639410
904.783121	6296.665814
905.090100	5885.889914
905.397039	5463.471468
905.703938	5106.441830
906.010796	4775.331283
906.317614	4519.991800
906.624391	4281.242754
906.931129	4079.780602
907.237826	3901.323756
907.544483	3729.324628
907.851099	3554.545303
908.157675	3393.321642
908.464211	3254.415168
908.770707	3152.646875
909.077163	3071.368351
909.383578	3012.764938
909.689954	2968.778350
909.996289	2937.886159
910.302584	2914.522932
910.608839	2901.945253
910.915054	2891.535270
911.221229	2887.835063
911.527363	2889.619632
911.833458	2896.831002
912.139513	2910.923548
912.445527	2922.470311
912.751502	2959.931125
913.057436	2999.932681
913.363331	3060.799572
913.669186	3146.196718
913.975000	3266.902106
914.280775	3451.584777
914.586510	3727.401427
914.892205	4103.131227
915.197859	4611.140902
915.503475	5202.856418
915.809050	5697.834711
916.114585	5996.228169
916.420081	6061.838786
916.725536	5996.041646
917.030952	5755.752527
917.336328	5544.046751
917.641665	5328.149255
917.946961	5101.405717
918.252218	4901.367691
918.557435	4665.398841
918.862612	4467.702432
919.167750	4292.061070
919.472848	4102.264148
919.777906	3933.831636
920.082925	3773.051596
920.387904	3613.292390
920.692843	3500.305008
920.997743	3403.096439
921.302603	3306.770071
921.607423	3241.897983
921.912204	3177.111594
922.216946	3124.663430
922.521647	3079.837490
922.826310	3034.895603
923.130932	2999.804131
923.435516	2962.325673
923.740059	2933.172680
924.044564	2901.093298
924.349028	2874.148330
924.653454	2845.625482
924.957840	2818.052891
925.262186	2799.599747
925.566493	2777.317847
925.870761	2752.533014
926.174989	2740.968607
926.479178	2726.868500
926.783328	2709.234544
927.087438	2697.985209
927.391509	2684.462314
927.695541	2671.262053
927.999533	2664.244767
928.303486	2654.593477
928.607400	2645.547127
928.911275	2643.394554
929.215110	2639.858185
929.518906	2632.913995
929.822663	2635.817700
930.126381	2629.468367
930.430060	2636.087402
930.733699	2635.847947
931.037299	2640.337094
931.340861	2641.244502
931.644383	2647.228352
931.947866	2643.006385
932.251309	2637.793832
932.554714	2638.363483
932.858080	2638.239974
933.161407	2634.474232
933.464694	2632.510703
933.767943	2627.290588
934.071153	2622.675412
934.374323	2617.873713
934.677455	2614.014710
934.980548	2614.372632
935.283602	2610.556478
935.586617	2608.383741
935.889593	2614.352467
936.192530	2613.949175
936.495428	2618.163579
936.798287	2625.831174
937.101108	2644.390182
937.403890	2666.362051
937.706632	2692.828109
938.009336	2724.345403
938.312002	2755.386307
938.614628	2778.994031
938.917216	2797.006074
939.219765	2808.212559
939.522275	2816.500216
939.824747	2818.597336
940.127179	2810.554175
940.429573	2804.444296
940.731929	2807.869760
941.034246	2791.289405
941.336524	2794.409879
941.638763	2784.314969
941.940964	2781.055863
942.243126	2763.358892
942.545250	2753.180803
942.847335	2735.476270
943.149381	2722.500340
943.451389	2710.819987
943.753359	2698.517051
944.055290	2689.571523
944.357182	2681.707323
944.659036	2674.591735
944.960851	2674.707681
945.262628	2666.677123
945.564367	2669.732062
945.866067	2669.270797
946.167729	2665.701660
946.469352	2664.290137
946.770937	2661.111689
947.072484	2657.053561
947.373992	2655.599188
947.675462	2649.935451
947.976893	2647.939154
948.278286	2645.116108
948.579641	2639.659059
948.880958	2636.359624
949.182236	2633.609675
949.483476	2630.995836
949.784678	2631.038686
950.085841	2633.040024
950.386967	2637.776188
950.688054	2642.245171
950.989103	2649.529638
951.290114	2660.796617
951.591087	2673.543175
951.892021	2682.526511
952.192917	2694.748788
952.493776	2706.396374
952.794596	2711.825697
953.095378	2712.501212
953.396122	2709.375696
953.696828	2708.377548
953.997496	2702.880170
954.298126	2691.396421
954.598718	2682.977694
954.899272	2672.640808
955.199788	2664.660662
955.500266	2648.591984
955.800706	2634.796866
956.101108	2617.646861
956.401472	2608.547578
956.701798	2591.974785
957.002087	2581.030440
957.302337	2569.642473
957.602550	2556.812737
957.902724	2544.247661
958.202861	2535.516382
958.502960	2527.480783
958.803022	2521.590195
959.103045	2513.912518
959.403031	2507.353977
959.702979	2501.695281
960.002889	2499.691423
960.302762	2490.163642
960.602596	2488.784886
960.902393	2483.164000
961.202153	2482.644761
961.501875	2477.260809
961.801559	2478.158134
962.101205	2474.727629
962.400814	2472.877525
962.700385	2466.591207
962.999918	2469.678913
963.299414	2465.283027
963.598873	2467.435600
963.898293	2462.616257
964.197677	2460.083077
964.497022	2462.152471
964.796331	2460.685495
965.095601	2458.054012
965.394835	2460.181379
965.694030	2459.168107
965.993189	2457.333127
966.292309	2456.652572
966.591393	2456.569393
966.890439	2455.697273
967.189447	2456.367747
967.488419	2454.484876
967.787353	2458.114506
968.086249	2459.790690
968.385108	2455.682150
968.683930	2458.220371
968.982714	2461.134157
969.281462	2460.372943
969.580172	2460.993005
969.878844	2463.937039
970.177480	2467.112966
970.476078	2468.159005
970.774639	2477.769965
971.073162	2475.493884
971.371649	2476.572691
971.670098	2476.928093
971.968510	2479.809112
972.266885	2478.674852
972.565223	2483.927735
972.863524	2482.627117
973.161788	2488.225318
973.460014	2485.845894
973.758204	2485.220791
974.056356	2488.220277
974.354471	2488.552993
974.652550	2487.391007
974.950591	2490.297232
975.248595	2486.922180
975.546563	2486.748260
975.844493	2484.817498
976.142386	2484.593167
976.440243	2480.197281
976.738062	2479.269708
977.035845	2475.052783
977.333590	2474.636888
977.631299	2471.100519
977.928971	2470.704788
978.226606	2468.965590
978.524204	2467.266721
978.821765	2463.944601
979.119290	2464.597430
979.416777	2465.038531
979.714228	2466.508028
980.011642	2466.079529
980.309020	2472.320478
980.606360	2475.267032
980.903664	2483.070738
981.200931	2496.013901
981.498162	2516.453259
981.795356	2547.635316
982.092513	2583.795513
982.389633	2630.831999
982.686717	2672.340860
982.983764	2706.769420
983.280775	2725.567882
983.577749	2724.453787
983.874686	2714.454659
984.171587	2699.782381
984.468451	2684.729495
984.765279	2664.693429
985.062070	2645.912611
985.358824	2628.124899
985.655543	2604.635643
985.952224	2582.300811
986.248869	2551.945503
986.545478	2525.739065
986.842050	2505.576970
987.138586	2487.358240
987.435086	2474.830973
987.731549	2461.504682
988.027975	2457.970833
988.324366	2448.208639
988.620719	2448.322065
988.917037	2445.287290
989.213318	2441.090530
989.509563	2436.520724
989.805772	2436.664397
990.101944	2436.245981
990.398080	2434.587441
990.694180	2432.245825
990.990244	2433.319591
991.286271	2433.385126
991.582262	2432.422266
991.878217	2434.027873
992.174136	2436.311516
992.470019	2438.690941
992.765865	2439.008533
993.061676	2440.460386
993.357450	2441.629933
993.653188	2445.791406
993.948890	2448.032199
994.244556	2458.845474
994.540186	2466.296299
994.835780	2477.717033
995.131337	2493.440392
995.426859	2510.494615
995.722345	2530.976823
996.017795	2547.410985
996.313208	2563.272976
996.608586	2574.325705
996.903928	2577.458783
997.199234	2574.736559
997.494504	2571.273287
997.789738	2564.382029
998.084936	2553.475493
998.380099	2541.999306
998.675225	2530.369364
998.970316	2518.341171
999.265371	2503.956239
999.560390	2489.286481
999.855373	2475.816518
1000.150320	2468.877370
1000.445232	2460.763633
1000.740108	2452.173507
1001.034948	2444.836107
1001.329752	2443.580860
1001.624521	2440.057093
1001.919254	2428.976637
1002.213951	2430.073088
1002.508613	2425.576379
1002.803239	2426.471184
1003.097829	2420.787283
1003.392384	2423.370874
1003.686903	2421.634197
1003.981386	2422.342479
1004.275834	2417.379463
1004.570246	2420.618404
1004.864623	2421.336768
1005.158964	2418.942220
1005.453270	2415.380645
1005.747540	2415.199164
1006.041775	2415.884761
1006.335974	2416.530028
1006.630138	2415.360481
1006.924266	2414.475758
1007.218359	2414.138001
1007.512416	2415.035326
1007.806438	2411.680438
1008.100425	2412.734039
1008.394376	2411.007444
1008.688292	2412.083731
1008.982172	2410.364697
1009.276017	2413.487692
1009.569827	2411.602300
1009.863602	2410.798236
1010.157341	2411.307393
1010.451045	2411.377969
1010.744714	2411.055335
1011.038347	2412.119019
1011.331945	2411.100706
1011.625508	2412.262692
1011.919036	2412.852507
1012.212528	2412.184554
1012.505986	2408.781775
1012.799408	2408.128945
1013.092795	2408.658267
1013.386147	2406.553585
1013.679464	2408.323030
1013.972745	2407.823956
1014.265992	2407.995355
1014.559204	2409.467372
1014.852380	2408.738925
1015.145521	2407.065262
1015.438628	2407.861764
1015.731699	2407.569377
1016.024736	2409.658936
1016.317737	2408.058369
1016.610703	2407.662639
1016.903635	2407.178688
1017.196531	2406.435118
1017.489393	2407.942423
1017.782219	2405.250447
1018.075011	2411.383010
1018.367768	2409.159861
1018.660490	2413.865778
1018.953177	2413.865778
1019.245829	2413.865778
