Dividing Wavelength (nm)	Counts (n)	Blue Motor Position (mm): 11.400000	Red Motor Position (mm): 0.000000	
326.493990	1975.872688
326.888308	1975.872688
327.282561	1975.872688
327.676750	1951.546600
328.070874	1952.590119
328.464933	1958.518516
328.858929	1967.007819
329.252859	1980.629017
329.646726	1994.890441
330.040528	2009.350991
330.434265	2026.984947
330.827938	2046.282484
331.221547	2068.612275
331.615091	2087.430902
332.008571	2108.132401
332.401986	2129.539660
332.795338	2151.075470
333.188625	2169.311844
333.581847	2190.250276
333.975006	2204.859540
334.368100	2224.754454
334.761129	2242.769017
335.154095	2258.409197
335.546996	2282.820984
335.939833	2333.552636
336.332606	2344.799450
336.725315	2356.978878
337.117960	2365.266535
337.510540	2371.363810
337.903056	2380.911756
338.295508	2389.643034
338.687896	2396.078067
339.080220	2401.598131
339.472480	2408.625499
339.864676	2410.505849
340.256807	2414.705131
340.648875	2418.760739
341.040879	2417.782755
341.432818	2420.797365
341.824694	2420.464649
342.216506	2419.501788
342.608253	2419.058167
342.999937	2418.861562
343.391557	2419.496747
343.783113	2414.931982
344.174605	2415.541962
344.566033	2414.014492
344.957397	2412.464338
345.348697	2410.047104
345.739934	2407.524007
346.131106	2407.163564
346.522215	2404.627864
346.913260	2399.833727
347.304241	2402.429921
347.695159	2396.864487
348.086012	2397.469426
348.476802	2393.101266
348.867528	2395.858777
349.258191	2393.219733
349.648789	2390.678991
350.039324	2389.645555
350.429796	2391.039434
350.820203	2389.078425
351.210548	2391.417520
351.600828	2388.780997
351.991045	2388.044988
352.381198	2387.644217
352.771288	2387.230842
353.161314	2386.913249
353.551276	2386.983826
353.941175	2385.751263
354.331010	2386.671274
354.720782	2389.252345
355.110490	2389.194372
355.500135	2387.820657
355.889717	2388.236552
356.279235	2388.821326
356.668689	2388.912067
357.058080	2386.509957
357.447408	2387.145143
357.836672	2383.598691
358.225873	2386.222611
358.615010	2387.049361
359.004084	2392.035062
359.393095	2390.991543
359.782043	2395.236194
360.170927	2391.115051
360.559748	2394.139743
360.948505	2391.273848
361.337199	2395.584034
361.725830	2393.512120
362.114398	2397.799621
362.502903	2392.342572
362.891344	2398.797770
363.279722	2394.704353
363.668037	2394.936246
364.056289	2397.648387
364.444478	2397.383726
364.832603	2396.312481
365.220665	2396.617471
365.608665	2398.452451
365.996601	2399.243912
366.384474	2398.601165
366.772284	2397.804662
367.160031	2396.942625
367.547715	2402.253481
367.935336	2399.558984
368.322893	2398.540671
368.710388	2400.776422
369.097820	2402.147616
369.485189	2400.189128
369.872495	2402.692061
370.259738	2401.441855
370.646918	2401.688871
371.034035	2403.223903
371.421090	2401.144427
371.808081	2403.586866
372.195010	2403.181053
372.581875	2402.382030
372.968678	2402.097205
373.355418	2403.279355
373.742096	2403.100394
374.128710	2404.595097
374.515262	2404.199366
374.901751	2404.955539
375.288177	2404.401012
375.674540	2404.280024
376.060841	2407.304717
376.447079	2406.661970
376.833254	2405.421846
377.219367	2401.595610
377.605417	2404.345559
377.991404	2402.936557
378.377329	2407.009809
378.763191	2402.986968
379.148991	2408.217166
379.534727	2407.138359
379.920402	2408.517114
380.306013	2408.544841
380.691563	2407.294634
381.077049	2407.758421
381.462474	2407.738256
381.847835	2408.600293
382.233134	2409.275808
382.618371	2408.817063
383.003545	2410.687331
383.388657	2410.493247
383.773706	2412.325706
384.158693	2410.387382
384.543618	2411.768658
384.928480	2410.435273
385.313280	2409.200191
385.698017	2411.488874
386.082692	2412.275294
386.467305	2411.239337
386.851856	2411.118350
387.236344	2411.146076
387.620770	2416.928279
388.005133	2411.408216
388.389435	2413.583474
388.773674	2413.422157
389.157851	2414.289235
389.541965	2413.706982
389.926018	2413.739750
390.310008	2412.902918
390.693936	2414.662281
391.077802	2411.622465
391.461606	2415.670512
391.845348	2411.367887
392.229027	2413.502815
392.612645	2415.103382
392.996200	2414.606828
393.379694	2416.789648
393.763125	2415.355439
394.146494	2415.471386
394.529801	2417.308887
394.913047	2416.782086
395.296230	2418.793506
395.679351	2417.717220
396.062410	2417.346695
396.445408	2417.013979
396.828343	2417.634041
397.211217	2413.812846
397.594028	2416.998856
397.976778	2414.155645
398.359466	2417.293763
398.742092	2414.526170
399.124656	2419.524474
399.507158	2417.606315
399.889598	2421.114958
400.271977	2418.576737
400.654294	2419.400965
401.036549	2422.987746
401.418742	2422.786100
401.800874	2418.579257
402.182944	2419.824422
402.564952	2422.534043
402.946898	2423.166707
403.328783	2418.876685
403.710606	2420.101686
404.092367	2420.005904
404.474067	2422.738209
404.855705	2422.571851
405.237282	2423.305339
405.618797	2421.150246
406.000250	2422.965061
406.381642	2423.590164
406.762972	2422.050092
407.144240	2423.960689
407.525447	2425.016811
407.906593	2425.006728
408.287677	2422.899526
408.668700	2423.176790
409.049661	2423.781728
409.430560	2422.705442
409.811399	2425.026893
410.192176	2428.172573
410.572891	2426.319949
410.953545	2425.178128
411.334138	2425.369692
411.714669	2424.910947
412.095139	2428.906061
412.475547	2426.997984
412.855894	2425.329362
413.236180	2424.547983
413.616405	2426.607295
413.996568	2425.818354
414.376670	2425.031934
414.756711	2427.136616
415.136691	2425.856163
415.516609	2428.946390
415.896466	2425.737696
416.276262	2426.572007
416.655997	2423.401121
417.035670	2423.171748
417.415283	2427.169383
417.794834	2420.351223
418.174324	2431.222471
418.553753	2424.885741
418.933121	2429.382450
419.312428	2424.981523
419.691674	2427.854980
420.070859	2426.435896
420.449983	2432.661721
420.829045	2427.068560
421.208047	2427.915474
421.586988	2427.862542
421.965867	2427.166863
422.344686	2428.101997
422.723444	2430.042841
423.102141	2429.125351
423.480777	2427.786925
423.859352	2427.388674
424.237866	2431.482091
424.616319	2430.562080
424.994712	2429.568973
425.373044	2431.499735
425.751314	2428.638880
426.129524	2430.088212
426.507673	2431.872780
426.885762	2429.039652
427.263789	2431.789601
427.641756	2433.440579
428.019662	2429.911771
428.397508	2431.149374
428.775292	2430.756164
429.153016	2432.906217
429.530679	2428.780032
429.908282	2431.903027
430.285824	2433.135589
430.663305	2432.336566
431.040726	2430.448654
431.418086	2430.141144
431.795385	2432.470157
432.172624	2432.011412
432.549802	2432.278593
432.926920	2430.665424
433.303977	2431.144333
433.680974	2431.421597
434.057910	2431.169539
434.434786	2431.887903
434.811601	2433.864036
435.188355	2434.224478
435.565050	2434.108532
435.941683	2432.427307
436.318257	2434.277410
436.694770	2428.742223
437.071222	2431.023346
437.447614	2429.473191
437.823946	2431.358582
438.200218	2431.809766
438.576429	2431.073757
438.952580	2433.932091
439.328670	2432.812955
439.704700	2431.988727
440.080670	2433.513676
440.456580	2431.076278
440.832429	2435.401588
441.208218	2432.528130
441.583947	2433.748089
441.959616	2434.358069
442.335224	2435.678851
442.710773	2436.140117
443.086261	2436.714808
443.461689	2434.831937
443.837057	2435.772113
444.212365	2437.443255
444.587612	2436.588779
444.962800	2435.792277
445.337927	2435.147009
445.712995	2435.210024
446.088002	2438.950560
446.462949	2437.806218
446.837837	2435.893100
447.212664	2437.637339
447.587431	2437.957453
447.962139	2438.353183
448.336786	2440.689758
448.711374	2440.727567
449.085901	2439.147165
449.460369	2437.954932
449.834776	2441.088009
450.209124	2438.789243
450.583412	2442.323092
450.957640	2438.282607
451.331808	2442.895263
451.705917	2440.140272
452.079965	2441.400561
452.453954	2439.305961
452.827883	2440.838472
453.201752	2444.016920
453.575562	2440.939295
453.949311	2440.525921
454.323001	2440.031887
454.696632	2444.992383
455.070202	2442.653287
455.443713	2441.191353
455.817164	2441.450972
456.190556	2440.467947
456.563888	2443.006168
456.937160	2441.357711
457.310373	2445.466251
457.683526	2443.737136
458.056619	2444.170675
458.429653	2445.751077
458.802628	2444.916766
459.175542	2446.161931
459.548398	2447.714606
459.921194	2450.091510
460.293930	2450.593105
460.666607	2453.282560
461.039224	2452.004628
461.411782	2452.692745
461.784280	2450.988835
462.156719	2453.922787
462.529099	2451.092179
462.901419	2452.324741
463.273680	2449.915070
463.645882	2449.915070
464.018024	2448.919442
464.390106	2455.019238
464.762130	2455.677108
465.134094	2456.849177
465.505999	2459.969651
465.877845	2464.695733
466.249631	2464.337811
466.621358	2462.969137
466.993026	2465.260342
467.364634	2464.917543
467.736184	2462.031483
468.107674	2460.398149
468.479105	2459.553756
468.850477	2458.346399
469.221790	2459.576441
469.593043	2461.119034
469.964238	2454.618466
470.335373	2458.492593
470.706449	2459.314301
471.077467	2462.301185
471.448425	2464.176494
471.819324	2468.176649
472.190164	2465.499797
472.560945	2463.957204
472.931667	2463.329580
473.302330	2461.040896
473.672934	2462.543160
474.043479	2461.802110
474.413965	2459.843622
474.784393	2454.936059
475.154761	2460.143571
475.525070	2458.732048
475.895321	2461.212295
476.265513	2454.827674
476.635645	2460.703139
477.005719	2462.966617
477.375734	2464.640280
477.745691	2461.189610
478.115588	2464.713377
478.485427	2463.445527
478.855207	2468.481639
479.224928	2468.264870
479.594591	2472.522124
479.964194	2472.484315
480.333739	2470.999696
480.703226	2471.473564
481.072653	2470.314099
481.442022	2472.058338
481.811333	2475.672845
482.180584	2474.566312
482.549777	2473.686631
482.918912	2471.551702
483.287988	2472.247381
483.657005	2472.043214
484.025964	2471.143368
484.394864	2470.087247
484.763706	2473.900880
485.132489	2469.827627
485.501213	2470.278811
485.869879	2469.668831
486.238487	2470.062041
486.607036	2468.925261
486.975527	2473.520272
487.343959	2470.762761
487.712333	2472.748976
488.080648	2471.173615
488.448905	2473.243009
488.817104	2473.144707
489.185244	2472.799388
489.553326	2476.678555
489.921350	2478.957157
490.289315	2483.501757
490.657222	2487.496872
491.025070	2487.267499
491.392861	2486.725575
491.760593	2485.455204
492.128267	2484.366315
492.495883	2487.141470
492.863440	2482.241469
493.230939	2481.331540
493.598380	2483.307673
493.965763	2476.776858
494.333088	2481.555872
494.700354	2476.413895
495.067563	2481.760038
495.434713	2482.213742
495.801805	2486.617190
496.168839	2485.588795
496.535815	2486.947386
496.902733	2487.630462
497.269593	2490.418220
497.636395	2492.923674
498.003139	2492.487614
498.369825	2490.773622
498.736453	2493.112717
499.103023	2495.751761
499.469535	2499.275528
499.835989	2498.511793
500.202385	2498.297544
500.568723	2501.327277
500.935003	2504.498163
501.301226	2505.619820
501.667390	2511.182733
502.033497	2513.524349
502.399546	2514.005779
502.765537	2514.525018
503.131470	2519.540966
503.497345	2517.171624
503.863163	2517.683301
504.228923	2523.871317
504.594625	2524.382994
504.960269	2526.258303
505.325856	2530.749972
505.691385	2529.174611
506.056856	2532.148892
506.422270	2537.240457
506.787625	2538.349511
507.152924	2543.108360
507.518164	2544.202291
507.883347	2548.585574
508.248472	2547.990718
508.613540	2550.385266
508.978550	2558.236863
509.343503	2559.683674
509.708398	2563.814900
510.073236	2567.346228
510.438016	2572.069789
510.802738	2570.872515
511.167403	2575.578432
511.532010	2578.177147
511.896561	2581.592529
512.261053	2591.516040
512.625488	2589.401276
512.989866	2588.551842
513.354186	2594.255907
513.718449	2591.856318
514.082655	2605.744697
514.446803	2603.103132
514.810894	2608.978597
515.174927	2615.980760
515.538904	2612.870368
515.902822	2619.134001
516.266684	2619.749022
516.630488	2624.936369
516.994235	2627.396452
517.357925	2631.938532
517.721558	2633.881897
518.085133	2638.817187
518.448651	2648.501243
518.812112	2645.320275
519.175516	2647.195584
519.538863	2650.847900
519.902152	2655.016934
520.265385	2659.523726
520.628560	2664.408604
520.991678	2666.152843
521.354739	2667.387926
521.717743	2673.021415
522.080690	2676.265398
522.443580	2679.937878
522.806413	2682.859227
523.169189	2684.739577
523.531908	2687.355936
523.894569	2692.467666
524.257174	2693.803572
524.619722	2696.616536
524.982213	2703.696837
525.344647	2703.122145
525.707025	2707.495346
526.069345	2709.078268
526.431608	2712.884339
526.793815	2716.269474
527.155964	2716.219063
527.518057	2719.553786
527.880093	2719.573951
528.242072	2724.584857
528.603995	2728.539643
528.965860	2729.643655
529.327669	2730.742627
529.689421	2731.677761
530.051117	2735.214130
530.412755	2739.511714
530.774337	2741.487846
531.135862	2740.290572
531.497331	2743.942888
531.858743	2739.801580
532.220098	2745.533372
532.581396	2749.309197
532.942638	2744.058835
533.303824	2751.449166
533.664953	2753.654671
534.026025	2754.872110
534.387040	2758.819333
534.747999	2761.975096
535.108902	2764.157915
535.469748	2760.586258
535.830537	2765.211516
536.191270	2765.569438
536.551947	2766.986002
536.912567	2772.082609
537.273131	2774.088988
537.633638	2773.448762
537.994089	2775.613937
538.354483	2775.500511
538.714821	2780.917231
539.075103	2782.898405
539.435328	2785.635751
539.795497	2786.954013
540.155609	2787.642130
540.515665	2791.980043
540.875665	2787.785803
541.235609	2793.764612
541.595496	2796.998512
541.955328	2802.589152
542.315102	2797.779891
542.674821	2798.694860
543.034483	2800.219809
543.394090	2798.498255
543.753640	2801.404480
544.113134	2813.271357
544.472571	2809.780357
544.831953	2819.955927
545.191278	2815.917962
545.550548	2813.956953
545.909761	2818.234372
546.268918	2822.920125
546.628019	2827.540342
546.987064	2826.252328
547.346053	2821.783345
547.704986	2829.970179
548.063863	2827.805003
548.422684	2835.102073
548.781449	2836.571570
549.140158	2840.607013
549.498811	2844.881912
549.857408	2839.281190
550.215949	2847.946933
550.574434	2846.948785
550.932864	2849.950792
551.291237	2857.681401
551.649555	2861.058974
552.007817	2865.709439
552.366022	2866.621888
552.724173	2872.439379
553.082267	2875.811911
553.440305	2887.121740
553.798288	2881.657129
554.156215	2888.021586
554.514086	2897.325035
554.871902	2898.509706
555.229661	2907.508166
555.587365	2905.610172
555.945014	2916.115936
556.302606	2919.478386
556.660143	2928.549942
557.017625	2936.036056
557.375050	2940.999072
557.732421	2950.509208
558.089735	2956.717389
558.446994	2963.225519
558.804197	2972.720532
559.161345	2981.560195
559.518437	2982.119763
559.875474	2991.798779
560.232455	3000.956035
560.589381	3015.721574
560.946251	3018.607635
561.303065	3036.929709
561.659825	3044.219217
562.016528	3048.370607
562.373177	3054.475445
562.729770	3074.236768
563.086307	3075.454206
563.442789	3095.018924
563.799216	3109.497118
564.155587	3117.366359
564.511904	3131.300109
564.868164	3143.534989
565.224370	3164.942249
565.580520	3173.124042
565.936615	3194.062474
566.292654	3207.655945
566.648638	3230.018504
567.004567	3240.957808
567.360441	3263.824482
567.716260	3280.588839
568.072023	3304.383085
568.427732	3321.220539
568.783385	3338.705781
569.138982	3366.905995
569.494525	3389.666805
569.850013	3405.153230
570.205445	3435.286727
570.560823	3455.088379
570.916145	3479.951350
571.271412	3504.345493
571.626625	3528.956406
571.981782	3556.443298
572.336884	3576.663366
572.691931	3612.974797
573.046923	3629.860142
573.401860	3659.350892
573.756743	3687.977084
574.111570	3722.897157
574.466342	3748.586877
574.821059	3787.214718
575.175722	3801.317346
575.530330	3832.438909
575.884882	3861.546531
576.239380	3894.077097
576.593823	3927.550359
576.948211	3962.546049
577.302544	3981.858709
577.656823	4020.083258
578.011047	4069.771391
578.365216	4101.223150
578.719330	4136.027276
579.073389	4172.678985
579.427394	4223.498857
579.781344	4265.660547
580.135239	4299.562307
580.489080	4343.949666
580.842866	4374.609964
581.196597	4441.163277
581.550273	4494.748222
581.903895	4542.591293
582.257463	4617.079382
582.610975	4637.924553
582.964434	4711.043969
583.317837	4745.311212
583.671186	4792.952637
584.024481	4858.656515
584.377721	4887.675917
584.730906	4954.955157
585.084037	5012.605792
585.437113	5048.632398
585.790135	5104.702632
586.143103	5142.113034
586.496016	5210.352613
586.848874	5267.967961
587.201679	5331.370553
587.554428	5363.505388
587.907124	5439.372233
588.259765	5488.357124
588.612352	5579.160908
588.964884	5598.055153
589.317362	5678.852246
589.669786	5747.469912
590.022155	5790.712929
590.374470	5893.267642
590.726731	5919.486684
591.078937	5940.853614
591.431090	6008.140415
591.783188	6048.756992
592.135232	6081.020376
592.487222	6165.966339
592.839157	6245.977012
593.191038	6281.355830
593.542866	6327.580690
593.894639	6338.323389
594.246358	6430.203459
594.598022	6494.445403
594.949633	6527.540578
595.301190	6586.970741
595.652692	6645.813609
596.004141	6742.951603
596.355535	6698.775972
596.706876	6762.065137
597.058162	6809.711603
597.409395	6925.441372
597.760573	7011.317428
598.111698	7033.836262
598.462768	7106.360822
598.813785	7183.240938
599.164748	7187.898965
599.515657	7309.022768
599.866511	7317.943090
600.217312	7473.200546
600.568060	7420.880931
600.918753	7592.607837
601.269392	7662.326994
601.619978	7692.460491
601.970510	7802.171123
602.320988	7908.317658
602.671412	8027.127572
603.021783	8069.750527
603.372100	8106.465251
603.722363	8199.736679
604.072572	8284.246583
604.422728	8376.192187
604.772830	8420.531656
605.122878	8524.097121
605.472872	8598.320549
605.822813	8722.315290
606.172701	8782.045401
606.522534	8913.788395
606.872314	9037.100060
607.222041	9089.263399
607.571714	9240.019105
607.921333	9240.926512
608.270899	9381.118480
608.620411	9530.566007
608.969870	9587.329399
609.319276	9683.363380
609.668627	9785.512280
610.017926	9972.130754
610.367171	10106.903482
610.716362	10220.838600
611.065500	10313.777312
611.414585	10445.946284
611.763616	10617.239650
612.112594	10703.256858
612.461518	10851.257574
612.810389	11013.139106
613.159207	11091.077865
613.507971	11223.463606
613.856682	11432.366501
614.205340	11510.695949
614.553945	11786.671396
614.902496	11767.777152
615.250994	11989.454330
615.599439	12127.239147
615.947830	12300.639716
616.296169	12438.391765
616.644454	12592.020929
616.992686	12759.530909
617.340864	13030.581149
617.688990	13086.124582
618.037063	13382.315056
618.385082	13501.039270
618.733048	13712.137587
619.080961	13841.173482
619.428821	13963.723932
619.776628	14106.630561
620.124382	14170.055838
620.472083	14325.227594
620.819731	14474.942302
621.167326	14477.520852
621.514868	14577.212190
621.862357	14547.809660
622.209793	14650.203057
622.557176	14658.422658
622.904506	14686.882492
623.251783	14668.636036
623.599007	14702.875553
623.946179	14741.465585
624.293297	14829.776518
624.640363	14742.521707
624.987376	14851.022461
625.334336	14882.998500
625.681243	14876.298807
626.028097	14980.985928
626.374899	15042.921544
626.721647	15141.556760
627.068343	15225.542383
627.414987	15255.093627
627.761577	15284.196208
628.108115	15517.606673
628.454600	15437.515341
628.801032	15608.959942
629.147412	15714.025150
629.493739	15831.872203
629.840014	15828.509754
630.186236	16064.420630
630.532405	16030.236566
630.878521	16240.765233
631.224585	16309.085470
631.570597	16308.160419
631.916556	16488.429560
632.262462	16584.975217
632.608316	16696.041919
632.954117	16770.252745
633.299866	16870.644803
633.645562	16939.015452
633.991206	16858.276332
634.336797	16772.254083
634.682336	16868.280502
635.027823	16864.328237
635.373257	16886.847072
635.718639	16883.136782
636.063968	16929.850634
636.409245	16780.617357
636.754470	16895.759832
637.099642	16894.738998
637.444762	16782.270856
637.789829	16937.298939
638.134845	16889.987710
638.479808	16969.738764
638.824719	17019.845313
639.169577	16949.226309
639.514383	17068.285760
639.859137	17033.133794
640.203839	17230.406747
640.548489	17160.740522
640.893086	17297.839742
641.237632	17273.685053
641.582125	17420.180984
641.926566	17478.862535
642.270955	17559.914207
642.615292	17675.467535
642.959576	17750.832785
643.303809	17851.270214
643.647990	17999.795209
643.992118	18088.136389
644.336195	18179.232560
644.680219	18309.455646
645.024192	18559.638029
645.368112	18913.607687
645.711981	19016.404376
646.055797	19558.696419
646.399562	19612.586353
646.743274	20189.790907
647.086935	20526.683657
647.430544	20564.918288
647.774101	20729.935418
648.117606	20943.004827
648.461059	21187.909122
648.804460	21085.266188
649.147810	20857.645489
649.491108	20827.879996
649.834354	20723.278574
650.177548	20370.901921
650.520690	20212.687828
650.863781	20302.498504
651.206820	20321.722944
651.549807	20172.429173
651.892742	19987.897737
652.235626	19986.211471
652.578458	19992.028962
652.921238	19748.110213
653.263967	19998.456433
653.606644	19922.481204
653.949269	19971.314861
654.291843	19829.673561
654.634365	20135.830396
654.976836	19987.043261
655.319255	20070.834800
655.661622	20147.679628
656.003938	20099.992833
656.346203	20093.393963
656.688416	20294.619181
657.030577	20256.046792
657.372687	20241.676983
657.714746	20470.633588
658.056753	20626.082608
658.398708	20380.956502
658.740612	20490.921711
659.082465	20733.892724
659.424266	20687.829181
659.766016	20832.545584
660.107715	20846.373469
660.449362	20995.009370
660.790958	21063.513609
661.132503	21136.741410
661.473996	21227.046119
661.815438	21368.321935
662.156829	21556.823281
662.498168	21495.893375
662.839456	21586.571129
663.180693	21756.382397
663.521879	21924.540166
663.863013	21968.299902
664.204097	22031.047143
664.545129	22401.748392
664.886110	22448.184980
665.227040	22569.137384
665.567918	22713.447975
665.908746	22820.917813
666.249522	22996.778465
666.590248	23064.549217
666.930922	23211.077915
667.271545	23247.845571
667.612118	23373.241752
667.952639	23313.413338
668.293109	23404.995980
668.633528	23411.035283
668.973896	23437.829015
669.314213	23524.564588
669.654480	23419.312857
669.994695	23504.962061
670.334859	23509.025231
670.674973	23513.842053
671.015035	23684.921171
671.355047	23728.885074
671.695008	23753.748044
672.034918	23743.126333
672.374777	23852.620195
672.714585	23823.421832
673.054342	24039.468042
673.394049	23933.613893
673.733705	24179.299567
674.073310	24022.328118
674.412864	24125.681855
674.752368	23915.342231
675.091820	24193.684499
675.431223	23958.033242
675.770574	23822.469054
676.109875	23798.843686
676.449125	23649.817096
676.788324	23672.530015
677.127473	23361.372355
677.466571	23357.778013
677.805619	23170.693232
678.144616	23230.929979
678.483562	23237.203695
678.822458	23051.487587
679.161303	23061.370769
679.500098	23040.921329
679.838842	23015.266897
680.177535	23186.267877
680.516179	23447.674389
680.854771	23669.127236
681.193314	24361.363359
681.531805	25208.496495
681.870247	25824.585989
682.208638	26412.714723
682.546978	26636.773847
682.885268	26751.170230
683.223508	26416.442656
683.561697	26215.086369
683.899836	26135.388247
684.237925	25799.783512
684.575963	25741.411992
684.913951	25423.985657
685.251889	25593.680978
685.589776	25616.403979
685.927614	25661.066082
686.265401	25808.925644
686.603137	25909.383238
686.940824	26316.900032
687.278460	26651.678018
687.616046	26767.269155
687.953582	27263.323735
688.291068	27190.872272
688.628504	27447.194780
688.965889	27452.356922
689.303224	27186.864554
689.640510	26995.368764
689.977745	26481.849107
690.314930	25919.228611
690.652065	25583.434833
690.989150	25059.611057
691.326185	24419.833182
691.663170	23921.096708
692.000105	23394.026429
692.336990	22930.636006
692.673825	22617.413994
693.010610	22248.162078
693.347345	21847.276921
693.684030	21369.882172
694.020665	21189.066066
694.357251	20697.132630
694.693786	20695.895027
695.030272	20543.964732
695.366707	20140.294338
695.703093	19942.918041
696.039429	19966.558532
696.375716	19795.169384
696.711952	19780.338309
697.048139	19677.345016
697.384276	19553.405728
697.720363	19672.555919
698.056400	19532.018632
698.392388	19391.652745
698.728326	19387.319873
699.064214	19247.188399
699.400053	19236.980062
699.735842	18972.790833
700.071581	18780.536349
700.407270	18577.418178
700.742910	18441.659905
701.078501	18246.655472
701.414042	18050.637766
701.749533	17821.895410
702.084974	17562.155000
702.420366	17752.922343
702.755709	17417.557063
703.091002	17198.647478
703.426246	17239.357316
703.761440	17165.731264
704.096584	16967.976881
704.431679	16959.946323
704.766725	16899.500368
705.101721	16862.420161
705.436668	16971.271275
705.771565	16713.141513
706.106413	17018.827000
706.441212	17018.239705
706.775961	17144.707132
707.110661	17222.759317
707.445311	17549.519347
707.779913	17429.272705
708.114465	17646.715314
708.448967	17907.264830
708.783421	18511.600874
709.117825	18749.850846
709.452180	18954.257031
709.786485	19284.480335
710.120742	19972.812084
710.454949	19984.721810
710.789107	20380.328878
711.123216	20970.852160
711.457275	21068.658107
711.791286	21534.175897
712.125247	21600.484714
712.459159	21350.566992
712.793023	21929.157863
713.126837	21006.188128
713.460602	21259.831263
713.794318	20958.259358
714.127985	20664.786066
714.461602	19940.563823
714.795171	19928.575959
715.128691	19089.707794
715.462162	18665.351025
715.795584	18324.715218
716.128957	18122.880021
716.462281	17791.497253
716.795556	17597.680011
717.128782	17189.689348
717.461960	16732.403762
717.795088	16675.206830
718.128167	16359.388624
718.461198	15982.612786
718.794180	15868.496186
719.127113	15575.731176
719.459997	15417.363328
719.792833	15127.950686
720.125619	15117.918790
720.458357	14858.009500
720.791046	14718.092275
721.123686	14584.922635
721.456278	14394.450198
721.788821	14360.727400
722.121315	14141.472496
722.453761	14211.763824
722.786158	14167.429397
723.118506	14177.184029
723.450805	14062.954004
723.783056	14200.154047
724.115259	14127.001863
724.447412	14073.734511
724.779518	14298.464109
725.111574	14319.692408
725.443582	14493.818903
725.775542	14483.063601
726.107453	14896.614657
726.439315	14806.357838
726.771129	15157.630479
727.102895	15486.177599
727.434612	15665.456153
727.766281	15767.486586
728.097901	16006.785118
728.429473	16044.586210
728.760996	16038.395673
729.092471	16124.526307
729.423897	16027.380752
729.755276	15929.814261
730.086606	16035.759150
730.417887	16511.366810
730.749120	16977.053478
731.080305	17134.430740
731.411442	17445.827854
731.742530	17525.397426
732.073570	17629.280484
732.404562	17894.258653
732.735506	17727.882932
733.066401	17478.398749
733.397249	17034.565482
733.728048	16487.585166
734.058798	15762.730258
734.389501	15180.285425
734.720156	14772.718218
735.050762	14314.358867
735.381320	14008.713709
735.711831	13794.260504
736.042293	13487.292043
736.372707	13500.053724
736.703073	13321.334738
737.033391	13491.907220
737.363661	13471.901401
737.693883	13562.034711
738.024056	13718.310480
738.354182	13883.466242
738.684260	14138.417556
739.014290	14335.667824
739.344272	14493.397966
739.674207	14757.110806
740.004093	14852.512122
740.333931	14852.978429
740.663722	14899.059616
740.993464	14895.876127
741.323159	14743.149331
741.652806	14511.024361
741.982405	14330.112472
742.311956	14032.013922
742.641460	13931.029528
742.970915	13660.806038
743.300323	13368.817366
743.629683	13172.477027
743.958996	12926.773709
744.288260	12679.079135
744.617477	12410.431006
744.946647	12348.901202
745.275768	12109.985798
745.604842	11955.640791
745.933869	11806.173100
746.262847	11763.303127
746.591778	11704.351874
746.920662	11617.850716
747.249498	11625.863630
747.578286	11734.520660
747.907027	11859.052283
748.235720	12052.798949
748.564365	12082.952611
748.892963	11999.692914
749.221514	12058.540823
749.550017	11926.039135
749.878473	11903.530383
750.206881	11705.123171
750.535242	11631.900411
750.863555	11556.905686
751.191821	11466.341357
751.520039	11492.028557
751.848210	11421.212948
752.176334	11443.409148
752.504411	11355.413287
752.832440	11215.455733
753.160421	11278.349169
753.488356	11161.041519
753.816243	11079.833571
754.144082	10945.010432
754.471875	10905.379401
754.799620	10851.711277
755.127318	10832.837197
755.454969	10796.981991
755.782572	10753.630588
756.110129	10763.990159
756.437638	10694.686897
756.765100	10686.794971
757.092515	10691.120281
757.419882	10707.680471
757.747203	10717.016688
758.074477	10789.168202
758.401703	10739.122148
758.728882	10887.137986
759.056014	10934.429050
759.383099	11037.555935
759.710138	11139.654423
760.037129	11211.609333
760.364073	11234.642365
760.690970	11224.265150
761.017820	11231.226983
761.344623	11408.466391
761.671379	11720.002137
761.998088	12293.589662
762.324751	13770.156227
762.651366	16431.421671
762.977935	19844.043370
763.304456	21913.290831
763.630931	22367.040047
763.957359	21291.313269
764.283740	19495.881121
764.610074	17730.093478
764.936362	15770.634787
765.262602	14353.740361
765.588796	12975.168786
765.914943	12015.108762
766.241044	11228.903011
766.567097	10639.670264
766.893104	10121.159865
767.219064	9788.108474
767.544978	9425.271426
767.870845	9133.058423
768.196665	8964.000808
768.522438	8787.633520
768.848165	8629.467318
769.173846	8473.680541
769.499479	8357.290381
769.825066	8216.710244
770.150607	8043.876805
770.476101	7987.458732
770.801548	7876.467648
771.126949	7750.058195
771.452303	7670.186153
771.777611	7510.454673
772.102872	7495.807600
772.428087	7386.855663
772.753256	7264.083402
773.078378	7193.471960
773.403453	7060.556898
773.728482	6958.226516
774.053465	6899.602938
774.378401	6821.470094
774.703291	6732.375262
775.028135	6645.082642
775.352932	6607.591581
775.677683	6534.774634
776.002388	6448.084432
776.327046	6445.979750
776.651658	6372.663729
776.976224	6295.546678
777.300743	6283.198372
777.625216	6213.829574
777.949643	6181.936715
778.274024	6182.697929
778.598359	6119.711232
778.922647	6124.376820
779.246889	6088.206541
779.571086	6092.589824
779.895236	6099.614672
780.219339	6096.068221
780.543397	6095.334733
780.867409	6147.545963
781.191374	6143.477752
781.515294	6113.306446
781.839167	6162.808056
782.162995	6135.116998
782.486776	6090.780050
782.810511	6050.360079
783.134201	5980.290561
783.457844	5973.275795
783.781441	5927.880205
784.104993	5886.572990
784.428498	5857.908989
784.751958	5844.484397
785.075372	5820.448175
785.398739	5779.904695
785.722061	5801.289270
786.045337	5807.313449
786.368568	5912.577782
786.691752	5931.335916
787.014891	6170.553789
787.337983	6441.215860
787.661030	6854.368664
787.984031	7252.405569
788.306987	7514.734612
788.629897	7597.850637
788.952760	7514.512802
789.275579	7350.050199
789.598351	7065.351035
789.921078	6814.616646
790.243759	6545.028341
790.566395	6353.577921
790.888984	6161.756976
791.211529	6038.175610
791.534027	5877.990426
791.856480	5746.234829
792.178888	5680.427607
792.501249	5623.031549
792.823566	5527.032857
793.145836	5528.061252
793.468062	5509.134240
793.790241	5465.245955
794.112375	5502.842880
794.434464	5602.670329
794.756507	5630.956243
795.078505	5751.069295
795.400457	5953.053207
795.722364	6181.717424
796.044226	6368.824891
796.366042	6519.522623
796.687812	6469.032947
797.009538	6497.374314
797.331218	6411.430202
797.652852	6343.150294
797.974442	6227.523869
798.295986	6164.312841
798.617484	6037.724427
798.938938	5930.262150
799.260346	5868.757553
799.581709	5738.156380
799.903026	5690.351118
800.224299	5618.973421
800.545526	5504.287171
800.866708	5440.607315
801.187845	5393.805243
801.508936	5321.021064
801.829983	5294.096261
802.150984	5194.934244
802.471940	5165.950130
802.792851	5154.710878
803.113717	5130.470489
803.434538	5103.880923
803.755314	5073.492848
804.076045	5063.158483
804.396731	5031.096744
804.717372	5042.600657
805.037967	5046.862953
805.358518	5074.274227
805.679024	5131.745901
805.999485	5142.163446
806.319901	5155.187267
806.640272	5174.726779
806.960598	5223.479778
807.280879	5213.964600
807.601115	5247.347121
807.921306	5215.623140
808.241453	5208.878076
808.561554	5218.163881
808.881611	5185.577863
809.201623	5183.962173
809.521590	5138.402745
809.841513	5120.000013
810.161390	5130.863699
810.481223	5053.567688
810.801011	5037.705697
811.120755	5013.218292
811.440453	4961.821208
811.760107	4936.000418
812.079716	4909.037807
812.399281	4865.943503
812.718801	4858.943861
813.038276	4821.367100
813.357707	4791.543634
813.677093	4816.192356
813.996434	4755.272532
814.315731	4771.525212
814.634983	4769.070170
814.954191	4774.701139
815.273354	4834.774049
815.592473	4873.464905
815.911547	4944.217499
816.230577	4994.313965
816.549562	5081.699847
816.868502	5131.241786
817.187399	5186.651628
817.506250	5259.403040
817.825058	5288.838338
818.143821	5435.145225
818.462539	5595.960553
818.781213	5822.749462
819.099843	6174.107803
819.418429	6780.084742
819.736970	7377.590022
820.055466	8068.996875
820.373919	8951.045043
820.692327	10359.049394
821.010691	12951.309005
821.329011	18939.569630
821.647286	28087.743953
821.965517	38000.691561
822.283704	43240.711364
822.601847	44696.299167
822.919945	40285.914655
823.237999	35367.921238
823.556010	30357.440293
823.873976	25850.031213
824.191897	21805.972227
824.509775	18849.345579
824.827609	16192.236565
825.145398	14711.856368
825.463144	14001.351104
825.780845	14288.321307
826.098502	15518.899728
826.416116	17874.073873
826.733685	20078.656150
827.051210	20594.172104
827.368692	19197.911120
827.686129	16734.584061
828.003522	14340.741745
828.320872	12189.578056
828.638177	10602.393452
828.955439	9407.120752
829.272656	8381.379535
829.589830	7566.212355
829.906960	6860.579366
830.224046	6351.843764
830.541088	5953.877435
830.858086	5707.609508
831.175041	5510.812944
831.491952	5458.604234
831.808819	5490.429039
832.125642	5727.711109
832.442421	6259.089054
832.759157	7337.724577
833.075849	9049.506339
833.392497	10837.686787
833.709101	11917.065882
834.025662	11671.959940
834.342179	10643.100770
834.658653	9378.197132
834.975083	8309.454872
835.291469	7425.705315
835.607811	6723.346555
835.924110	6222.598662
836.240366	5746.890179
836.556578	5311.147964
836.872746	4969.330007
837.188871	4707.079101
837.504952	4490.637161
837.820990	4332.370136
838.136984	4222.566243
838.452935	4176.394315
838.768842	4205.685940
839.084706	4477.298268
839.400526	5198.382393
839.716303	6072.044602
840.032037	6620.459126
840.347727	6474.757177
840.663373	5890.298403
840.978977	5331.615048
841.294537	4908.049741
841.610054	4585.022684
841.925527	4355.224207
842.240957	4154.450173
842.556344	3977.785457
842.871687	3823.241324
843.186987	3682.951053
843.502244	3566.031572
843.817458	3476.432624
844.132629	3408.427459
844.447756	3365.376005
844.762840	3317.941268
845.077881	3286.895322
845.392879	3252.862492
845.707833	3227.124882
846.022745	3201.689740
846.337613	3189.694314
846.652438	3168.075326
846.967221	3158.237514
847.281960	3141.344608
847.596656	3129.898668
847.911309	3121.590846
848.225919	3106.164916
848.540485	3097.063112
848.855009	3088.019282
849.169490	3078.428487
849.483928	3070.970100
849.798323	3065.641600
850.112675	3055.720610
850.426984	3056.958213
850.741251	3050.268602
851.055474	3045.736604
851.369654	3049.754404
851.683792	3044.592262
851.997887	3049.141904
852.311938	3048.153838
852.625947	3048.970505
852.939914	3044.509083
853.253837	3047.677449
853.567718	3047.143086
853.881555	3041.023126
854.195350	3043.495812
854.509103	3040.924823
854.822812	3036.682692
855.136479	3037.181766
855.450103	3038.835265
855.763685	3030.265303
856.077224	3032.435520
856.390720	3043.500853
856.704173	3052.287584
857.017584	3054.926628
857.330953	3062.150601
857.644278	3071.678382
857.957561	3075.766758
858.270802	3073.031932
858.584000	3070.501273
858.897155	3065.694533
859.210268	3054.770352
859.523339	3043.513456
859.836367	3038.061448
860.149352	3036.551622
860.462295	3034.484749
860.775195	3022.643079
861.088054	3018.262316
861.400869	3020.021679
861.713642	3015.174609
862.026373	3026.111393
862.339062	3026.408821
862.651708	3039.004143
862.964312	3053.988973
863.276873	3062.821075
863.589392	3093.032710
863.901869	3116.766462
864.214303	3136.800007
864.526696	3157.055364
864.839045	3174.888445
865.151353	3182.992100
865.463619	3187.982842
865.775842	3187.783717
866.088023	3191.244469
866.400162	3183.526462
866.712258	3185.668953
867.024313	3187.188861
867.336325	3180.675690
867.648296	3181.535207
867.960224	3182.480423
868.272110	3186.387317
868.583954	3187.231711
868.895755	3191.801517
869.207515	3188.933100
869.519233	3208.391954
869.830909	3214.527038
870.142542	3222.285374
870.454134	3230.041189
870.765684	3239.294227
871.077191	3259.453801
871.388657	3272.586007
871.700081	3288.795837
872.011463	3309.179743
872.322803	3328.179852
872.634101	3343.288190
872.945357	3362.247969
873.256571	3392.676374
873.567744	3405.790936
873.878874	3409.677665
874.189963	3426.656271
874.501010	3428.594595
874.812015	3425.206940
875.122979	3440.143878
875.433900	3435.495935
875.744780	3437.673713
876.055618	3446.480609
876.366415	3444.885084
876.677169	3451.718368
876.987882	3465.722693
877.298554	3488.768328
877.609183	3522.198740
877.919771	3566.772622
878.230317	3630.883496
878.540822	3732.911409
878.851285	3876.032287
879.161707	4094.117643
879.472087	4458.449394
879.782425	5064.383483
880.092722	6207.570982
880.402977	8083.780059
880.713191	10373.764522
881.023363	12665.493226
881.333494	13964.961535
881.643583	14407.050563
881.953631	14015.357950
882.263637	13192.916385
882.573602	12188.592510
882.883526	11270.119485
883.193408	10345.211427
883.503248	9455.415006
883.813048	8660.833378
884.122806	7918.110099
884.432522	7167.724267
884.742197	6536.516353
885.051831	5992.349001
885.361424	5515.397874
885.670975	5137.122292
885.980485	4820.994055
886.289954	4563.837235
886.599382	4359.201677
886.908768	4184.122404
887.218113	4025.648692
887.527417	3901.154877
887.836680	3781.573667
888.145901	3684.160930
888.455082	3607.157305
888.764221	3542.559960
889.073319	3484.453100
889.382376	3454.554017
889.691392	3431.636931
890.000366	3423.813061
890.309300	3418.330806
890.618193	3422.746857
890.927044	3416.054725
891.235855	3422.575457
891.544625	3436.993157
891.853353	3466.574648
892.162041	3520.920807
892.470687	3613.917493
892.779293	3729.543918
893.087858	3895.604567
893.396381	4164.235052
893.704864	4564.167431
894.013306	5114.235453
894.321707	5666.027551
894.630068	6017.516961
894.938387	6050.186159
895.246665	5874.443974
895.554903	5570.931224
895.863100	5238.976285
896.171256	4978.162108
896.479371	4745.159977
896.787446	4526.532697
897.095480	4338.651414
897.403473	4196.435423
897.711425	4057.745718
898.019336	3936.742903
898.327207	3820.196467
898.635038	3719.330540
898.942827	3617.786578
899.250576	3536.656769
899.558284	3453.248358
899.865952	3403.726583
900.173579	3341.009588
900.481165	3294.983853
900.788711	3257.056732
901.096216	3222.580281
901.403681	3198.092877
901.711105	3185.802543
902.018489	3183.866740
902.325832	3216.029302
902.633135	3275.794701
902.940397	3433.187086
903.247619	3828.947910
903.554800	4557.392120
903.861941	5496.637220
904.169041	6171.274674
904.476101	6368.494695
904.783121	6103.030054
905.090100	5711.670158
905.397039	5306.563034
905.703938	4964.142659
906.010796	4655.636647
906.317614	4410.157660
906.624391	4180.959080
906.931129	3988.369359
907.237826	3816.463492
907.544483	3652.560458
907.851099	3484.952174
908.157675	3330.851663
908.464211	3195.554656
908.770707	3096.990016
909.077163	3020.084693
909.383578	2961.312401
909.689954	2918.076945
909.996289	2892.230949
910.302584	2871.642877
910.608839	2861.656351
910.915054	2849.799557
911.221229	2842.462158
911.527363	2847.583970
911.833458	2854.616380
912.139513	2867.809079
912.445527	2880.132180
912.751502	2911.168044
913.057436	2954.350568
913.363331	3008.878208
913.669186	3095.525560
913.975000	3204.795091
914.280775	3389.041702
914.586510	3645.744818
914.892205	4010.976414
915.197859	4496.487420
915.503475	5061.424326
915.809050	5539.613056
916.114585	5818.948432
916.420081	5877.735848
916.725536	5813.720755
917.030952	5583.468574
917.336328	5380.000043
917.641665	5178.495042
917.946961	4961.783399
918.252218	4765.001959
918.557435	4545.575656
918.862612	4349.648691
919.167750	4185.289431
919.472848	3999.898478
919.777906	3841.898634
920.082925	3686.923483
920.387904	3537.879249
920.692843	3435.995009
920.997743	3338.458764
921.302603	3245.356214
921.607423	3185.081658
921.912204	3123.488841
922.216946	3075.358424
922.521647	3031.127341
922.826310	2987.982625
923.130932	2949.450566
923.435516	2913.923034
923.740059	2885.599311
924.044564	2857.126874
924.349028	2835.396981
924.653454	2806.571663
924.957840	2779.906480
925.262186	2758.431164
925.566493	2741.891139
925.870761	2716.098075
926.174989	2706.552650
926.479178	2693.100331
926.783328	2676.492250
927.087438	2665.240394
927.391509	2652.619866
927.695541	2641.967908
927.999533	2633.372740
928.303486	2624.772532
928.607400	2617.513270
928.911275	2610.949688
929.215110	2605.477516
929.518906	2601.089191
929.822663	2603.962649
930.126381	2599.599530
930.430060	2607.655294
930.733699	2607.068000
931.037299	2610.596807
931.340861	2610.306941
931.644383	2610.506067
931.947866	2615.090996
932.251309	2607.670417
932.554714	2609.853237
932.858080	2607.194028
933.161407	2603.914758
933.464694	2599.886876
933.767943	2596.995774
934.071153	2594.747420
934.374323	2589.698704
934.677455	2586.472366
934.980548	2584.740729
935.283602	2581.761407
935.586617	2580.743094
935.889593	2586.613518
936.192530	2582.159658
936.495428	2589.429002
936.798287	2599.985178
937.101108	2611.098402
937.403890	2634.144037
937.706632	2658.117244
938.009336	2689.964733
938.312002	2722.611246
938.614628	2741.548340
938.917216	2760.692122
939.219765	2769.128493
939.522275	2781.388579
939.824747	2778.104267
940.127179	2773.395830
940.429573	2766.539860
940.731929	2763.744541
941.034246	2758.968047
941.336524	2756.243304
941.638763	2748.023702
941.940964	2742.914493
942.243126	2727.987636
942.545250	2717.093703
942.847335	2705.713298
943.149381	2691.587985
943.451389	2677.071982
943.753359	2665.341218
944.055290	2659.864004
944.357182	2646.436891
944.659036	2646.668784
944.960851	2639.608648
945.262628	2635.832823
945.564367	2639.890952
945.866067	2633.581948
946.167729	2634.622947
946.469352	2633.448358
946.770937	2632.704787
947.072484	2621.770525
947.373992	2624.119702
947.675462	2621.677263
947.976893	2617.329268
948.278286	2612.293156
948.579641	2608.875253
948.880958	2607.451127
949.182236	2607.977928
949.483476	2603.662700
949.784678	2602.407453
950.085841	2601.840323
950.386967	2607.614965
950.688054	2613.606376
950.989103	2622.393107
951.290114	2630.312760
951.591087	2639.472537
951.892021	2649.612817
952.192917	2664.338028
952.493776	2674.707681
952.794596	2678.899401
953.095378	2677.860923
953.396122	2676.766993
953.696828	2673.351611
953.997496	2670.926816
954.298126	2657.860145
954.598718	2654.459887
954.899272	2643.444966
955.199788	2633.269397
955.500266	2622.229270
955.800706	2602.268821
956.101108	2587.362129
956.401472	2576.949626
956.701798	2564.760116
957.002087	2551.569937
957.302337	2544.782023
957.602550	2529.943387
957.902724	2519.530884
958.202861	2511.649040
958.502960	2503.807525
958.803022	2498.312667
959.103045	2492.621204
959.403031	2485.493013
959.702979	2479.761221
960.002889	2476.822228
960.302762	2468.932823
960.602596	2468.872329
960.902393	2465.726649
961.202153	2462.132306
961.501875	2460.730865
961.801559	2457.965792
962.101205	2453.315328
962.400814	2456.645010
962.700385	2449.322734
962.999918	2445.806529
963.299414	2444.407609
963.598873	2446.396344
963.898293	2445.347784
964.197677	2446.015737
964.497022	2441.428287
964.796331	2441.362752
965.095601	2443.747218
965.394835	2443.321240
965.694030	2439.492484
965.993189	2441.536672
966.292309	2434.504262
966.591393	2437.433173
966.890439	2438.663214
967.189447	2438.108687
967.488419	2436.853440
967.787353	2437.670107
968.086249	2437.896959
968.385108	2438.897628
968.683930	2438.839655
968.982714	2442.481888
969.281462	2443.162444
969.580172	2443.414502
969.878844	2446.081272
970.177480	2447.805347
970.476078	2452.234000
970.774639	2457.658282
971.073162	2455.750205
971.371649	2453.290122
971.670098	2456.171142
971.968510	2461.673561
972.266885	2454.668878
972.565223	2466.603809
972.863524	2465.099025
973.161788	2468.065744
973.460014	2469.590693
973.758204	2469.071454
974.056356	2468.945425
974.354471	2470.931640
974.652550	2468.053141
974.950591	2468.816876
975.248595	2468.718573
975.546563	2467.914509
975.844493	2465.346042
976.142386	2463.090125
976.440243	2461.217337
976.738062	2461.106431
977.035845	2460.004939
977.333590	2455.064608
977.631299	2452.617128
977.928971	2453.678291
978.226606	2454.174845
978.524204	2448.745522
978.821765	2451.193002
979.119290	2445.461210
979.416777	2446.590429
979.714228	2448.768207
980.011642	2448.188474
980.309020	2453.892540
980.606360	2457.101234
980.903664	2465.809828
981.200931	2476.582773
981.498162	2496.860815
981.795356	2527.352234
982.092513	2560.949004
982.389633	2606.788216
982.686717	2642.615696
982.983764	2676.003258
983.280775	2695.187369
983.577749	2693.468335
983.874686	2685.379804
984.171587	2664.960610
984.468451	2656.012562
984.765279	2638.411374
985.062070	2618.627365
985.358824	2600.469129
985.655543	2580.493557
985.952224	2557.732747
986.248869	2531.264169
986.545478	2505.070334
986.842050	2486.602067
987.138586	2469.489870
987.435086	2458.870679
987.731549	2444.198401
988.027975	2441.813935
988.324366	2434.030394
988.620719	2432.545774
988.917037	2431.086360
989.213318	2426.289702
989.509563	2421.069587
989.805772	2421.082190
990.101944	2420.799886
990.398080	2421.341810
990.694180	2418.160842
990.990244	2420.646130
991.286271	2418.070101
991.582262	2421.261151
991.878217	2422.924732
992.174136	2422.259300
992.470019	2426.264496
992.765865	2424.437078
993.061676	2427.529826
993.357450	2431.161977
993.653188	2432.366813
993.948890	2436.190528
994.244556	2443.192691
994.540186	2451.956737
994.835780	2463.261524
995.131337	2476.847434
995.426859	2491.706235
995.722345	2511.717095
996.017795	2529.678726
996.313208	2545.155069
996.608586	2551.504402
996.903928	2555.386090
997.199234	2553.846018
997.494504	2551.048178
997.789738	2544.093906
998.084936	2532.595034
998.380099	2523.858714
998.675225	2514.109123
998.970316	2501.881804
999.265371	2487.128867
999.560390	2474.901549
999.855373	2464.073150
1000.150320	2456.710545
1000.445232	2448.740481
1000.740108	2440.334357
1001.034948	2436.137596
1001.329752	2430.304981
1001.624521	2429.558890
1001.919254	2417.767632
1002.213951	2417.157652
1002.508613	2412.489543
1002.803239	2414.432908
1003.097829	2410.823442
1003.392384	2410.904101
1003.686903	2412.973494
1003.981386	2412.305541
1004.275834	2409.469892
1004.570246	2407.949984
1004.864623	2409.139697
1005.158964	2408.239851
1005.453270	2404.975704
1005.747540	2406.097360
1006.041775	2408.111301
1006.335974	2406.712381
1006.630138	2402.538306
1006.924266	2404.098543
1007.218359	2405.053842
1007.512416	2405.915879
1007.806438	2403.264232
1008.100425	2401.971176
1008.394376	2402.765158
1008.688292	2406.203225
1008.982172	2402.724828
1009.276017	2403.266753
1009.569827	2402.071999
1009.863602	2404.683317
1010.157341	2403.423028
1010.451045	2404.958060
1010.744714	2399.400188
1011.038347	2404.471588
1011.331945	2403.299520
1011.625508	2402.497977
1011.919036	2400.607544
1012.212528	2400.418501
1012.505986	2398.739796
1012.799408	2400.998233
1013.092795	2401.484705
1013.386147	2400.360527
1013.679464	2402.306413
1013.972745	2400.688202
1014.265992	2399.097718
1014.559204	2399.299364
1014.852380	2398.313819
1015.145521	2399.720301
1015.438628	2399.475805
1015.731699	2401.603172
1016.024736	2402.031670
1016.317737	2404.365724
1016.610703	2403.183573
1016.903635	2398.840619
1017.196531	2396.786349
1017.489393	2399.180897
1017.782219	2397.799621
1018.075011	2402.873543
1018.367768	2400.615106
1018.660490	2404.527041
1018.953177	2404.527041
1019.245829	2404.527041
