Dividing Wavelength (nm)	Counts (n)	Blue Motor Position (mm): 46.600000	Red Motor Position (mm): 0.000000	
326.493990	1973.730198
326.888308	1973.730198
327.282561	1973.730198
327.676750	1951.402927
328.070874	1953.810078
328.464933	1955.443412
328.858929	1966.216358
329.252859	1979.603142
329.646726	1994.197282
330.040528	2008.640188
330.434265	2029.394619
330.827938	2048.447660
331.221547	2069.340722
331.615091	2090.122878
332.008571	2109.659870
332.401986	2129.711060
332.795338	2151.249389
333.188625	2171.708912
333.581847	2190.852694
333.975006	2208.257278
334.368100	2224.451984
334.761129	2241.922103
335.154095	2255.218146
335.546996	2301.332101
335.939833	2382.255223
336.332606	2398.429765
336.725315	2410.261353
337.117960	2420.169741
337.510540	2426.980340
337.903056	2438.126331
338.295508	2442.718823
338.687896	2452.382714
339.080220	2458.575772
339.472480	2465.030969
339.864676	2467.044910
340.256807	2467.864098
340.648875	2470.309058
341.040879	2472.728811
341.432818	2472.774182
341.824694	2475.274594
342.216506	2475.884574
342.608253	2477.719554
342.999937	2473.111939
343.391557	2473.323668
343.783113	2472.386013
344.174605	2470.510704
344.566033	2468.968111
344.957397	2469.366362
345.348697	2464.746144
345.739934	2461.827316
346.131106	2460.630042
346.522215	2460.498972
346.913260	2458.520319
347.304241	2455.893878
347.695159	2458.225412
348.086012	2456.024948
348.476802	2449.045471
348.867528	2453.239711
349.258191	2450.308280
349.648789	2451.182920
350.039324	2448.765687
350.429796	2448.241407
350.820203	2444.647064
351.210548	2447.772579
351.600828	2444.606735
351.991045	2446.779472
352.381198	2444.944492
352.771288	2443.406940
353.161314	2444.536158
353.551276	2443.250664
353.941175	2443.898452
354.331010	2443.681683
354.720782	2447.303752
355.110490	2444.851231
355.500135	2446.219904
355.889717	2447.034050
356.279235	2444.420212
356.668689	2450.580502
357.058080	2448.611931
357.447408	2447.757456
357.836672	2443.578339
358.225873	2448.165789
358.615010	2448.032199
359.004084	2451.150152
359.393095	2451.056891
359.782043	2451.336675
360.170927	2456.801286
360.559748	2453.937910
360.948505	2454.658795
361.337199	2457.436471
361.725830	2456.846656
362.114398	2460.304888
362.502903	2458.921091
362.891344	2463.780763
363.279722	2457.471759
363.668037	2462.154991
364.056289	2462.323870
364.444478	2461.844960
364.832603	2462.510392
365.220665	2466.253449
365.608665	2468.017853
365.996601	2469.157154
366.384474	2464.277317
366.772284	2472.350725
367.160031	2464.300002
367.547715	2467.765795
367.935336	2469.951136
368.322893	2467.647328
368.710388	2472.373410
369.097820	2474.094964
369.485189	2473.018678
369.872495	2477.475058
370.259738	2473.558081
370.646918	2475.982876
371.034035	2475.652681
371.421090	2477.754842
371.808081	2478.810963
372.195010	2481.818012
372.581875	2480.333392
372.968678	2484.802375
373.355418	2480.925728
373.742096	2487.171717
374.128710	2486.677684
374.515262	2486.360091
374.901751	2486.881851
375.288177	2490.811430
375.674540	2493.140443
376.060841	2495.401401
376.447079	2498.980620
376.833254	2503.220230
377.219367	2500.684530
377.605417	2512.974863
377.991404	2514.560306
378.377329	2526.611184
378.763191	2531.085208
379.148991	2546.387631
379.534727	2559.688715
379.920402	2575.951477
380.306013	2591.601740
380.691563	2614.075203
381.077049	2634.781743
381.462474	2658.384425
381.847835	2690.010104
382.233134	2722.013869
382.618371	2754.914960
383.003545	2793.308387
383.388657	2839.457630
383.773706	2886.161400
384.158693	2932.706373
384.543618	2987.095382
384.928480	3044.940102
385.313280	3108.050307
385.698017	3172.786284
386.082692	3252.290322
386.467305	3308.889876
386.851856	3399.421438
387.236344	3498.079339
387.620770	3563.916808
388.005133	3653.921569
388.389435	3765.701594
388.773674	3849.651929
389.157851	3959.365081
389.541965	4072.133172
389.926018	4126.721306
390.310008	4271.727576
390.693936	4388.515987
391.077802	4504.812886
391.461606	4635.935818
391.845348	4751.373200
392.229027	4875.199062
392.612645	5070.437909
392.996200	5197.296025
393.379694	5365.988156
393.763125	5576.814251
394.146494	5698.399320
394.529801	5845.422051
394.913047	6082.752013
395.296230	6142.217463
395.679351	6235.229272
396.062410	6487.405432
396.445408	6464.072451
396.828343	6639.237424
397.211217	6804.672970
397.594028	6759.970538
397.976778	6980.742830
398.359466	7167.625964
398.742092	7195.896755
399.124656	7374.295628
399.507158	7591.806293
399.889598	7659.584607
400.271977	7895.923981
400.654294	7971.679921
401.036549	8195.000515
401.418742	8261.148016
401.800874	8584.044002
402.182944	8698.185807
402.564952	9076.312675
402.946898	8955.025034
403.328783	9044.775216
403.710606	9262.661447
404.092367	9535.468529
404.474067	9913.182022
404.855705	9744.048790
405.237282	9726.014062
405.618797	10160.438015
406.000250	10419.240771
406.381642	10798.320417
406.762972	10766.780438
407.144240	10600.984450
407.525447	10872.911850
407.906593	10821.192132
408.287677	11082.051679
408.668700	11242.458674
409.049661	11234.304607
409.430560	11402.273333
409.811399	11386.592824
410.192176	11552.580376
410.572891	11633.977367
410.953545	12123.738066
411.334138	11605.686411
411.714669	12201.724716
412.095139	11529.459124
412.475547	12025.803570
412.855894	11874.899150
413.236180	12206.188657
413.616405	11901.478634
413.996568	12170.315807
414.376670	12139.819347
414.756711	12030.040660
415.136691	12301.027885
415.516609	12484.104948
415.896466	12550.534753
416.276262	12837.361284
416.655997	13277.340588
417.035670	13321.788442
417.415283	13960.593375
417.794834	14043.774934
418.174324	13802.217965
418.553753	13704.464951
418.933121	14187.175596
419.312428	14002.145086
419.691674	13916.858845
420.070859	14374.136869
420.449983	14020.701573
420.829045	14562.413883
421.208047	14322.550742
421.586988	14761.496610
421.965867	15007.061296
422.344686	15018.524880
422.723444	15573.543316
423.102141	14280.598259
423.480777	15457.992508
423.859352	14964.589575
424.237866	16068.808955
424.616319	15770.569252
424.994712	16412.519865
425.373044	16211.854216
425.751314	16877.614198
426.129524	16014.074627
426.507673	17091.449862
426.885762	16791.692772
427.263789	16986.727453
427.641756	17147.978841
428.019662	17207.721555
428.397508	17251.398112
428.775292	17535.623407
429.153016	17510.684819
429.530679	17582.193586
429.908282	17602.839632
430.285824	17333.495823
430.663305	18038.153349
431.040726	17638.157956
431.418086	17463.023230
431.795385	18104.406713
432.172624	18529.050828
432.549802	18080.403259
432.926920	18283.781049
433.303977	18146.570924
433.680974	18402.396879
434.057910	18695.373617
434.434786	18719.581237
434.811601	18632.775089
435.188355	19660.868004
435.565050	19304.128232
435.941683	19263.688096
436.318257	20133.468616
436.694770	19948.380132
437.071222	20536.839061
437.447614	19618.280337
437.823946	19646.047012
438.200218	19799.572832
438.576429	19560.712880
438.952580	19839.866774
439.328670	19811.159924
439.704700	20222.588654
440.080670	19789.994639
440.456580	20381.642099
440.832429	20553.061494
441.208218	19551.359019
441.583947	19985.929166
441.959616	20094.573593
442.335224	20335.271045
442.710773	20460.644541
443.086261	20994.215388
443.461689	20367.171467
443.837057	20475.089968
444.212365	21123.531066
444.587612	21112.662339
444.962800	20708.175277
445.337927	21117.995879
445.712995	19856.608446
446.088002	21701.527081
446.462949	21889.862068
446.837837	22057.006565
447.212664	22008.132579
447.587431	24787.723986
447.962139	27692.275516
448.336786	30071.647199
448.711374	28553.907010
449.085901	24910.523973
449.460369	24840.151986
449.834776	24753.066054
450.209124	27189.120471
450.583412	26749.710816
450.957640	27282.175130
451.331808	25957.014580
451.705917	24592.129738
452.079965	24624.400684
452.453954	24981.679860
452.827883	24867.648960
453.201752	24656.966538
453.575562	24832.280225
453.949311	25932.063389
454.323001	25983.823436
454.696632	25746.669915
455.070202	27280.567002
455.443713	27427.236852
455.817164	28012.522375
456.190556	28544.480053
456.563888	27981.526841
456.937160	28430.844883
457.310373	26777.094364
457.683526	27206.958594
458.056619	27183.406323
458.429653	27124.245862
458.802628	27700.883286
459.175542	27801.088821
459.548398	29102.341699
459.921194	30640.780865
460.293930	31319.128609
460.666607	33331.562266
461.039224	35073.112041
461.411782	35481.566490
461.784280	34301.749967
462.156719	33812.173270
462.529099	33244.720829
462.901419	31970.614565
463.273680	30905.983366
463.645882	31003.166730
464.018024	30969.340588
464.390106	31789.642183
464.762130	34436.898261
465.134094	38446.548851
465.505999	43706.428280
465.877845	48301.845824
466.249631	49491.164922
466.621358	47771.786141
466.993026	45672.896696
467.364634	43611.011841
467.736184	41658.943481
468.107674	40389.344008
468.479105	39623.887647
468.850477	38928.677243
469.221790	37510.018413
469.593043	35799.086086
469.964238	34907.684057
470.335373	34818.443031
470.706449	36491.758268
471.077467	38993.955144
471.448425	43543.793095
471.819324	46416.348421
472.190164	44612.729439
472.560945	41081.340676
472.931667	37984.217070
473.302330	36889.729638
473.672934	36069.049956
474.043479	36568.938333
474.413965	35783.130834
474.784393	35405.293832
475.154761	36294.692002
475.525070	36319.179407
475.895321	35854.198500
476.265513	36461.218958
476.635645	37408.139214
477.005719	37244.425223
477.375734	37693.821403
477.745691	38374.631750
478.115588	39701.115603
478.485427	41651.154898
478.855207	44960.727851
479.224928	47576.078466
479.594591	49224.946628
479.964194	48229.419567
480.333739	48371.272595
480.703226	48383.477228
481.072653	49015.819402
481.442022	49517.512512
481.811333	49803.814762
482.180584	48500.663890
482.549777	47978.939755
482.918912	47452.766802
483.287988	47163.540682
483.657005	46357.520676
484.025964	45715.144086
484.394864	45713.992182
484.763706	45293.582637
485.132489	44428.271099
485.501213	44263.211120
485.869879	44401.658848
486.238487	43998.898382
486.607036	44195.858784
486.975527	43643.799505
487.343959	43862.353689
487.712333	43950.510867
488.080648	43851.336247
488.448905	44302.721163
488.817104	44113.841731
489.185244	45064.815075
489.553326	46719.520893
489.921350	49415.973591
490.289315	52324.489988
490.657222	52951.405360
491.025070	53249.521554
491.392861	52354.104246
491.760593	51100.122268
492.128267	49423.787380
492.495883	47897.141993
492.863440	46502.665578
493.230939	45168.332649
493.598380	44082.906691
493.965763	43752.201957
494.333088	42945.556848
494.700354	42474.899601
495.067563	42198.341901
495.434713	42057.393760
495.801805	42118.341310
496.168839	41745.918508
496.535815	41431.905035
496.902733	41442.642693
497.269593	41055.003168
497.636395	40985.336942
498.003139	41396.450600
498.369825	40850.602023
498.736453	41151.175780
499.103023	40696.229290
499.469535	40567.442933
499.835989	40651.794039
500.202385	40321.474954
500.568723	40340.096976
500.935003	40533.750381
501.301226	40345.543943
501.667390	40956.902314
502.033497	41205.867258
502.399546	40646.510910
502.765537	39968.677364
503.131470	40357.834276
503.497345	40706.871166
503.863163	39380.911593
504.228923	39992.637968
504.594625	40387.065407
504.960269	39680.053662
505.325856	40373.608047
505.691385	39729.945962
506.056856	39869.215398
506.422270	40305.620525
506.787625	39879.544723
507.152924	40092.256209
507.518164	40191.246827
507.883347	39399.757947
508.248472	39652.818828
508.613540	40119.120518
508.978550	40421.700654
509.343503	40183.357421
509.708398	40353.962670
510.073236	40881.095963
510.438016	40908.620663
510.802738	40340.787614
511.167403	40957.328292
511.532010	41200.344674
511.896561	41514.065761
512.261053	42341.402286
512.625488	41894.085582
512.989866	41774.716100
513.354186	41609.915739
513.718449	41604.793927
514.082655	42277.674539
514.446803	41942.563837
514.810894	42481.584171
515.174927	42418.426075
515.538904	42310.565548
515.902822	42980.550017
516.266684	42409.437698
516.630488	42851.947662
516.994235	42683.076570
517.357925	43272.233699
517.721558	43453.808499
518.085133	43750.475362
518.448651	43877.046132
518.812112	43642.637519
519.175516	43759.620015
519.538863	44106.947953
519.902152	44065.365996
520.265385	44525.386408
520.628560	44563.837809
520.991678	44366.249784
521.354739	44616.646416
521.717743	44907.097536
522.080690	44808.953832
522.443580	45362.840529
522.806413	45417.037974
523.169189	45353.816863
523.531908	45546.101594
523.894569	45391.131484
524.257174	45560.829325
524.619722	45854.847062
524.982213	45852.243306
525.344647	45756.136228
525.707025	45809.965669
526.069345	46210.679427
526.431608	46130.479710
526.793815	46446.466795
527.155964	45983.162071
527.518057	46147.498645
527.880093	45945.542461
528.242072	46460.634958
528.603995	46169.987233
528.965860	46162.760739
529.327669	46263.908970
529.689421	46163.723599
530.051117	46122.635675
530.412755	46272.577234
530.774337	46325.937847
531.135862	46135.949362
531.497331	46354.286776
531.858743	46243.068840
532.220098	46582.532578
532.581396	46288.802188
532.942638	45952.751311
533.303824	46248.979593
533.664953	46222.758031
534.026025	45939.551049
534.387040	46405.870383
534.747999	46364.752212
535.108902	46515.427259
535.469748	46038.806327
535.830537	46165.077149
536.191270	46372.253448
536.551947	46006.734507
536.912567	46312.082236
537.273131	46435.232583
537.633638	45922.338029
537.994089	46280.194417
538.354483	45870.232663
538.714821	46425.835873
539.075103	46786.117056
539.435328	46539.874334
539.795497	46438.380784
540.155609	46425.001562
540.515665	46863.498767
540.875665	46320.957187
541.235609	46646.537588
541.595496	46621.442724
541.955328	47301.748956
542.315102	46663.072573
542.674821	46463.059753
543.034483	46494.803898
543.394090	46459.997252
543.753640	46414.457988
544.113134	47412.898837
544.472571	46447.280941
544.831953	47665.964760
545.191278	46892.833242
545.550548	46612.280427
545.909761	47056.219558
546.268918	47280.172818
546.628019	47582.425279
546.987064	47128.141700
547.346053	46417.114677
547.704986	47288.909137
548.063863	46853.545009
548.422684	47049.439206
548.781449	46887.272849
549.140158	47299.838359
549.498811	47143.923032
549.857408	46584.516272
550.215949	47416.684743
550.574434	47340.341510
550.932864	47109.116386
551.291237	47825.822269
551.649555	47434.903473
552.007817	47690.278245
552.366022	47309.058629
552.724173	47495.367073
553.082267	47889.731497
553.440305	48201.136173
553.798288	47521.815486
554.156215	47815.291299
554.514086	48023.780819
554.871902	47760.698123
555.229661	47786.960014
555.587365	47621.774005
555.945014	47712.353458
556.302606	47625.506980
556.660143	47858.267135
557.017625	47921.284079
557.375050	47757.403729
557.732421	48095.425697
558.089735	48066.764217
558.446994	47990.050458
558.804197	48466.820104
559.161345	48396.213703
559.518437	47645.890885
559.875474	47957.466961
560.232455	48100.865102
560.589381	48281.172052
560.946251	47990.317640
561.303065	48660.019805
561.659825	48481.157146
562.016528	48145.743974
562.373177	47864.019092
562.729770	48360.240029
563.086307	47867.958753
563.442789	48322.796859
563.799216	48364.905617
564.155587	48167.796502
564.511904	48185.165798
564.868164	48285.507444
565.224370	48526.575421
565.580520	48268.244013
565.936615	48472.405702
566.292654	48202.275474
566.648638	48421.999205
567.004567	48383.623422
567.360441	48427.814176
567.716260	48279.548800
568.072023	48564.794929
568.427732	48564.227799
568.783385	48114.529150
569.138982	48508.558337
569.494525	48476.438626
569.850013	48218.775170
570.205445	48191.210141
570.560823	48165.679217
570.916145	48044.557934
571.271412	48061.864216
571.626625	47822.646342
571.981782	47877.340341
572.336884	47566.051611
572.691931	47900.943023
573.046923	47490.225096
573.401860	47350.570011
573.756743	47324.272832
574.111570	47454.526165
574.466342	47309.197261
574.821059	47419.162471
575.175722	46944.805017
575.530330	46963.376628
575.884882	46696.649178
576.239380	46643.795200
576.593823	46626.950185
576.948211	46545.848102
577.302544	46070.623570
577.656823	46104.013652
578.011047	46305.788356
578.365216	46046.854529
578.719330	45834.538773
579.073389	45690.271033
579.427394	45782.254446
579.781344	45735.291057
580.135239	45410.315595
580.489080	45489.504560
580.842866	44986.097458
581.196597	45425.295384
581.550273	45366.591147
581.903895	45233.792031
582.257463	45638.463095
582.610975	45034.880703
582.964434	45330.161249
583.317837	44964.574251
583.671186	44800.462008
584.024481	45022.023241
584.377721	44570.040948
584.730906	44845.736611
585.084037	44866.614550
585.437113	44586.442342
585.790135	44630.499507
586.143103	44229.546294
586.496016	44361.745513
586.848874	44374.729004
587.201679	44409.505404
587.554428	43869.907858
587.907124	44059.745109
588.259765	43821.238038
588.612352	44069.834979
588.964884	43448.658961
589.317362	43731.697064
589.669786	43682.281153
590.022155	43449.712562
590.374470	43884.280188
590.726731	43405.839400
591.078937	42918.395111
591.431090	43014.320707
591.783188	42689.683002
592.135232	42362.421377
592.487222	42593.454937
592.839157	42708.221845
593.191038	42362.431459
593.542866	42136.686069
593.894639	41525.630167
594.246358	41812.577686
594.598022	41786.847636
594.949633	41399.850858
595.301190	41343.518485
595.652692	41183.729031
596.004141	41513.170956
596.355535	40527.403568
596.706876	40495.687149
597.058162	40303.767901
597.409395	40773.053954
597.760573	40860.185257
598.111698	40431.049474
598.462768	40455.345315
598.813785	40488.536272
599.164748	39948.611051
599.515657	40321.573257
599.866511	39810.138117
600.217312	40411.018449
600.568060	39382.171881
600.918753	40132.736675
601.269392	40084.079458
601.619978	39723.483202
601.970510	39950.453593
602.320988	40130.631993
602.671412	40432.592067
603.021783	40181.953460
603.372100	39825.322072
603.722363	39924.461403
604.072572	39991.728040
604.422728	40019.870281
604.772830	39813.041821
605.122878	39917.449158
605.472872	39861.177279
605.822813	40128.670984
606.172701	39964.745264
606.522534	40208.091842
606.872314	40484.064768
607.222041	40236.700390
607.571714	40623.185491
607.921333	40055.463348
608.270899	40343.877842
608.620411	40685.519358
608.969870	40483.888328
609.319276	40489.015182
609.668627	40532.384228
610.017926	41017.123938
610.367171	41169.586074
610.716362	41251.766964
611.065500	41190.645494
611.414585	41396.385065
611.763616	41681.865607
612.112594	41600.095572
612.461518	41827.738956
612.810389	42119.281486
613.159207	41976.465597
613.507971	42041.037737
613.856682	42523.251828
614.205340	42406.314703
614.553945	43104.635499
614.902496	42544.288563
615.250994	43027.957028
615.599439	43094.230557
615.947830	43301.285869
616.296169	43341.904966
616.644454	43466.978514
616.992686	43630.049758
617.340864	44162.045244
617.688990	43859.659193
618.037063	44470.957070
618.385082	44436.163026
618.733048	44738.223923
619.080961	44757.065236
619.428821	44767.802893
619.776628	44900.773408
620.124382	44693.576944
620.472083	44845.091343
620.819731	44967.392256
621.167326	44640.140713
621.514868	44627.043796
621.862357	44185.194223
622.209793	44210.904107
622.557176	43883.062749
622.904506	43639.290193
623.251783	43299.644973
623.599007	43063.731576
623.946179	42837.668594
624.293297	42796.694095
624.640363	42183.231043
624.987376	42188.614995
625.334336	41939.405555
625.681243	41588.337080
626.028097	41546.452653
626.374899	41392.836093
626.721647	41357.043901
627.068343	41251.764444
627.414987	41007.137412
627.761577	40781.079471
628.108115	41113.299071
628.454600	40559.495553
628.801032	40740.155384
629.147412	40700.005114
629.493739	40699.581657
629.840014	40350.698523
630.186236	40680.994923
630.532405	40279.658583
630.878521	40510.550991
631.224585	40386.813349
631.570597	40084.545764
631.916556	40251.077761
632.262462	40191.771107
632.608316	40206.730731
632.954117	40113.630702
633.299866	40114.107091
633.645562	40033.158763
633.991206	39532.428513
634.336797	39087.806305
634.682336	39118.756469
635.027823	38860.394814
635.373257	38674.071248
635.718639	38422.308463
636.063968	38292.566807
636.409245	37693.826444
636.754470	37758.716176
637.099642	37504.286621
637.444762	37029.077213
637.789829	37166.990579
638.134845	36823.839237
638.479808	36769.689682
638.824719	36676.536721
639.169577	36277.423530
639.514383	36342.610690
639.859137	36036.108537
640.203839	36283.646834
640.548489	35891.150158
640.893086	35969.867775
641.237632	35712.617694
641.582125	35830.190005
641.926566	35771.526098
642.270955	35729.472792
642.615292	35735.391107
642.959576	35697.481630
643.303809	35697.527000
643.647990	35846.659454
643.992118	35800.860572
644.336195	35801.347043
644.680219	35883.054065
645.024192	36181.447522
645.368112	36695.304937
645.711981	36687.186159
646.055797	37573.675583
646.399562	37473.916190
646.743274	38435.798590
647.086935	38877.058348
647.430544	38769.638922
647.774101	38883.521107
648.117606	39144.423504
648.461059	39466.729675
648.804460	39066.383922
649.147810	38453.853483
649.491108	38211.051349
649.834354	37861.104531
650.177548	37020.741665
650.520690	36569.452531
650.863781	36561.023722
651.206820	36414.840343
651.549807	35983.403273
651.892742	35504.959964
652.235626	35311.641797
652.578458	35157.934495
652.921238	34548.378337
653.263967	34899.058643
653.606644	34562.395265
653.949269	34497.210625
654.291843	34093.941003
654.634365	34505.611708
654.976836	34098.853607
655.319255	34081.378448
655.661622	34094.233390
656.003938	33868.729975
656.346203	33715.040318
656.688416	33942.595482
657.030577	33722.433170
657.372687	33588.371245
657.714746	33845.512941
658.056753	33964.791683
658.398708	33425.549538
658.740612	33470.932525
659.082465	33753.297635
659.424266	33550.665935
659.766016	33675.479863
660.107715	33543.071437
660.449362	33679.875749
660.790958	33663.635672
661.132503	33687.250958
661.473996	33727.098758
661.815438	33828.289839
662.156829	34023.069942
662.498168	33780.277890
662.839456	33816.150741
663.180693	33970.142867
663.521879	34127.406703
663.863013	34061.808688
664.204097	34068.077363
664.545129	34520.689799
664.886110	34486.311651
665.227040	34538.820309
665.567918	34671.170762
665.908746	34729.620421
666.249522	34898.761214
666.590248	34889.072117
666.930922	34995.881564
667.271545	34969.130681
667.612118	35058.986728
667.952639	34845.125858
668.293109	34894.239299
668.633528	34796.541738
668.973896	34712.530909
669.314213	34737.381277
669.654480	34472.188858
669.994695	34513.685116
670.334859	34403.969444
670.674973	34295.630007
671.015035	34450.141372
671.355047	34401.285029
671.695008	34342.598437
672.034918	34244.207717
672.374777	34320.243440
672.714585	34148.140968
673.054342	34367.862179
673.394049	34139.170235
673.733705	34414.452523
674.073310	34075.969289
674.412864	34153.351001
674.752368	33747.691872
675.091820	34051.832245
675.431223	33623.457676
675.770574	33346.330326
676.109875	33228.551328
676.449125	32939.471402
676.788324	32863.228991
677.127473	32312.157779
677.466571	32241.306882
677.805619	31895.390467
678.144616	31889.459549
678.483562	31811.046922
678.822458	31475.207773
679.161303	31404.432494
679.500098	31309.232824
679.838842	31183.156087
680.177535	31334.355414
680.516179	31602.756527
680.854771	31836.348473
681.193314	32693.009390
681.531805	33794.136022
681.870247	34552.154161
682.208638	35298.812060
682.546978	35542.423299
682.885268	35640.143546
683.223508	35129.986338
683.561697	34797.325637
683.899836	34607.916884
684.237925	34097.989049
684.575963	33944.354845
684.913951	33481.902076
685.251889	33617.501553
685.589776	33595.854838
685.927614	33572.816765
686.265401	33704.768967
686.603137	33804.815706
686.940824	34298.329544
687.278460	34673.401473
687.616046	34804.116072
687.953582	35411.431437
688.291068	35307.198020
688.628504	35584.111121
688.965889	35515.911871
689.303224	35158.146224
689.640510	34812.812062
689.977745	34097.043833
690.314930	33307.203410
690.652065	32795.102838
690.989150	32052.029199
691.326185	31166.777378
691.663170	30451.384715
692.000105	29708.626149
692.336990	29011.308543
692.673825	28550.786536
693.010610	28028.250775
693.347345	27439.370909
693.684030	26773.048838
694.020665	26487.472514
694.357251	25808.383720
694.693786	25749.104792
695.030272	25510.791806
695.366707	24962.200842
695.703093	24663.046169
696.039429	24655.161805
696.375716	24382.057295
696.711952	24337.430481
697.048139	24178.142622
697.384276	23996.048583
697.720363	24120.794456
698.056400	23914.873404
698.392388	23703.233162
698.728326	23668.098841
699.064214	23458.177633
699.400053	23398.553386
699.735842	23048.006671
700.071581	22756.900201
700.407270	22468.430254
700.742910	22276.994957
701.078501	22001.324500
701.414042	21723.420812
701.749533	21419.451838
702.084974	21068.937891
702.420366	21272.219899
702.755709	20823.710962
703.091002	20526.325735
703.426246	20548.680732
703.761440	20437.389699
704.096584	20156.723458
704.431679	20119.960844
704.766725	20025.592964
705.101721	19953.716193
705.436668	20050.841583
705.771565	19715.352795
706.106413	20057.616894
706.441212	20036.819614
706.775961	20154.772532
707.110661	20224.005218
707.445311	20577.069989
707.779913	20412.816594
708.114465	20647.736884
708.448967	20927.979668
708.783421	21631.911267
709.117825	21889.821739
709.452180	22112.844906
709.786485	22504.691274
710.120742	23309.662720
710.454949	23322.028670
710.789107	23775.480459
711.123216	24492.609799
711.457275	24619.155363
711.791286	25169.689693
712.125247	25249.128195
712.459159	24950.959068
712.793023	25631.398891
713.126837	24535.091602
713.460602	24808.937162
713.794318	24435.886736
714.127985	24050.949269
714.461602	23171.673736
714.795171	23129.696048
715.128691	22114.450513
715.462162	21572.707956
715.795584	21151.123822
716.128957	20880.335723
716.462281	20457.077925
716.795556	20229.215251
717.128782	19718.876562
717.461960	19172.944806
717.795088	19095.505121
718.128167	18691.181897
718.461198	18225.681751
718.794180	18079.329493
719.127113	17696.353036
719.459997	17499.778282
719.792833	17144.510527
720.125619	17112.494159
720.458357	16789.469623
720.791046	16621.508459
721.123686	16451.913962
721.456278	16213.757251
721.788821	16160.242882
722.121315	15894.548869
722.453761	15969.316742
722.786158	15894.468211
723.118506	15893.906122
723.450805	15756.731285
723.783056	15913.216262
724.115259	15811.954604
724.447412	15744.882052
724.779518	15978.521889
725.111574	15998.414282
725.443582	16193.718665
725.775542	16169.601785
726.107453	16643.601316
726.439315	16521.295362
726.771129	16919.813697
727.102895	17285.882125
727.434612	17497.388776
727.766281	17627.533724
728.097901	17893.779744
728.429473	17938.056198
728.760996	17918.098270
729.092471	18016.393208
729.423897	17890.994506
729.755276	17751.435203
730.086606	17868.107668
730.417887	18396.967556
730.749120	18893.927023
731.080305	19074.687676
731.411442	19415.124357
731.742530	19487.459874
732.073570	19603.229972
732.404562	19896.584796
732.735506	19716.116530
733.066401	19445.005797
733.397249	18922.732176
733.728048	18300.913411
734.058798	17448.484542
734.389501	16771.034124
734.720156	16295.877647
735.050762	15761.669095
735.381320	15399.676440
735.711831	15152.291897
736.042293	14785.333706
736.372707	14787.662719
736.703073	14577.421398
737.033391	14766.615902
737.363661	14715.904415
737.693883	14805.906655
738.024056	14971.732890
738.354182	15149.862061
738.684260	15439.567090
739.014290	15655.325954
739.344272	15846.299986
739.674207	16119.079341
740.004093	16243.303454
740.333931	16247.560708
740.663722	16284.134279
740.993464	16293.876309
741.323159	16125.272398
741.652806	15853.226531
741.982405	15646.488812
742.311956	15304.524661
742.641460	15194.700604
742.970915	14887.908584
743.300323	14553.125557
743.629683	14346.309700
743.958996	14060.884610
744.288260	13798.273262
744.617477	13491.173732
744.946647	13410.916042
745.275768	13132.319195
745.604842	12950.522585
745.933869	12776.963219
746.262847	12722.488511
746.591778	12651.569559
746.920662	12538.932538
747.249498	12535.154193
747.578286	12653.906133
747.907027	12799.718988
748.235720	13018.240404
748.564365	13038.142880
748.892963	12936.603959
749.221514	12999.454544
749.550017	12853.301412
749.878473	12819.250938
750.206881	12588.378695
750.535242	12497.045590
750.863555	12417.687747
751.191821	12298.870271
751.520039	12322.102428
751.848210	12231.558264
752.176334	12266.233841
752.504411	12165.320023
752.832440	12009.417299
753.160421	12069.775034
753.488356	11951.381016
753.816243	11853.070954
754.144082	11711.742206
754.471875	11653.968062
754.799620	11600.862027
755.127318	11572.460166
755.454969	11536.017665
755.782572	11481.973975
756.110129	11498.032571
756.437638	11411.596947
756.765100	11402.084290
757.092515	11401.416337
757.419882	11414.155333
757.747203	11414.994685
758.074477	11484.151754
758.401703	11438.751122
758.728882	11598.686769
759.056014	11647.233081
759.383099	11764.651636
759.710138	11856.196469
760.037129	11946.372629
760.364073	11959.023405
760.690970	11946.407917
761.017820	11943.884820
761.344623	12140.242803
761.671379	12459.670476
761.998088	13092.859563
762.324751	14635.951715
762.651366	17472.717369
762.977935	21128.637755
763.304456	23381.824317
763.630931	23918.596296
763.957359	22776.207820
764.283740	20884.570292
764.610074	19006.216204
764.936362	16864.812188
765.262602	15343.533110
765.588796	13864.387995
765.914943	12815.417141
766.241044	11945.049327
766.567097	11303.799434
766.893104	10748.034908
767.219064	10383.826666
767.544978	9989.696655
767.870845	9674.211165
768.196665	9482.680086
768.522438	9293.236045
768.848165	9117.690466
769.173846	8943.874002
769.499479	8823.990322
769.825066	8669.420983
770.150607	8482.837797
770.476101	8419.578878
770.801548	8308.600397
771.126949	8169.381372
771.452303	8077.045077
771.777611	7914.634224
772.102872	7889.695636
772.428087	7774.883357
772.753256	7646.908625
773.078378	7558.441416
773.403453	7411.363232
773.728482	7305.937582
774.053465	7242.111533
774.378401	7159.338307
774.703291	7054.590692
775.028135	6959.632998
775.352932	6921.226967
775.677683	6837.327044
776.002388	6747.486121
776.327046	6751.468632
776.651658	6661.763820
776.976224	6585.012253
777.300743	6565.066927
777.625216	6496.141752
777.949643	6459.306040
778.274024	6458.975845
778.598359	6388.959259
778.922647	6391.759620
779.246889	6345.605336
779.571086	6355.291913
779.895236	6365.994283
780.219339	6355.760740
780.543397	6355.299475
780.867409	6404.380149
781.191374	6402.751856
781.515294	6374.445777
781.839167	6423.932264
782.162995	6397.161216
782.486776	6346.149781
782.810511	6306.634696
783.134201	6235.816567
783.457844	6223.443055
783.781441	6173.684346
784.104993	6129.148272
784.428498	6102.936793
784.751958	6083.301498
785.075372	6055.922992
785.398739	6018.704153
785.722061	6044.023348
786.045337	6042.488317
786.368568	6149.900182
786.691752	6172.003121
787.014891	6417.887920
787.337983	6690.813469
787.661030	7128.461240
787.984031	7554.489152
788.306987	7818.081004
788.629897	7909.393944
788.952760	7831.021646
789.275579	7660.789442
789.598351	7360.014039
789.921078	7096.094512
790.243759	6822.090156
790.566395	6615.107941
790.888984	6418.593682
791.211529	6271.737309
791.534027	6111.418534
791.856480	5969.184899
792.178888	5905.285753
792.501249	5839.808727
792.823566	5736.528087
793.145836	5728.318568
793.468062	5708.703438
793.790241	5665.662067
794.112375	5706.530701
794.434464	5802.098375
794.756507	5830.598538
795.078505	5950.247804
795.400457	6163.264281
795.722364	6401.471403
796.044226	6596.349808
796.366042	6757.260918
796.687812	6708.757456
797.009538	6739.359781
797.331218	6648.795452
797.652852	6584.558549
797.974442	6464.211083
798.295986	6397.294807
798.617484	6269.771259
798.938938	6156.181460
799.260346	6092.022695
799.581709	5948.019614
799.903026	5899.352315
800.224299	5821.859698
800.545526	5705.744281
800.866708	5641.809847
801.187845	5594.375110
801.508936	5512.373181
801.829983	5485.491228
802.150984	5373.680957
802.471940	5351.676320
802.792851	5330.584132
803.113717	5305.272499
803.434538	5280.132265
803.755314	5246.573304
804.076045	5240.019804
804.396731	5196.461714
804.717372	5211.307912
805.037967	5216.482656
805.358518	5240.987705
805.679024	5300.523732
805.999485	5305.532118
806.319901	5323.997865
806.640272	5343.234908
806.960598	5387.831476
807.280879	5374.880751
807.601115	5415.018418
807.921306	5382.389550
808.241453	5376.463674
808.561554	5389.832814
808.881611	5354.690930
809.201623	5354.000292
809.521590	5304.528929
809.841513	5290.138955
810.161390	5312.498993
810.481223	5223.295776
810.801011	5211.902768
811.120755	5186.949057
811.440453	5129.910921
811.760107	5102.613073
812.079716	5077.409825
812.399281	5026.491650
812.718801	5018.234240
813.038276	4985.149148
813.357707	4952.956339
813.677093	4975.686902
813.996434	4914.547788
814.315731	4929.504891
814.634983	4924.766207
814.954191	4931.385242
815.273354	4990.212987
815.592473	5034.469276
815.911547	5110.946101
816.230577	5165.534235
816.549562	5252.834417
816.868502	5310.548067
817.187399	5364.420357
817.506250	5447.511175
817.825058	5477.594261
818.143821	5632.687880
818.462539	5806.272451
818.781213	6031.102871
819.099843	6392.314147
819.418429	7024.076588
819.736970	7651.831312
820.055466	8367.556691
820.373919	9294.662692
820.692327	10769.754719
821.010691	13497.568435
821.329011	19773.709192
821.647286	29408.579192
821.965517	39815.990896
822.283704	45384.739301
822.601847	46978.288361
822.919945	42427.379165
823.237999	37344.993721
823.556010	32129.388226
823.873976	27363.919960
824.191897	23087.488988
824.509775	19961.474529
824.827609	17133.029299
825.145398	15520.666653
825.463144	14741.435338
825.780845	15015.096895
826.098502	16276.060872
826.416116	18709.458601
826.733685	20961.271447
827.051210	21472.232719
827.368692	20036.958246
827.686129	17494.049011
828.003522	15006.882335
828.320872	12786.821196
828.638177	11101.291243
828.955439	9841.794242
829.272656	8764.769367
829.589830	7917.573216
829.906960	7169.176119
830.224046	6625.863243
830.541088	6206.194747
830.858086	5942.832267
831.175041	5729.651953
831.491952	5669.261451
831.808819	5702.830494
832.125642	5944.563903
832.442421	6499.433625
832.759157	7615.482072
833.075849	9373.246719
833.392497	11226.876467
833.709101	12357.730783
834.025662	12121.250256
834.342179	11070.991387
834.658653	9771.255897
834.975083	8664.170622
835.291469	7750.683298
835.607811	7003.911973
835.924110	6472.864224
836.240366	5978.029603
836.556578	5516.532133
836.872746	5153.904293
837.188871	4880.235174
837.504952	4653.113549
837.820990	4480.040656
838.136984	4360.441801
838.452935	4312.828103
838.768842	4341.066126
839.084706	4628.059015
839.400526	5368.581830
839.716303	6277.605212
840.032037	6846.620411
840.347727	6716.107458
840.663373	6114.541529
840.978977	5532.162231
841.294537	5080.573149
841.610054	4741.411880
841.925527	4503.396321
842.240957	4291.415802
842.556344	4105.276238
842.871687	3942.371351
843.186987	3787.577681
843.502244	3662.940193
843.817458	3577.285948
844.132629	3503.039834
844.447756	3452.368677
844.762840	3406.950401
845.077881	3369.068650
845.392879	3333.803259
845.707833	3304.572128
846.022745	3281.476082
846.337613	3264.661313
846.652438	3242.359248
846.967221	3234.696695
847.281960	3213.770865
847.596656	3201.583876
847.911309	3192.333358
848.225919	3177.033456
848.540485	3168.652538
848.855009	3161.305056
849.169490	3146.910042
849.483928	3140.550626
849.798323	3132.951087
850.112675	3122.893985
850.426984	3126.453039
850.741251	3117.812502
851.055474	3111.652212
851.369654	3115.818725
851.683792	3107.200873
851.997887	3113.514918
852.311938	3115.027264
852.625947	3112.052983
852.939914	3108.801439
853.253837	3112.743621
853.567718	3109.766820
853.881555	3104.859257
854.195350	3109.817232
854.509103	3107.647015
854.822812	3106.784977
855.136479	3100.105449
855.450103	3103.825820
855.763685	3097.582351
856.077224	3098.542691
856.390720	3105.716253
856.704173	3119.992801
857.017584	3120.433902
857.330953	3128.088894
857.644278	3136.948722
857.957561	3140.926192
858.270802	3135.489307
858.584000	3135.885038
858.897155	3130.135602
859.210268	3120.983387
859.523339	3105.943105
859.836367	3107.064762
860.149352	3099.104780
860.462295	3096.178390
860.775195	3091.114551
861.088054	3084.326637
861.400869	3085.637337
861.713642	3082.630289
862.026373	3092.392483
862.339062	3094.265272
862.651708	3102.283227
862.964312	3120.403655
863.276873	3125.606125
863.589392	3157.977895
863.901869	3183.768438
864.214303	3204.389278
864.526696	3224.062381
864.839045	3240.796491
865.151353	3256.620673
865.463619	3257.633945
865.775842	3256.103954
866.088023	3264.830192
866.400162	3257.046650
866.712258	3259.894902
867.024313	3255.027668
867.336325	3256.756784
867.648296	3255.889705
867.960224	3256.865169
868.272110	3259.872217
868.583954	3259.156373
868.895755	3267.489400
869.207515	3264.341200
869.519233	3284.420116
869.830909	3285.695528
870.142542	3302.817807
870.454134	3304.768733
870.765684	3317.812719
871.077191	3338.146213
871.388657	3350.320599
871.700081	3370.023949
872.011463	3391.310221
872.322803	3411.910896
872.634101	3424.266764
872.945357	3447.017492
873.256571	3474.446410
873.567744	3489.491733
873.878874	3496.017507
874.189963	3512.673479
874.501010	3516.237575
874.812015	3513.127183
875.122979	3528.308618
875.433900	3527.275182
875.744780	3529.642003
876.055618	3539.300854
876.366415	3536.780277
876.677169	3544.205897
876.987882	3562.772466
877.298554	3582.881629
877.609183	3622.880664
877.919771	3674.401257
878.230317	3741.715784
878.540822	3851.824666
878.851285	4008.060106
879.161707	4233.629056
879.472087	4618.609372
879.782425	5256.539665
880.092722	6460.420135
880.402977	8438.324409
880.713191	10852.212872
881.023363	13276.055094
881.333494	14654.561134
881.643583	15126.254338
881.953631	14734.614657
882.263637	13903.857709
882.573602	12872.858568
882.883526	11887.864998
883.193408	10912.981461
883.503248	9974.638728
883.813048	9126.207495
884.122806	8344.601797
884.432522	7546.932462
884.742197	6872.768876
885.051831	6286.719618
885.361424	5773.366319
885.670975	5361.746025
885.980485	5028.266136
886.289954	4751.605093
886.599382	4525.012789
886.908768	4337.093697
887.218113	4169.329138
887.527417	4031.887120
887.836680	3903.491452
888.145901	3805.289775
888.455082	3723.295408
888.764221	3652.706651
889.073319	3590.430757
889.382376	3555.465314
889.691392	3531.439175
890.000366	3525.309132
890.309300	3516.789582
890.618193	3519.821836
890.927044	3511.725742
891.235855	3520.386445
891.544625	3537.627191
891.853353	3567.390163
892.162041	3624.783700
892.470687	3717.863564
892.779293	3844.136907
893.087858	4022.694576
893.396381	4309.009429
893.704864	4724.584508
894.013306	5301.874761
894.321707	5880.631990
894.630068	6242.100365
894.938387	6283.150481
895.246665	6106.301763
895.554903	5789.409791
895.863100	5446.457574
896.171256	5178.994116
896.479371	4927.291825
896.787446	4700.271023
897.095480	4497.722503
897.403473	4343.798432
897.711425	4201.345506
898.019336	4070.567893
898.327207	3949.607927
898.635038	3839.277234
898.942827	3733.896954
899.250576	3641.774909
899.558284	3557.338102
899.865952	3501.996316
900.173579	3439.261677
900.481165	3388.260323
900.788711	3348.548634
901.096216	3312.085968
901.403681	3283.593366
901.711105	3272.863270
902.018489	3269.553753
902.325832	3303.367292
902.633135	3363.752754
902.940397	3534.910009
903.247619	3951.064821
903.554800	4718.192325
903.861941	5705.517429
904.169041	6426.478047
904.476101	6657.138561
904.783121	6382.461212
905.090100	5970.230938
905.397039	5549.309716
905.703938	5183.357234
906.010796	4850.966235
906.317614	4594.096761
906.624391	4342.281044
906.931129	4138.278151
907.237826	3951.253864
907.544483	3776.842544
907.851099	3599.966099
908.157675	3433.930656
908.464211	3288.206022
908.770707	3182.908921
909.077163	3101.804318
909.383578	3036.178577
909.689954	2990.200733
909.996289	2963.059161
910.302584	2938.269287
910.608839	2925.636155
910.915054	2912.829104
911.221229	2907.190573
911.527363	2911.455389
911.833458	2916.410844
912.139513	2931.436003
912.445527	2945.047118
912.751502	2979.752942
913.057436	3026.920498
913.363331	3086.653130
913.669186	3178.024043
913.975000	3299.067188
914.280775	3489.216991
914.586510	3768.325514
914.892205	4153.653670
915.197859	4664.980426
915.503475	5260.023102
915.809050	5752.697588
916.114585	6054.813938
916.420081	6119.335666
916.725536	6053.193207
917.030952	5816.306867
917.336328	5609.349858
917.641665	5397.049225
917.946961	5161.541641
918.252218	4958.801557
918.557435	4728.599787
918.862612	4525.002707
919.167750	4350.180533
919.472848	4151.823732
919.777906	3981.301662
920.082925	3815.044408
920.387904	3657.893998
920.692843	3542.413767
920.997743	3441.956173
921.302603	3343.013447
921.607423	3279.008437
921.912204	3206.415822
922.216946	3158.741630
922.521647	3107.800770
922.826310	3062.135478
923.130932	3022.254910
923.435516	2983.105309
923.740059	2955.638582
924.044564	2922.797986
924.349028	2896.720097
924.653454	2865.457381
924.957840	2838.131807
925.262186	2817.281594
925.566493	2794.727472
925.870761	2771.104625
926.174989	2757.871596
926.479178	2743.882394
926.783328	2724.468911
927.087438	2715.450287
927.391509	2700.203317
927.695541	2688.742254
927.999533	2678.546520
928.303486	2670.057217
928.607400	2665.084119
928.911275	2658.470125
929.215110	2651.047026
929.518906	2645.257261
929.822663	2646.154586
930.126381	2644.390182
930.430060	2649.769093
930.733699	2648.531490
931.037299	2653.552479
931.340861	2651.369660
931.644383	2656.526760
931.947866	2654.515340
932.251309	2652.052736
932.554714	2651.152890
932.858080	2650.437046
933.161407	2646.434370
933.464694	2643.071920
933.767943	2639.845582
934.071153	2633.481125
934.374323	2630.171608
934.677455	2628.107255
934.980548	2625.069960
935.283602	2621.430247
935.586617	2621.377315
935.889593	2624.202882
936.192530	2623.542490
936.495428	2632.732514
936.798287	2639.888432
937.101108	2652.624907
937.403890	2676.416632
937.706632	2701.138451
938.009336	2733.376630
938.312002	2765.324942
938.614628	2788.282357
938.917216	2807.879842
939.219765	2819.678663
939.522275	2832.261383
939.824747	2831.265755
940.127179	2822.042964
940.429573	2820.142449
940.731929	2819.444249
941.034246	2808.336067
941.336524	2807.436221
941.638763	2800.817186
941.940964	2796.196968
942.243126	2777.781633
942.545250	2768.243770
942.847335	2752.843045
943.149381	2739.224368
943.451389	2728.794221
943.753359	2713.164123
944.055290	2708.962322
944.357182	2694.335414
944.659036	2689.276616
944.960851	2687.209743
945.262628	2676.981242
945.564367	2682.408044
945.866067	2679.690862
946.167729	2679.484175
946.469352	2676.328412
946.770937	2674.352280
947.072484	2667.153512
947.373992	2668.328101
947.675462	2664.431289
947.976893	2659.493479
948.278286	2653.406286
948.579641	2651.808240
948.880958	2649.597694
949.182236	2648.443270
949.483476	2643.253402
949.784678	2643.311375
950.085841	2643.860861
950.386967	2648.496202
950.688054	2655.941986
950.989103	2660.945331
951.290114	2667.539161
951.591087	2684.812674
951.892021	2696.263655
952.192917	2711.195553
952.493776	2717.471789
952.794596	2722.074363
953.095378	2724.799107
953.396122	2721.920608
953.696828	2720.055381
953.997496	2715.881305
954.298126	2703.893442
954.598718	2695.250383
954.899272	2686.435926
955.199788	2676.252795
955.500266	2662.692091
955.800706	2647.087199
956.101108	2630.806793
956.401472	2621.757922
956.701798	2605.459872
957.002087	2588.924887
957.302337	2579.787796
957.602550	2570.171795
957.902724	2556.664023
958.202861	2549.452652
958.502960	2541.396888
958.803022	2531.677544
959.103045	2523.125226
959.403031	2517.138856
959.702979	2512.503515
960.002889	2506.363390
960.302762	2501.397853
960.602596	2499.111690
960.902393	2494.216730
961.202153	2491.965854
961.501875	2489.281440
961.801559	2484.290698
962.101205	2485.835811
962.400814	2477.497743
962.700385	2477.782568
962.999918	2475.584625
963.299414	2476.580253
963.598873	2473.820221
963.898293	2467.279324
964.197677	2472.585138
964.497022	2465.953501
964.796331	2470.616568
965.095601	2466.823100
965.394835	2465.782101
965.694030	2465.555249
965.993189	2465.220013
966.292309	2464.335290
966.591393	2461.156843
966.890439	2465.550208
967.189447	2463.206072
967.488419	2463.750516
967.787353	2464.882255
968.086249	2463.566514
968.385108	2466.389560
968.683930	2464.731021
968.982714	2467.652369
969.281462	2469.464664
969.580172	2468.862246
969.878844	2474.888946
970.177480	2476.875160
970.476078	2482.705255
970.774639	2480.164513
971.073162	2481.127374
971.371649	2482.909422
971.670098	2482.128043
971.968510	2485.626603
972.266885	2485.596357
972.565223	2493.037100
972.863524	2489.750267
973.161788	2495.207316
973.460014	2494.052892
973.758204	2492.739672
974.056356	2495.051041
974.354471	2497.531288
974.652550	2496.155053
974.950591	2498.186638
975.248595	2494.700680
975.546563	2497.611947
975.844493	2494.584734
976.142386	2490.176245
976.440243	2489.808241
976.738062	2484.446973
977.035845	2484.663743
977.333590	2482.584267
977.631299	2479.428505
977.928971	2475.168730
978.226606	2476.066055
978.524204	2477.038998
978.821765	2471.944912
979.119290	2471.491208
979.416777	2470.689665
979.714228	2473.227886
980.011642	2470.656897
980.309020	2479.940182
980.606360	2482.627117
980.903664	2491.736482
981.200931	2505.219048
981.498162	2526.570855
981.795356	2555.877603
982.092513	2597.031062
982.389633	2642.933289
982.686717	2683.948116
982.983764	2717.630586
983.280775	2738.127917
983.577749	2738.367372
983.874686	2728.403532
984.171587	2711.523228
984.468451	2695.814992
984.765279	2677.765141
985.062070	2659.233860
985.358824	2639.767444
985.655543	2615.438836
985.952224	2593.151894
986.248869	2563.787173
986.545478	2533.918337
986.842050	2513.776407
987.138586	2497.380054
987.435086	2484.157107
987.731549	2469.300827
988.027975	2464.403346
988.324366	2459.667182
988.620719	2452.584361
988.917037	2449.710903
989.213318	2444.863833
989.509563	2443.497681
989.805772	2444.568926
990.101944	2439.454675
990.398080	2442.781837
990.694180	2440.833431
990.990244	2441.128338
991.286271	2438.466609
991.582262	2440.662032
991.878217	2441.955088
992.174136	2442.991045
992.470019	2444.800819
992.765865	2446.194698
993.061676	2445.735953
993.357450	2450.356171
993.653188	2450.943465
993.948890	2456.670216
994.244556	2463.533747
994.540186	2473.187556
994.835780	2487.416213
995.131337	2499.146978
995.426859	2517.847138
995.722345	2538.893956
996.017795	2559.184600
996.313208	2572.021898
996.608586	2580.415419
996.903928	2587.110072
997.199234	2582.290728
997.494504	2584.226532
997.789738	2575.838052
998.084936	2566.900086
998.380099	2550.702858
998.675225	2540.371014
998.970316	2526.459950
999.265371	2514.436798
999.560390	2497.455671
999.855373	2486.201295
1000.150320	2477.238123
1000.445232	2466.354272
1000.740108	2461.983592
1001.034948	2455.054526
1001.329752	2449.012703
1001.624521	2443.323761
1001.919254	2435.537699
1002.213951	2437.052566
1002.508613	2431.910589
1002.803239	2433.821186
1003.097829	2427.877666
1003.392384	2432.460074
1003.686903	2426.690474
1003.981386	2424.674012
1004.275834	2426.589651
1004.570246	2426.589651
1004.864623	2422.718045
1005.158964	2424.389187
1005.453270	2422.602098
1005.747540	2422.783580
1006.041775	2424.013621
1006.335974	2422.471028
1006.630138	2421.472880
1006.924266	2420.048754
1007.218359	2419.779052
1007.512416	2419.726120
1007.806438	2417.913825
1008.100425	2419.348033
1008.394376	2417.810481
1008.688292	2418.773342
1008.982172	2418.745615
1009.276017	2419.302663
1009.569827	2416.295615
1009.863602	2419.007755
1010.157341	2416.126736
1010.451045	2416.787127
1010.744714	2415.531880
1011.038347	2418.029772
1011.331945	2413.875861
1011.625508	2416.096489
1011.919036	2415.075655
1012.212528	2416.124215
1012.505986	2416.827456
1012.799408	2414.647157
1013.092795	2412.580284
1013.386147	2412.260171
1013.679464	2414.047260
1013.972745	2413.580953
1014.265992	2414.448032
1014.559204	2412.875192
1014.852380	2414.899215
1015.145521	2415.385686
1015.438628	2414.952147
1015.731699	2414.823598
1016.024736	2413.722106
1016.317737	2413.391910
1016.610703	2416.764442
1016.903635	2411.569533
1017.196531	2409.432084
1017.489393	2413.994328
1017.782219	2411.473751
1018.075011	2415.912487
1018.367768	2417.984401
1018.660490	2415.115985
1018.953177	2415.115985
1019.245829	2415.115985
