Dividing Wavelength (nm)	Counts (n)	Blue Motor Position (mm): 26.800000	Red Motor Position (mm): 0.000000	
326.493990	1974.294807
326.888308	1974.294807
327.282561	1974.294807
327.676750	1950.866045
328.070874	1949.298246
328.464933	1955.002311
328.858929	1964.852726
329.252859	1978.688173
329.646726	1992.120327
330.040528	2006.601042
330.434265	2026.493435
330.827938	2045.831301
331.221547	2066.769733
331.615091	2086.813361
332.008571	2107.560230
332.401986	2127.639145
332.795338	2146.218318
333.188625	2168.727070
333.581847	2185.647703
333.975006	2206.102184
334.368100	2221.470142
334.761129	2239.083933
335.154095	2255.031624
335.546996	2293.490586
335.939833	2364.585979
336.332606	2379.749770
336.725315	2389.978271
337.117960	2400.897410
337.510540	2406.876219
337.903056	2417.913825
338.295508	2422.254258
338.687896	2431.330856
339.080220	2436.117432
339.472480	2443.147321
339.864676	2445.093206
340.256807	2447.850717
340.648875	2451.129988
341.040879	2450.018413
341.432818	2452.239042
341.824694	2455.649382
342.216506	2454.996553
342.608253	2456.443364
342.999937	2451.238372
343.391557	2452.264247
343.783113	2450.363732
344.174605	2448.818619
344.566033	2446.121601
344.957397	2446.250151
345.348697	2446.119081
345.739934	2442.635643
346.131106	2441.602207
346.522215	2436.976948
346.913260	2438.050714
347.304241	2437.302103
347.695159	2433.012081
348.086012	2435.615837
348.476802	2430.143664
348.867528	2430.247008
349.258191	2428.890937
349.648789	2426.554363
350.039324	2427.217274
350.429796	2427.156781
350.820203	2424.817685
351.210548	2424.840370
351.600828	2422.909608
351.991045	2421.145205
352.381198	2419.501788
352.771288	2424.028745
353.161314	2422.508837
353.551276	2419.486665
353.941175	2421.193096
354.331010	2423.819537
354.720782	2423.373395
355.110490	2426.244332
355.500135	2423.199475
355.889717	2421.387180
356.279235	2427.050916
356.668689	2425.828437
357.058080	2422.425658
357.447408	2422.841553
357.836672	2421.563620
358.225873	2421.316604
358.615010	2421.009093
359.004084	2426.463622
359.393095	2426.934970
359.782043	2428.744744
360.170927	2426.158632
360.559748	2431.315732
360.948505	2428.752306
361.337199	2428.822882
361.725830	2430.524271
362.114398	2433.828748
362.502903	2431.971083
362.891344	2429.810948
363.279722	2431.661052
363.668037	2434.715991
364.056289	2432.447472
364.444478	2434.201793
364.832603	2433.707760
365.220665	2433.735486
365.608665	2434.902513
365.996601	2437.241609
366.384474	2434.383275
366.772284	2436.364448
367.160031	2432.742379
367.547715	2437.861671
367.935336	2434.370672
368.322893	2435.116762
368.710388	2437.420570
369.097820	2441.995417
369.485189	2438.690941
369.872495	2440.147834
370.259738	2439.011054
370.646918	2441.042639
371.034035	2444.084975
371.421090	2438.852257
371.808081	2440.039449
372.195010	2441.861826
372.581875	2442.181940
372.968678	2445.554472
373.355418	2445.347784
373.742096	2444.957095
374.128710	2446.487085
374.515262	2445.821653
374.901751	2447.165120
375.288177	2445.579677
375.674540	2443.626230
376.060841	2445.594801
376.447079	2446.943309
376.833254	2444.934410
377.219367	2442.219748
377.605417	2447.129832
377.991404	2443.820315
378.377329	2444.359718
378.763191	2440.951898
379.148991	2450.416664
379.534727	2448.669905
379.920402	2448.233845
380.306013	2450.701490
380.691563	2451.543362
381.077049	2451.193002
381.462474	2449.189143
381.847835	2449.181582
382.233134	2452.483537
382.618371	2453.549742
383.003545	2454.603343
383.388657	2453.242231
383.773706	2452.970009
384.158693	2454.308435
384.543618	2456.213991
384.928480	2457.338169
385.313280	2453.174176
385.698017	2453.915225
386.082692	2455.475462
386.467305	2453.640482
386.851856	2456.390432
387.236344	2459.304219
387.620770	2457.993519
388.005133	2457.854887
388.389435	2457.817078
388.773674	2454.595781
389.157851	2462.281020
389.541965	2458.606019
389.926018	2460.703139
390.310008	2459.894034
390.693936	2458.505196
391.077802	2460.531740
391.461606	2460.216667
391.845348	2461.915536
392.229027	2460.622480
392.612645	2462.439816
392.996200	2461.809672
393.379694	2459.924281
393.763125	2461.600464
394.146494	2463.747996
394.529801	2462.157512
394.913047	2465.212451
395.296230	2463.697584
395.679351	2462.858232
396.062410	2466.462657
396.445408	2465.651031
396.828343	2464.519292
397.211217	2464.126082
397.594028	2464.620115
397.976778	2464.390743
398.359466	2463.780763
398.742092	2463.332101
399.124656	2465.991309
399.507158	2467.599437
399.889598	2468.592545
400.271977	2470.903914
400.654294	2469.182360
401.036549	2470.674541
401.418742	2470.155302
401.800874	2471.256794
402.182944	2470.712350
402.564952	2470.808132
402.946898	2473.437093
403.328783	2471.871815
403.710606	2472.862402
404.092367	2475.282156
404.474067	2476.744090
404.855705	2474.261322
405.237282	2475.345170
405.618797	2476.907928
406.000250	2476.988586
406.381642	2478.006899
406.762972	2480.416571
407.144240	2477.800212
407.525447	2477.447331
407.906593	2477.422126
408.287677	2481.802888
408.668700	2480.003196
409.049661	2479.612507
409.430560	2479.597383
409.811399	2481.374390
410.192176	2482.453197
410.572891	2481.908752
410.953545	2481.727271
411.334138	2483.602580
411.714669	2481.664257
412.095139	2482.140646
412.475547	2481.744915
412.855894	2482.690131
413.236180	2482.851448
413.616405	2484.494864
413.996568	2484.268012
414.376670	2484.416727
414.756711	2487.043168
415.136691	2486.100472
415.516609	2486.115595
415.896466	2486.801192
416.276262	2490.173724
416.655997	2486.221460
417.035670	2484.164669
417.415283	2491.643221
417.794834	2485.397231
418.174324	2486.312200
418.553753	2488.910915
418.933121	2491.905361
419.312428	2489.871255
419.691674	2491.731441
420.070859	2495.061123
420.449983	2494.010042
420.829045	2493.054744
421.208047	2494.778818
421.586988	2497.790908
421.965867	2497.380054
422.344686	2496.943994
422.723444	2498.554642
423.102141	2497.334683
423.480777	2500.611433
423.859352	2497.846360
424.237866	2503.068996
424.616319	2499.146978
424.994712	2503.452123
425.373044	2502.877432
425.751314	2504.321723
426.129524	2503.852895
426.507673	2505.871877
426.885762	2505.292145
427.263789	2509.284738
427.641756	2509.456138
428.019662	2510.275325
428.397508	2508.029491
428.775292	2512.894205
429.153016	2513.395799
429.530679	2512.087620
429.908282	2514.809843
430.285824	2515.349247
430.663305	2518.956192
431.040726	2515.487878
431.418086	2521.055833
431.795385	2519.616583
432.172624	2522.358971
432.549802	2520.760925
432.926920	2523.815864
433.303977	2524.272089
433.680974	2522.895854
434.057910	2526.754857
434.434786	2530.949097
434.811601	2531.980013
435.188355	2534.588810
435.565050	2533.136958
435.941683	2534.364479
436.318257	2537.553009
436.694770	2537.454706
437.071222	2542.818494
437.447614	2542.238761
437.823946	2542.793288
438.200218	2549.714792
438.576429	2552.439536
438.952580	2554.042623
439.328670	2555.812068
439.704700	2560.926318
440.080670	2563.668706
440.456580	2570.116342
440.832429	2577.695717
441.208218	2575.505335
441.583947	2584.576892
441.959616	2589.078642
442.335224	2595.609457
442.710773	2604.439038
443.086261	2614.251644
443.461689	2620.079218
443.837057	2631.341155
444.212365	2645.405975
444.587612	2654.762356
444.962800	2664.932884
445.337927	2683.567509
445.712995	2687.925587
446.088002	2720.055381
446.462949	2739.771333
446.837837	2760.124992
447.212664	2783.768004
447.587431	2853.466997
447.962139	2931.100766
448.336786	3004.247908
448.711374	3011.093795
449.085901	2979.954588
449.460369	3013.122860
449.834776	3059.332596
450.209124	3166.242867
450.583412	3210.191646
450.957640	3271.396295
451.331808	3285.251906
451.705917	3297.217085
452.079965	3355.792772
452.453954	3430.298505
452.827883	3497.915502
453.201752	3554.585632
453.575562	3638.407418
453.949311	3767.155967
454.323001	3850.813915
454.696632	3931.555555
455.070202	4116.767548
455.443713	4227.932552
455.817164	4368.258110
456.190556	4516.405019
456.563888	4585.690637
456.937160	4729.363522
457.310373	4714.270307
457.683526	4861.913101
458.056619	4982.454651
458.429653	5104.821099
458.802628	5289.692813
459.175542	5440.072953
459.548398	5735.781996
459.921194	6091.649649
460.293930	6359.539085
460.666607	6808.892416
461.039224	7238.310503
461.411782	7480.462328
461.784280	7478.163562
462.156719	7578.686690
462.529099	7670.740680
462.901419	7649.890468
463.273680	7657.404308
463.645882	7867.209569
464.018024	8061.301554
464.390106	8433.094212
464.762130	9204.957880
465.134094	10342.363175
465.505999	11816.136940
465.877845	13223.150705
466.249631	13801.313078
466.621358	13652.767918
466.993026	13401.073189
467.364634	13155.841219
467.736184	12944.664764
468.107674	12896.708267
468.479105	12979.287408
468.850477	13066.852251
469.221790	12928.840582
469.593043	12677.879341
469.964238	12677.309690
470.335373	12912.318200
470.706449	13754.752981
471.077467	14916.370938
471.448425	16845.146647
471.819324	18254.562522
472.190164	17881.504534
472.560945	16832.964699
472.931667	15968.008563
473.302330	15830.962275
473.672934	15793.294773
474.043479	16283.834331
474.413965	16244.072230
474.784393	16360.462390
475.154761	17025.776230
475.525070	17327.542220
475.895321	17404.369405
476.265513	17966.064849
476.635645	18710.693683
477.005719	18924.713349
477.375734	19438.537996
477.745691	20066.935467
478.115588	21031.933301
478.485427	22368.413762
478.855207	24477.536749
479.224928	26266.496056
479.594591	27551.990286
479.964194	27319.797261
480.333739	27754.422860
480.703226	28149.235947
481.072653	28913.505117
481.442022	29584.875904
481.811333	30112.392325
482.180584	29650.153805
482.549777	29653.642284
482.918912	29661.390537
483.287988	29817.189917
483.657005	29602.356105
484.025964	29504.673667
484.394864	29837.649440
484.763706	29857.453613
485.132489	29588.818086
485.501213	29778.511664
485.869879	30184.367399
486.238487	30200.128566
486.607036	30624.245881
486.975527	30526.490346
487.343959	30942.592225
487.712333	31276.543462
488.080648	31465.150671
488.448905	32069.340522
488.817104	32212.569785
489.185244	33180.040304
489.553326	34712.377154
489.921350	37107.620910
490.289315	39789.388727
490.657222	40642.336835
491.025070	41172.600684
491.392861	40644.441516
491.760593	39836.551242
492.128267	38676.203656
492.495883	37647.798189
492.863440	36760.421521
493.230939	35918.929436
493.598380	35252.682982
493.965763	35211.189245
494.333088	34769.528715
494.700354	34577.349848
495.067563	34548.005292
495.434713	34632.553003
495.801805	34883.874687
496.168839	34757.346767
496.535815	34660.246582
496.902733	34860.188826
497.269593	34682.392371
497.636395	34783.684275
498.003139	35297.030012
498.369825	34991.437787
498.736453	35409.074698
499.103023	35161.725443
499.469535	35208.630859
499.835989	35442.212722
500.202385	35280.467301
500.568723	35439.896312
500.935003	35748.175473
501.301226	35708.524277
501.667390	36374.281739
502.033497	36736.390341
502.399546	36334.572571
502.765537	35847.382860
503.131470	36313.039282
503.497345	36735.848417
503.863163	35627.454962
504.228923	36289.106404
504.594625	36768.172295
504.960269	36214.451957
505.325856	36930.436955
505.691385	36445.006607
506.056856	36662.189597
506.422270	37165.964704
506.787625	36840.278439
507.152924	37095.260001
507.518164	37267.158306
507.883347	36610.273274
508.248472	36920.248783
508.613540	37426.345341
508.978550	37784.552090
509.343503	37592.441278
509.708398	37856.325517
510.073236	38412.289169
510.438016	38473.231678
510.802738	38003.038218
511.167403	38637.737131
511.532010	38902.443078
511.896561	39248.097354
512.261053	40104.049989
512.625488	39710.903003
512.989866	39641.698043
513.354186	39524.914673
513.718449	39540.075943
514.082655	40240.690464
514.446803	39948.144744
514.810894	40486.015695
515.174927	40448.060848
515.538904	40394.213763
515.902822	41053.737838
516.266684	40554.769472
516.630488	40990.536893
516.994235	40870.990970
517.357925	41436.913422
517.721558	41609.144443
518.085133	41957.999851
518.448651	42088.059099
518.812112	41890.551733
519.175516	42013.744930
519.538863	42342.256761
519.902152	42337.903725
520.265385	42811.709172
520.628560	42842.321579
520.991678	42666.851616
521.354739	42906.024119
521.717743	43223.334507
522.080690	43130.864622
522.443580	43690.430178
522.806413	43747.997635
523.169189	43702.188670
523.531908	43891.836877
523.894569	43766.629739
524.257174	43941.411584
524.619722	44246.802164
524.982213	44248.369963
525.344647	44162.430892
525.707025	44228.732148
526.069345	44623.623373
526.431608	44551.580243
526.793815	44871.007915
527.155964	44418.907156
527.518057	44579.586373
527.880093	44385.595212
528.242072	44909.547537
528.603995	44617.798319
528.965860	44635.870856
529.327669	44726.210853
529.689421	44637.952853
530.051117	44605.777688
530.412755	44748.888484
530.774337	44829.766236
531.135862	44632.268952
531.497331	44823.542931
531.858743	44733.525568
532.220098	45082.443990
532.581396	44792.312983
532.942638	44466.261235
533.303824	44776.879491
533.664953	44730.301750
534.026025	44481.881250
534.387040	44939.902844
534.747999	44887.368980
535.108902	45049.923507
535.469748	44580.453452
535.830537	44685.115367
536.191270	44901.799283
536.551947	44556.641562
536.912567	44867.799221
537.273131	44972.012474
537.633638	44483.867465
537.994089	44833.297564
538.354483	44441.312564
538.714821	44982.747611
539.075103	45334.612588
539.435328	45111.400378
539.795497	44998.044992
540.155609	44978.989431
540.515665	45451.395958
540.875665	44920.338126
541.235609	45235.049799
541.595496	45215.792592
541.955328	45878.842954
542.315102	45254.294404
542.674821	45058.629579
543.034483	45102.785046
543.394090	45067.870014
543.753640	45032.171083
544.113134	46014.301278
544.472571	45055.284774
544.831953	46264.818898
545.191278	45502.528381
545.550548	45235.765643
545.909761	45687.125353
546.268918	45883.037194
546.628019	46194.656119
546.987064	45768.507220
547.346053	45060.633438
547.704986	45906.120638
548.063863	45505.381674
548.422684	45687.745415
548.781449	45565.394090
549.140158	45940.211440
549.498811	45786.587318
549.857408	45238.427372
550.215949	46070.149701
550.574434	45990.915366
550.932864	45791.620910
551.291237	46495.103847
551.649555	46108.613705
552.007817	46327.009093
552.366022	46007.160484
552.724173	46159.899884
553.082267	46568.540856
553.440305	46851.140379
553.798288	46203.009311
554.156215	46496.061666
554.514086	46695.449383
554.871902	46443.986547
555.229661	46474.331773
555.587365	46295.779145
555.945014	46392.108033
556.302606	46326.391551
556.660143	46554.612148
557.017625	46632.755073
557.375050	46442.154088
557.732421	46786.880791
558.089735	46766.922863
558.446994	46675.181424
558.804197	47135.879871
559.161345	47075.171776
559.518437	46359.461521
559.875474	46639.457288
560.232455	46813.369533
560.589381	46979.372209
560.946251	46671.904674
561.303065	47364.105509
561.659825	47156.639343
562.016528	46844.435644
562.373177	46568.092193
562.729770	47038.860345
563.086307	46574.229798
563.442789	47026.330557
563.799216	47073.125068
564.155587	46867.493882
564.511904	46892.077068
564.868164	46991.879312
565.224370	47208.109524
565.580520	46948.858105
565.936615	47183.987602
566.292654	46905.078204
566.648638	47129.984242
567.004567	47092.919158
567.360441	47127.380486
567.716260	46998.853748
568.072023	47296.085220
568.427732	47271.686035
568.783385	46830.189343
569.138982	47215.870380
569.494525	47179.518620
569.850013	46940.081456
570.205445	46914.132117
570.560823	46873.018986
570.916145	46749.256139
571.271412	46784.425749
571.626625	46547.000005
571.981782	46596.710823
572.336884	46302.536811
572.691931	46594.918693
573.046923	46218.200828
573.401860	46074.414517
573.756743	46049.987607
574.111570	46172.192738
574.466342	46016.345466
574.821059	46145.709036
575.175722	45673.995667
575.530330	45684.115784
575.884882	45409.355255
576.239380	45369.540222
576.593823	45346.527355
576.948211	45267.988698
577.302544	44814.189070
577.656823	44850.989493
578.011047	45066.675261
578.365216	44797.651565
578.719330	44588.428557
579.073389	44438.832317
579.427394	44534.659610
579.781344	44512.279408
580.135239	44194.293505
580.489080	44255.546045
580.842866	43740.685441
581.196597	44206.074682
581.550273	44156.729348
581.903895	44015.385476
582.257463	44441.420949
582.610975	43836.789998
582.964434	44110.539775
583.317837	43761.215540
583.671186	43597.872073
584.024481	43841.221172
584.377721	43391.734251
584.730906	43649.624559
585.084037	43691.415724
585.437113	43403.505346
585.790135	43428.809417
586.143103	43044.509657
586.496016	43187.260010
586.848874	43202.116291
587.201679	43224.652769
587.554428	42704.539283
587.907124	42892.171029
588.259765	42666.808767
588.612352	42915.272116
588.964884	42304.748056
589.317362	42593.470060
589.669786	42535.842110
590.022155	42314.633759
590.374470	42730.168509
590.726731	42267.884619
591.078937	41806.266161
591.431090	41881.051678
591.783188	41547.576831
592.135232	41242.587023
592.487222	41471.042033
592.839157	41562.662484
593.191038	41252.896183
593.542866	41014.850378
593.894639	40412.898800
594.246358	40691.674607
594.598022	40669.707779
594.949633	40290.789451
595.301190	40249.394016
595.652692	40086.519376
596.004141	40417.219068
596.355535	39445.498856
596.706876	39390.046164
597.058162	39232.915919
597.409395	39692.953975
597.760573	39766.159090
598.111698	39338.308802
598.462768	39362.392914
598.813785	39401.101414
599.164748	38871.692040
599.515657	39252.629351
599.866511	38753.464379
600.217312	39353.649033
600.568060	38324.043771
600.918753	39052.916480
601.269392	39015.438021
601.619978	38686.437198
601.970510	38898.838653
602.320988	39073.459182
602.671412	39364.916012
603.021783	39111.126683
603.372100	38754.810368
603.722363	38885.109071
604.072572	38951.294380
604.422728	38968.550249
604.772830	38788.704565
605.122878	38876.042556
605.472872	38806.129314
605.822813	39089.966440
606.172701	38928.795710
606.522534	39149.275615
606.872314	39414.621789
607.222041	39194.766987
607.571714	39573.249256
607.921333	39022.359526
608.270899	39303.310591
608.620411	39630.347885
608.969870	39436.981827
609.319276	39424.026061
609.668627	39497.889047
610.017926	39968.810954
610.367171	40128.144183
610.716362	40222.444007
611.065500	40183.422956
611.414585	40352.818328
611.763616	40648.504686
612.112594	40582.014388
612.461518	40786.254215
612.810389	41065.085476
613.159207	40937.476228
613.507971	41021.419001
613.856682	41492.393840
614.205340	41379.010728
614.553945	42069.406830
614.902496	41523.873325
615.250994	41976.732778
615.599439	42058.039028
615.947830	42264.698609
616.296169	42321.371261
616.644454	42450.530664
616.992686	42618.443937
617.340864	43134.584994
617.688990	42863.496946
618.037063	43452.709528
618.385082	43425.956124
618.733048	43717.889343
619.080961	43725.914860
619.428821	43746.278601
619.776628	43840.880894
620.124382	43654.519519
620.472083	43784.019200
620.819731	43911.005865
621.167326	43589.465949
621.514868	43573.782920
621.862357	43139.749656
622.209793	43177.258361
622.557176	42834.843027
622.904506	42589.454781
623.251783	42237.050401
623.599007	42026.685572
623.946179	41805.285657
624.293297	41751.317584
624.640363	41170.375015
624.987376	41153.857674
625.334336	40920.598445
625.681243	40560.251727
626.028097	40542.968131
626.374899	40395.337940
626.721647	40356.135407
627.068343	40258.616807
627.414987	40025.932269
627.761577	39813.074589
628.108115	40140.230350
628.454600	39592.292215
628.801032	39780.513776
629.147412	39738.210933
629.493739	39757.085013
629.840014	39416.587839
630.186236	39737.674051
630.532405	39367.401301
630.878521	39588.289539
631.224585	39458.154673
631.570597	39176.452475
631.916556	39347.065286
632.262462	39292.562851
632.608316	39300.769850
632.954117	39183.883136
633.299866	39178.962970
633.645562	39105.493194
633.991206	38608.531206
634.336797	38181.331227
634.682336	38182.137811
635.027823	37937.122611
635.373257	37746.176306
635.718639	37506.875253
636.063968	37372.891467
636.409245	36811.584192
636.754470	36865.033025
637.099642	36624.121324
637.444762	36166.629051
637.789829	36310.566596
638.134845	35960.594573
638.479808	35922.052431
638.824719	35817.844219
639.169577	35429.884581
639.514383	35493.140979
639.859137	35201.389242
640.203839	35429.483809
640.548489	35076.953400
640.893086	35146.700284
641.237632	34896.437243
641.582125	35019.232188
641.926566	34940.597750
642.270955	34915.961631
642.615292	34928.181388
642.959576	34912.180766
643.303809	34907.283285
643.647990	35051.419956
643.992118	35023.928023
644.336195	35020.903331
644.680219	35118.121983
645.024192	35418.783960
645.368112	35924.452020
645.711981	35945.796265
646.055797	36805.544889
646.399562	36727.548157
646.743274	37663.501383
647.086935	38102.845502
647.430544	37996.812393
647.774101	38117.048953
648.117606	38362.172538
648.461059	38650.367742
648.804460	38262.367775
649.147810	37661.074067
649.491108	37403.536641
649.834354	37045.579430
650.177548	36225.915541
650.520690	35781.842819
650.863781	35792.567874
651.206820	35632.254140
651.549807	35211.441302
651.892742	34750.677320
652.235626	34547.579314
652.578458	34418.596352
652.921238	33815.583611
653.263967	34132.657064
653.606644	33824.887060
653.949269	33795.234993
654.291843	33406.161260
654.634365	33794.377997
654.976836	33389.182654
655.319255	33397.230856
655.661622	33395.607605
656.003938	33163.638910
656.346203	33025.639844
656.688416	33261.023920
657.030577	33056.174113
657.372687	32894.683270
657.714746	33158.711183
658.056753	33272.089253
658.398708	32737.996647
658.740612	32785.804430
659.082465	33062.478076
659.424266	32887.182033
659.766016	33005.800383
660.107715	32887.169431
660.449362	33012.263143
660.790958	32999.120855
661.132503	33035.258366
661.473996	33054.308886
661.815438	33166.880372
662.156829	33355.631255
662.498168	33136.767040
662.839456	33160.228570
663.180693	33293.292346
663.521879	33457.409630
663.863013	33430.384004
664.204097	33402.569438
664.545129	33877.665421
664.886110	33851.990824
665.227040	33905.976541
665.567918	34024.509191
665.908746	34100.197075
666.249522	34260.727578
666.590248	34263.956437
666.930922	34364.963516
667.271545	34333.942776
667.612118	34420.184315
667.952639	34202.993763
668.293109	34254.055611
668.633528	34139.646624
668.973896	34079.079681
669.314213	34105.018938
669.654480	33842.145451
669.994695	33872.021849
670.334859	33764.557052
670.674973	33666.196578
671.015035	33819.351873
671.355047	33781.306285
671.695008	33733.662340
672.034918	33623.114878
672.374777	33701.464491
672.714585	33543.119328
673.054342	33785.379538
673.394049	33537.011970
673.733705	33802.559790
674.073310	33482.615399
674.412864	33540.969276
674.752368	33138.395332
675.091820	33450.089875
675.431223	33025.256717
675.770574	32755.436519
676.109875	32606.649384
676.449125	32333.312981
676.788324	32252.621752
677.127473	31719.497048
677.466571	31649.082211
677.805619	31307.130663
678.144616	31310.362042
678.483562	31224.730483
678.822458	30904.337429
679.161303	30834.010813
679.500098	30738.516235
679.838842	30633.982869
680.177535	30797.641408
680.516179	31078.794120
680.854771	31315.405717
681.193314	32170.947498
681.531805	33291.449804
681.870247	34081.053293
682.208638	34815.909851
682.546978	35028.790216
682.885268	35109.178976
683.223508	34578.421093
683.561697	34234.092642
683.899836	34047.312850
684.237925	33553.955288
684.575963	33398.536515
684.913951	32947.408698
685.251889	33103.359313
685.589776	33089.418002
685.927614	33085.634616
686.265401	33221.183682
686.603137	33332.368850
686.940824	33849.326574
687.278460	34216.113366
687.616046	34357.265674
687.953582	34979.437320
688.291068	34839.575548
688.628504	35108.027072
688.965889	35045.882248
689.303224	34646.121269
689.640510	34300.066222
689.977745	33562.588264
690.314930	32771.041411
690.652065	32254.532349
690.989150	31489.557418
691.326185	30608.885485
691.663170	29899.186805
692.000105	29146.938267
692.336990	28472.164701
692.673825	28028.449901
693.010610	27504.459767
693.347345	26932.583713
693.684030	26282.239579
694.020665	26012.971388
694.357251	25343.707803
694.693786	25297.041842
695.030272	25065.589866
695.366707	24521.901423
695.703093	24228.423091
696.039429	24226.578028
696.375716	23963.470127
696.711952	23924.408746
697.048139	23778.532877
697.384276	23609.346713
697.720363	23725.956163
698.056400	23524.322612
698.392388	23298.688128
698.728326	23267.919445
699.064214	23052.402557
699.400053	23007.826154
699.735842	22643.464157
700.071581	22372.434082
700.407270	22077.551788
700.742910	21897.544787
701.078501	21622.537242
701.414042	21345.674552
701.749533	21060.468752
702.084974	20706.751152
702.420366	20899.340873
702.755709	20476.690534
703.091002	20175.070738
703.426246	20204.135510
703.761440	20096.088460
704.096584	19835.002061
704.431679	19786.874165
704.766725	19696.783705
705.101721	19629.186873
705.436668	19725.102387
705.771565	19406.756042
706.106413	19739.164685
706.441212	19730.982893
706.775961	19853.377067
707.110661	19931.086453
707.445311	20278.870616
707.779913	20131.847885
708.114465	20376.666480
708.448967	20657.927577
708.783421	21346.662618
709.117825	21632.299436
709.452180	21848.759020
709.786485	22238.777970
710.120742	23049.140930
710.454949	23061.065780
710.789107	23528.985680
711.123216	24229.201949
711.457275	24360.828996
711.791286	24893.656273
712.125247	24963.108249
712.459159	24662.327805
712.793023	25310.163965
713.126837	24200.885788
713.460602	24454.349962
713.794318	24063.612648
714.127985	23677.760212
714.461602	22792.604173
714.795171	22745.711360
715.128691	21730.969940
715.462162	21192.720903
715.795584	20774.940319
716.128957	20515.623365
716.462281	20107.299986
716.795556	19877.677949
717.128782	19386.414986
717.461960	18839.028857
717.795088	18764.248381
718.128167	18362.659983
718.461198	17902.178306
718.794180	17766.551103
719.127113	17402.441163
719.459997	17208.770115
719.792833	16857.691558
720.125619	16829.042681
720.458357	16508.664751
720.791046	16347.569639
721.123686	16192.740681
721.456278	15955.952643
721.788821	15909.805921
722.121315	15646.382947
722.453761	15730.318159
722.786158	15652.719678
723.118506	15663.054043
723.450805	15525.317117
723.783056	15687.480954
724.115259	15580.384161
724.447412	15518.032650
724.779518	15761.154897
725.111574	15791.303518
725.443582	15975.600541
725.775542	15967.907740
726.107453	16426.773727
726.439315	16315.250802
726.771129	16715.137810
727.102895	17076.459991
727.434612	17284.768030
727.766281	17407.159683
728.097901	17665.113005
728.429473	17712.146971
728.760996	17688.788784
729.092471	17767.854241
729.423897	17651.728742
729.755276	17521.354421
730.086606	17625.459289
730.417887	18153.678951
730.749120	18670.208177
731.080305	18839.469958
731.411442	19170.323406
731.742530	19239.271267
732.073570	19337.157872
732.404562	19629.141503
732.735506	19432.017264
733.066401	19145.712493
733.397249	18624.807545
733.728048	17989.601996
734.058798	17161.721026
734.389501	16482.246584
734.720156	16026.813623
735.050762	15505.613767
735.381320	15154.068904
735.711831	14921.467545
736.042293	14568.370006
736.372707	14580.355349
736.703073	14369.924985
737.033391	14553.864086
737.363661	14524.489282
737.693883	14635.142609
738.024056	14804.512776
738.354182	14986.780734
738.684260	15267.784732
739.014290	15498.072201
739.344272	15684.955336
739.674207	15962.312059
740.004093	16072.299954
740.333931	16058.593056
740.663722	16097.120075
740.993464	16095.779128
741.323159	15912.301292
741.652806	15631.161183
741.982405	15421.141673
742.311956	15080.699951
742.641460	14966.031345
742.970915	14657.036341
743.300323	14332.007946
743.629683	14111.253299
743.958996	13842.136342
744.288260	13566.912027
744.617477	13273.463941
744.946647	13199.346377
745.275768	12923.358327
745.604842	12742.234711
745.933869	12573.966036
746.262847	12521.477543
746.591778	12457.245681
746.920662	12350.940349
747.249498	12355.686595
747.578286	12469.034419
747.907027	12612.591357
748.235720	12838.697189
748.564365	12856.346269
748.892963	12766.555757
749.221514	12820.975013
749.550017	12677.506295
749.878473	12644.509423
750.206881	12416.752613
750.535242	12326.331957
750.863555	12245.058474
751.191821	12148.038948
751.520039	12168.019561
751.848210	12079.350706
752.176334	12107.135026
752.504411	12013.064574
752.832440	11859.085051
753.160421	11921.048393
753.488356	11803.589508
753.816243	11701.049919
754.144082	11565.677294
754.471875	11507.671257
754.799620	11456.201076
755.127318	11422.614389
755.454969	11390.524924
755.782572	11336.662716
756.110129	11344.791576
756.437638	11267.092272
756.765100	11260.581622
757.092515	11260.863927
757.419882	11273.529826
757.747203	11283.768409
758.074477	11363.355625
758.401703	11317.914665
758.728882	11474.775208
759.056014	11519.071827
759.383099	11635.729168
759.710138	11732.161400
760.037129	11814.990078
760.364073	11835.497492
760.690970	11819.171715
761.017820	11818.697847
761.344623	12003.138542
761.671379	12323.612254
761.998088	12954.222792
762.324751	14503.571015
762.651366	17368.786420
762.977935	21023.257475
763.304456	23242.559921
763.630931	23699.381721
763.957359	22506.054906
764.283740	20595.782752
764.610074	18719.094766
764.936362	16605.069257
765.262602	15092.045068
765.588796	13632.981389
765.914943	12600.774892
766.241044	11758.501428
766.567097	11120.830755
766.893104	10582.778323
767.219064	10218.088651
767.544978	9847.271456
767.870845	9531.279330
768.196665	9343.791257
768.522438	9145.563005
768.848165	8983.056370
769.173846	8822.881268
769.499479	8698.642032
769.825066	8543.916417
770.150607	8361.129220
770.476101	8293.900392
770.801548	8187.736213
771.126949	8048.865027
771.452303	7961.474105
771.777611	7794.581665
772.102872	7774.888398
772.428087	7655.786097
772.753256	7526.964452
773.078378	7437.703261
773.403453	7305.746018
773.728482	7201.396654
774.053465	7141.104454
774.378401	7047.797738
774.703291	6961.533513
775.028135	6863.566250
775.352932	6826.765827
775.677683	6742.634010
776.002388	6659.573439
776.327046	6655.086812
776.651658	6569.770324
776.976224	6491.876935
777.300743	6480.773794
777.625216	6414.084370
777.949643	6369.369335
778.274024	6373.470314
778.598359	6306.380118
778.922647	6308.121837
779.246889	6272.223780
779.571086	6277.070849
779.895236	6285.923116
780.219339	6280.690398
780.543397	6282.318691
780.867409	6331.996741
781.191374	6327.018602
781.515294	6296.075999
781.839167	6345.522157
782.162995	6316.759854
782.486776	6268.415188
782.810511	6227.596966
783.134201	6155.624412
783.457844	6139.840559
783.781441	6090.361634
784.104993	6047.547115
784.428498	6021.864957
784.751958	6000.813098
785.075372	5984.724256
785.398739	5938.421258
785.722061	5962.268436
786.045337	5965.386389
786.368568	6074.282874
786.691752	6094.603765
787.014891	6343.639286
787.337983	6621.210258
787.661030	7057.333080
787.984031	7481.871331
788.306987	7742.990497
788.629897	7834.069023
788.952760	7746.776403
789.275579	7562.446613
789.598351	7271.960205
789.921078	7001.162023
790.243759	6725.695733
790.566395	6519.426841
790.888984	6331.154868
791.211529	6190.955339
791.534027	6031.879209
791.856480	5892.239247
792.178888	5830.729608
792.501249	5763.841059
792.823566	5661.271222
793.145836	5661.225852
793.468062	5638.553262
793.790241	5598.725626
794.112375	5639.392614
794.434464	5738.403396
794.756507	5768.718375
795.078505	5885.753803
795.400457	6102.152893
795.722364	6344.186251
796.044226	6538.575664
796.366042	6697.001485
796.687812	6642.768752
797.009538	6666.439490
797.331218	6576.391880
797.652852	6504.983935
797.974442	6383.993722
798.295986	6315.234905
798.617484	6185.609195
798.938938	6079.568524
799.260346	6012.246435
799.581709	5871.794848
799.903026	5826.618548
800.224299	5744.475466
800.545526	5633.025637
800.866708	5568.236728
801.187845	5520.658318
801.508936	5444.914981
801.829983	5415.283079
802.150984	5312.972862
802.471940	5287.162154
802.792851	5267.294967
803.113717	5241.935442
803.434538	5220.364345
803.755314	5189.157082
804.076045	5176.423127
804.396731	5140.449453
804.717372	5156.802957
805.037967	5159.867978
805.358518	5186.964180
805.679024	5242.489969
805.999485	5258.195684
806.319901	5276.369043
806.640272	5295.043998
806.960598	5339.620401
807.280879	5326.951981
807.601115	5371.677098
807.921306	5328.703782
808.241453	5328.570192
808.561554	5338.556717
808.881611	5299.598680
809.201623	5293.680366
809.521590	5248.632615
809.841513	5234.557713
810.161390	5253.267956
810.481223	5161.201363
810.801011	5142.294516
811.120755	5120.105877
811.440453	5069.870779
811.760107	5037.443557
812.079716	5014.516389
812.399281	4963.605777
812.718801	4955.481957
813.038276	4922.152368
813.357707	4889.112646
813.677093	4912.831275
813.996434	4848.884238
814.315731	4865.565417
814.634983	4868.572465
814.954191	4870.427609
815.273354	4930.364408
815.592473	4968.798165
815.911547	5046.409249
816.230577	5101.819092
816.549562	5186.898645
816.868502	5239.855966
817.187399	5290.476713
817.506250	5375.203385
817.825058	5400.638527
818.143821	5553.219130
818.462539	5724.507456
818.781213	5949.841992
819.099843	6313.493186
819.418429	6944.806964
819.736970	7561.355203
820.055466	8268.540868
820.373919	9177.687758
820.692327	10626.472524
821.010691	13318.920025
821.329011	19540.843172
821.647286	29113.054151
821.965517	39454.421698
822.283704	44912.718422
822.601847	46400.748571
822.919945	41786.829992
823.237999	36666.948447
823.556010	31447.841870
823.873976	26755.886230
824.191897	22547.384806
824.509775	19480.568616
824.827609	16715.916668
825.145398	15169.348641
825.463144	14417.636986
825.780845	14709.426532
826.098502	15971.078626
826.416116	18425.959232
826.733685	20724.881661
827.051210	21239.306206
827.368692	19815.941458
827.686129	17243.695229
828.003522	14772.355255
828.320872	12550.547356
828.638177	10899.826570
828.955439	9664.711111
829.272656	8602.325746
829.589830	7759.172601
829.906960	7032.956581
830.224046	6500.956053
830.541088	6089.212251
830.858086	5834.956616
831.175041	5630.724350
831.491952	5576.602522
831.808819	5607.252738
832.125642	5854.039904
832.442421	6401.831845
832.759157	7508.728078
833.075849	9280.376062
833.392497	11128.694955
833.709101	12237.317782
834.025662	11991.216213
834.342179	10934.902919
834.658653	9625.339699
834.975083	8522.345320
835.291469	7612.936289
835.607811	6883.483848
835.924110	6362.972111
836.240366	5878.791969
836.556578	5428.546355
836.872746	5074.425462
837.188871	4803.886899
837.504952	4581.478753
837.820990	4415.828958
838.136984	4300.787307
838.452935	4249.354935
838.768842	4281.346097
839.084706	4561.268768
839.400526	5303.563548
839.716303	6204.417740
840.032037	6772.780110
840.347727	6622.669672
840.663373	6024.171284
840.978977	5448.721052
841.294537	5005.734699
841.610054	4676.607847
841.925527	4436.439716
842.240957	4232.288109
842.556344	4048.820356
842.871687	3889.552662
843.186987	3740.165629
843.502244	3620.753297
843.817458	3536.795401
844.132629	3467.114052
844.447756	3417.350301
844.762840	3369.083774
845.077881	3334.161181
845.392879	3298.878145
845.707833	3273.624485
846.022745	3246.119949
846.337613	3235.112590
846.652438	3212.699620
846.967221	3203.368444
847.281960	3181.605783
847.596656	3174.233095
847.911309	3163.273627
848.225919	3147.494815
848.540485	3140.338897
848.855009	3134.102990
849.169490	3119.791154
849.483928	3110.596090
849.798323	3107.969649
850.112675	3099.936570
850.426984	3102.464709
850.741251	3092.629417
851.055474	3089.191351
851.369654	3090.532297
851.683792	3088.183120
851.997887	3088.409972
852.311938	3090.081114
852.625947	3090.368460
852.939914	3085.072728
853.253837	3092.047164
853.567718	3089.272009
853.881555	3078.136100
854.195350	3088.523398
854.509103	3083.630958
854.822812	3080.646595
855.136479	3074.874474
855.450103	3078.615010
855.763685	3074.531675
856.077224	3075.076120
856.390720	3083.073910
856.704173	3095.873400
857.017584	3100.307095
857.330953	3106.606017
857.644278	3115.422995
857.957561	3120.144035
858.270802	3113.078858
858.584000	3112.766307
858.897155	3104.826489
859.210268	3096.808534
859.523339	3084.417378
859.836367	3080.109712
860.149352	3078.662901
860.462295	3073.583938
860.775195	3065.666806
861.088054	3061.739747
861.400869	3061.790159
861.713642	3058.422668
862.026373	3068.996488
862.339062	3068.454564
862.651708	3081.390165
862.964312	3096.039758
863.276873	3106.119545
863.589392	3135.595172
863.901869	3159.427227
864.214303	3182.435053
864.526696	3201.455326
864.839045	3218.549879
865.151353	3234.802559
865.463619	3232.952455
865.775842	3230.973802
866.088023	3239.644587
866.400162	3229.461456
866.712258	3231.167887
867.024313	3229.572362
867.336325	3230.905747
867.648296	3230.169738
867.960224	3229.958010
868.272110	3230.973802
868.583954	3233.189390
868.895755	3241.681213
869.207515	3240.297417
869.519233	3258.329624
869.830909	3258.059922
870.142542	3273.304371
870.454134	3278.774023
870.765684	3292.669964
871.077191	3312.625371
871.388657	3323.846980
871.700081	3341.846420
872.011463	3361.592619
872.322803	3380.703633
872.634101	3396.101838
872.945357	3418.902977
873.256571	3445.006071
873.567744	3462.796303
873.878874	3467.839978
874.189963	3487.119871
874.501010	3483.538131
874.812015	3483.696927
875.122979	3497.590347
875.433900	3496.025069
875.744780	3500.690657
876.055618	3505.126872
876.366415	3500.975482
876.677169	3506.989578
876.987882	3529.425234
877.298554	3546.136659
877.609183	3587.927824
877.919771	3634.888693
878.230317	3699.208775
878.540822	3803.409425
878.851285	3957.273002
879.161707	4179.406405
879.472087	4555.799116
879.782425	5179.404970
880.092722	6373.734974
880.402977	8315.458887
880.713191	10692.935096
881.023363	13089.597937
881.333494	14434.398822
881.643583	14883.142173
881.953631	14489.309590
882.263637	13637.349549
882.573602	12592.716608
882.883526	11636.868468
883.193408	10670.585140
883.503248	9749.276466
883.813048	8922.509592
884.122806	8159.165473
884.432522	7378.023561
884.742197	6723.354117
885.051831	6154.369165
885.361424	5661.510677
885.670975	5263.960243
885.980485	4941.028969
886.289954	4668.927649
886.599382	4455.074341
886.908768	4274.641363
887.218113	4110.498873
887.527417	3973.684478
887.836680	3854.035212
888.145901	3756.241869
888.455082	3677.632636
888.764221	3609.042697
889.073319	3546.691186
889.382376	3516.645909
889.691392	3489.385869
890.000366	3488.387721
890.309300	3476.125114
890.618193	3481.415805
890.927044	3477.607213
891.235855	3481.446052
891.544625	3498.724607
891.853353	3527.799462
892.162041	3585.515632
892.470687	3677.688089
892.779293	3798.176707
893.087858	3972.398984
893.396381	4250.315275
893.704864	4667.879089
894.013306	5239.245987
894.321707	5813.776208
894.630068	6173.460014
894.938387	6212.707918
895.246665	6031.846441
895.554903	5711.886927
895.863100	5371.314135
896.171256	5103.132312
896.479371	4863.594325
896.787446	4636.911281
897.095480	4434.743368
897.403473	4290.611738
897.711425	4142.989109
898.019336	4020.670552
898.327207	3896.537180
898.635038	3796.424906
898.942827	3687.528421
899.250576	3601.312087
899.558284	3519.133718
899.865952	3462.783700
900.173579	3397.069739
900.481165	3354.149356
900.788711	3311.675114
901.096216	3278.063221
901.403681	3250.843510
901.711105	3241.209865
902.018489	3236.425810
902.325832	3269.329422
902.633135	3327.448884
902.940397	3497.676047
903.247619	3904.129158
903.554800	4659.319210
903.861941	5634.495133
904.169041	6342.457135
904.476101	6550.621501
904.783121	6279.021776
905.090100	5870.194281
905.397039	5456.867557
905.703938	5092.061938
906.010796	4766.567237
906.317614	4512.178011
906.624391	4273.804531
906.931129	4076.423193
907.237826	3896.698497
907.544483	3724.691807
907.851099	3553.620252
908.157675	3392.275602
908.464211	3251.337543
908.770707	3151.711741
909.077163	3071.413722
909.383578	3007.068434
909.689954	2965.536888
909.996289	2935.093360
910.302584	2914.101995
910.608839	2903.548340
910.915054	2891.356309
911.221229	2886.410937
911.527363	2889.231463
911.833458	2895.807648
912.139513	2907.787950
912.445527	2921.499888
912.751502	2954.743778
913.057436	3000.109121
913.363331	3058.737740
913.669186	3142.357880
913.975000	3262.720469
914.280775	3447.549333
914.586510	3723.446642
914.892205	4098.957151
915.197859	4598.792596
915.503475	5187.017112
915.809050	5687.059244
916.114585	5975.733358
916.420081	6040.522267
916.725536	5979.894830
917.030952	5739.577985
917.336328	5533.430081
917.641665	5312.816586
917.946961	5086.493984
918.252218	4884.837748
918.557435	4654.013395
918.862612	4458.383859
919.167750	4284.547230
919.472848	4095.009928
919.777906	3923.199843
920.082925	3762.261006
920.387904	3608.883901
920.692843	3500.559587
920.997743	3398.773649
921.302603	3304.451140
921.607423	3242.591142
921.912204	3172.806449
922.216946	3127.579737
922.521647	3078.650298
922.826310	3034.144471
923.130932	2995.879593
923.435516	2954.690845
923.740059	2927.995415
924.044564	2895.802607
924.349028	2875.809391
924.653454	2845.224710
924.957840	2818.214208
925.262186	2800.698719
925.566493	2776.196191
925.870761	2749.505802
926.174989	2737.573390
926.479178	2727.153325
926.783328	2708.211190
927.087438	2696.863552
927.391509	2685.614218
927.695541	2674.584173
927.999533	2663.178562
928.303486	2655.364774
928.607400	2646.583084
928.911275	2641.446148
929.215110	2637.040180
929.518906	2633.135806
929.822663	2636.175622
930.126381	2634.267545
930.430060	2638.431538
930.733699	2638.751652
931.037299	2639.979172
931.340861	2640.057310
931.644383	2643.797847
931.947866	2643.634009
932.251309	2640.959677
932.554714	2638.582773
932.858080	2638.101343
933.161407	2633.244191
933.464694	2630.103552
933.767943	2626.368057
934.071153	2623.608025
934.374323	2620.046450
934.677455	2617.099896
934.980548	2613.129987
935.283602	2608.587907
935.586617	2608.882815
935.889593	2614.811212
936.192530	2613.775255
936.495428	2618.922273
936.798287	2628.986937
937.101108	2643.129894
937.403890	2664.325425
937.706632	2690.413396
938.009336	2725.522512
938.312002	2755.721544
938.614628	2778.522683
938.917216	2798.631846
939.219765	2805.848257
939.522275	2813.510811
939.824747	2816.807726
940.127179	2810.246664
940.429573	2803.574697
940.731929	2805.001344
941.034246	2794.941721
941.336524	2793.638583
941.638763	2784.781276
941.940964	2780.443363
942.243126	2762.093563
942.545250	2750.491347
942.847335	2737.391909
943.149381	2724.630228
943.451389	2712.367621
943.753359	2698.358255
944.055290	2690.310052
944.357182	2680.941068
944.659036	2674.508556
944.960851	2671.519152
945.262628	2668.005467
945.564367	2668.199552
945.866067	2667.755930
946.167729	2666.389777
946.469352	2663.733089
946.770937	2662.185455
947.072484	2653.975936
947.373992	2655.881492
947.675462	2650.860503
947.976893	2645.158958
948.278286	2643.964205
948.579641	2643.444966
948.880958	2635.679068
949.182236	2634.325518
949.483476	2631.683954
949.784678	2631.746968
950.085841	2632.724952
950.386967	2635.963893
950.688054	2641.741056
950.989103	2653.950730
951.290114	2659.490958
951.591087	2672.146775
951.892021	2684.550534
952.192917	2694.771474
952.493776	2705.100798
952.794596	2709.410984
953.095378	2710.946016
953.396122	2708.425439
953.696828	2706.477033
953.997496	2701.415714
954.298126	2691.948427
954.598718	2682.685307
954.899272	2669.316167
955.199788	2660.312667
955.500266	2648.856644
955.800706	2633.907103
956.101108	2617.014196
956.401472	2607.143617
956.701798	2588.730802
957.002087	2576.377455
957.302337	2566.312791
957.602550	2558.665361
957.902724	2543.620037
958.202861	2534.220806
958.502960	2529.736700
958.803022	2521.890144
959.103045	2510.792043
959.403031	2506.353308
959.702979	2500.863491
960.002889	2499.310816
960.302762	2492.517861
960.602596	2487.413693
960.902393	2486.027375
961.202153	2480.008238
961.501875	2477.719554
961.801559	2476.847434
962.101205	2475.330047
962.400814	2472.600262
962.700385	2469.363841
962.999918	2472.587659
963.299414	2463.034672
963.598873	2465.814869
963.898293	2461.275310
964.197677	2464.196658
964.497022	2462.467543
964.796331	2459.876390
965.095601	2460.993005
965.394835	2459.717593
965.694030	2457.055864
965.993189	2457.171811
966.292309	2454.936059
966.591393	2457.025617
966.890439	2458.144753
967.189447	2457.562500
967.488419	2456.065277
967.787353	2458.492593
968.086249	2456.201388
968.385108	2459.584003
968.683930	2458.807665
968.982714	2461.144240
969.281462	2461.396297
969.580172	2462.386884
969.878844	2466.876032
970.177480	2465.477112
970.476078	2473.260653
970.774639	2475.703092
971.073162	2477.137300
971.371649	2476.514718
971.670098	2475.138483
971.968510	2478.531179
972.266885	2478.571509
972.565223	2483.836994
972.863524	2484.696511
973.161788	2486.866727
973.460014	2484.431850
973.758204	2488.484938
974.056356	2487.484269
974.354471	2486.891933
974.652550	2490.526605
974.950591	2488.913436
975.248595	2488.648775
975.546563	2487.837149
975.844493	2484.963692
976.142386	2482.112919
976.440243	2479.083186
976.738062	2478.768114
977.035845	2476.285345
977.333590	2474.717547
977.631299	2474.505818
977.928971	2472.517083
978.226606	2467.977524
978.524204	2468.368213
978.821765	2466.732359
979.119290	2466.482822
979.416777	2465.114148
979.714228	2462.954014
980.011642	2466.757565
980.309020	2469.991465
980.606360	2476.308031
980.903664	2486.186172
981.200931	2498.738645
981.498162	2516.395286
981.795356	2546.627086
982.092513	2586.079156
982.389633	2629.211268
982.686717	2670.503359
982.983764	2703.134748
983.280775	2722.424723
983.577749	2722.485217
983.874686	2712.846531
984.171587	2696.188038
984.468451	2683.277643
984.765279	2662.434992
985.062070	2642.983700
985.358824	2628.192955
985.655543	2603.980293
985.952224	2580.977508
986.248869	2548.804864
986.545478	2523.276461
986.842050	2505.400529
987.138586	2484.452015
987.435086	2475.987917
987.731549	2460.262038
988.027975	2456.302212
988.324366	2452.831377
988.620719	2446.867692
988.917037	2443.170006
989.213318	2440.735128
989.509563	2438.426280
989.805772	2435.595672
990.101944	2435.943512
990.398080	2435.641043
990.694180	2435.600713
990.990244	2436.009047
991.286271	2435.457040
991.582262	2435.169695
991.878217	2435.704057
992.174136	2435.661207
992.470019	2435.830086
992.765865	2437.559202
993.061676	2440.220931
993.357450	2443.739656
993.653188	2443.404419
993.948890	2452.241562
994.244556	2459.720114
994.540186	2468.617750
994.835780	2479.584781
995.131337	2492.800165
995.426859	2508.125273
995.722345	2530.671834
996.017795	2547.952909
996.313208	2564.492935
996.608586	2574.918041
996.903928	2576.823597
997.199234	2573.347722
997.494504	2568.074675
997.789738	2564.296330
998.084936	2553.906512
998.380099	2543.476364
998.675225	2532.360620
998.970316	2517.703465
999.265371	2504.404902
999.560390	2488.507623
999.855373	2482.823722
1000.150320	2470.798049
1000.445232	2461.199692
1000.740108	2455.782973
1001.034948	2446.247630
1001.329752	2439.721857
1001.624521	2440.478030
1001.919254	2431.504776
1002.213951	2434.448810
1002.508613	2423.234763
1002.803239	2426.652665
1003.097829	2420.222673
1003.392384	2422.970102
1003.686903	2422.171079
1003.981386	2421.641758
1004.275834	2422.355082
1004.570246	2419.912642
1004.864623	2419.111099
1005.158964	2418.080183
1005.453270	2414.044739
1005.747540	2416.096489
1006.041775	2415.060532
1006.335974	2415.005079
1006.630138	2416.782086
1006.924266	2415.070614
1007.218359	2415.095820
1007.512416	2413.694379
1007.806438	2414.674884
1008.100425	2414.576581
1008.394376	2414.916859
1008.688292	2415.060532
1008.982172	2412.446694
1009.276017	2412.270253
1009.569827	2414.329565
1009.863602	2413.863258
1010.157341	2413.916190
1010.451045	2408.600293
1010.744714	2412.565161
1011.038347	2412.232445
1011.331945	2407.665159
1011.625508	2410.019378
1011.919036	2408.189439
1012.212528	2411.430901
1012.505986	2411.138514
1012.799408	2410.309244
1013.092795	2410.997362
1013.386147	2407.196332
1013.679464	2407.569377
1013.972745	2409.825294
1014.265992	2407.002248
1014.559204	2408.365880
1014.852380	2409.895870
1015.145521	2410.173133
1015.438628	2407.536610
1015.731699	2406.787998
1016.024736	2407.196332
1016.317737	2411.002403
1016.610703	2409.885787
1016.903635	2409.936199
1017.196531	2405.978893
1017.489393	2410.941909
1017.782219	2406.392268
1018.075011	2411.390572
1018.367768	2409.535427
1018.660490	2411.788823
1018.953177	2411.788823
1019.245829	2411.788823
