Dividing Wavelength (nm)	Counts (n)	Blue Motor Position (mm): 42.400000	Red Motor Position (mm): 0.000000	
326.493990	1971.950671
326.888308	1971.950671
327.282561	1971.950671
327.676750	1946.472679
328.070874	1950.767742
328.464933	1957.996757
328.858929	1963.390791
329.252859	1975.439149
329.646726	1989.856849
330.040528	2006.780002
330.434265	2025.870852
330.827938	2046.108564
331.221547	2062.898127
331.615091	2084.766653
332.008571	2105.188367
332.401986	2126.164608
332.795338	2144.650519
333.188625	2166.783705
333.581847	2188.125430
333.975006	2204.647812
334.368100	2221.283619
334.761129	2240.261043
335.154095	2253.748650
335.546996	2295.766667
335.939833	2379.389327
336.332606	2393.877603
336.725315	2405.351270
337.117960	2414.717733
337.510540	2420.444484
337.903056	2431.489652
338.295508	2436.107349
338.687896	2444.757969
339.080220	2452.405400
339.472480	2459.122737
339.864676	2462.956535
340.256807	2467.175980
340.648875	2463.463171
341.040879	2466.671865
341.432818	2468.789150
341.824694	2470.697226
342.216506	2471.687813
342.608253	2471.957515
342.999937	2468.990796
343.391557	2465.194807
343.783113	2462.558283
344.174605	2464.983078
344.566033	2463.024590
344.957397	2464.342852
345.348697	2459.064764
345.739934	2459.271451
346.131106	2458.858077
346.522215	2451.528239
346.913260	2454.174845
347.304241	2453.544700
347.695159	2450.217539
348.086012	2450.401541
348.476802	2448.054884
348.867528	2445.015068
349.258191	2444.863833
349.648789	2446.557661
350.039324	2439.903338
350.429796	2442.217228
350.820203	2441.803853
351.210548	2441.902156
351.600828	2440.783019
351.991045	2438.562391
352.381198	2438.383430
352.771288	2440.714964
353.161314	2437.869232
353.551276	2438.501897
353.941175	2435.905703
354.331010	2438.791764
354.720782	2443.381734
355.110490	2445.650253
355.500135	2441.435849
355.889717	2440.089861
356.279235	2442.212187
356.668689	2441.912238
357.058080	2442.539862
357.447408	2441.269491
357.836672	2438.086002
358.225873	2441.571960
358.615010	2439.121959
359.004084	2445.584718
359.393095	2447.046653
359.782043	2446.469441
360.170927	2447.175203
360.559748	2446.658484
360.948505	2447.016406
361.337199	2451.813064
361.725830	2449.700821
362.114398	2451.535801
362.502903	2450.131839
362.891344	2451.331634
363.279722	2453.327931
363.668037	2452.581840
364.056289	2451.666871
364.444478	2454.351285
364.832603	2455.848508
365.220665	2455.220884
365.608665	2457.370936
365.996601	2455.546038
366.384474	2457.895216
366.772284	2460.057871
367.160031	2458.449743
367.547715	2458.976544
367.935336	2457.204578
368.322893	2459.001749
368.710388	2461.476956
369.097820	2461.766822
369.485189	2463.604323
369.872495	2466.071968
370.259738	2465.993830
370.646918	2465.429221
371.034035	2468.705971
371.421090	2468.060703
371.808081	2464.194138
372.195010	2468.189252
372.581875	2470.253605
372.968678	2471.627319
373.355418	2470.266208
373.742096	2472.161682
374.128710	2469.857874
374.515262	2474.440283
374.901751	2473.958853
375.288177	2475.413226
375.674540	2478.236272
376.060841	2475.874491
376.447079	2477.152424
376.833254	2478.657208
377.219367	2476.436580
377.605417	2478.226190
377.991404	2475.045222
378.377329	2481.757518
378.763191	2479.630151
379.148991	2486.433188
379.534727	2484.973774
379.920402	2488.066522
380.306013	2486.372694
380.691563	2489.752788
381.077049	2489.397387
381.462474	2493.851246
381.847835	2495.028355
382.233134	2496.633963
382.618371	2498.471463
383.003545	2499.625888
383.388657	2500.056906
383.773706	2505.912207
384.158693	2505.367762
384.543618	2508.064779
384.928480	2513.458814
385.313280	2519.883764
385.698017	2523.528519
386.082692	2530.739889
386.467305	2535.506300
386.851856	2548.855276
387.236344	2559.562686
387.620770	2571.089285
388.005133	2584.750812
388.389435	2606.324429
388.773674	2624.132305
389.157851	2651.122643
389.541965	2673.091992
389.926018	2697.029911
390.310008	2732.635580
390.693936	2767.469953
391.077802	2805.858340
391.461606	2851.372397
391.845348	2900.745458
392.229027	2957.176134
392.612645	3028.125333
392.996200	3089.246803
393.379694	3164.896878
393.763125	3251.934920
394.146494	3325.374449
394.529801	3407.008374
394.913047	3519.108512
395.296230	3580.227462
395.679351	3660.112106
396.062410	3795.830050
396.445408	3840.368644
396.828343	3954.059266
397.211217	4068.513623
397.594028	4114.756127
397.976778	4260.216101
398.359466	4400.763470
398.742092	4474.455057
399.124656	4619.705823
399.507158	4783.903765
399.889598	4886.453437
400.271977	5068.111416
400.654294	5180.493859
401.036549	5365.431108
401.418742	5477.674919
401.800874	5723.695830
402.182944	5870.274940
402.564952	6160.370658
402.946898	6191.025915
403.328783	6323.978786
403.710606	6541.580192
404.092367	6798.583256
404.474067	7123.384798
404.855705	7111.638910
405.237282	7201.230296
405.618797	7582.759942
406.000250	7854.775563
406.381642	8214.794606
406.762972	8299.748131
407.144240	8281.030326
407.525447	8566.594048
407.906593	8638.528792
408.287677	8931.487887
408.668700	9159.766456
409.049661	9240.235874
409.430560	9473.096853
409.811399	9552.578205
410.192176	9778.716805
410.572891	9941.490621
410.953545	10431.737792
411.334138	10094.033416
411.714669	10677.834320
412.095139	10202.541732
412.475547	10710.982427
412.855894	10659.171968
413.236180	11012.667758
413.616405	10824.844448
413.996568	11140.849177
414.376670	11186.693430
414.756711	11138.328600
415.136691	11452.407608
415.516609	11666.127325
415.896466	11780.987495
416.276262	12101.375507
416.655997	12563.021691
417.035670	12654.269097
417.415283	13320.649141
417.794834	13449.659830
418.174324	13250.859407
418.553753	13201.622458
418.933121	13701.538561
419.312428	13561.689392
419.691674	13511.529911
420.070859	13978.189523
420.449983	13671.957070
420.829045	14225.644641
421.208047	14008.413760
421.586988	14472.303258
421.965867	14726.720210
422.344686	14747.930865
422.723444	15304.837213
423.102141	14052.115523
423.480777	15222.303442
423.859352	14753.531587
424.237866	15846.078175
424.616319	15563.040072
424.994712	16214.551233
425.373044	16019.055287
425.751314	16687.091350
426.129524	15831.975547
426.507673	16909.164260
426.885762	16622.856968
427.263789	16812.104404
427.641756	16986.039335
428.019662	17051.629788
428.397508	17096.390193
428.775292	17382.127834
429.153016	17350.381168
429.530679	17432.131039
429.908282	17460.109443
430.285824	17185.616095
430.663305	17890.671872
431.040726	17502.964292
431.418086	17331.580184
431.795385	17963.924879
432.172624	18384.674702
432.549802	17933.161238
432.926920	18142.023803
433.303977	18023.165998
433.680974	18273.386190
434.057910	18567.376200
434.434786	18589.438810
434.811601	18510.040637
435.188355	19530.493683
435.565050	19178.880764
435.941683	19134.795874
436.318257	20006.688637
436.694770	19823.420010
437.071222	20398.076260
437.447614	19487.298557
437.823946	19506.396968
438.200218	19656.467077
438.576429	19433.703530
438.952580	19715.264575
439.328670	19678.522125
439.704700	20086.273333
440.080670	19658.791049
440.456580	20242.584391
440.832429	20417.404044
441.208218	19433.476678
441.583947	19867.799808
441.959616	19972.166816
442.335224	20206.335974
442.710773	20338.651139
443.086261	20857.882423
443.461689	20233.895962
443.837057	20350.452480
444.212365	20985.698358
444.587612	20972.356945
444.962800	20583.401679
445.337927	20989.784214
445.712995	19737.196115
446.088002	21559.658930
446.462949	21751.197570
446.837837	21920.890370
447.212664	21872.454964
447.587431	24653.510827
447.962139	27536.266927
448.336786	29906.809030
448.711374	28390.061949
449.085901	24763.118114
449.460369	24684.967627
449.834776	24591.146713
450.209124	27042.642184
450.583412	26600.011232
450.957640	27133.196431
451.331808	25810.823639
451.705917	24447.756133
452.079965	24468.248423
452.453954	24815.410003
452.827883	24726.116045
453.201752	24526.733369
453.575562	24684.899571
453.949311	25771.056497
454.323001	25834.943039
454.696632	25602.263542
455.070202	27138.353531
455.443713	27280.312423
455.817164	27852.218724
456.190556	28384.766217
456.563888	27836.853287
456.937160	28277.366954
457.310373	26617.831711
457.683526	27049.951857
458.056619	27027.433023
458.429653	26956.808978
458.802628	27539.475622
459.175542	27653.322520
459.548398	28961.940523
459.921194	30501.239206
460.293930	31183.632476
460.666607	33193.727037
461.039224	34937.860404
461.411782	35330.097461
461.784280	34111.436327
462.156719	33621.562202
462.529099	33046.512742
462.901419	31764.234767
463.273680	30724.189276
463.645882	30805.981997
464.018024	30787.463319
464.390106	31617.983332
464.762130	34311.713808
465.134094	38340.200669
465.505999	43625.142195
465.877845	48188.447589
466.249631	49334.405202
466.621358	47579.458560
466.993026	45435.443226
467.364634	43338.940768
467.736184	41377.647096
468.107674	40136.406635
468.479105	39358.637255
468.850477	38668.543622
469.221790	37259.014322
469.593043	35548.497890
469.964238	34672.110938
470.335373	34572.154939
470.706449	36246.654848
471.077467	38774.196125
471.448425	43323.111545
471.819324	46214.198152
472.190164	44407.007513
472.560945	40869.690353
472.931667	37775.959443
473.302330	36662.960894
473.672934	35851.977872
474.043479	36345.907605
474.413965	35569.859779
474.784393	35192.385741
475.154761	36080.334579
475.525070	36099.758145
475.895321	35647.453219
476.265513	36263.845182
476.635645	37199.747997
477.005719	37026.541512
477.375734	37494.305136
477.745691	38188.681229
478.115588	39492.936114
478.485427	41459.336474
478.855207	44776.604748
479.224928	47400.958864
479.594591	49039.908556
479.964194	48014.109365
480.333739	48139.881113
480.703226	48148.940066
481.072653	48777.203946
481.442022	49290.831988
481.811333	49561.231919
482.180584	48275.820867
482.549777	47745.325124
482.918912	47230.451917
483.287988	46937.749922
483.657005	46097.447549
484.025964	45468.039327
484.394864	45475.394371
484.763706	45029.083377
485.132489	44174.416236
485.501213	44001.570194
485.869879	44153.681970
486.238487	43743.059825
486.607036	43963.305316
486.975527	43423.049899
487.343959	43641.606603
487.712333	43701.230851
488.080648	43627.330056
488.448905	44062.497579
488.817104	43882.301535
489.185244	44821.317262
489.553326	46480.582803
489.921350	49199.461075
490.289315	52130.098055
490.657222	52770.284264
491.025070	53052.883787
491.392861	52142.607678
491.760593	50866.366485
492.128267	49184.002377
492.495883	47634.424781
492.863440	46237.904178
493.230939	44899.225774
493.598380	43810.674301
493.965763	43505.344215
494.333088	42693.128631
494.700354	42223.204872
495.067563	41938.001593
495.434713	41823.277535
495.801805	41888.661300
496.168839	41503.353309
496.535815	41184.195338
496.902733	41212.725748
497.269593	40813.156333
497.636395	40742.736455
498.003139	41134.224901
498.369825	40611.187545
498.736453	40920.411922
499.103023	40446.230909
499.469535	40312.315178
499.835989	40422.013206
500.202385	40092.561199
500.568723	40096.853742
500.935003	40296.763218
501.301226	40102.784659
501.667390	40712.287885
502.033497	40973.865797
502.399546	40395.751315
502.765537	39719.568747
503.131470	40092.036919
503.497345	40456.771962
503.863163	39125.057912
504.228923	39729.207433
504.594625	40138.453343
504.960269	39412.212117
505.325856	40108.375299
505.691385	39473.021035
506.056856	39616.764496
506.422270	40034.792097
506.787625	39602.094738
507.152924	39811.965535
507.518164	39909.375751
507.883347	39132.692739
508.248472	39385.665401
508.613540	39851.140341
508.978550	40140.684054
509.343503	39911.319115
509.708398	40081.281617
510.073236	40616.637032
510.438016	40609.972627
510.802738	40077.677192
511.167403	40679.459892
511.532010	40902.014231
511.896561	41211.697353
512.261053	42038.945658
512.625488	41578.574886
512.989866	41457.768675
513.354186	41303.058184
513.718449	41289.459672
514.082655	41961.589152
514.446803	41637.175779
514.810894	42144.514981
515.174927	42093.385078
515.538904	41979.137409
515.902822	42637.499498
516.266684	42105.007458
516.630488	42528.474464
516.994235	42385.988771
517.357925	42930.640074
517.721558	43100.945374
518.085133	43405.400819
518.448651	43546.842993
518.812112	43319.023169
519.175516	43427.962503
519.538863	43763.216878
519.902152	43718.249786
520.265385	44182.978636
520.628560	44224.613525
520.991678	44020.713976
521.354739	44253.748874
521.717743	44563.638683
522.080690	44468.393643
522.443580	45007.764337
522.806413	45076.656745
523.169189	45016.803126
523.531908	45185.848138
523.894569	45052.333178
524.257174	45216.173199
524.619722	45528.301280
524.982213	45517.387182
525.344647	45433.855263
525.707025	45493.960940
526.069345	45871.535802
526.431608	45802.630790
526.793815	46134.661347
527.155964	45663.636096
527.518057	45829.263206
527.880093	45620.478778
528.242072	46141.235012
528.603995	45840.280648
528.965860	45857.536517
529.327669	45955.624768
529.689421	45859.762187
530.051117	45822.177864
530.412755	45962.150542
530.774337	46014.306320
531.135862	45824.141394
531.497331	46032.676284
531.858743	45951.922041
532.220098	46290.831252
532.581396	46009.817172
532.942638	45686.820363
533.303824	45967.569782
533.664953	45928.778103
534.026025	45647.206976
534.387040	46136.665206
534.747999	46068.463435
535.108902	46240.661689
535.469748	45771.504186
535.830537	45871.566048
536.191270	46079.170846
536.551947	45725.299490
536.912567	46025.913576
537.273131	46149.263049
537.633638	45651.214693
537.994089	45986.655591
538.354483	45593.901815
538.714821	46159.378124
539.075103	46511.875766
539.435328	46271.087573
539.795497	46150.230951
540.155609	46155.211611
540.515665	46607.945035
540.875665	46063.152580
541.235609	46395.168013
541.595496	46353.568412
541.955328	47024.871143
542.315102	46403.725372
542.674821	46192.702672
543.034483	46224.345995
543.394090	46197.728702
543.753640	46165.606470
544.113134	47149.254052
544.472571	46174.451174
544.831953	47412.064526
545.191278	46624.290976
545.550548	46353.026488
545.909761	46802.170610
546.268918	47011.292795
546.628019	47321.810228
546.987064	46879.275058
547.346053	46157.694379
547.704986	47031.880867
548.063863	46601.084024
548.422684	46778.235212
548.781449	46655.311716
549.140158	47039.578709
549.498811	46888.538178
549.857408	46317.841754
550.215949	47165.910025
550.574434	47098.262781
550.932864	46856.360493
551.291237	47575.486131
551.649555	47187.604630
552.007817	47420.447965
552.366022	47071.942917
552.724173	47261.903676
553.082267	47651.927667
553.440305	47955.425293
553.798288	47274.413300
554.156215	47586.836289
554.514086	47794.292372
554.871902	47525.961835
555.229661	47535.141777
555.587365	47361.980662
555.945014	47470.317579
556.302606	47396.222700
556.660143	47632.027712
557.017625	47704.832056
557.375050	47508.834515
557.732421	47839.703086
558.089735	47839.430864
558.446994	47755.523379
558.804197	48223.680213
559.161345	48154.878545
559.518437	47412.306501
559.875474	47717.629025
560.232455	47874.418992
560.589381	48056.066889
560.946251	47754.305940
561.303065	48430.138148
561.659825	48241.672091
562.016528	47912.905681
562.373177	47626.016136
562.729770	48122.421076
563.086307	47626.726939
563.442789	48093.255481
563.799216	48133.133528
564.155587	47933.337478
564.511904	47962.845872
564.868164	48042.760763
565.224370	48286.518196
565.580520	48032.648208
565.936615	48234.369980
566.292654	47951.193245
566.648638	48212.922391
567.004567	48147.200868
567.360441	48199.449907
567.716260	48037.376811
568.072023	48337.385958
568.427732	48327.046552
568.783385	47870.401193
569.138982	48286.150191
569.494525	48242.471114
569.850013	47994.189246
570.205445	47985.778081
570.560823	47929.796067
570.916145	47803.983991
571.271412	47808.906677
571.626625	47588.179756
571.981782	47646.977254
572.336884	47314.682037
572.691931	47639.181110
573.046923	47264.580529
573.401860	47093.408150
573.756743	47092.105012
574.111570	47216.371975
574.466342	47057.908345
574.821059	47185.651183
575.175722	46694.766307
575.530330	46712.095273
575.884882	46435.829960
576.239380	46398.341420
576.593823	46378.466671
576.948211	46291.310162
577.302544	45817.534962
577.656823	45842.607140
578.011047	46069.073415
578.365216	45798.476879
578.719330	45587.983501
579.073389	45454.045084
579.427394	45525.458069
579.781344	45492.325086
580.135239	45148.145348
580.489080	45227.523357
580.842866	44727.844187
581.196597	45186.858889
581.550273	45132.336290
581.903895	44966.230270
582.257463	45415.775165
582.610975	44781.585408
582.964434	45072.833030
583.317837	44744.338843
583.671186	44557.029730
584.024481	44789.351305
584.377721	44318.774717
584.730906	44589.913177
585.084037	44614.060304
585.437113	44334.316595
585.790135	44370.111308
586.143103	43970.917458
586.496016	44100.689361
586.848874	44125.282630
587.201679	44143.534127
587.554428	43623.440806
587.907124	43820.565044
588.259765	43564.212289
588.612352	43828.567876
588.964884	43203.850447
589.317362	43505.288762
589.669786	43436.517342
590.022155	43205.735839
590.374470	43622.674550
590.726731	43148.922035
591.078937	42659.262159
591.431090	42758.807304
591.783188	42430.113991
592.135232	42106.545010
592.487222	42346.277082
592.839157	42425.045110
593.191038	42102.254988
593.542866	41872.350647
593.894639	41265.985539
594.246358	41559.670559
594.598022	41521.564477
594.949633	41136.417803
595.301190	41098.427667
595.652692	40928.558427
596.004141	41257.092943
596.355535	40281.654880
596.706876	40225.100695
597.058162	40063.307383
597.409395	40517.633812
597.760573	40601.931987
598.111698	40179.067399
598.462768	40187.350015
598.813785	40240.690464
599.164748	39687.486843
599.515657	40070.070091
599.866511	39545.240605
600.217312	40160.969657
600.568060	39135.407401
600.918753	39887.252647
601.269392	39838.083753
601.619978	39491.816978
601.970510	39698.133760
602.320988	39867.463597
602.671412	40184.942864
603.021783	39917.749107
603.372100	39574.701108
603.722363	39677.071820
604.072572	39740.887786
604.422728	39773.357858
604.772830	39574.917878
605.122878	39677.906131
605.472872	39615.000092
605.822813	39883.204600
606.172701	39721.804498
606.522534	39964.420109
606.872314	40223.782434
607.222041	39975.067026
607.571714	40370.767356
607.921333	39818.261936
608.270899	40091.825191
608.620411	40444.753851
608.969870	40244.801525
609.319276	40235.117468
609.668627	40283.809973
610.017926	40759.589032
610.367171	40922.788826
610.716362	41010.293174
611.065500	40948.413011
611.414585	41148.166212
611.763616	41439.345778
612.112594	41366.221321
612.461518	41595.291352
612.810389	41871.407951
613.159207	41738.444998
613.507971	41801.409009
613.856682	42282.027576
614.205340	42169.430884
614.553945	42883.863207
614.902496	42322.538288
615.250994	42778.823205
615.599439	42868.132287
615.947830	43064.006319
616.296169	43115.453815
616.644454	43232.479160
616.992686	43407.094647
617.340864	43936.735914
617.688990	43655.172348
618.037063	44241.128345
618.385082	44209.515269
618.733048	44517.847362
619.080961	44522.898598
619.428821	44534.823448
619.776628	44643.251105
620.124382	44453.575171
620.472083	44593.114310
620.819731	44708.839037
621.167326	44381.632865
621.514868	44367.439496
621.862357	43925.068164
622.209793	43937.630719
622.557176	43614.923776
622.904506	43370.566446
623.251783	43024.788663
623.599007	42793.447592
623.946179	42579.987494
624.293297	42532.787171
624.640363	41936.090996
624.987376	41925.796960
625.334336	41673.744309
625.681243	41329.627585
626.028097	41274.495006
626.374899	41139.230766
626.721647	41108.426796
627.068343	40993.884219
627.414987	40769.746957
627.761577	40544.349407
628.108115	40883.334235
628.454600	40315.475981
628.801032	40507.274241
629.147412	40481.082926
629.493739	40470.970371
629.840014	40113.673551
630.186236	40441.051123
630.532405	40072.096635
630.878521	40289.032608
631.224585	40162.847487
631.570597	39873.001305
631.916556	40028.107527
632.262462	39976.876801
632.608316	40001.666675
632.954117	39894.627855
633.299866	39872.419052
633.645562	39793.744284
633.991206	39279.087847
634.336797	38854.410965
634.682336	38874.197493
635.027823	38603.706822
635.373257	38435.624671
635.718639	38193.145171
636.063968	38059.231960
636.409245	37479.630337
636.754470	37518.406893
637.099642	37266.366845
637.444762	36803.808212
637.789829	36946.868596
638.134845	36595.759792
638.479808	36543.004117
638.824719	36449.112627
639.169577	36064.540644
639.514383	36111.090659
639.859137	35816.866235
640.203839	36051.710908
640.548489	35682.542170
640.893086	35751.626143
641.237632	35499.775138
641.582125	35609.389987
641.926566	35553.435700
642.270955	35521.628540
642.615292	35536.784769
642.959576	35501.350498
643.303809	35515.173342
643.647990	35655.627450
643.992118	35611.230008
644.336195	35620.893900
644.680219	35707.296756
645.024192	36000.744842
645.368112	36521.780860
645.711981	36527.174894
646.055797	37400.547237
646.399562	37327.064858
646.743274	38279.893346
647.086935	38726.595029
647.430544	38601.627346
647.774101	38731.124506
648.117606	38976.532917
648.461059	39267.304150
648.804460	38879.364676
649.147810	38272.434959
649.491108	38016.609004
649.834354	37653.920670
650.177548	36828.504824
650.520690	36369.227983
650.863781	36390.196662
651.206820	36227.266570
651.549807	35787.002440
651.892742	35311.152805
652.235626	35112.859018
652.578458	34982.940922
652.921238	34370.634814
653.263967	34698.594639
653.606644	34387.671393
653.949269	34329.496478
654.291843	33930.247176
654.634365	34328.556303
654.976836	33938.159267
655.319255	33910.125410
655.661622	33925.707617
656.003938	33709.074112
656.346203	33552.810946
656.688416	33788.767193
657.030577	33590.362501
657.372687	33420.354629
657.714746	33688.148283
658.056753	33813.083199
658.398708	33269.919036
658.740612	33316.007785
659.082465	33601.652165
659.424266	33417.087961
659.766016	33537.717732
660.107715	33394.259096
660.449362	33527.937893
660.790958	33510.674462
661.132503	33547.331212
661.473996	33570.180242
661.815438	33674.766540
662.156829	33887.218407
662.498168	33652.149403
662.839456	33679.144782
663.180693	33816.901873
663.521879	33982.150896
663.863013	33922.420784
664.204097	33927.033440
664.545129	34409.083694
664.886110	34357.414388
665.227040	34412.930095
665.567918	34543.889189
665.908746	34606.802789
666.249522	34771.688849
666.590248	34775.709170
666.930922	34872.360692
667.271545	34848.332032
667.612118	34931.672387
667.952639	34724.274277
668.293109	34764.348929
668.633528	34660.566695
668.973896	34584.415025
669.314213	34615.302175
669.654480	34352.521948
669.994695	34375.587748
670.334859	34270.935914
670.674973	34163.176210
671.015035	34334.338506
671.355047	34275.193169
671.695008	34230.127774
672.034918	34106.624546
672.374777	34201.383115
672.714585	34039.680543
673.054342	34268.196047
673.394049	34022.109602
673.733705	34306.574352
674.073310	33960.300014
674.412864	34036.444123
674.752368	33641.119359
675.091820	33928.447484
675.431223	33505.865201
675.770574	33238.406784
676.109875	33105.169087
676.449125	32819.446570
676.788324	32745.500405
677.127473	32202.452189
677.466571	32130.789666
677.805619	31771.146189
678.144616	31768.933123
678.483562	31691.493438
678.822458	31372.705992
679.161303	31299.263942
679.500098	31200.038911
679.838842	31077.213718
680.177535	31243.491137
680.516179	31517.956758
680.854771	31752.423344
681.193314	32628.928763
681.531805	33749.564660
681.870247	34546.520672
682.208638	35271.100838
682.546978	35511.145460
682.885268	35600.555365
683.223508	35061.063683
683.561697	34723.540789
683.899836	34529.126170
684.237925	34032.690984
684.575963	33866.902557
684.913951	33413.196190
685.251889	33557.040474
685.589776	33541.649832
685.927614	33528.799930
686.265401	33676.089843
686.603137	33775.251860
686.940824	34289.794871
687.278460	34667.410062
687.616046	34802.092048
687.953582	35406.954892
688.291068	35276.308349
688.628504	35557.836627
688.965889	35493.246843
689.303224	35106.108913
689.640510	34749.139768
689.977745	34014.676420
690.314930	33221.828949
690.652065	32691.239945
690.989150	31952.607563
691.326185	31054.372250
691.663170	30337.641161
692.000105	29579.978423
692.336990	28898.419464
692.673825	28426.811960
693.010610	27907.149657
693.347345	27330.655906
693.684030	26674.879929
694.020665	26388.751598
694.357251	25710.577774
694.693786	25660.871997
695.030272	25428.857932
695.366707	24878.442070
695.703093	24583.713531
696.039429	24574.349588
696.375716	24315.357789
696.711952	24276.588795
697.048139	24120.575166
697.384276	23925.452265
697.720363	24060.794643
698.056400	23848.574669
698.392388	23639.417196
698.728326	23604.872689
699.064214	23385.458988
699.400053	23340.688501
699.735842	22970.897181
700.071581	22697.296118
700.407270	22409.660483
700.742910	22212.881563
701.078501	21939.288061
701.414042	21659.521667
701.749533	21346.229079
702.084974	21004.375833
702.420366	21213.797967
702.755709	20767.050913
703.091002	20473.396140
703.426246	20492.610498
703.761440	20377.334433
704.096584	20116.358939
704.431679	20072.352187
704.766725	19977.969184
705.101721	19905.724408
705.436668	20006.676035
705.771565	19678.441467
706.106413	20031.271824
706.441212	20001.987762
706.775961	20139.434821
707.110661	20209.017868
707.445311	20563.678164
707.779913	20406.089174
708.114465	20644.565998
708.448967	20928.738361
708.783421	21629.332717
709.117825	21912.300244
709.452180	22122.992748
709.786485	22526.098533
710.120742	23347.050437
710.454949	23337.840249
710.789107	23813.321880
711.123216	24517.278685
711.457275	24651.138964
711.791286	25192.266500
712.125247	25252.994760
712.459159	24949.819768
712.793023	25625.460412
713.126837	24511.579661
713.460602	24779.511947
713.794318	24392.701692
714.127985	24005.319265
714.461602	23114.738945
714.795171	23078.755188
715.128691	22043.002240
715.462162	21506.467195
715.795584	21079.347873
716.128957	20804.945267
716.462281	20394.285313
716.795556	20167.206538
717.128782	19660.500000
717.461960	19108.859137
717.795088	19038.593015
718.128167	18626.519017
718.461198	18173.087393
718.794180	18025.933592
719.127113	17667.744488
719.459997	17452.444368
719.792833	17106.356554
720.125619	17073.286585
720.458357	16755.915703
720.791046	16582.666369
721.123686	16420.373983
721.456278	16184.289186
721.788821	16134.885879
722.121315	15873.761671
722.453761	15947.919565
722.786158	15868.279416
723.118506	15877.834923
723.450805	15745.489512
723.783056	15896.590536
724.115259	15803.079653
724.447412	15737.824437
724.779518	15972.207844
725.111574	15995.808006
725.443582	16192.700352
725.775542	16173.037331
726.107453	16645.060730
726.439315	16529.537649
726.771129	16925.386693
727.102895	17297.549875
727.434612	17519.799225
727.766281	17640.436557
728.097901	17904.187206
728.429473	17947.316797
728.760996	17921.760668
729.092471	18013.655862
729.423897	17895.208911
729.755276	17747.956807
730.086606	17860.253550
730.417887	18396.178615
730.749120	18912.521319
731.080305	19079.305373
731.411442	19422.471839
731.742530	19503.006792
732.073570	19587.695656
732.404562	19890.512727
732.735506	19695.946873
733.066401	19422.587785
733.397249	18901.395492
733.728048	18259.722143
734.058798	17417.884738
734.389501	16733.321252
734.720156	16262.185096
735.050762	15733.594909
735.381320	15372.902872
735.711831	15127.421365
736.042293	14774.162509
736.372707	14776.584783
736.703073	14571.845882
737.033391	14762.066260
737.363661	14717.749477
737.693883	14817.493747
738.024056	14994.879348
738.354182	15177.704354
738.684260	15469.259487
739.014290	15690.601428
739.344272	15878.848195
739.674207	16158.697769
740.004093	16277.220337
740.333931	16263.871362
740.663722	16309.501366
740.993464	16290.584436
741.323159	16128.211391
741.652806	15853.768455
741.982405	15636.933305
742.311956	15298.187931
742.641460	15174.616647
742.970915	14866.781108
743.300323	14524.834602
743.629683	14305.468792
743.958996	14037.506259
744.288260	13765.084826
744.617477	13466.792191
744.946647	13393.501376
745.275768	13120.653965
745.604842	12929.596755
745.933869	12755.263573
746.262847	12706.523177
746.591778	12629.643060
746.920662	12534.138400
747.249498	12523.017615
747.578286	12641.504895
747.907027	12784.837502
748.235720	13011.732275
748.564365	13037.505174
748.892963	12941.526646
749.221514	12996.966735
749.550017	12846.188344
749.878473	12812.412613
750.206881	12588.270310
750.535242	12499.354439
750.863555	12410.486458
751.191821	12310.215388
751.520039	12325.477481
751.848210	12234.582957
752.176334	12274.113164
752.504411	12164.057214
752.832440	12017.470543
753.160421	12072.673698
753.488356	11942.533791
753.816243	11856.471212
754.144082	11710.393697
754.471875	11655.644246
754.799620	11601.656009
755.127318	11576.775394
755.454969	11528.781089
755.782572	11478.069602
756.110129	11501.064825
756.437638	11414.533419
756.765100	11401.759135
757.092515	11406.875907
757.419882	11423.768813
757.747203	11420.393761
758.074477	11498.650112
758.401703	11452.200921
758.728882	11620.522527
759.056014	11649.912454
759.383099	11773.123295
759.710138	11881.639173
760.037129	11958.161368
760.364073	11978.078967
760.690970	11967.618572
761.017820	11960.747480
761.344623	12145.931746
761.671379	12479.338538
761.998088	13117.082308
762.324751	14675.219782
762.651366	17562.212973
762.977935	21248.702916
763.304456	23513.400952
763.630931	24002.723071
763.957359	22816.441269
764.283740	20899.741644
764.610074	18999.014916
764.936362	16849.398860
765.262602	15309.777543
765.588796	13826.962469
765.914943	12788.449488
766.241044	11920.017477
766.567097	11281.963676
766.893104	10726.693183
767.219064	10360.874292
767.544978	9975.452875
767.870845	9654.149893
768.196665	9467.332293
768.522438	9268.582283
768.848165	9102.269576
769.173846	8932.435623
769.499479	8810.711923
769.825066	8651.698807
770.150607	8463.152091
770.476101	8401.057679
770.801548	8289.791852
771.126949	8149.786407
771.452303	8065.198366
771.777611	7901.212152
772.102872	7874.408337
772.428087	7756.329390
772.753256	7629.196531
773.078378	7541.982049
773.403453	7400.088692
773.728482	7292.278576
774.053465	7222.869449
774.378401	7147.277347
774.703291	7046.676081
775.028135	6946.278981
775.352932	6908.767756
775.677683	6825.268604
776.002388	6740.436067
776.327046	6735.989769
776.651658	6649.622201
776.976224	6566.100364
777.300743	6558.936884
777.625216	6490.480536
777.949643	6447.804648
778.274024	6449.175842
778.598359	6382.728393
778.922647	6380.495162
779.246889	6342.643658
779.571086	6345.131467
779.895236	6363.922368
780.219339	6351.851326
780.543397	6352.476429
780.867409	6404.808647
781.191374	6402.706486
781.515294	6361.883222
781.839167	6423.879332
782.162995	6392.634260
782.486776	6343.488051
782.810511	6301.850641
783.134201	6220.403239
783.457844	6218.220419
783.781441	6162.435011
784.104993	6118.123269
784.428498	6095.377582
784.751958	6074.693728
785.075372	6050.977620
785.398739	6008.989850
785.722061	6039.370363
786.045337	6031.831318
786.368568	6144.458256
786.691752	6168.567575
787.014891	6413.348361
787.337983	6694.972421
787.661030	7139.271995
787.984031	7563.855616
788.306987	7836.483736
788.629897	7926.554032
788.952760	7838.485074
789.275579	7662.629463
789.598351	7362.751386
789.921078	7092.064109
790.243759	6809.656150
790.566395	6607.153000
790.888984	6407.097331
791.211529	6268.614314
791.534027	6103.844200
791.856480	5961.759279
792.178888	5901.792234
792.501249	5833.897974
792.823566	5729.281428
793.145836	5722.475871
793.468062	5704.783941
793.790241	5663.512015
794.112375	5706.997008
794.434464	5801.001924
794.756507	5831.596687
795.078505	5954.752075
795.400457	6169.870713
795.722364	6416.955307
796.044226	6608.627538
796.366042	6765.571260
796.687812	6713.213836
797.009538	6746.583754
797.331218	6654.186966
797.652852	6589.443427
797.974442	6460.117666
798.295986	6388.644187
798.617484	6259.273056
798.938938	6149.181818
799.260346	6082.789821
799.581709	5943.608605
799.903026	5890.512652
800.224299	5815.684285
800.545526	5700.330082
800.866708	5632.826511
801.187845	5581.361372
801.508936	5504.635010
801.829983	5475.406400
802.150984	5370.978898
802.471940	5342.677861
802.792851	5323.261857
803.113717	5300.317045
803.434538	5275.847284
803.755314	5242.053909
804.076045	5235.278598
804.396731	5196.285273
804.717372	5214.443510
805.037967	5215.000557
805.358518	5241.569958
805.679024	5299.573475
805.999485	5311.876411
806.319901	5328.935675
806.640272	5348.021484
806.960598	5394.087547
807.280879	5385.580600
807.601115	5423.124594
807.921306	5384.176639
808.241453	5383.806114
808.561554	5391.864399
808.881611	5355.434500
809.201623	5350.161453
809.521590	5302.638496
809.841513	5285.980003
810.161390	5301.075738
810.481223	5216.611206
810.801011	5208.066450
811.120755	5176.400442
811.440453	5124.622751
811.760107	5094.993369
812.079716	5070.405141
812.399281	5013.372047
812.718801	5011.345503
813.038276	4976.415348
813.357707	4942.112817
813.677093	4963.638544
813.996434	4901.488679
814.315731	4924.872071
814.634983	4920.856792
814.954191	4924.551958
815.273354	4987.329447
815.592473	5023.499725
815.911547	5104.120378
816.230577	5163.855531
816.549562	5242.656327
816.868502	5300.301921
817.187399	5357.093040
817.506250	5439.258807
817.825058	5467.416171
818.143821	5621.892249
818.462539	5795.585204
818.781213	6023.987282
819.099843	6394.426390
819.418429	7028.449789
819.736970	7661.051582
820.055466	8385.477993
820.373919	9307.641143
820.692327	10789.024529
821.010691	13517.657433
821.329011	19818.751902
821.647286	29511.401087
821.965517	39932.809554
822.283704	45485.809394
822.601847	47021.745628
822.919945	42421.342383
823.237999	37286.314690
823.556010	32028.423996
823.873976	27240.983862
824.191897	22977.765753
824.509775	19859.406287
824.827609	17033.584978
825.145398	15457.662312
825.463144	14675.048383
825.780845	14966.784998
826.098502	16238.542084
826.416116	18727.090036
826.733685	21024.490037
827.051210	21560.659599
827.368692	20116.250555
827.686129	17528.059156
828.003522	15014.212173
828.320872	12767.435439
828.638177	11091.823956
828.955439	9815.529831
829.272656	8740.874298
829.589830	7889.524236
829.906960	7141.749722
830.224046	6600.400375
830.541088	6181.742630
830.858086	5915.000057
831.175041	5710.861052
831.491952	5651.657742
831.808819	5682.706208
832.125642	5934.902532
832.442421	6492.456668
832.759157	7617.664892
833.075849	9402.472808
833.392497	11280.153902
833.709101	12414.055595
834.025662	12156.676965
834.342179	11092.141548
834.658653	9774.673799
834.975083	8654.118561
835.291469	7738.143428
835.607811	6984.319528
835.924110	6450.279854
836.240366	5958.830369
836.556578	5497.602601
836.872746	5145.402387
837.188871	4862.051732
837.504952	4634.957834
837.820990	4465.317966
838.136984	4349.661294
838.452935	4300.797389
838.768842	4328.599353
839.084706	4614.069813
839.400526	5365.819277
839.716303	6282.600995
840.032037	6859.999633
840.347727	6712.581171
840.663373	6103.158603
840.978977	5518.132700
841.294537	5071.373043
841.610054	4732.131115
841.925527	4486.884022
842.240957	4281.136889
842.556344	4092.121347
842.871687	3929.188734
843.186987	3773.104528
843.502244	3657.125222
843.817458	3563.934452
844.132629	3492.975171
844.447756	3446.669652
844.762840	3400.986716
845.077881	3356.649768
845.392879	3320.207267
845.707833	3298.510141
846.022745	3271.708846
846.337613	3259.607556
846.652438	3236.435893
846.967221	3225.718400
847.281960	3204.724514
847.596656	3195.070705
847.911309	3186.546114
848.225919	3169.277641
848.540485	3158.660971
848.855009	3151.421874
849.169490	3140.401912
849.483928	3132.935963
849.798323	3127.015128
850.112675	3117.746967
850.426984	3119.057667
850.741251	3109.673559
851.055474	3108.478805
851.369654	3109.547530
851.683792	3103.951849
851.997887	3109.814711
852.311938	3108.612396
852.625947	3108.834207
852.939914	3103.987137
853.253837	3111.188425
853.567718	3106.679113
853.881555	3098.222578
854.195350	3105.249946
854.509103	3102.106787
854.822812	3100.075202
855.136479	3097.151332
855.450103	3098.704008
855.763685	3093.849377
856.077224	3097.259717
856.390720	3104.564349
856.704173	3111.402674
857.017584	3119.894498
857.330953	3122.289046
857.644278	3131.418576
857.957561	3136.658855
858.270802	3132.283134
858.584000	3132.789770
858.897155	3128.857670
859.210268	3116.247223
859.523339	3104.415635
859.836367	3101.922785
860.149352	3097.088318
860.462295	3090.522215
860.775195	3083.026019
861.088054	3079.535020
861.400869	3077.286666
861.713642	3077.843713
862.026373	3084.639189
862.339062	3089.708069
862.651708	3096.427927
862.964312	3115.763272
863.276873	3123.592184
863.589392	3156.669715
863.901869	3181.376410
864.214303	3202.831561
864.526696	3221.067935
864.839045	3240.859505
865.151353	3251.783686
865.463619	3253.076742
865.775842	3255.524222
866.088023	3257.709562
866.400162	3254.016917
866.712258	3255.683018
867.024313	3252.156731
867.336325	3251.937441
867.648296	3253.089344
867.960224	3250.828387
868.272110	3254.611773
868.583954	3253.061618
868.895755	3262.430602
869.207515	3259.615118
869.519233	3279.086575
869.830909	3286.489509
870.142542	3298.484935
870.454134	3304.269659
870.765684	3315.428253
871.077191	3334.236798
871.388657	3345.100484
871.700081	3366.444730
872.011463	3386.105230
872.322803	3405.498549
872.634101	3425.625355
872.945357	3441.936009
873.256571	3471.940956
873.567744	3490.588184
873.878874	3493.355778
874.189963	3510.324302
874.501010	3511.806401
874.812015	3510.127697
875.122979	3526.118237
875.433900	3524.242927
875.744780	3526.718134
876.055618	3535.671223
876.366415	3536.679454
876.677169	3539.321019
876.987882	3561.018145
877.298554	3580.310641
877.609183	3615.331536
877.919771	3669.718025
878.230317	3739.575814
878.540822	3841.797811
878.851285	3999.606091
879.161707	4232.376329
879.472087	4611.554277
879.782425	5253.855250
880.092722	6469.569830
880.402977	8438.485726
880.713191	10860.505570
881.023363	13291.143268
881.333494	14649.376307
881.643583	15131.083763
881.953631	14733.956787
882.263637	13886.216191
882.573602	12837.136952
882.883526	11857.771830
883.193408	10876.097859
883.503248	9938.533985
883.813048	9093.535777
884.122806	8305.875653
884.432522	7519.274172
884.742197	6832.565674
885.051831	6261.823880
885.361424	5754.383854
885.670975	5341.893961
885.980485	5011.348024
886.289954	4734.835694
886.599382	4512.558618
886.908768	4329.927697
887.218113	4157.938651
887.527417	4021.555275
887.836680	3894.654309
888.145901	3793.284267
888.455082	3712.537585
888.764221	3642.657111
889.073319	3584.875405
889.382376	3551.276115
889.691392	3521.467772
890.000366	3514.768079
890.309300	3505.875483
890.618193	3514.586597
890.927044	3510.241123
891.235855	3516.824870
891.544625	3529.717621
891.853353	3563.717683
892.162041	3622.515181
892.470687	3713.240826
892.779293	3838.135413
893.087858	4013.383565
893.396381	4302.176145
893.704864	4720.856575
894.013306	5303.876099
894.321707	5888.954935
894.630068	6257.024701
894.938387	6301.253264
895.246665	6122.501511
895.554903	5796.429598
895.863100	5449.651145
896.171256	5177.340617
896.479371	4928.534469
896.787446	4699.222463
897.095480	4493.795444
897.403473	4339.384902
897.711425	4192.934341
898.019336	4065.947676
898.327207	3940.254066
898.635038	3838.188345
898.942827	3725.178279
899.250576	3639.395484
899.558284	3549.615055
899.865952	3492.518946
900.173579	3428.677774
900.481165	3380.597769
900.788711	3337.342149
901.096216	3311.302068
901.403681	3280.140176
901.711105	3264.983947
902.018489	3261.555962
902.325832	3298.003505
902.633135	3356.339737
902.940397	3531.595450
903.247619	3946.860498
903.554800	4717.509249
903.861941	5708.683274
904.169041	6440.568072
904.476101	6655.810217
904.783121	6378.158587
905.090100	5967.760773
905.397039	5538.655237
905.703938	5170.093959
906.010796	4838.043237
906.317614	4577.793670
906.624391	4333.103624
906.931129	4127.563179
907.237826	3942.996454
907.544483	3765.454577
907.851099	3587.927824
908.157675	3422.794748
908.464211	3280.412398
908.770707	3177.277952
909.077163	3094.232504
909.383578	3030.731610
909.689954	2983.632110
909.996289	2951.293108
910.302584	2930.873914
910.608839	2917.502253
910.915054	2904.309554
911.221229	2902.532547
911.527363	2905.564801
911.833458	2914.666604
912.139513	2923.879313
912.445527	2939.423711
912.751502	2976.060297
913.057436	3021.660054
913.363331	3076.638878
913.669186	3170.643794
913.975000	3288.551341
914.280775	3481.940085
914.586510	3762.021552
914.892205	4147.548833
915.197859	4659.717461
915.503475	5261.454790
915.809050	5766.606132
916.114585	6067.172327
916.420081	6129.629702
916.725536	6069.047636
917.030952	5820.120500
917.336328	5615.386640
917.641665	5395.491509
917.946961	5162.116333
918.252218	4958.136125
918.557435	4720.382706
918.862612	4519.875853
919.167750	4342.149974
919.472848	4146.432218
919.777906	3974.720435
920.082925	3811.066937
920.387904	3648.787154
920.692843	3534.012684
920.997743	3429.267589
921.302603	3334.128413
921.607423	3268.885800
921.912204	3202.340049
922.216946	3152.422543
922.521647	3099.871035
922.826310	3058.820919
923.130932	3017.107892
923.435516	2979.268991
923.740059	2949.805967
924.044564	2915.193405
924.349028	2889.087790
924.653454	2859.092924
924.957840	2832.069819
925.262186	2810.763382
925.566493	2791.082718
925.870761	2762.983326
926.174989	2751.159300
926.479178	2736.222361
926.783328	2720.642675
927.087438	2709.985676
927.391509	2695.535208
927.695541	2681.150276
927.999533	2674.417815
928.303486	2665.164777
928.607400	2657.212357
928.911275	2652.082983
929.215110	2645.320275
929.518906	2639.908596
929.822663	2643.676859
930.126381	2641.083185
930.430060	2643.041673
930.733699	2648.130718
931.037299	2648.778507
931.340861	2650.479896
931.644383	2650.971408
931.947866	2652.755977
932.251309	2652.786224
932.554714	2647.142652
932.858080	2645.973104
933.161407	2643.220634
933.464694	2640.606796
933.767943	2637.080509
934.071153	2631.194962
934.374323	2628.089611
934.677455	2626.085752
934.980548	2621.160545
935.283602	2619.743981
935.586617	2616.966305
935.889593	2620.530401
936.192530	2620.439660
936.495428	2627.129271
936.798287	2638.779378
937.101108	2650.348826
937.403890	2671.733401
937.706632	2699.399253
938.009336	2733.472412
938.312002	2765.387957
938.614628	2789.189765
938.917216	2811.418732
939.219765	2817.473158
939.522275	2828.634273
939.824747	2828.719973
940.127179	2823.830053
940.429573	2816.477530
940.731929	2814.398054
941.034246	2805.845737
941.336524	2805.190387
941.638763	2797.313584
941.940964	2791.249076
942.243126	2775.140069
942.545250	2766.403749
942.847335	2751.713827
943.149381	2736.232443
943.451389	2723.095197
943.753359	2708.546427
944.055290	2700.193235
944.357182	2691.063705
944.659036	2684.429547
944.960851	2678.354956
945.262628	2673.079389
945.564367	2678.259174
945.866067	2678.254133
946.167729	2674.763134
946.469352	2675.481498
946.770937	2672.471930
947.072484	2666.077226
947.373992	2664.315343
947.675462	2661.656134
947.976893	2653.542397
948.278286	2650.013589
948.579641	2646.865389
948.880958	2645.204328
949.182236	2648.554175
949.483476	2643.936478
949.784678	2642.935809
950.085841	2644.251550
950.386967	2645.844555
950.688054	2651.178096
950.989103	2660.695794
951.290114	2669.018739
951.591087	2679.963084
951.892021	2693.334745
952.192917	2700.984696
952.493776	2717.580174
952.794596	2717.212170
953.095378	2721.371122
953.396122	2721.355998
953.696828	2717.227293
953.997496	2711.883670
954.298126	2698.607792
954.598718	2691.600588
954.899272	2684.787468
955.199788	2670.702485
955.500266	2660.826864
955.800706	2642.882877
956.101108	2626.426030
956.401472	2612.593104
956.701798	2598.243460
957.002087	2584.758373
957.302337	2576.931982
957.602550	2561.611915
957.902724	2549.644216
958.202861	2542.233720
958.502960	2535.334901
958.803022	2525.708818
959.103045	2518.142046
959.403031	2511.076869
959.702979	2506.113853
960.002889	2501.531444
960.302762	2499.948522
960.602596	2491.247490
960.902393	2489.082314
961.202153	2485.568630
961.501875	2482.864051
961.801559	2482.070069
962.101205	2478.989924
962.400814	2477.825418
962.700385	2476.129070
962.999918	2471.753348
963.299414	2466.898717
963.598873	2467.581793
963.898293	2466.011474
964.197677	2464.284879
964.497022	2461.169446
964.796331	2465.149437
965.095601	2459.979733
965.394835	2460.632563
965.694030	2460.733386
965.993189	2461.025773
966.292309	2457.990998
966.591393	2459.886472
966.890439	2459.984774
967.189447	2456.312294
967.488419	2457.978395
967.787353	2462.943932
968.086249	2460.541822
968.385108	2458.046451
968.683930	2460.940073
968.982714	2463.997533
969.281462	2464.788994
969.580172	2467.571711
969.878844	2468.095991
970.177480	2471.392906
970.476078	2475.685448
970.774639	2476.933134
971.073162	2479.541931
971.371649	2482.652323
971.670098	2480.847590
971.968510	2484.111737
972.266885	2482.364977
972.565223	2487.690956
972.863524	2490.123313
973.161788	2491.015597
973.460014	2490.377891
973.758204	2492.079280
974.056356	2492.384270
974.354471	2493.435351
974.652550	2491.807058
974.950591	2493.095073
975.248595	2493.332007
975.546563	2489.389825
975.844493	2491.013076
976.142386	2487.943014
976.440243	2485.303970
976.738062	2484.255410
977.035845	2478.747949
977.333590	2480.464462
977.631299	2473.434573
977.928971	2478.206025
978.226606	2472.048256
978.524204	2471.614716
978.821765	2468.577421
979.119290	2469.986424
979.416777	2468.675724
979.714228	2469.550364
980.011642	2472.181846
980.309020	2473.986579
980.606360	2475.919862
980.903664	2485.790441
981.200931	2501.818790
981.498162	2524.090607
981.795356	2552.953734
982.092513	2592.385639
982.389633	2638.479429
982.686717	2680.951150
982.983764	2714.684031
983.280775	2734.878894
983.577749	2735.839233
983.874686	2726.850856
984.171587	2707.313864
984.468451	2689.770649
984.765279	2674.551406
985.062070	2654.540545
985.358824	2634.764099
985.655543	2610.279215
985.952224	2588.637541
986.248869	2558.405742
986.545478	2532.007739
986.842050	2511.091992
987.138586	2490.952583
987.435086	2479.085706
987.731549	2464.398305
988.027975	2461.290433
988.324366	2456.050154
988.620719	2448.546396
988.917037	2446.900460
989.213318	2443.505242
989.509563	2440.830910
989.805772	2437.677669
990.101944	2438.411157
990.398080	2436.911413
990.694180	2437.680189
990.990244	2438.116249
991.286271	2435.076433
991.582262	2437.687751
991.878217	2434.920158
992.174136	2437.864191
992.470019	2437.286979
992.765865	2440.684717
993.061676	2443.096909
993.357450	2446.529935
993.653188	2447.200408
993.948890	2455.425051
994.244556	2461.910495
994.540186	2467.967442
994.835780	2481.313896
995.131337	2496.371823
995.426859	2513.940244
995.722345	2537.608461
996.017795	2551.970709
996.313208	2570.486867
996.608586	2577.307548
996.903928	2582.237796
997.199234	2581.985739
997.494504	2577.494071
997.789738	2570.015519
998.084936	2561.962276
998.380099	2545.661705
998.675225	2533.562935
998.970316	2524.390556
999.265371	2508.374810
999.560390	2494.882162
999.855373	2482.301963
1000.150320	2472.688482
1000.445232	2464.073150
1000.740108	2457.512088
1001.034948	2451.182920
1001.329752	2444.261416
1001.624521	2441.486260
1001.919254	2432.485280
1002.213951	2431.958480
1002.508613	2426.337593
1002.803239	2429.377409
1003.097829	2420.303332
1003.392384	2428.046544
1003.686903	2425.389856
1003.981386	2421.800555
1004.275834	2422.327355
1004.570246	2422.733168
1004.864623	2420.457087
1005.158964	2419.930287
1005.453270	2415.458783
1005.747540	2417.311407
1006.041775	2417.460121
1006.335974	2419.980698
1006.630138	2415.055491
1006.924266	2415.708320
1007.218359	2419.564803
1007.512416	2413.724626
1007.806438	2416.315779
1008.100425	2415.599935
1008.394376	2418.785945
1008.688292	2413.878381
1008.982172	2414.289235
1009.276017	2414.886612
1009.569827	2411.199008
1009.863602	2413.170099
1010.157341	2413.981725
1010.451045	2414.576581
1010.744714	2412.537434
1011.038347	2412.373597
1011.331945	2411.186405
1011.625508	2412.970974
1011.919036	2409.132135
1012.212528	2409.464851
1012.505986	2411.113308
1012.799408	2410.735222
1013.092795	2411.554409
1013.386147	2409.295973
1013.679464	2410.581467
1013.972745	2407.473595
1014.265992	2411.267064
1014.559204	2410.112639
1014.852380	2406.530900
1015.145521	2411.020047
1015.438628	2408.007958
1015.731699	2409.774882
1016.024736	2407.929820
1016.317737	2410.876374
1016.610703	2410.636919
1016.903635	2410.392423
1017.196531	2409.734553
1017.489393	2410.528535
1017.782219	2408.948133
1018.075011	2412.328227
1018.367768	2413.185223
1018.660490	2413.535583
1018.953177	2413.535583
1019.245829	2413.535583
