Dividing Wavelength (nm)	Counts (n)	Blue Motor Position (mm): 11.000000	Red Motor Position (mm): 0.000000	
326.493990	1973.982256
326.888308	1973.982256
327.282561	1973.982256
327.676750	1952.559872
328.070874	1954.377208
328.464933	1959.125975
328.858929	1967.670731
329.252859	1981.024747
329.646726	1993.975472
330.040528	2011.677483
330.434265	2029.835720
330.827938	2050.827084
331.221547	2069.257543
331.615091	2089.533063
332.008571	2110.242123
332.401986	2129.960597
332.795338	2150.352064
333.188625	2168.752276
333.581847	2189.552076
333.975006	2206.301310
334.368100	2224.925853
334.761129	2240.056876
335.154095	2259.402304
335.546996	2285.732251
335.939833	2331.400063
336.332606	2343.156034
336.725315	2354.480986
337.117960	2366.297451
337.510540	2372.803060
337.903056	2383.397045
338.295508	2387.087169
338.687896	2395.130330
339.080220	2402.001423
339.472480	2407.889491
339.864676	2411.224214
340.256807	2412.257650
340.648875	2416.890471
341.040879	2418.904412
341.432818	2420.210071
341.824694	2419.322827
342.216506	2417.707138
342.608253	2420.290729
342.999937	2417.051788
343.391557	2417.926428
343.783113	2417.326531
344.174605	2414.596746
344.566033	2413.505336
344.957397	2411.506518
345.348697	2405.666342
345.739934	2408.615417
346.131106	2406.223389
346.522215	2404.096022
346.913260	2401.182235
347.304241	2399.599313
347.695159	2398.507903
348.086012	2397.736607
348.476802	2393.108828
348.867528	2393.476832
349.258191	2389.494320
349.648789	2394.323746
350.039324	2389.706049
350.429796	2391.914074
350.820203	2387.165307
351.210548	2387.676984
351.600828	2385.879813
351.991045	2385.506768
352.381198	2385.751263
352.771288	2388.271840
353.161314	2387.429968
353.551276	2384.528784
353.941175	2384.130533
354.331010	2385.569782
354.720782	2386.699000
355.110490	2388.733106
355.500135	2387.049361
355.889717	2387.712272
356.279235	2386.081459
356.668689	2384.639689
357.058080	2388.838970
357.447408	2384.254041
357.836672	2383.346633
358.225873	2387.470297
358.615010	2381.960316
359.004084	2389.189330
359.393095	2390.832747
359.782043	2392.579506
360.170927	2394.306102
360.559748	2387.994577
360.948505	2393.691081
361.337199	2391.304094
361.725830	2391.833416
362.114398	2396.783829
362.502903	2393.098745
362.891344	2396.030176
363.279722	2394.046482
363.668037	2395.601678
364.056289	2394.243087
364.444478	2397.784498
364.832603	2393.509599
365.220665	2398.515465
365.608665	2399.984961
365.996601	2399.092677
366.384474	2398.195352
366.772284	2398.371792
367.160031	2395.556308
367.547715	2400.294992
367.935336	2398.641494
368.322893	2397.958418
368.710388	2396.136040
369.097820	2402.301372
369.485189	2400.211813
369.872495	2402.233316
370.259738	2402.752555
370.646918	2400.741134
371.034035	2402.114849
371.421090	2402.571073
371.808081	2401.691392
372.195010	2402.994530
372.581875	2402.021588
372.968678	2401.915723
373.355418	2401.000754
373.742096	2405.086609
374.128710	2400.912534
374.515262	2402.611403
374.901751	2405.318502
375.288177	2404.181722
375.674540	2403.690209
376.060841	2405.061403
376.447079	2401.759447
376.833254	2404.355642
377.219367	2401.787174
377.605417	2404.922772
377.991404	2399.926988
378.377329	2404.012843
378.763191	2401.598131
379.148991	2404.222051
379.534727	2407.203894
379.920402	2407.907135
380.306013	2408.534758
380.691563	2406.588873
381.077049	2406.288924
381.462474	2409.195149
381.847835	2407.889491
382.233134	2408.638102
382.618371	2407.070303
383.003545	2409.280849
383.388657	2409.358987
383.773706	2410.173133
384.158693	2408.859913
384.543618	2409.222876
384.928480	2408.373441
385.313280	2411.652712
385.698017	2412.426529
386.082692	2411.267064
386.467305	2410.460479
386.851856	2409.845458
387.236344	2412.396282
387.620770	2413.215470
388.005133	2409.575757
388.389435	2409.885787
388.773674	2413.192784
389.157851	2413.522980
389.541965	2411.199008
389.926018	2412.267733
390.310008	2412.721437
390.693936	2410.442835
391.077802	2412.955850
391.461606	2414.072466
391.845348	2415.771335
392.229027	2415.849473
392.612645	2416.388876
392.996200	2416.774524
393.379694	2414.364853
393.763125	2415.665470
394.146494	2415.557086
394.529801	2411.435942
394.913047	2416.363670
395.296230	2413.860737
395.679351	2418.463311
396.062410	2415.748649
396.445408	2414.942065
396.828343	2416.542631
397.211217	2413.933834
397.594028	2414.727816
397.976778	2413.540624
398.359466	2416.489699
398.742092	2414.490882
399.124656	2416.593043
399.507158	2419.892478
399.889598	2419.678229
400.271977	2419.915163
400.654294	2419.703435
401.036549	2417.810481
401.418742	2418.982550
401.800874	2419.952972
402.182944	2418.969947
402.564952	2418.279309
402.946898	2420.212591
403.328783	2418.985070
403.710606	2424.172418
404.092367	2418.942220
404.474067	2419.839546
404.855705	2422.312232
405.237282	2419.733682
405.618797	2421.830802
406.000250	2420.189906
406.381642	2421.152766
406.762972	2420.116809
407.144240	2423.070925
407.525447	2422.841553
407.906593	2421.669485
408.287677	2423.645617
408.668700	2421.220822
409.049661	2426.350196
409.430560	2423.078487
409.811399	2423.827098
410.192176	2422.740730
410.572891	2421.447674
410.953545	2422.871800
411.334138	2426.234249
411.714669	2423.746440
412.095139	2421.719896
412.475547	2424.154773
412.855894	2424.449681
413.236180	2423.660740
413.616405	2426.292223
413.996568	2424.684095
414.376670	2423.680905
414.756711	2424.031265
415.136691	2424.729465
415.516609	2426.597213
415.896466	2423.575041
416.276262	2424.447160
416.655997	2422.839032
417.035670	2420.835174
417.415283	2426.178797
417.794834	2421.011614
418.174324	2425.455391
418.553753	2425.062181
418.933121	2428.124682
419.312428	2425.790628
419.691674	2423.837181
420.070859	2427.280289
420.449983	2426.108221
420.829045	2427.741554
421.208047	2425.382294
421.586988	2429.029569
421.965867	2429.120310
422.344686	2425.654517
422.723444	2426.292223
423.102141	2426.440937
423.480777	2429.614343
423.859352	2427.565114
424.237866	2426.788776
424.616319	2427.038313
424.994712	2429.672316
425.373044	2428.522933
425.751314	2430.085691
426.129524	2430.897317
426.507673	2427.272727
426.885762	2427.993612
427.263789	2428.535536
427.641756	2428.139806
428.019662	2428.545618
428.397508	2429.223654
428.775292	2433.072575
429.153016	2427.388674
429.530679	2427.620567
429.908282	2430.473860
430.285824	2428.306164
430.663305	2429.246339
431.040726	2428.313725
431.418086	2431.184662
431.795385	2427.902871
432.172624	2429.011925
432.549802	2430.597368
432.926920	2427.355906
433.303977	2426.806420
433.680974	2430.466298
434.057910	2429.440423
434.434786	2430.027718
434.811601	2431.726587
435.188355	2429.533685
435.565050	2432.565939
435.941683	2433.632143
436.318257	2430.161308
436.694770	2428.275917
437.071222	2431.971083
437.447614	2426.244332
437.823946	2431.721545
438.200218	2430.362954
438.576429	2430.042841
438.952580	2433.674992
439.328670	2432.671803
439.704700	2433.208686
440.080670	2430.826741
440.456580	2431.668613
440.832429	2432.969231
441.208218	2431.850095
441.583947	2435.051227
441.959616	2432.679365
442.335224	2434.632812
442.710773	2434.065682
443.086261	2431.827410
443.461689	2431.613161
443.837057	2432.888572
444.212365	2432.765064
444.587612	2434.889911
444.962800	2435.497370
445.337927	2433.649787
445.712995	2435.154571
446.088002	2435.762030
446.462949	2434.307657
446.837837	2437.102977
447.212664	2434.416042
447.587431	2440.170519
447.962139	2435.638522
448.336786	2438.300251
448.711374	2435.946032
449.085901	2437.339911
449.460369	2436.248502
449.834776	2438.113728
450.209124	2438.514500
450.583412	2440.346960
450.957640	2437.355035
451.331808	2440.069696
451.705917	2436.147678
452.079965	2437.002154
452.453954	2437.231527
452.827883	2438.869902
453.201752	2439.048862
453.575562	2438.378389
453.949311	2440.510797
454.323001	2438.091043
454.696632	2438.166661
455.070202	2442.244954
455.443713	2441.128338
455.817164	2439.873091
456.190556	2436.573656
456.563888	2440.525921
456.937160	2437.644901
457.310373	2443.046497
457.683526	2440.352001
458.056619	2444.193360
458.429653	2443.043977
458.802628	2443.714450
459.175542	2445.556992
459.548398	2443.671601
459.921194	2443.376693
460.293930	2444.561364
460.666607	2448.659822
461.039224	2446.804678
461.411782	2449.526901
461.784280	2447.971705
462.156719	2449.524380
462.529099	2449.476489
462.901419	2447.429781
463.273680	2447.717127
463.645882	2447.104626
464.018024	2449.408434
464.390106	2446.492126
464.762130	2452.135698
465.134094	2454.638631
465.505999	2456.534105
465.877845	2460.766153
466.249631	2458.580813
466.621358	2461.270269
466.993026	2461.847481
467.364634	2464.300002
467.736184	2457.544856
468.107674	2456.917232
468.479105	2457.358333
468.850477	2455.709876
469.221790	2455.127623
469.593043	2456.317335
469.964238	2453.643003
470.335373	2455.301542
470.706449	2458.152315
471.077467	2457.938066
471.448425	2461.814713
471.819324	2465.696402
472.190164	2463.478294
472.560945	2460.511575
472.931667	2458.742130
473.302330	2455.548559
473.672934	2458.182562
474.043479	2458.253138
474.413965	2456.392952
474.784393	2451.349278
475.154761	2458.048971
475.525070	2454.994032
475.895321	2454.507561
476.265513	2455.682150
476.635645	2460.471246
477.005719	2459.215998
477.375734	2456.060236
477.745691	2459.687346
478.115588	2460.340176
478.485427	2460.115844
478.855207	2465.567852
479.224928	2467.241515
479.594591	2469.222689
479.964194	2466.397122
480.333739	2468.365693
480.703226	2465.575414
481.072653	2467.193624
481.442022	2468.451392
481.811333	2469.177318
482.180584	2466.424848
482.549777	2468.181691
482.918912	2465.756896
483.287988	2467.420476
483.657005	2467.652369
484.025964	2464.693212
484.394864	2467.022225
484.763706	2464.743624
485.132489	2466.737400
485.501213	2467.347380
485.869879	2466.165229
486.238487	2467.992647
486.607036	2462.969138
486.975527	2467.440641
487.343959	2465.376288
487.712333	2464.098356
488.080648	2466.719756
488.448905	2468.572380
488.817104	2466.492904
489.185244	2468.048100
489.553326	2468.985755
489.921350	2473.157309
490.289315	2477.104533
490.657222	2477.543113
491.025070	2477.674183
491.392861	2477.386837
491.760593	2476.431539
492.128267	2476.693679
492.495883	2478.921869
492.863440	2471.965077
493.230939	2471.745786
493.598380	2471.962556
493.965763	2470.457772
494.333088	2471.224027
494.700354	2469.598255
495.067563	2472.575056
495.434713	2467.574232
495.801805	2474.425160
496.168839	2476.718885
496.535815	2479.269708
496.902733	2479.814153
497.269593	2479.846921
497.636395	2477.288535
498.003139	2482.158290
498.369825	2483.058136
498.736453	2484.454535
499.103023	2484.094093
499.469535	2486.997797
499.835989	2486.743219
500.202385	2489.853611
500.568723	2489.591471
500.935003	2486.357571
501.301226	2492.832933
501.667390	2496.649086
502.033497	2496.036586
502.399546	2498.121103
502.765537	2495.875269
503.131470	2500.029180
503.497345	2502.166629
503.863163	2503.958759
504.228923	2504.747700
504.594625	2511.099554
504.960269	2507.086795
505.325856	2514.731705
505.691385	2511.301200
506.056856	2513.947806
506.422270	2519.724968
506.787625	2521.723786
507.152924	2523.677233
507.518164	2524.400638
507.883347	2526.737213
508.248472	2529.376257
508.613540	2533.323481
508.978550	2534.583769
509.343503	2537.076620
509.708398	2541.366642
510.073236	2544.083823
510.438016	2547.264792
510.802738	2549.051881
511.167403	2550.274360
511.532010	2555.101265
511.896561	2559.426575
512.261053	2564.928995
512.625488	2565.191135
512.989866	2566.393450
513.354186	2569.352607
513.718449	2570.217165
514.082655	2578.933320
514.446803	2579.112281
514.810894	2583.588826
515.174927	2587.528487
515.538904	2591.871441
515.902822	2596.988212
516.266684	2597.724221
516.630488	2600.413677
516.994235	2598.248501
517.357925	2605.664038
517.721558	2611.113526
518.085133	2616.184926
518.448651	2616.923455
518.812112	2620.258179
519.175516	2622.393107
519.538863	2627.497276
519.902152	2626.521812
520.265385	2633.650004
520.628560	2637.105715
520.991678	2638.076137
521.354739	2645.116108
521.717743	2645.335398
522.080690	2647.757673
522.443580	2656.128509
522.806413	2655.929383
523.169189	2657.408962
523.531908	2665.111845
523.894569	2662.470280
524.257174	2668.365910
524.619722	2671.078051
524.982213	2671.625016
525.344647	2673.540654
525.707025	2676.814884
526.069345	2683.673373
526.431608	2685.954496
526.793815	2689.662264
527.155964	2687.844928
527.518057	2692.558407
527.880093	2692.381967
528.242072	2697.909592
528.603995	2696.266176
528.965860	2699.437062
529.327669	2705.549461
529.689421	2703.699357
530.051117	2708.705223
530.412755	2708.301931
530.774337	2711.855944
531.135862	2714.522714
531.497331	2714.550441
531.858743	2711.739997
532.220098	2718.979094
532.581396	2716.413147
532.942638	2718.346430
533.303824	2723.304404
533.664953	2725.847667
534.026025	2727.178531
534.387040	2732.368399
534.747999	2732.232288
535.108902	2736.779409
535.469748	2734.150447
535.830537	2737.323853
536.191270	2738.195973
536.551947	2740.086406
536.912567	2741.225706
537.273131	2746.135790
537.633638	2742.491036
537.994089	2747.209556
538.354483	2747.358270
538.714821	2750.786255
539.075103	2754.914960
539.435328	2753.969743
539.795497	2756.074425
540.155609	2759.220105
540.515665	2762.393511
540.875665	2759.530136
541.235609	2762.688419
541.595496	2765.463574
541.955328	2771.908689
542.315102	2766.282762
542.674821	2768.140427
543.034483	2770.051024
543.394090	2769.844337
543.753640	2774.293155
544.113134	2781.849845
544.472571	2776.176026
544.831953	2783.049639
545.191278	2779.818260
545.550548	2780.428239
545.909761	2783.775565
546.268918	2787.024589
546.628019	2791.722944
546.987064	2788.481482
547.346053	2787.266564
547.704986	2793.797379
548.063863	2791.579272
548.422684	2794.084725
548.781449	2791.879220
549.140158	2798.525982
549.498811	2798.636887
549.857408	2797.530354
550.215949	2804.308185
550.574434	2802.170736
550.932864	2805.379430
551.291237	2808.711633
551.649555	2810.188691
552.007817	2816.621203
552.366022	2817.309321
552.724173	2816.331337
553.082267	2823.590598
553.440305	2827.469766
553.798288	2826.978254
554.156215	2829.808862
554.514086	2836.281703
554.871902	2838.393947
555.229661	2838.588031
555.587365	2841.343022
555.945014	2845.270081
556.302606	2843.258660
556.660143	2853.784589
557.017625	2857.285671
557.375050	2861.001001
557.732421	2865.704398
558.089735	2871.325284
558.446994	2874.581870
558.804197	2882.551934
559.161345	2886.380690
559.518437	2882.292314
559.875474	2893.934859
560.232455	2897.536764
560.589381	2902.371230
560.946251	2907.891294
561.303065	2919.803540
561.659825	2924.781680
562.016528	2926.165476
562.373177	2934.279213
562.729770	2942.831531
563.086307	2947.106429
563.442789	2961.017493
563.799216	2965.977989
564.155587	2971.913948
564.511904	2980.551965
564.868164	2993.106958
565.224370	3002.302023
565.580520	3008.709329
565.936615	3021.264323
566.292654	3029.002494
566.648638	3041.353321
567.004567	3056.413768
567.360441	3065.876014
567.716260	3078.113415
568.072023	3095.369285
568.427732	3105.345728
568.783385	3115.929631
569.138982	3133.586272
569.494525	3150.194353
569.850013	3159.563338
570.205445	3180.204342
570.560823	3198.357537
570.916145	3210.186605
571.271412	3228.793503
571.626625	3245.809918
571.981782	3262.564193
572.336884	3276.795370
572.691931	3303.420224
573.046923	3317.190136
573.401860	3335.048424
573.756743	3356.075076
574.111570	3378.286400
574.466342	3397.145357
574.821059	3421.927669
575.175722	3432.851849
575.530330	3456.144501
575.884882	3478.055876
576.239380	3500.292406
576.593823	3525.568751
576.948211	3548.392575
577.302544	3565.479566
577.656823	3588.527721
578.011047	3624.209008
578.365216	3650.738080
578.719330	3672.203313
579.073389	3699.932180
579.427394	3736.402408
579.781344	3763.029782
580.135239	3793.004483
580.489080	3826.029082
580.842866	3844.701516
581.196597	3899.516502
581.550273	3934.716359
581.903895	3968.983602
582.257463	4026.152807
582.610975	4043.091084
582.964434	4097.243159
583.317837	4124.276346
583.671186	4161.104496
584.024481	4210.326322
584.377721	4232.353644
584.730906	4284.403557
585.084037	4326.489630
585.437113	4358.505998
585.790135	4398.439498
586.143103	4425.616359
586.496016	4475.574193
586.848874	4525.806771
587.201679	4577.776026
587.554428	4594.265640
587.907124	4663.513450
588.259765	4697.533677
588.612352	4767.570427
588.964884	4783.407212
589.317362	4852.312223
589.669786	4900.538421
590.022155	4940.600471
590.374470	5015.958159
590.726731	5037.990522
591.078937	5052.498963
591.431090	5110.298312
591.783188	5139.456346
592.135232	5171.109751
592.487222	5234.923197
592.839157	5295.994255
593.191038	5327.851827
593.542866	5366.429257
593.894639	5376.519126
594.246358	5450.291372
594.598022	5500.546634
594.949633	5527.567219
595.301190	5572.776287
595.652692	5615.651300
596.004141	5692.264236
596.355535	5671.600546
596.706876	5716.124017
597.058162	5758.691520
597.409395	5855.302713
597.760573	5918.496097
598.111698	5936.165341
598.462768	5993.664742
598.813785	6057.062293
599.164748	6066.998407
599.515657	6158.371841
599.866511	6173.812895
600.217312	6295.647501
600.568060	6248.726962
600.918753	6383.545060
601.269392	6447.557631
601.619978	6471.896322
601.970510	6558.243726
602.320988	6645.977447
602.671412	6736.892136
603.021783	6769.624348
603.372100	6800.400592
603.722363	6872.305090
604.072572	6946.263858
604.422728	7019.708428
604.772830	7057.554891
605.122878	7138.961964
605.472872	7197.381375
605.822813	7300.316695
606.172701	7352.172524
606.522534	7449.701207
606.872314	7557.057620
607.222041	7599.496573
607.571714	7726.639514
607.921333	7724.396201
608.270899	7846.200560
608.620411	7966.177501
608.969870	8017.693052
609.319276	8089.174093
609.668627	8175.019902
610.017926	8327.058582
610.367171	8430.591279
610.716362	8520.820371
611.065500	8601.456147
611.414585	8719.141884
611.763616	8845.987397
612.112594	8922.355836
612.461518	9044.941574
612.810389	9184.155558
613.159207	9245.841637
613.507971	9346.299231
613.856682	9524.922435
614.205340	9590.588505
614.553945	9808.749479
614.902496	9805.538264
615.250994	9977.131579
615.599439	10096.657337
615.947830	10228.546524
616.296169	10344.611530
616.644454	10472.500562
616.992686	10612.712694
617.340864	10824.272277
617.688990	10876.279341
618.037063	11114.569642
618.385082	11219.382792
618.733048	11384.939326
619.080961	11494.405461
619.428821	11597.121491
619.776628	11720.506252
620.124382	11764.228179
620.472083	11888.822817
620.819731	12015.086077
621.167326	12025.559074
621.514868	12104.939603
621.862357	12079.731313
622.209793	12176.891992
622.557176	12180.098166
622.904506	12193.399250
623.251783	12191.266842
623.599007	12225.029970
623.946179	12244.110737
624.293297	12331.141217
624.640363	12269.694593
624.987376	12357.602234
625.334336	12385.714228
625.681243	12388.348231
626.028097	12478.816778
626.374899	12530.975076
626.721647	12626.759520
627.068343	12693.711084
627.414987	12732.137279
627.761577	12768.244544
628.108115	12961.285448
628.454600	12914.377512
628.801032	13061.722877
629.147412	13148.380311
629.493739	13261.009771
629.840014	13259.205037
630.186236	13463.727170
630.532405	13458.060913
630.878521	13624.618115
631.224585	13696.941029
631.570597	13705.296741
631.916556	13852.921891
632.262462	13947.476293
632.608316	14048.990008
632.954117	14103.406743
633.299866	14199.755796
633.645562	14262.896248
633.991206	14193.277913
634.336797	14133.464623
634.682336	14220.106934
635.027823	14216.104258
635.373257	14244.914452
635.718639	14251.155400
636.063968	14292.959169
636.409245	14173.922403
636.754470	14281.293939
637.099642	14279.504329
637.444762	14208.169482
637.789829	14332.496938
638.134845	14305.637671
638.479808	14368.659655
638.824719	14425.468418
639.169577	14374.948495
639.514383	14471.746210
639.859137	14449.494557
640.203839	14625.090549
640.548489	14586.992028
640.893086	14689.014900
641.237632	14686.247307
641.582125	14809.344722
641.926566	14873.843765
642.270955	14948.876298
642.615292	15035.216140
642.959576	15116.277894
643.303809	15207.684096
643.647990	15346.973697
643.992118	15424.869606
644.336195	15503.516648
644.680219	15627.092972
645.024192	15840.457288
645.368112	16137.172042
645.711981	16246.781850
646.055797	16708.375102
646.399562	16788.637833
646.743274	17281.443389
647.086935	17583.942867
647.430544	17628.834342
647.774101	17777.785314
648.117606	17975.277557
648.461059	18202.290797
648.804460	18129.060476
649.147810	17925.498684
649.491108	17906.622083
649.834354	17821.240060
650.177548	17533.387655
650.520690	17409.529026
650.863781	17491.659504
651.206820	17513.076846
651.549807	17389.230820
651.892742	17250.200838
652.235626	17251.093122
652.578458	17273.866535
652.921238	17068.275678
653.263967	17298.507695
653.606644	17232.869351
653.949269	17293.705996
654.291843	17187.113318
654.634365	17455.322867
654.976836	17347.389243
655.319255	17426.547961
655.661622	17508.441505
656.003938	17470.683263
656.346203	17481.549470
656.688416	17663.393972
657.030577	17642.465622
657.372687	17647.549625
657.714746	17847.575048
658.056753	17981.372312
658.398708	17789.379968
658.740612	17893.883087
659.082465	18110.579606
659.424266	18089.951204
659.766016	18237.064677
660.107715	18250.920288
660.449362	18396.072751
660.790958	18458.348645
661.132503	18545.273261
661.473996	18636.566037
661.815438	18766.179143
662.156829	18941.205484
662.498168	18895.424245
662.839456	18979.823243
663.180693	19133.956522
663.521879	19305.544796
663.863013	19351.273103
664.204097	19428.881666
664.545129	19742.015458
664.886110	19802.771444
665.227040	19921.704866
665.567918	20051.033147
665.908746	20161.688995
666.249522	20327.389201
666.590248	20397.171373
666.930922	20539.105060
667.271545	20584.694735
667.612118	20704.170081
667.952639	20660.889254
668.293109	20758.869121
668.633528	20771.207345
668.973896	20800.909823
669.314213	20901.155688
669.654480	20802.341511
669.994695	20903.678785
670.334859	20914.194632
670.674973	20921.784089
671.015035	21086.276939
671.355047	21132.705966
671.695008	21166.370792
672.034918	21175.354128
672.374777	21280.426897
672.714585	21257.991242
673.054342	21473.505610
673.394049	21391.221377
673.733705	21629.289867
674.073310	21480.127166
674.412864	21600.189807
674.752368	21402.082543
675.091820	21666.478459
675.431223	21470.677523
675.770574	21358.776511
676.109875	21338.700115
676.449125	21245.910117
676.788324	21257.446798
677.127473	20989.196919
677.466571	21001.729228
677.805619	20853.592401
678.144616	20906.559805
678.483562	20933.923188
678.822458	20776.407295
679.161303	20782.822163
679.500098	20795.969492
679.838842	20782.252513
680.177535	20938.051893
680.516179	21173.206596
680.854771	21386.480172
681.193314	22010.421262
681.531805	22797.420995
681.870247	23364.197922
682.208638	23911.954576
682.546978	24122.253870
682.885268	24232.055242
683.223508	23937.563637
683.561697	23766.582822
683.899836	23704.919428
684.237925	23410.455550
684.575963	23367.482234
684.913951	23103.691256
685.251889	23280.746661
685.589776	23313.625067
685.927614	23359.837324
686.265401	23491.237520
686.603137	23607.559624
686.940824	23995.521783
687.278460	24300.768689
687.616046	24432.226858
687.953582	24874.930907
688.291068	24821.103987
688.628504	25066.225051
688.965889	25076.483799
689.303224	24862.635533
689.640510	24683.263717
689.977745	24232.178750
690.314930	23731.451021
690.652065	23436.994704
690.989150	22969.460452
691.326185	22396.533318
691.663170	21952.253909
692.000105	21467.725928
692.336990	21058.175027
692.673825	20793.005294
693.010610	20470.182404
693.347345	20111.083372
693.684030	19695.583910
694.020665	19537.268994
694.357251	19096.697354
694.693786	19103.868395
695.030272	18969.730853
695.366707	18615.544425
695.703093	18437.533721
696.039429	18479.592068
696.375716	18303.403741
696.711952	18305.500861
697.048139	18221.795022
697.384276	18130.255229
697.720363	18244.918794
698.056400	18121.193755
698.392388	17986.872211
698.728326	17997.685486
699.064214	17883.321870
699.400053	17870.754273
699.735842	17631.266698
700.071581	17460.500132
700.407270	17278.605219
700.742910	17172.367943
701.078501	17000.240266
701.414042	16820.689489
701.749533	16631.230325
702.084974	16404.080973
702.420366	16576.080102
702.755709	16280.945750
703.091002	16084.058445
703.426246	16134.633821
703.761440	16082.049545
704.096584	15902.430713
704.431679	15899.474076
704.766725	15847.184708
705.101721	15834.196175
705.436668	15923.149855
705.771565	15708.137082
706.106413	15990.560165
706.441212	15993.065618
706.775961	16120.203518
707.110661	16199.967175
707.445311	16501.148391
707.779913	16397.925725
708.114465	16605.719566
708.448967	16840.410483
708.783421	17402.055515
709.117825	17630.487840
709.452180	17832.136514
709.786485	18152.370771
710.120742	18802.112488
710.454949	18813.313932
710.789107	19186.170273
711.123216	19744.377238
711.457275	19840.025571
711.791286	20270.187228
712.125247	20324.518264
712.459159	20109.850810
712.793023	20657.340282
713.126837	19805.032401
713.460602	20037.147289
713.794318	19771.929665
714.127985	19510.679428
714.461602	18832.997117
714.795171	18847.467749
715.128691	18062.096309
715.462162	17654.982807
715.795584	17342.343048
716.128957	17162.464596
716.462281	16861.593411
716.795556	16695.983946
717.128782	16321.895042
717.461960	15908.797690
717.795088	15868.642379
718.128167	15563.806327
718.461198	15213.791454
718.794180	15118.596825
719.127113	14837.600389
719.459997	14704.748341
719.792833	14435.069296
720.125619	14431.298513
720.458357	14181.325337
720.791046	14059.314291
721.123686	13938.167802
721.456278	13757.570986
721.788821	13732.692892
722.121315	13531.339125
722.453761	13608.269653
722.786158	13560.610585
723.118506	13570.632399
723.450805	13472.224034
723.783056	13614.747536
724.115259	13539.624261
724.447412	13497.545750
724.779518	13705.926886
725.111574	13730.290782
725.443582	13897.861257
725.775542	13895.675916
726.107453	14287.822233
726.439315	14199.052555
726.771129	14533.830541
727.102895	14851.836607
727.434612	15012.621689
727.766281	15124.681498
728.097901	15342.260218
728.429473	15386.176230
728.760996	15382.803698
729.092471	15466.517099
729.423897	15383.708585
729.755276	15295.639627
730.086606	15400.903961
730.417887	15847.842579
730.749120	16298.645241
731.080305	16457.371011
731.411442	16747.771719
731.742530	16828.072259
732.073570	16918.732370
732.404562	17175.795928
732.735506	17017.264242
733.066401	16799.962785
733.397249	16381.587345
733.728048	15869.635487
734.058798	15193.775552
734.389501	14632.927022
734.720156	14253.330658
735.050762	13810.893791
735.381320	13521.559287
735.711831	13324.626612
736.042293	13029.532589
736.372707	13047.673181
736.703073	12868.097199
737.033391	13033.668856
737.363661	13008.190864
737.693883	13110.236421
738.024056	13261.287034
738.354182	13418.560952
738.684260	13667.775433
739.014290	13855.913815
739.344272	14017.765101
739.674207	14251.961985
740.004093	14361.110527
740.333931	14359.731772
740.663722	14385.729002
740.993464	14393.129416
741.323159	14257.789559
741.652806	14035.867884
741.982405	13858.767108
742.311956	13581.143204
742.641460	13485.767094
742.970915	13230.979617
743.300323	12941.859362
743.629683	12756.793563
743.958996	12512.710976
744.288260	12289.650001
744.617477	12035.543079
744.946647	11982.991571
745.275768	11758.955132
745.604842	11611.531629
745.933869	11476.174128
746.262847	11437.478231
746.591778	11374.347861
746.920662	11300.515122
747.249498	11305.253807
747.578286	11412.380847
747.907027	11531.684793
748.235720	11718.497352
748.564365	11753.727456
748.892963	11672.821978
749.221514	11727.604197
749.550017	11599.132911
749.878473	11576.868655
750.206881	11400.496326
750.535242	11321.372896
750.863555	11252.498132
751.191821	11164.169555
751.520039	11190.363390
751.848210	11112.858170
752.176334	11142.452264
752.504411	11063.964019
752.832440	10927.502505
753.160421	10985.027112
753.488356	10877.874866
753.816243	10801.531632
754.144082	10679.190390
754.471875	10628.108378
754.799620	10576.812117
755.127318	10561.124046
755.454969	10533.717813
755.782572	10488.312141
756.110129	10497.245065
756.437638	10434.954048
756.765100	10428.450959
757.092515	10425.151524
757.419882	10449.543147
757.747203	10451.867119
758.074477	10530.584736
758.401703	10480.964659
758.728882	10631.959820
759.056014	10664.061887
759.383099	10769.306056
759.710138	10868.291633
760.037129	10941.070771
760.364073	10956.090888
760.690970	10954.276073
761.017820	10954.646598
761.344623	11137.925308
761.671379	11435.406317
761.998088	11997.588232
762.324751	13434.243981
762.651366	16000.208933
762.977935	19305.403644
763.304456	21313.189356
763.630931	21754.134042
763.957359	20702.992971
764.283740	18987.500920
764.610074	17276.906350
764.936362	15374.591658
765.262602	14012.635727
765.588796	12668.349039
765.914943	11750.367527
766.241044	10975.849691
766.567097	10404.712166
766.893104	9907.326722
767.219064	9581.022916
767.544978	9240.066996
767.870845	8953.268192
768.196665	8783.847614
768.522438	8614.691697
768.848165	8458.478942
769.173846	8315.723547
769.499479	8204.177936
769.825066	8064.119559
770.150607	7895.316522
770.476101	7839.200918
770.801548	7738.430773
771.126949	7614.062987
771.452303	7534.027108
771.777611	7383.316773
772.102872	7366.403702
772.428087	7265.101715
772.753256	7155.953173
773.078378	7076.224804
773.403453	6946.341996
773.728482	6854.766916
774.053465	6797.391023
774.378401	6717.539146
774.703291	6628.877853
775.028135	6542.787548
775.352932	6509.463001
775.677683	6435.537000
776.002388	6357.247881
776.327046	6350.495255
776.651658	6282.071674
776.976224	6209.486620
777.300743	6192.623961
777.625216	6130.141379
777.949643	6094.684424
778.274024	6102.107523
778.598359	6044.104007
778.922647	6042.453029
779.246889	6003.668912
779.571086	6011.409603
779.895236	6025.512231
780.219339	6017.973186
780.543397	6016.639801
780.867409	6065.846503
781.191374	6062.766358
781.515294	6033.923397
781.839167	6084.481128
782.162995	6060.863323
782.486776	6014.824985
782.810511	5975.060364
783.134201	5906.609056
783.457844	5897.696296
783.781441	5854.465881
784.104993	5816.211085
784.428498	5789.112363
784.751958	5775.609632
785.075372	5754.688844
785.398739	5719.020160
785.722061	5739.928345
786.045337	5741.481021
786.368568	5843.791238
786.691752	5871.177306
787.014891	6094.535710
787.337983	6356.277459
787.661030	6767.580160
787.984031	7161.377454
788.306987	7404.439208
788.629897	7494.141499
788.952760	7416.885816
789.275579	7250.729386
789.598351	6981.617470
789.921078	6735.105047
790.243759	6475.034440
790.566395	6284.985461
790.888984	6102.593994
791.211529	5971.150949
791.534027	5817.095808
791.856480	5687.245767
792.178888	5635.279033
792.501249	5572.466256
792.823566	5479.159539
793.145836	5474.632583
793.468062	5456.088699
793.790241	5420.059572
794.112375	5461.064317
794.434464	5550.055806
794.756507	5578.586217
795.078505	5696.622313
795.400457	5896.410802
795.722364	6118.045131
796.044226	6301.616227
796.366042	6447.887827
796.687812	6400.722792
797.009538	6427.244302
797.331218	6339.717268
797.652852	6278.973885
797.974442	6167.193860
798.295986	6101.006031
798.617484	5977.538091
798.938938	5879.142329
799.260346	5811.689170
799.581709	5686.398853
799.903026	5636.098220
800.224299	5567.117592
800.545526	5458.453000
800.866708	5397.268516
801.187845	5348.702039
801.508936	5277.790649
801.829983	5257.169809
802.150984	5152.013860
802.471940	5130.596518
802.792851	5114.079178
803.113717	5092.256023
803.434538	5066.969595
803.755314	5033.279564
804.076045	5024.863358
804.396731	4993.068800
804.717372	5006.692518
805.037967	5008.610678
805.358518	5038.948341
805.679024	5090.279890
805.999485	5101.269606
806.319901	5119.926916
806.640272	5136.671109
806.960598	5176.418086
807.280879	5171.911295
807.601115	5205.949165
807.921306	5174.567983
808.241453	5168.667312
808.561554	5177.267521
808.881611	5146.508920
809.201623	5146.279548
809.521590	5098.373463
809.841513	5086.168829
810.161390	5098.416313
810.481223	5013.787943
810.801011	5003.778732
811.120755	4979.074557
811.440453	4928.920118
811.760107	4903.605963
812.079716	4877.139906
812.399281	4829.863965
812.718801	4828.286084
813.038276	4795.450528
813.357707	4765.007000
813.677093	4785.363179
813.996434	4723.576277
814.315731	4742.939349
814.634983	4740.360799
814.954191	4745.686778
815.273354	4809.459895
815.592473	4846.285524
815.911547	4918.280762
816.230577	4970.406293
816.549562	5049.139034
816.868502	5101.766159
817.187399	5151.804653
817.506250	5226.995983
817.825058	5256.368266
818.143821	5407.708745
818.462539	5567.611625
818.781213	5786.372496
819.099843	6135.283356
819.418429	6736.445994
819.736970	7321.706311
820.055466	8005.899273
820.373919	8887.319817
820.692327	10273.637125
821.010691	12845.210360
821.329011	18709.730823
821.647286	27641.407753
821.965517	37343.173865
822.283704	42510.202802
822.601847	44003.561450
822.919945	39708.710101
823.237999	34889.994648
823.556010	29976.991974
823.873976	25529.025659
824.191897	21559.933672
824.509775	18645.009969
824.827609	16035.769232
825.145398	14574.757148
825.463144	13878.599008
825.780845	14163.870342
826.098502	15356.332599
826.416116	17676.490889
826.733685	19888.702952
827.051210	20403.949205
827.368692	19033.788795
827.686129	16584.188797
828.003522	14229.120517
828.320872	12092.659352
828.638177	10524.379076
828.955439	9330.321294
829.272656	8325.253848
829.589830	7516.587237
829.906960	6823.226937
830.224046	6315.678526
830.541088	5921.488022
830.858086	5677.682698
831.175041	5481.927133
831.491952	5431.124905
831.808819	5463.242096
832.125642	5699.823446
832.442421	6231.360187
832.759157	7295.721684
833.075849	8989.123398
833.392497	10766.490572
833.709101	11830.310144
834.025662	11590.041190
834.342179	10571.176107
834.658653	9320.203698
834.975083	8260.550639
835.291469	7392.826910
835.607811	6694.566608
835.924110	6193.433066
836.240366	5722.929575
836.556578	5289.508811
836.872746	4948.505000
837.188871	4690.234086
837.504952	4475.145695
837.820990	4318.562416
838.136984	4207.281465
838.452935	4163.302439
838.768842	4190.025595
839.084706	4461.867296
839.400526	5169.110934
839.716303	6039.776176
840.032037	6586.784218
840.347727	6441.210819
840.663373	5864.671697
840.978977	5308.773580
841.294537	4887.076020
841.610054	4566.090631
841.925527	4337.252493
842.240957	4140.866784
842.556344	3966.548725
842.871687	3813.670693
843.186987	3667.641069
843.502244	3557.015469
843.817458	3473.173518
844.132629	3405.294382
844.447756	3358.094058
844.762840	3315.561843
845.077881	3278.030453
845.392879	3244.448807
845.707833	3224.279150
846.022745	3196.905685
846.337613	3186.470496
846.652438	3161.292453
846.967221	3151.346257
847.281960	3135.048207
847.596656	3124.320631
847.911309	3113.025926
848.225919	3101.693412
848.540485	3092.258893
848.855009	3084.631627
849.169490	3074.062848
849.483928	3066.107907
849.798323	3061.122206
850.112675	3053.363870
850.426984	3053.401679
850.741251	3044.012530
851.055474	3040.829041
851.369654	3044.924979
851.683792	3039.765358
851.997887	3045.441697
852.311938	3045.066131
852.625947	3044.531769
852.939914	3038.169833
853.253837	3044.912376
853.567718	3042.127138
853.881555	3035.992054
854.195350	3041.471788
854.509103	3037.915254
854.822812	3038.109339
855.136479	3030.431661
855.450103	3036.034904
855.763685	3029.690612
856.077224	3034.633463
856.390720	3036.516334
856.704173	3050.495454
857.017584	3054.057029
857.330953	3057.099365
857.644278	3067.668144
857.957561	3069.324163
858.270802	3067.322825
858.584000	3066.158319
858.897155	3062.163204
859.210268	3054.016700
859.523339	3038.159750
859.836367	3036.516334
860.149352	3031.087011
860.462295	3028.372350
860.775195	3018.274919
861.088054	3016.613859
861.400869	3017.274250
861.713642	3014.897346
862.026373	3024.475538
862.339062	3024.112575
862.651708	3034.482228
862.964312	3049.083931
863.276873	3058.556259
863.589392	3088.835949
863.901869	3115.105402
864.214303	3132.401601
864.526696	3157.146104
864.839045	3170.525327
865.151353	3179.959846
865.463619	3182.392203
865.775842	3182.311544
866.088023	3190.705066
866.400162	3182.586287
866.712258	3179.811132
867.024313	3182.840866
867.336325	3181.459589
867.648296	3180.945392
867.960224	3178.074455
868.272110	3185.351360
868.583954	3182.480423
868.895755	3188.532328
869.207515	3183.299611
869.519233	3204.152343
869.830909	3211.162068
870.142542	3222.625652
870.454134	3224.992473
870.765684	3241.020822
871.077191	3257.470107
871.388657	3268.343876
871.700081	3285.660239
872.011463	3305.540030
872.322803	3326.259172
872.634101	3337.158147
872.945357	3361.842156
873.256571	3384.900394
873.567744	3402.133578
873.878874	3408.813107
874.189963	3422.653595
874.501010	3423.936569
874.812015	3419.054211
875.122979	3438.273610
875.433900	3432.307405
875.744780	3435.291768
876.055618	3446.082358
876.366415	3443.380299
876.677169	3449.616207
876.987882	3465.904175
877.298554	3484.385045
877.609183	3516.960981
877.919771	3562.941345
878.230317	3631.095224
878.540822	3727.293043
878.851285	3875.656721
879.161707	4090.177982
879.472087	4456.584167
879.782425	5058.981887
880.092722	6206.414037
880.402977	8065.231133
880.713191	10328.933541
881.023363	12595.791712
881.333494	13877.681518
881.643583	14330.414942
881.953631	13948.159369
882.263637	13139.497798
882.573602	12146.433340
882.883526	11225.570808
883.193408	10301.756681
883.503248	9431.260317
883.813048	8630.183162
884.122806	7894.714104
884.432522	7156.255642
884.742197	6518.216964
885.051831	5977.863245
885.361424	5504.768601
885.670975	5128.464110
885.980485	4818.032377
886.289954	4558.924631
886.599382	4351.135831
886.908768	4179.126621
887.218113	4023.614586
887.527417	3894.916449
887.836680	3775.609982
888.145901	3679.991896
888.455082	3608.896503
888.764221	3539.719270
889.073319	3484.175837
889.382376	3452.335909
889.691392	3423.949172
890.000366	3421.698297
890.309300	3417.325096
890.618193	3418.522370
890.927044	3410.776637
891.235855	3420.319541
891.544625	3435.122889
891.853353	3460.311014
892.162041	3523.564892
892.470687	3608.828448
892.779293	3721.528483
893.087858	3893.457035
893.396381	4166.647244
893.704864	4560.873037
894.013306	5108.443168
894.321707	5660.262991
894.630068	6011.452453
894.938387	6042.465632
895.246665	5875.510178
895.554903	5572.163787
895.863100	5236.329679
896.171256	4973.841839
896.479371	4743.282148
896.787446	4527.427502
897.095480	4334.031196
897.403473	4194.983570
897.711425	4053.674987
898.019336	3933.889610
898.327207	3816.334943
898.635038	3717.664439
898.942827	3616.208697
899.250576	3532.172662
899.558284	3451.355405
899.865952	3398.188876
900.173579	3340.666790
900.481165	3295.757671
900.788711	3252.146649
901.096216	3219.565671
901.403681	3194.949717
901.711105	3185.094261
902.018489	3183.513860
902.325832	3215.300855
902.633135	3271.023249
902.940397	3436.224381
903.247619	3827.430523
903.554800	4553.013878
903.861941	5490.565150
904.169041	6166.840979
904.476101	6368.837493
904.783121	6101.994097
905.090100	5705.766966
905.397039	5311.967151
905.703938	4960.422288
906.010796	4651.071882
906.317614	4404.854367
906.624391	4180.966642
906.931129	3987.968587
907.237826	3811.876043
907.544483	3650.727998
907.851099	3479.729539
908.157675	3329.611539
908.464211	3190.899150
908.770707	3097.030345
909.077163	3019.540248
909.383578	2962.184521
909.689954	2920.050557
909.996289	2892.369581
910.302584	2874.087837
910.608839	2861.106865
910.915054	2847.921727
911.221229	2840.735563
911.527363	2850.528004
911.833458	2853.378777
912.139513	2867.713297
912.445527	2878.960112
912.751502	2913.449166
913.057436	2951.729168
913.363331	3006.687827
913.669186	3096.473297
913.975000	3207.850030
914.280775	3389.918863
914.586510	3646.281700
914.892205	4009.892566
915.197859	4493.835773
915.503475	5059.680087
915.809050	5540.969127
916.114585	5819.838196
916.420081	5882.729110
916.725536	5816.400129
917.030952	5587.567032
917.336328	5386.021701
917.641665	5181.620557
917.946961	4955.620589
918.252218	4765.863996
918.557435	4545.540367
918.862612	4354.495760
919.167750	4186.143907
919.472848	4002.761853
919.777906	3839.786391
920.082925	3686.641178
920.387904	3540.518293
920.692843	3433.691202
920.997743	3337.478260
921.302603	3246.296390
921.607423	3182.556040
921.912204	3118.553551
922.216946	3074.372879
922.521647	3029.569624
922.826310	2986.392141
923.130932	2946.151131
923.435516	2910.421953
923.740059	2888.258520
924.044564	2855.422964
924.349028	2832.324397
924.653454	2803.398257
924.957840	2782.590894
925.262186	2761.476021
925.566493	2741.351735
925.870761	2716.549258
926.174989	2706.638350
926.479178	2693.612008
926.783328	2675.773885
927.087438	2662.213182
927.391509	2651.445277
927.695541	2641.178967
927.999533	2630.705970
928.303486	2621.778087
928.607400	2616.028651
928.911275	2612.572940
929.215110	2604.892742
929.518906	2601.237905
929.822663	2604.239912
930.126381	2605.505242
930.430060	2606.082454
930.733699	2609.278546
931.037299	2613.082096
931.340861	2609.767537
931.644383	2612.535131
931.947866	2612.451952
932.251309	2611.136211
932.554714	2609.908690
932.858080	2605.293513
933.161407	2603.851743
933.464694	2601.736979
933.767943	2595.995105
934.071153	2594.069384
934.374323	2592.688108
934.677455	2584.826429
934.980548	2582.825091
935.283602	2580.269226
935.586617	2575.999368
935.889593	2581.945409
936.192530	2584.236614
936.495428	2589.086204
936.798287	2597.956114
937.101108	2610.042280
937.403890	2635.008595
937.706632	2660.766370
938.009336	2689.274095
938.312002	2724.123592
938.614628	2744.520100
938.917216	2760.457708
939.219765	2769.821652
939.522275	2779.299021
939.824747	2776.370110
940.127179	2770.824841
940.429573	2767.958945
940.731929	2766.123965
941.034246	2758.564755
941.336524	2757.780856
941.638763	2749.573857
941.940964	2742.354925
942.243126	2726.129971
942.545250	2718.767366
942.847335	2704.110211
943.149381	2691.648479
943.451389	2676.797240
943.753359	2665.394150
944.055290	2659.745537
944.357182	2647.757673
944.659036	2645.557209
944.960851	2640.579070
945.262628	2637.103194
945.564367	2638.920530
945.866067	2634.925416
946.167729	2630.443830
946.469352	2634.413739
946.770937	2627.938377
947.072484	2624.890999
947.373992	2626.231946
947.675462	2620.290946
947.976893	2620.275823
948.278286	2615.431274
948.579641	2610.100254
948.880958	2605.331322
949.182236	2609.250819
949.483476	2604.403750
949.784678	2604.698657
950.085841	2600.829572
950.386967	2608.464399
950.688054	2613.054370
950.989103	2622.466204
951.290114	2630.801752
951.591087	2641.549492
951.892021	2655.768066
952.192917	2667.599654
952.493776	2675.161385
952.794596	2676.313289
953.095378	2682.418126
953.396122	2676.943433
953.696828	2673.749862
953.997496	2672.199707
954.298126	2661.527585
954.598718	2653.675987
954.899272	2644.027219
955.199788	2632.619088
955.500266	2624.165073
955.800706	2606.715119
956.101108	2586.585792
956.401472	2576.692527
956.701798	2565.032338
957.002087	2552.358877
957.302337	2543.194060
957.602550	2530.840712
957.902724	2520.738240
958.202861	2515.744977
958.502960	2504.228461
958.803022	2496.734786
959.103045	2488.946203
959.403031	2483.995790
959.702979	2481.248361
960.002889	2476.660911
960.302762	2469.537761
960.602596	2467.796042
960.902393	2464.393263
961.202153	2460.259517
961.501875	2458.931173
961.801559	2454.056377
962.101205	2452.904474
962.400814	2452.644854
962.700385	2448.697631
962.999918	2449.521860
963.299414	2443.621189
963.598873	2449.403392
963.898293	2442.227310
964.197677	2444.508432
964.497022	2442.844851
964.796331	2442.307968
965.095601	2439.197577
965.394835	2439.079109
965.694030	2437.458378
965.993189	2441.438369
966.292309	2439.142124
966.591393	2438.033070
966.890439	2435.462082
967.189447	2439.124480
967.488419	2437.052566
967.787353	2438.222113
968.086249	2437.995261
968.385108	2437.844027
968.683930	2438.925354
968.982714	2441.158585
969.281462	2443.200253
969.580172	2442.958277
969.878844	2446.300562
970.177480	2450.333485
970.476078	2450.388938
970.774639	2454.810030
971.073162	2458.681636
971.371649	2455.480503
971.670098	2457.791873
971.968510	2461.534929
972.266885	2457.502006
972.565223	2463.170784
972.863524	2462.560804
973.161788	2468.527010
973.460014	2466.054324
973.758204	2467.722946
974.056356	2468.902576
974.354471	2470.793008
974.652550	2468.184211
974.950591	2470.518265
975.248595	2469.421814
975.546563	2466.205558
975.844493	2466.427369
976.142386	2466.162708
976.440243	2462.003757
976.738062	2463.682461
977.035845	2458.243056
977.333590	2457.607870
977.631299	2454.336162
977.928971	2451.745008
978.226606	2454.691563
978.524204	2452.138218
978.821765	2447.495316
979.119290	2448.685028
979.416777	2449.090841
979.714228	2446.633278
980.011642	2449.511777
980.309020	2453.040585
980.606360	2456.496296
980.903664	2464.151288
981.200931	2479.977991
981.498162	2497.238901
981.795356	2528.037831
982.092513	2562.844477
982.389633	2604.323091
982.686717	2647.979484
982.983764	2678.538958
983.280775	2693.304498
983.577749	2694.698377
983.874686	2686.919877
984.171587	2668.227278
984.468451	2656.068015
984.765279	2638.209727
985.062070	2620.169958
985.358824	2600.963162
985.655543	2582.993969
985.952224	2559.406411
986.248869	2534.495549
986.545478	2505.408091
986.842050	2485.805564
987.138586	2471.720581
987.435086	2455.646862
987.731549	2445.219235
988.027975	2443.018771
988.324366	2435.860333
988.620719	2433.556525
988.917037	2430.541915
989.213318	2425.069743
989.509563	2422.385328
989.805772	2422.279464
990.101944	2423.728796
990.398080	2420.678898
990.694180	2422.402972
990.990244	2418.327200
991.286271	2418.622107
991.582262	2417.984401
991.878217	2422.455905
992.174136	2420.545307
992.470019	2422.463466
992.765865	2423.670823
993.061676	2425.049578
993.357450	2431.686257
993.653188	2432.202976
993.948890	2435.628440
994.244556	2443.381734
994.540186	2452.992694
994.835780	2463.001905
995.131337	2476.368524
995.426859	2492.316215
995.722345	2510.799605
996.017795	2528.461288
996.313208	2542.586601
996.608586	2553.203271
996.903928	2556.507747
997.199234	2557.591595
997.494504	2550.004659
997.789738	2544.194729
998.084936	2535.758358
998.380099	2524.080525
998.675225	2512.548886
998.970316	2500.087153
999.265371	2487.522077
999.560390	2473.666466
999.855373	2466.568521
1000.150320	2457.706173
1000.445232	2447.830552
1000.740108	2443.326282
1001.034948	2434.988213
1001.329752	2431.656010
1001.624521	2425.493200
1001.919254	2420.250400
1002.213951	2418.153280
1002.508613	2414.836201
1002.803239	2416.966088
1003.097829	2409.865623
1003.392384	2412.678587
1003.686903	2411.604821
1003.981386	2411.357804
1004.275834	2409.094326
1004.570246	2411.103226
1004.864623	2408.222207
1005.158964	2406.271280
1005.453270	2404.438821
1005.747540	2405.653739
1006.041775	2403.778430
1006.335974	2404.640467
1006.630138	2408.494429
1006.924266	2408.224727
1007.218359	2405.016033
1007.512416	2408.605334
1007.806438	2406.170457
1008.100425	2403.922103
1008.394376	2405.691547
1008.688292	2406.896383
1008.982172	2403.682648
1009.276017	2405.005951
1009.569827	2405.562998
1009.863602	2406.208266
1010.157341	2402.651732
1010.451045	2403.107956
1010.744714	2403.949829
1011.038347	2402.692061
1011.331945	2401.862791
1011.625508	2403.349932
1011.919036	2401.822462
1012.212528	2407.299676
1012.505986	2399.929509
1012.799408	2396.579662
1013.092795	2401.693913
1013.386147	2401.348593
1013.679464	2402.137534
1013.972745	2400.980589
1014.265992	2400.983110
1014.559204	2399.780795
1014.852380	2400.063099
1015.145521	2402.588717
1015.438628	2400.635270
1015.731699	2401.252812
1016.024736	2398.598644
1016.317737	2400.395815
1016.610703	2403.581825
1016.903635	2397.991185
1017.196531	2401.172153
1017.489393	2401.293141
1017.782219	2397.114024
1018.075011	2406.737587
1018.367768	2401.179715
1018.660490	2402.631567
1018.953177	2402.631567
1019.245829	2402.631567
