Dividing Wavelength (nm)	Counts (n)	Blue Motor Position (mm): 10.600000	Red Motor Position (mm): 0.000000	
326.493990	1976.691876
326.888308	1976.691876
327.282561	1976.691876
327.676750	1951.165993
328.070874	1955.004832
328.464933	1961.475153
328.858929	1967.602675
329.252859	1979.565333
329.646726	1994.668630
330.040528	2009.920641
330.434265	2030.919568
330.827938	2050.486806
331.221547	2069.252502
331.615091	2091.282344
332.008571	2109.120467
332.401986	2132.821452
332.795338	2150.410037
333.188625	2173.513645
333.581847	2188.992508
333.975006	2209.298276
334.368100	2223.569783
334.761129	2241.531414
335.154095	2257.539598
335.546996	2285.490275
335.939833	2330.686740
336.332606	2342.541013
336.725315	2350.564010
337.117960	2361.636904
337.510540	2370.242154
337.903056	2380.821015
338.295508	2384.649771
338.687896	2395.331976
339.080220	2398.949004
339.472480	2407.420663
339.864676	2408.161713
340.256807	2412.398803
340.648875	2413.260840
341.040879	2416.835018
341.432818	2416.940882
341.824694	2417.951634
342.216506	2418.238979
342.608253	2416.227559
342.999937	2417.381983
343.391557	2416.472055
343.783113	2412.562640
344.174605	2414.460635
344.566033	2408.988462
344.957397	2406.840931
345.348697	2407.768503
345.739934	2406.911507
346.131106	2399.987482
346.522215	2402.084602
346.913260	2398.742317
347.304241	2398.989333
347.695159	2395.435320
348.086012	2394.764847
348.476802	2393.237377
348.867528	2389.748898
349.258191	2390.608415
349.648789	2387.487941
350.039324	2388.357540
350.429796	2387.165307
350.820203	2387.593805
351.210548	2386.167159
351.600828	2386.154556
351.991045	2385.547097
352.381198	2385.000132
352.771288	2386.212529
353.161314	2381.841849
353.551276	2381.390665
353.941175	2381.025182
354.331010	2382.484596
354.720782	2386.550286
355.110490	2385.073228
355.500135	2384.145656
355.889717	2386.043650
356.279235	2385.600029
356.668689	2384.611963
357.058080	2385.211860
357.447408	2385.035420
357.836672	2381.529297
358.225873	2387.543394
358.615010	2381.138608
359.004084	2388.362581
359.393095	2388.745709
359.782043	2388.193703
360.170927	2390.346275
360.559748	2387.616490
360.948505	2387.598846
361.337199	2390.245452
361.725830	2390.837788
362.114398	2389.663199
362.502903	2392.365257
362.891344	2392.594630
363.279722	2392.403066
363.668037	2395.773077
364.056289	2391.152860
364.444478	2392.085473
364.832603	2394.485062
365.220665	2393.880124
365.608665	2394.653941
365.996601	2394.018756
366.384474	2396.012532
366.772284	2396.824158
367.160031	2397.174518
367.547715	2395.231153
367.935336	2397.232491
368.322893	2397.897924
368.710388	2397.650907
369.097820	2399.120403
369.485189	2396.130999
369.872495	2400.506721
370.259738	2400.582338
370.646918	2399.460681
371.034035	2398.245763
371.421090	2401.366237
371.808081	2401.945970
372.195010	2401.701474
372.581875	2403.158368
372.968678	2402.301372
373.355418	2400.700805
373.742096	2398.732235
374.128710	2403.755744
374.515262	2401.865312
374.901751	2399.710218
375.288177	2403.886814
375.674540	2400.859602
376.060841	2403.178532
376.447079	2403.395302
376.833254	2403.296999
377.219367	2397.996226
377.605417	2401.739283
377.991404	2398.240722
378.377329	2401.542678
378.763191	2396.856925
379.148991	2404.436300
379.534727	2407.022412
379.920402	2402.394633
380.306013	2403.622154
380.691563	2404.426218
381.077049	2405.197514
381.462474	2405.197514
381.847835	2404.133831
382.233134	2405.573080
382.618371	2405.328584
383.003545	2405.991496
383.388657	2406.324212
383.773706	2404.181722
384.158693	2406.094840
384.543618	2407.246743
384.928480	2407.259346
385.313280	2407.713050
385.698017	2407.695406
386.082692	2408.151631
386.467305	2405.825138
386.851856	2409.900911
387.236344	2407.289593
387.620770	2408.859913
388.005133	2408.743966
388.389435	2410.475603
388.773674	2408.801939
389.157851	2413.069276
389.541965	2408.673390
389.926018	2413.102044
390.310008	2408.401168
390.693936	2411.897208
391.077802	2410.589028
391.461606	2410.420150
391.845348	2411.682959
392.229027	2411.524162
392.612645	2406.538461
392.996200	2410.982238
393.379694	2411.645150
393.763125	2413.482651
394.146494	2413.840573
394.529801	2413.296128
394.913047	2411.756056
395.296230	2412.542476
395.679351	2411.728329
396.062410	2411.037691
396.445408	2414.916859
396.828343	2413.180182
397.211217	2407.143400
397.594028	2410.957033
397.976778	2411.216652
398.359466	2415.015162
398.742092	2408.517114
399.124656	2414.574061
399.507158	2413.575912
399.889598	2415.289904
400.271977	2415.365522
400.654294	2413.933834
401.036549	2415.710841
401.418742	2416.920718
401.800874	2415.867117
402.182944	2416.051119
402.564952	2413.855696
402.946898	2417.437436
403.328783	2415.582291
403.710606	2414.906777
404.092367	2418.276788
404.474067	2416.091448
404.855705	2417.994483
405.237282	2419.300142
405.618797	2417.003897
406.000250	2419.993301
406.381642	2419.564803
406.762972	2417.765111
407.144240	2421.084711
407.525447	2420.313414
407.906593	2420.905750
408.287677	2419.065729
408.668700	2421.195616
409.049661	2423.000349
409.430560	2421.339289
409.811399	2421.460277
410.192176	2418.480955
410.572891	2421.666964
410.953545	2422.471028
411.334138	2420.119330
411.714669	2420.162180
412.095139	2419.635379
412.475547	2420.991449
412.855894	2418.765780
413.236180	2422.821388
413.616405	2421.765267
413.996568	2422.592016
414.376670	2420.492375
414.756711	2421.238466
415.136691	2421.240987
415.516609	2424.212747
415.896466	2423.602767
416.276262	2426.191400
416.655997	2417.276119
417.035670	2417.354257
417.415283	2423.149063
417.794834	2419.557241
418.174324	2427.126534
418.553753	2424.898344
418.933121	2424.931111
419.312428	2423.315421
419.691674	2425.772984
420.070859	2422.554207
420.449983	2425.715011
420.829045	2422.813827
421.208047	2425.868766
421.586988	2423.358271
421.965867	2425.654517
422.344686	2425.460432
422.723444	2426.498910
423.102141	2425.730134
423.480777	2426.342634
423.859352	2422.108065
424.237866	2427.466812
424.616319	2423.993457
424.994712	2425.475556
425.373044	2428.210382
425.751314	2426.435896
426.129524	2425.246183
426.507673	2424.631163
426.885762	2426.065371
427.263789	2424.658889
427.641756	2428.303643
428.019662	2423.310380
428.397508	2425.962027
428.775292	2425.954465
429.153016	2424.396749
429.530679	2427.449168
429.908282	2428.230546
430.285824	2425.720052
430.663305	2426.932449
431.040726	2428.515372
431.418086	2428.122162
431.795385	2427.411359
432.172624	2428.641400
432.549802	2427.595361
432.926920	2429.871442
433.303977	2426.251893
433.680974	2427.348344
434.057910	2425.276430
434.434786	2427.560073
434.811601	2431.222471
435.188355	2427.363468
435.565050	2431.093922
435.941683	2428.049065
436.318257	2428.906061
436.694770	2423.622932
437.071222	2428.343972
437.447614	2423.355751
437.823946	2427.779363
438.200218	2428.744744
438.576429	2428.185176
438.952580	2427.358427
439.328670	2428.709456
439.704700	2429.228695
440.080670	2430.395722
440.456580	2428.666606
440.832429	2430.241967
441.208218	2431.499735
441.583947	2429.790783
441.959616	2433.168357
442.335224	2430.816658
442.710773	2430.766247
443.086261	2432.303799
443.461689	2430.032759
443.837057	2431.328335
444.212365	2428.694332
444.587612	2433.395208
444.962800	2431.116607
445.337927	2429.798345
445.712995	2431.146854
446.088002	2433.700198
446.462949	2430.110897
446.837837	2433.022163
447.212664	2431.315733
447.587431	2433.017122
447.962139	2434.272369
448.336786	2432.485280
448.711374	2435.439396
449.085901	2436.288831
449.460369	2433.037287
449.834776	2436.389654
450.209124	2435.157092
450.583412	2433.049889
450.957640	2435.625919
451.331808	2434.889911
451.705917	2436.931578
452.079965	2438.514500
452.453954	2433.138110
452.827883	2437.433173
453.201752	2436.046855
453.575562	2435.537699
453.949311	2434.857143
454.323001	2436.256063
454.696632	2439.111877
455.070202	2437.317226
455.443713	2436.026691
455.817164	2432.938984
456.190556	2434.095929
456.563888	2436.984510
456.937160	2435.570466
457.310373	2439.469799
457.683526	2437.123142
458.056619	2438.912751
458.429653	2436.195569
458.802628	2439.573143
459.175542	2439.986517
459.548398	2442.181940
459.921194	2442.237392
460.293930	2442.978442
460.666607	2439.810077
461.039224	2443.958946
461.411782	2443.404419
461.784280	2446.376180
462.156719	2445.967846
462.529099	2443.923658
462.901419	2443.653957
463.273680	2446.456838
463.645882	2442.411312
464.018024	2446.393824
464.390106	2444.379883
464.762130	2449.678135
465.134094	2450.247786
465.505999	2450.474638
465.877845	2454.565534
466.249631	2455.132664
466.621358	2454.530246
466.993026	2456.009825
467.364634	2456.645010
467.736184	2453.169134
468.107674	2453.552262
468.479105	2453.436316
468.850477	2449.791561
469.221790	2452.246603
469.593043	2449.776438
469.964238	2448.314503
470.335373	2451.676953
470.706449	2451.583692
471.077467	2453.353137
471.448425	2457.784311
471.819324	2455.122582
472.190164	2459.107614
472.560945	2455.359516
472.931667	2453.985801
473.302330	2453.446398
473.672934	2453.937910
474.043479	2453.708538
474.413965	2450.368773
474.784393	2450.018413
475.154761	2451.651747
475.525070	2449.209308
475.895321	2451.558486
476.265513	2451.182920
476.635645	2455.286419
477.005719	2453.196861
477.375734	2455.334310
477.745691	2458.192644
478.115588	2454.285750
478.485427	2454.477314
478.855207	2460.569548
479.224928	2462.838067
479.594591	2463.014508
479.964194	2461.913016
480.333739	2463.014508
480.703226	2460.193982
481.072653	2462.777574
481.442022	2462.800259
481.811333	2462.301185
482.180584	2461.822275
482.549777	2464.884776
482.918912	2462.848150
483.287988	2460.960238
483.657005	2460.057871
484.025964	2459.899075
484.394864	2461.847481
484.763706	2461.053499
485.132489	2463.410238
485.501213	2461.134158
485.869879	2459.410083
486.238487	2464.110959
486.607036	2460.390587
486.975527	2460.670371
487.343959	2459.142902
487.712333	2463.009467
488.080648	2460.897223
488.448905	2461.166925
488.817104	2462.248253
489.185244	2463.362347
489.553326	2464.849488
489.921350	2466.621453
490.289315	2468.615230
490.657222	2471.745786
491.025070	2469.744448
491.392861	2470.946763
491.760593	2470.818214
492.128267	2469.696557
492.495883	2465.361165
492.863440	2465.333439
493.230939	2465.096504
493.598380	2468.025415
493.965763	2463.193469
494.333088	2464.161370
494.700354	2465.156998
495.067563	2463.445527
495.434713	2461.416462
495.801805	2466.331587
496.168839	2464.846967
496.535815	2466.518110
496.902733	2467.977524
497.269593	2468.632874
497.636395	2468.705971
498.003139	2470.692185
498.369825	2471.390385
498.736453	2470.654377
499.103023	2472.426342
499.469535	2474.347022
499.835989	2474.808287
500.202385	2473.001034
500.568723	2474.596559
500.935003	2476.834831
501.301226	2480.124184
501.667390	2480.038484
502.033497	2485.563589
502.399546	2482.569144
502.765537	2486.090390
503.131470	2486.201295
503.497345	2486.123157
503.863163	2487.028044
504.228923	2489.210864
504.594625	2490.637510
504.960269	2493.175731
505.325856	2495.159425
505.691385	2497.775784
506.056856	2498.766371
506.422270	2501.773419
506.787625	2503.132010
507.152924	2505.362721
507.518164	2506.670900
507.883347	2510.792043
508.248472	2512.329595
508.613540	2513.844462
508.978550	2518.263033
509.343503	2519.830832
509.708398	2522.711852
510.073236	2522.404341
510.438016	2525.789476
510.802738	2526.054137
511.167403	2525.857532
511.532010	2534.556043
511.896561	2536.249870
512.261053	2541.477547
512.625488	2541.464944
512.989866	2540.290355
513.354186	2545.167672
513.718449	2544.048535
514.082655	2555.607901
514.446803	2554.634958
514.810894	2561.261555
515.174927	2562.118551
515.538904	2562.214333
515.902822	2569.337484
516.266684	2568.598955
516.630488	2569.334963
516.994235	2574.446693
517.357925	2579.346695
517.721558	2583.157807
518.085133	2584.985225
518.448651	2590.654003
518.812112	2592.267172
519.175516	2595.448140
519.538863	2597.373861
519.902152	2601.963831
520.265385	2602.820828
520.628560	2609.303751
520.991678	2608.900459
521.354739	2611.458845
521.717743	2614.627210
522.080690	2620.238014
522.443580	2624.515433
522.806413	2626.524333
523.169189	2626.736061
523.531908	2633.460961
523.894569	2632.898872
524.257174	2637.942546
524.619722	2641.370531
524.982213	2641.839358
525.344647	2645.718526
525.707025	2646.792292
526.069345	2652.390493
526.431608	2653.698673
526.793815	2657.222439
527.155964	2656.635145
527.518057	2659.354847
527.880093	2662.124961
528.242072	2662.598830
528.603995	2665.794921
528.965860	2669.658966
529.327669	2675.257167
529.689421	2671.332629
530.051117	2675.920079
530.412755	2675.410922
530.774337	2679.988290
531.135862	2681.258661
531.497331	2682.783610
531.858743	2680.066428
532.220098	2687.933148
532.581396	2688.981708
532.942638	2689.115299
533.303824	2694.650486
533.664953	2693.213757
534.026025	2695.590661
534.387040	2704.639532
534.747999	2700.793132
535.108902	2704.493339
535.469748	2703.172557
535.830537	2706.572815
536.191270	2709.917620
536.551947	2709.819318
536.912567	2711.074565
537.273131	2714.822663
537.633638	2712.874257
537.994089	2715.261243
538.354483	2718.016234
538.714821	2719.636965
539.075103	2724.647872
539.435328	2726.187944
539.795497	2725.497306
540.155609	2727.360013
540.515665	2730.926629
540.875665	2730.994685
541.235609	2733.185066
541.595496	2731.667679
541.955328	2738.185891
542.315102	2736.119017
542.674821	2732.766650
543.034483	2737.336456
543.394090	2741.021540
543.753640	2737.817886
544.113134	2744.207549
544.472571	2740.141858
544.831953	2748.769793
545.191278	2744.641088
545.550548	2746.778537
545.909761	2751.867582
546.268918	2752.538056
546.628019	2755.366143
546.987064	2755.610639
547.346053	2749.510843
547.704986	2758.002666
548.063863	2755.570310
548.422684	2756.543252
548.781449	2755.910587
549.140158	2758.552152
549.498811	2762.275044
549.857408	2755.265320
550.215949	2762.557349
550.574434	2761.024838
550.932864	2761.526433
551.291237	2765.236722
551.649555	2768.742845
552.007817	2772.190994
552.366022	2770.287958
552.724173	2772.753082
553.082267	2775.094698
553.440305	2781.328085
553.798288	2777.395985
554.156215	2779.241047
554.514086	2783.173147
554.871902	2781.559978
555.229661	2786.505350
555.587365	2786.034002
555.945014	2791.428037
556.302606	2788.569703
556.660143	2793.913326
557.017625	2793.583130
557.375050	2795.370219
557.732421	2797.265693
558.089735	2801.533030
558.446994	2802.296765
558.804197	2810.907055
559.161345	2811.080975
559.518437	2806.470840
559.875474	2811.438897
560.232455	2815.413847
560.589381	2819.499702
560.946251	2824.986998
561.303065	2830.441527
561.659825	2833.970334
562.016528	2832.117710
562.373177	2833.461178
562.729770	2838.668690
563.086307	2841.315295
563.442789	2851.158148
563.799216	2854.495392
564.155587	2858.664426
564.511904	2864.892772
564.868164	2869.659183
565.224370	2878.559340
565.580520	2880.298538
565.936615	2889.589385
566.292654	2894.489386
566.648638	2902.015829
567.004567	2907.147723
567.360441	2914.654002
567.716260	2921.189858
568.072023	2935.894903
568.427732	2937.200562
568.783385	2942.755914
569.138982	2956.636731
569.494525	2963.933801
569.850013	2970.925881
570.205445	2987.281905
570.560823	2992.116372
570.916145	3006.965090
571.271412	3016.286184
571.626625	3023.978984
571.981782	3035.341745
572.336884	3046.633930
572.691931	3064.295612
573.046923	3068.875501
573.401860	3083.371338
573.756743	3096.062443
574.111570	3112.801595
574.466342	3120.983387
574.821059	3138.773619
575.175722	3145.322078
575.530330	3164.672547
575.884882	3174.144875
576.239380	3186.989735
576.593823	3204.389278
576.948211	3223.669171
577.302544	3231.102352
577.656823	3250.062132
578.011047	3271.497118
578.365216	3286.683594
578.719330	3304.894762
579.073389	3322.581650
579.427394	3345.130731
579.781344	3364.718135
580.135239	3379.524003
580.489080	3408.251019
580.842866	3418.900456
581.196597	3457.261116
581.550273	3480.057214
581.903895	3506.281296
582.257463	3542.590207
582.610975	3558.784914
582.964434	3592.563165
583.317837	3613.793984
583.671186	3639.463540
584.024481	3673.839168
584.377721	3689.376004
584.730906	3722.640058
585.084037	3754.855551
585.437113	3772.330711
585.790135	3808.080054
586.143103	3828.143846
586.496016	3860.238352
586.848874	3892.070718
587.201679	3932.810803
587.554428	3946.739511
587.907124	3988.518073
588.259765	4018.318854
588.612352	4071.306422
588.964884	4087.027261
589.317362	4134.986278
589.669786	4168.270496
590.022155	4201.547153
590.374470	4251.991458
590.726731	4269.960651
591.078937	4286.883805
591.431090	4323.268333
591.783188	4347.236499
592.135232	4371.416393
592.487222	4418.669649
592.839157	4464.264365
593.191038	4488.706399
593.542866	4516.115152
593.894639	4525.368190
594.246358	4582.423970
594.598022	4622.375114
594.949633	4640.364471
595.301190	4676.885110
595.652692	4710.403742
596.004141	4766.920118
596.355535	4749.921347
596.706876	4783.555926
597.058162	4812.199762
597.409395	4886.171133
597.760573	4933.923463
598.111698	4948.804949
598.462768	4991.614427
598.813785	5036.662178
599.164748	5046.270617
599.515657	5123.138131
599.866511	5133.031396
600.217312	5219.290579
600.568060	5194.049522
600.918753	5296.516015
601.269392	5339.806923
601.619978	5364.236355
601.970510	5423.295993
602.320988	5490.101364
602.671412	5560.672476
603.021783	5594.496098
603.372100	5614.499397
603.722363	5674.521895
604.072572	5733.223611
604.422728	5782.243791
604.772830	5819.119831
605.122878	5873.173603
605.472872	5926.057828
605.822813	6000.293859
606.172701	6043.584768
606.522534	6118.811386
606.872314	6206.527463
607.222041	6235.498974
607.571714	6333.425908
607.921333	6334.792061
608.270899	6423.350011
608.620411	6516.986923
608.969870	6560.081226
609.319276	6618.316636
609.668627	6686.899013
610.017926	6798.447145
610.367171	6884.882769
610.716362	6961.231044
611.065500	7025.505755
611.414585	7107.774865
611.763616	7213.140022
612.112594	7276.401462
612.461518	7371.505349
612.810389	7478.655074
613.159207	7537.518107
613.507971	7616.099613
613.856682	7751.479800
614.205340	7808.923748
614.553945	7981.779872
614.902496	7981.116961
615.250994	8120.943445
615.599439	8210.131539
615.947830	8324.979106
616.296169	8414.681397
616.644454	8517.785596
616.992686	8630.011763
617.340864	8802.262949
617.688990	8853.612142
618.037063	9034.403042
618.385082	9126.038616
618.733048	9260.055171
619.080961	9354.458338
619.428821	9435.504969
619.776628	9531.508702
620.124382	9581.582484
620.472083	9676.502369
620.819731	9767.734651
621.167326	9782.326271
621.514868	9850.230613
621.862357	9836.319549
622.209793	9900.886648
622.557176	9904.831351
622.904506	9924.406151
623.251783	9925.999156
623.599007	9944.583369
623.946179	9974.351383
624.293297	10033.784066
624.640363	9991.705555
624.987376	10060.774404
625.334336	10085.095450
625.681243	10097.073232
626.028097	10165.096041
626.374899	10212.888700
626.721647	10287.097006
627.068343	10341.044913
627.414987	10373.623370
627.761577	10408.430017
628.108115	10555.843438
628.454600	10524.510146
628.801032	10649.760134
629.147412	10723.371062
629.493739	10810.456995
629.840014	10818.525362
630.186236	10983.050979
630.532405	10992.167906
630.878521	11126.544903
631.224585	11183.903151
631.570597	11201.557272
631.916556	11332.927221
632.262462	11401.252499
632.608316	11495.315389
632.954117	11554.463247
633.299866	11619.705860
633.645562	11681.013853
633.991206	11629.452931
634.336797	11586.812331
634.682336	11662.122129
635.027823	11670.671926
635.373257	11690.685306
635.718639	11699.338447
636.063968	11727.205945
636.409245	11641.713017
636.754470	11730.109650
637.099642	11737.416802
637.444762	11678.440344
637.789829	11788.224072
638.134845	11769.397882
638.479808	11825.750421
638.824719	11872.630631
639.169577	11840.762977
639.514383	11934.697317
639.859137	11917.822055
640.203839	12060.088457
640.548489	12040.415354
640.893086	12121.212448
641.237632	12133.994293
641.582125	12242.812640
641.926566	12295.898511
642.270955	12363.119777
642.615292	12444.867128
642.959576	12520.159281
643.303809	12599.086106
643.647990	12722.412894
643.992118	12794.587093
644.336195	12873.191285
644.680219	12982.803613
645.024192	13164.759020
645.368112	13414.076845
645.711981	13512.661650
646.055797	13893.311615
646.399562	13972.931599
646.743274	14379.833373
647.086935	14628.911743
647.430544	14685.458366
647.774101	14819.444673
648.117606	14979.108098
648.461059	15166.593651
648.804460	15118.826198
649.147810	14966.575790
649.491108	14952.536176
649.834354	14891.185334
650.177548	14671.542261
650.520690	14579.082458
650.863781	14657.043902
651.206820	14673.271377
651.549807	14596.376136
651.892742	14491.303367
652.235626	14486.400845
652.578458	14514.187685
652.921238	14364.863667
653.263967	14552.659250
653.606644	14510.608465
653.949269	14574.850409
654.291843	14503.124873
654.634365	14725.159973
654.976836	14645.035874
655.319255	14709.923086
655.661622	14792.845025
656.003938	14778.790288
656.346203	14797.286282
656.688416	14944.687100
657.030577	14941.995123
657.372687	14937.253918
657.714746	15115.219252
658.056753	15240.411267
658.398708	15084.937041
658.740612	15185.992011
659.082465	15361.593043
659.424266	15366.477921
659.766016	15485.365973
660.107715	15508.462019
660.449362	15633.699404
660.790958	15697.354054
661.132503	15772.943635
661.473996	15865.899992
661.815438	15976.495345
662.156829	16132.463604
662.498168	16115.926099
662.839456	16195.871237
663.180693	16327.649519
663.521879	16475.435986
663.863013	16533.991508
664.204097	16602.321828
664.545129	16891.578194
664.886110	16949.432997
665.227040	17046.001340
665.567918	17179.344900
665.908746	17279.318542
666.249522	17423.089730
666.590248	17509.714397
666.930922	17631.024723
667.271545	17689.272735
667.612118	17805.970405
667.952639	17778.486035
668.293109	17869.768728
668.633528	17889.782109
668.973896	17931.444725
669.314213	18022.389661
669.654480	17960.607800
669.994695	18041.679636
670.334859	18062.171926
670.674973	18085.641018
671.015035	18250.000277
671.355047	18292.940826
671.695008	18334.731991
672.034918	18345.494855
672.374777	18465.186970
672.714585	18449.924877
673.054342	18644.659609
673.394049	18579.653930
673.733705	18793.194687
674.073310	18684.076391
674.412864	18791.117731
674.752368	18646.396287
675.091820	18884.749602
675.431223	18718.870435
675.770574	18637.092837
676.109875	18632.349111
676.449125	18547.342655
676.788324	18572.755111
677.127473	18350.336883
677.466571	18363.774078
677.805619	18241.715141
678.144616	18305.601684
678.483562	18336.607300
678.822458	18209.151808
679.161303	18237.969564
679.500098	18242.715810
679.838842	18240.558196
680.177535	18398.273215
680.516179	18616.540053
680.854771	18816.447009
681.193314	19359.953969
681.531805	20066.025539
681.870247	20566.695295
682.208638	21051.530787
682.546978	21243.069427
682.885268	21355.378773
683.223508	21106.290320
683.561697	20968.003908
683.899836	20924.188720
684.237925	20702.882066
684.575963	20663.109883
684.913951	20445.024526
685.251889	20613.164651
685.589776	20649.690331
685.927614	20699.789318
686.265401	20833.120276
686.603137	20949.109664
686.940824	21294.398455
687.278460	21573.713667
687.616046	21695.639013
687.953582	22116.028394
688.291068	22074.695974
688.628504	22300.844656
688.965889	22319.484323
689.303224	22146.595431
689.640510	22004.704594
689.977745	21615.131787
690.314930	21176.158192
690.652065	20926.300963
690.989150	20522.572596
691.326185	20022.127171
691.663170	19653.795265
692.000105	19254.682074
692.336990	18882.662564
692.673825	18656.498759
693.010610	18376.724803
693.347345	18057.498777
693.684030	17691.516048
694.020665	17558.404381
694.357251	17176.592430
694.693786	17193.336622
695.030272	17071.116368
695.366707	16779.896472
695.703093	16622.788912
696.039429	16658.240827
696.375716	16524.957760
696.711952	16538.243721
697.048139	16474.866335
697.384276	16395.221146
697.720363	16508.947056
698.056400	16406.636838
698.392388	16293.619210
698.728326	16305.581868
699.064214	16222.249075
699.400053	16212.254987
699.735842	16017.028743
700.071581	15872.521547
700.407270	15725.486213
700.742910	15633.291071
701.078501	15494.787890
701.414042	15338.219733
701.749533	15178.107646
702.084974	14981.888294
702.420366	15156.163503
702.755709	14895.220777
703.091002	14727.932608
703.426246	14776.655360
703.761440	14730.002001
704.096584	14585.348612
704.431679	14589.757101
704.766725	14549.372418
705.101721	14536.986303
705.436668	14625.327483
705.771565	14438.930819
706.106413	14697.801631
706.441212	14722.283995
706.775961	14837.597868
707.110661	14905.444237
707.445311	15183.685683
707.779913	15090.457104
708.114465	15295.879082
708.448967	15509.760117
708.783421	16024.663570
709.117825	16228.036319
709.452180	16401.124337
709.786485	16696.573761
710.120742	17277.256711
710.454949	17296.135832
710.789107	17642.006877
711.123216	18156.169281
711.457275	18254.880114
711.791286	18656.037493
712.125247	18732.710923
712.459159	18522.159571
712.793023	19036.339619
713.126837	18273.466848
713.460602	18496.122011
713.794318	18261.216845
714.127985	18021.033590
714.461602	17406.900064
714.795171	17420.307013
715.128691	16725.353708
715.462162	16371.129471
715.795584	16107.441837
716.128957	15956.068590
716.462281	15690.714854
716.795556	15539.434869
717.128782	15214.298090
717.461960	14840.511655
717.795088	14803.761644
718.128167	14537.256005
718.461198	14227.293099
718.794180	14143.166323
719.127113	13895.035690
719.459997	13767.925516
719.792833	13532.738045
720.125619	13522.358309
720.458357	13306.826297
720.791046	13193.475953
721.123686	13084.138367
721.456278	12914.934559
721.788821	12897.167012
722.121315	12700.022609
722.453761	12784.419086
722.786158	12739.388979
723.118506	12762.485026
723.450805	12667.179492
723.783056	12804.802992
724.115259	12740.750091
724.447412	12701.192157
724.779518	12895.077454
725.111574	12935.517590
725.443582	13094.523144
725.775542	13087.977206
726.107453	13463.482674
726.439315	13385.369995
726.771129	13702.458572
727.102895	13988.516326
727.434612	14147.952899
727.766281	14249.940482
728.097901	14458.127533
728.429473	14506.250388
728.760996	14510.409340
729.092471	14597.190283
729.423897	14529.331311
729.755276	14442.658753
730.086606	14554.043047
730.417887	14969.406397
730.749120	15384.666404
731.080305	15533.801379
731.411442	15814.838144
731.742530	15896.124230
732.073570	15987.790051
732.404562	16224.830146
732.735506	16084.839824
733.066401	15887.100564
733.397249	15507.834396
733.728048	15034.144895
734.058798	14414.019958
734.389501	13889.813054
734.720156	13545.381259
735.050762	13140.536276
735.381320	12852.192358
735.711831	12670.473886
736.042293	12394.904252
736.372707	12414.428641
736.703073	12256.025504
737.033391	12418.632963
737.363661	12386.790515
737.693883	12485.483704
738.024056	12629.217082
738.354182	12775.034978
738.684260	13010.698838
739.014290	13193.241539
739.344272	13346.028830
739.674207	13572.772368
740.004093	13662.020956
740.333931	13673.910518
740.663722	13711.724212
740.993464	13719.538001
741.323159	13596.848919
741.652806	13386.862176
741.982405	13225.905696
742.311956	12958.520375
742.641460	12878.756718
742.970915	12631.316723
743.300323	12362.502235
743.629683	12200.771938
743.958996	11990.686892
744.288260	11777.350303
744.617477	11541.825074
744.946647	11489.298772
745.275768	11280.695826
745.604842	11151.133131
745.933869	11020.670590
746.262847	10987.724129
746.591778	10934.895357
746.920662	10856.477688
747.249498	10871.941428
747.578286	10966.359719
747.907027	11082.913716
748.235720	11266.749474
748.564365	11292.711416
748.892963	11223.171219
749.221514	11266.981367
749.550017	11162.296766
749.878473	11135.593774
750.206881	10966.505912
750.535242	10896.078473
750.863555	10826.013996
751.191821	10761.144428
751.520039	10781.772830
751.848210	10707.236849
752.176334	10735.918494
752.504411	10668.452732
752.832440	10534.869717
753.160421	10588.305948
753.488356	10488.120577
753.816243	10412.541078
754.144082	10294.981370
754.471875	10252.514690
754.799620	10205.757988
755.127318	10190.876502
755.454969	10158.963478
755.782572	10126.596749
756.110129	10137.087391
756.437638	10072.472401
756.765100	10070.345034
757.092515	10071.411238
757.419882	10098.431823
757.747203	10087.973949
758.074477	10158.028344
758.401703	10120.549885
758.728882	10255.342777
759.056014	10296.604622
759.383099	10402.289892
759.710138	10492.708027
760.037129	10568.148894
760.364073	10584.343601
760.690970	10578.085008
761.017820	10580.545092
761.344623	10751.520865
761.671379	11042.347551
761.998088	11584.173287
762.324751	12935.575563
762.651366	15379.675662
762.977935	18518.013222
763.304456	20441.052097
763.630931	20874.556040
763.957359	19886.870493
764.283740	18248.447602
764.610074	16622.123480
764.936362	14835.218444
765.262602	13531.253425
765.588796	12230.855023
765.914943	11362.617096
766.241044	10635.740685
766.567097	10080.437424
766.893104	9608.371175
767.219064	9295.229822
767.544978	8966.188669
767.870845	8700.134213
768.196665	8538.222434
768.522438	8370.722536
768.848165	8230.432265
769.173846	8083.933814
769.499479	7976.622772
769.825066	7846.727361
770.150607	7684.528236
770.476101	7638.810012
770.801548	7541.397275
771.126949	7412.167296
771.452303	7336.340781
771.777611	7201.578136
772.102872	7183.908891
772.428087	7083.683191
772.753256	6982.638303
773.078378	6907.623414
773.403453	6786.219826
773.728482	6693.560898
774.053465	6639.270192
774.378401	6566.362504
774.703291	6485.855277
775.028135	6400.090127
775.352932	6364.373552
775.677683	6297.847965
776.002388	6220.282251
776.327046	6223.450617
776.651658	6143.192927
776.976224	6077.879738
777.300743	6065.118057
777.625216	6007.013717
777.949643	5967.544003
778.274024	5976.305529
778.598359	5914.039717
778.922647	5920.643628
779.246889	5881.367999
779.571086	5890.295882
779.895236	5901.146966
780.219339	5895.745370
780.543397	5894.787550
780.867409	5938.764056
781.191374	5940.770435
781.515294	5911.622484
781.839167	5964.340350
782.162995	5934.297594
782.486776	5894.525410
782.810511	5855.751376
783.134201	5798.965298
783.457844	5788.724194
783.781441	5748.243729
784.104993	5709.656217
784.428498	5686.497156
784.751958	5666.052756
785.075372	5651.395602
785.398739	5616.462926
785.722061	5639.886647
786.045337	5634.530421
786.368568	5735.842490
786.691752	5754.764461
787.014891	5981.291230
787.337983	6228.360700
787.661030	6617.421831
787.984031	6998.270922
788.306987	7239.427119
788.629897	7326.533216
788.952760	7252.024962
789.275579	7102.360666
789.598351	6833.468041
789.921078	6609.040913
790.243759	6356.010277
790.566395	6170.712586
790.888984	5994.693137
791.211529	5871.447008
791.534027	5723.970573
791.856480	5596.169761
792.178888	5545.299478
792.501249	5483.184901
792.823566	5385.290734
793.145836	5385.567998
793.468062	5367.976891
793.790241	5329.432229
794.112375	5370.532756
794.434464	5465.384586
794.756507	5488.974666
795.078505	5598.158496
795.400457	5792.071520
795.722364	6009.279716
796.044226	6183.935532
796.366042	6322.431152
796.687812	6278.973885
797.009538	6305.621424
797.331218	6230.782975
797.652852	6165.149672
797.974442	6060.875926
798.295986	5995.930741
798.617484	5879.321290
798.938938	5779.173728
799.260346	5722.995110
799.581709	5596.880564
799.903026	5551.946239
800.224299	5486.295292
800.545526	5379.190938
800.866708	5319.891845
801.187845	5271.869814
801.508936	5202.221232
801.829983	5172.052447
802.150984	5084.081792
802.471940	5051.921751
802.792851	5041.458836
803.113717	5019.371020
803.434538	4998.611549
803.755314	4962.358091
804.076045	4957.382472
804.396731	4921.859982
804.717372	4934.513278
805.037967	4937.474956
805.358518	4965.687773
805.679024	5016.341287
805.999485	5027.464593
806.319901	5044.599475
806.640272	5055.717740
806.960598	5103.162559
807.280879	5096.533442
807.601115	5132.733968
807.921306	5099.752218
808.241453	5091.918265
808.561554	5107.455102
808.881611	5077.608950
809.201623	5073.255914
809.521590	5025.911918
809.841513	5015.955639
810.161390	5027.313358
810.481223	4949.883756
810.801011	4937.109472
811.120755	4916.201286
811.440453	4866.503071
811.760107	4841.249411
812.079716	4817.371986
812.399281	4774.068474
812.718801	4767.000777
813.038276	4737.494903
813.357707	4707.033731
813.677093	4723.828335
813.996434	4668.179038
814.315731	4686.821225
814.634983	4689.041853
814.954191	4699.184654
815.273354	4752.625926
815.592473	4790.358963
815.911547	4863.249006
816.230577	4909.020163
816.549562	4989.257688
816.868502	5037.010018
817.187399	5091.522535
817.506250	5164.669677
817.825058	5197.769893
818.143821	5338.707952
818.462539	5498.356253
818.781213	5710.591351
819.099843	6049.800511
819.418429	6637.848586
819.736970	7203.473609
820.055466	7873.763069
820.373919	8737.274914
820.692327	10104.302247
821.010691	12579.644896
821.329011	18234.163492
821.647286	26802.022870
821.965517	36113.739785
822.283704	41108.121806
822.601847	42613.881692
822.919945	38534.711070
823.237999	33944.934578
823.556010	29223.004237
823.873976	24899.773713
824.191897	21048.054911
824.509775	18227.103357
824.827609	15697.933787
825.145398	14293.135609
825.463144	13605.819652
825.780845	13883.251993
826.098502	15040.990782
826.416116	17291.424873
826.733685	19429.242108
827.051210	19928.979251
827.368692	18610.268857
827.686129	16239.207516
828.003522	13945.535448
828.320872	11880.346117
828.638177	10341.969965
828.955439	9184.445425
829.272656	8190.655041
829.589830	7409.863489
829.906960	6733.839717
830.224046	6232.686010
830.541088	5855.890007
830.858086	5616.236074
831.175041	5426.539975
831.491952	5372.246748
831.808819	5408.885855
832.125642	5636.640144
832.442421	6155.453013
832.759157	7196.259718
833.075849	8848.409671
833.392497	10582.322098
833.709101	11618.513627
834.025662	11381.947401
834.342179	10403.754347
834.658653	9178.799333
834.975083	8144.324316
835.291469	7286.723224
835.607811	6604.708041
835.924110	6113.697136
836.240366	5658.680069
836.556578	5234.860183
836.872746	4901.463473
837.188871	4648.337056
837.504952	4440.326446
837.820990	4281.154533
838.136984	4175.592772
838.452935	4131.462511
838.768842	4157.260616
839.084706	4424.338426
839.400526	5117.222337
839.716303	5969.721782
840.032037	6496.030846
840.347727	6359.178643
840.663373	5797.465555
840.978977	5254.601341
841.294537	4836.235983
841.610054	4531.581413
841.925527	4300.232780
842.240957	4108.963842
842.556344	3935.933797
842.871687	3787.479378
843.186987	3647.564674
843.502244	3533.833723
843.817458	3454.044860
844.132629	3387.448697
844.447756	3337.624453
844.762840	3296.077784
845.077881	3261.929008
845.392879	3229.985736
845.707833	3207.366079
846.022745	3183.080320
846.337613	3171.599092
846.652438	3145.175885
846.967221	3142.206645
847.281960	3121.510188
847.596656	3108.940071
847.911309	3100.440685
848.225919	3090.872575
848.540485	3077.821028
848.855009	3069.752661
849.169490	3062.904254
849.483928	3054.596432
849.798323	3051.493602
850.112675	3041.597817
850.426984	3040.816438
850.741251	3034.630943
851.055474	3031.021476
851.369654	3031.938966
851.683792	3026.701208
851.997887	3034.376364
852.311938	3034.890562
852.625947	3032.312012
852.939914	3023.416896
853.253837	3030.298071
853.567718	3027.855632
853.881555	3026.234901
854.195350	3031.946528
854.509103	3022.993439
854.822812	3025.161135
855.136479	3020.379601
855.450103	3024.510826
855.763685	3017.042357
856.077224	3019.958664
856.390720	3026.633152
856.704173	3039.684699
857.017584	3041.144113
857.330953	3047.838766
857.644278	3053.376473
857.957561	3057.953841
858.270802	3055.120712
858.584000	3055.115671
858.897155	3047.606873
859.210268	3039.737631
859.523339	3030.035931
859.836367	3028.306815
860.149352	3018.355577
860.462295	3016.213087
860.775195	3006.050121
861.088054	3004.507528
861.400869	3004.943588
861.713642	3003.721108
862.026373	3011.285359
862.339062	3015.164527
862.651708	3023.379087
862.964312	3037.776623
863.276873	3046.102088
863.589392	3075.832293
863.901869	3100.831375
864.214303	3122.120167
864.526696	3136.379071
864.839045	3157.846825
865.151353	3165.837054
865.463619	3168.264369
865.775842	3167.677075
866.088023	3174.089422
866.400162	3165.905109
866.712258	3167.566169
867.024313	3168.040038
867.336325	3167.145233
867.648296	3166.515089
867.960224	3163.888648
868.272110	3166.925943
868.583954	3164.246570
868.895755	3174.018846
869.207515	3171.553722
869.519233	3188.960826
869.830909	3199.186807
870.142542	3206.531768
870.454134	3212.838252
870.765684	3224.735375
871.077191	3241.661049
871.388657	3255.443563
871.700081	3272.666665
872.011463	3289.650313
872.322803	3313.071513
872.634101	3324.751867
872.945357	3345.067717
873.256571	3371.271635
873.567744	3384.918038
873.878874	3389.288718
874.189963	3404.639032
874.501010	3408.165319
874.812015	3404.565935
875.122979	3416.952050
875.433900	3417.589756
875.744780	3417.768717
876.055618	3426.638627
876.366415	3426.817588
876.677169	3428.672733
876.987882	3447.400619
877.298554	3468.260914
877.609183	3502.795338
877.919771	3544.941905
878.230317	3610.648304
878.540822	3705.127089
878.851285	3852.563195
879.161707	4065.985484
879.472087	4421.212911
879.782425	5019.769272
880.092722	6147.460263
880.402977	7959.780277
880.713191	10162.104117
881.023363	12341.278978
881.333494	13609.429119
881.643583	14050.938414
881.953631	13696.363817
882.263637	12914.662337
882.573602	11962.269908
882.883526	11068.390152
883.193408	10169.728862
883.503248	9295.565058
883.813048	8520.197788
884.122806	7791.708208
884.432522	7073.996614
884.742197	6452.228260
885.051831	5924.041366
885.361424	5455.713133
885.670975	5087.194704
885.980485	4781.509217
886.289954	4527.994632
886.599382	4322.943178
886.908768	4148.988082
887.218113	3995.200123
887.527417	3870.940722
887.836680	3752.841610
888.145901	3663.313239
888.455082	3586.022268
888.764221	3519.353008
889.073319	3463.842343
889.382376	3435.977365
889.691392	3413.834097
890.000366	3405.672468
890.309300	3397.228536
890.618193	3404.392015
890.927044	3396.822723
891.235855	3403.149371
891.544625	3417.738470
891.853353	3443.960032
892.162041	3501.643435
892.470687	3589.029316
892.779293	3702.873693
893.087858	3873.899879
893.396381	4135.578613
893.704864	4529.297770
894.013306	5065.749636
894.321707	5613.251711
894.630068	5950.494821
894.938387	5990.758517
895.246665	5819.107228
895.554903	5512.005177
895.863100	5197.089338
896.171256	4934.689718
896.479371	4708.692271
896.787446	4492.247810
897.095480	4305.168070
897.403473	4166.039785
897.711425	4026.230945
898.019336	3909.916402
898.327207	3793.773259
898.635038	3700.421172
898.942827	3598.814196
899.250576	3514.296731
899.558284	3441.026080
899.865952	3385.021382
900.173579	3323.146259
900.481165	3279.056328
900.788711	3239.732807
901.096216	3208.588559
901.403681	3181.406657
901.711105	3171.967097
902.018489	3170.976510
902.325832	3201.480532
902.633135	3257.462545
902.940397	3418.817277
903.247619	3804.957059
903.554800	4521.297459
903.861941	5438.807623
904.169041	6105.651454
904.476101	6305.911291
904.783121	6046.490993
905.090100	5660.346170
905.397039	5266.135501
905.703938	4921.257564
906.010796	4614.576449
906.317614	4377.881673
906.624391	4147.909276
906.931129	3965.472438
907.237826	3791.948361
907.544483	3628.751088
907.851099	3465.352168
908.157675	3313.119404
908.464211	3179.659897
908.770707	3083.804878
909.077163	3008.001047
909.383578	2950.665484
909.689954	2910.013619
909.996289	2883.287942
910.302584	2865.036445
910.608839	2852.894826
910.915054	2837.078206
911.221229	2834.550067
911.527363	2837.592403
911.833458	2847.662108
912.139513	2861.542925
912.445527	2872.910727
912.751502	2904.473391
913.057436	2945.306738
913.363331	2997.827999
913.669186	3083.114240
913.975000	3199.549770
914.280775	3371.488404
914.586510	3626.795120
914.892205	3988.823063
915.197859	4461.426195
915.503475	5019.459241
915.809050	5490.691179
916.114585	5766.832983
916.420081	5830.641388
916.725536	5767.145535
917.030952	5537.667171
917.336328	5338.342468
917.641665	5134.780676
917.946961	4921.625568
918.252218	4730.933841
918.557435	4511.729349
918.862612	4323.870751
919.167750	4160.469310
919.472848	3979.242350
919.777906	3818.961384
920.082925	3670.280113
920.387904	3521.828215
920.692843	3417.017585
920.997743	3323.738595
921.302603	3234.462281
921.607423	3174.177643
921.912204	3112.720936
922.216946	3064.068760
922.521647	3018.484127
922.826310	2976.957622
923.130932	2942.450924
923.435516	2905.179153
923.740059	2878.997920
924.044564	2849.597911
924.349028	2827.333655
924.653454	2798.846095
924.957840	2771.621343
925.262186	2756.029055
925.566493	2735.178842
925.870761	2711.432487
926.174989	2698.529654
926.479178	2683.504495
926.783328	2671.506549
927.087438	2660.751247
927.391509	2649.143990
927.695541	2636.964562
927.999533	2626.219343
928.303486	2619.310442
928.607400	2612.648557
928.911275	2607.725870
929.215110	2602.175560
929.518906	2596.053078
929.822663	2601.376537
930.126381	2596.899992
930.430060	2599.254211
930.733699	2602.919130
931.037299	2606.402567
931.340861	2605.220417
931.644383	2610.435490
931.947866	2605.361569
932.251309	2602.699840
932.554714	2603.995416
932.858080	2600.751434
933.161407	2597.754468
933.464694	2594.661720
933.767943	2590.109558
934.071153	2586.570668
934.374323	2584.171079
934.677455	2584.508836
934.980548	2579.623958
935.283602	2574.489543
935.586617	2574.126580
935.889593	2578.933320
936.192530	2576.684965
936.495428	2583.104875
936.798287	2590.893457
937.101108	2608.494646
937.403890	2628.215640
937.706632	2654.212870
938.009336	2688.575896
938.312002	2714.933568
938.614628	2737.601117
938.917216	2755.303128
939.219765	2762.665734
939.522275	2773.121087
939.824747	2774.469595
940.127179	2766.567587
940.429573	2762.764036
940.731929	2759.777152
941.034246	2751.124012
941.336524	2752.500247
941.638763	2744.313413
941.940964	2738.715212
942.243126	2719.906667
942.545250	2714.898280
942.847335	2698.295240
943.149381	2686.395597
943.451389	2674.662311
943.753359	2661.693943
944.055290	2654.008704
944.357182	2645.983187
944.659036	2641.395737
944.960851	2637.748462
945.262628	2634.086064
945.564367	2634.393574
945.866067	2632.311577
946.167729	2629.506175
946.469352	2628.618932
946.770937	2628.114817
947.072484	2622.476286
947.373992	2620.409413
947.675462	2619.461676
947.976893	2611.887343
948.278286	2608.174533
948.579641	2609.399533
948.880958	2603.037597
949.182236	2602.117587
949.483476	2599.375199
949.784678	2599.176073
950.085841	2600.154057
950.386967	2603.808894
950.688054	2608.935747
950.989103	2617.901439
951.290114	2625.062398
951.591087	2638.154275
951.892021	2645.708444
952.192917	2662.293840
952.493776	2670.160561
952.794596	2675.529389
953.095378	2677.308917
953.396122	2672.464368
953.696828	2671.607372
953.997496	2668.098729
954.298126	2658.177738
954.598718	2646.245327
954.899272	2639.976652
955.199788	2628.931484
955.500266	2616.684001
955.800706	2599.725559
956.101108	2585.927921
956.401472	2575.585994
956.701798	2561.538819
957.002087	2546.168341
957.302337	2541.023843
957.602550	2529.119158
957.902724	2518.923425
958.202861	2510.993690
958.502960	2501.344921
958.803022	2496.462564
959.103045	2486.952427
959.403031	2480.345995
959.702979	2478.057311
960.002889	2477.964050
960.302762	2469.268059
960.602596	2464.176494
960.902393	2461.534929
961.202153	2458.727007
961.501875	2455.074691
961.801559	2455.230966
962.101205	2452.279371
962.400814	2452.443208
962.700385	2446.313165
962.999918	2447.684359
963.299414	2446.623196
963.598873	2445.554472
963.898293	2443.588422
964.197677	2443.467434
964.497022	2441.014913
964.796331	2440.634305
965.095601	2440.379727
965.394835	2439.164809
965.694030	2433.894283
965.993189	2437.108018
966.292309	2435.991403
966.591393	2439.374017
966.890439	2436.528286
967.189447	2437.793615
967.488419	2435.396547
967.787353	2436.414860
968.086249	2436.351845
968.385108	2436.170364
968.683930	2440.110025
968.982714	2440.120108
969.281462	2442.071034
969.580172	2442.144131
969.878844	2442.955757
970.177480	2447.628906
970.476078	2449.121088
970.774639	2456.498817
971.073162	2454.172324
971.371649	2456.282047
971.670098	2454.948662
971.968510	2458.822788
972.266885	2455.742643
972.565223	2461.665999
972.863524	2463.533747
973.161788	2465.230095
973.460014	2465.628346
973.758204	2466.986937
974.056356	2469.923409
974.354471	2466.926443
974.652550	2467.780919
974.950591	2467.339818
975.248595	2467.246557
975.546563	2468.786629
975.844493	2463.972327
976.142386	2464.128603
976.440243	2461.068622
976.738062	2456.657613
977.035845	2457.486883
977.333590	2454.252983
977.631299	2453.075873
977.928971	2448.783331
978.226606	2450.638475
978.524204	2449.983125
978.821765	2447.858279
979.119290	2448.354833
979.416777	2444.982301
979.714228	2448.271653
980.011642	2447.409616
980.309020	2450.217539
980.606360	2458.913529
980.903664	2465.167081
981.200931	2473.918524
981.498162	2494.985506
981.795356	2523.024403
982.092513	2561.216185
982.389633	2601.714294
982.686717	2642.066210
982.983764	2671.302382
983.280775	2692.122347
983.577749	2689.332069
983.874686	2682.287056
984.171587	2665.184942
984.468451	2653.751605
984.765279	2633.695374
985.062070	2615.504371
985.358824	2598.414859
985.655543	2580.359967
985.952224	2556.182593
986.248869	2530.271062
986.545478	2502.048162
986.842050	2485.881182
987.138586	2468.113635
987.435086	2455.356995
987.731549	2441.725715
988.027975	2441.372834
988.324366	2437.851588
988.620719	2429.936977
988.917037	2426.415731
989.213318	2425.949424
989.509563	2424.313570
989.805772	2422.531522
990.101944	2418.266706
990.398080	2421.457756
990.694180	2417.200502
990.990244	2422.072777
991.286271	2422.017324
991.582262	2421.024217
991.878217	2419.300142
992.174136	2421.059505
992.470019	2421.606470
992.765865	2427.121492
993.061676	2427.267686
993.357450	2428.901020
993.653188	2429.271545
993.948890	2436.697164
994.244556	2445.045315
994.540186	2452.402879
994.835780	2460.877059
995.131337	2474.941878
995.426859	2491.267655
995.722345	2512.072497
996.017795	2528.957841
996.313208	2541.565767
996.608586	2549.810574
996.903928	2553.810730
997.199234	2553.251162
997.494504	2550.037426
997.789738	2543.186498
998.084936	2534.271217
998.380099	2522.421985
998.675225	2509.234327
998.970316	2500.389623
999.265371	2486.264309
999.560390	2472.738894
999.855373	2462.674230
1000.150320	2454.918415
1000.445232	2445.068000
1000.740108	2440.465427
1001.034948	2436.553491
1001.329752	2429.516041
1001.624521	2428.210382
1001.919254	2416.887950
1002.213951	2419.176634
1002.508613	2414.052301
1002.803239	2411.640109
1003.097829	2409.222876
1003.392384	2411.758576
1003.686903	2410.331930
1003.981386	2409.631209
1004.275834	2410.309244
1004.570246	2408.950653
1004.864623	2409.943761
1005.158964	2405.749521
1005.453270	2406.888822
1005.747540	2409.008627
1006.041775	2405.590724
1006.335974	2405.187432
1006.630138	2406.304048
1006.924266	2402.548388
1007.218359	2404.022926
1007.512416	2403.435631
1007.806438	2405.265570
1008.100425	2403.289438
1008.394376	2404.700961
1008.688292	2406.914027
1008.982172	2405.842782
1009.276017	2402.301372
1009.569827	2404.461506
1009.863602	2405.683986
1010.157341	2402.888666
1010.451045	2401.429252
1010.744714	2401.189797
1011.038347	2404.438821
1011.331945	2399.735424
1011.625508	2401.386402
1011.919036	2401.303223
1012.212528	2402.586197
1012.505986	2400.897410
1012.799408	2401.930847
1013.092795	2399.390105
1013.386147	2397.741648
1013.679464	2401.918244
1013.972745	2400.471433
1014.265992	2399.569066
1014.559204	2399.490928
1014.852380	2399.437996
1015.145521	2400.668038
1015.438628	2401.063768
1015.731699	2399.861453
1016.024736	2400.231978
1016.317737	2403.014695
1016.610703	2402.530744
1016.903635	2399.309447
1017.196531	2398.754920
1017.489393	2402.092164
1017.782219	2400.854560
1018.075011	2405.804973
1018.367768	2404.181722
1018.660490	2402.157699
1018.953177	2402.157699
1019.245829	2402.157699
