Dividing Wavelength (nm)	Counts (n)	Blue Motor Position (mm): 29.400000	Red Motor Position (mm): 0.000000	
326.493990	1972.616103
326.888308	1972.616103
327.282561	1972.616103
327.676750	1945.900508
328.070874	1949.484768
328.464933	1955.350151
328.858929	1966.196193
329.252859	1976.896042
329.646726	1991.207878
330.040528	2004.909734
330.434265	2024.744154
330.827938	2044.538245
331.221547	2064.367623
331.615091	2083.846642
332.008571	2105.952102
332.401986	2125.715945
332.795338	2146.384676
333.188625	2168.827893
333.581847	2186.088804
333.975006	2203.480784
334.368100	2220.966027
334.761129	2237.972359
335.154095	2254.741757
335.546996	2293.578807
335.939833	2370.605117
336.332606	2383.843187
336.725315	2391.636811
337.117960	2403.291958
337.510540	2411.652712
337.903056	2417.250913
338.295508	2426.151070
338.687896	2436.659356
339.080220	2440.979624
339.472480	2445.120932
339.864676	2449.816767
340.256807	2454.265585
340.648875	2456.733230
341.040879	2452.639813
341.432818	2457.131481
341.824694	2458.754733
342.216506	2458.016204
342.608253	2458.333797
342.999937	2454.651234
343.391557	2455.399845
343.783113	2455.377160
344.174605	2454.724330
344.566033	2449.753753
344.957397	2449.741150
345.348697	2446.237548
345.739934	2446.073710
346.131106	2445.436004
346.522215	2445.665377
346.913260	2438.877463
347.304241	2438.519541
347.695159	2437.155909
348.086012	2437.337391
348.476802	2434.267328
348.867528	2436.901331
349.258191	2431.724066
349.648789	2434.176587
350.039324	2427.978489
350.429796	2432.916299
350.820203	2426.027562
351.210548	2431.255239
351.600828	2426.418252
351.991045	2426.388005
352.381198	2425.588982
352.771288	2427.338262
353.161314	2423.832140
353.551276	2426.554363
353.941175	2422.962541
354.331010	2427.597882
354.720782	2427.078643
355.110490	2427.474373
355.500135	2426.229208
355.889717	2424.366502
356.279235	2426.060330
356.668689	2427.938159
357.058080	2429.067378
357.447408	2425.286512
357.836672	2423.708631
358.225873	2426.060330
358.615010	2428.152408
359.004084	2431.240115
359.393095	2432.192893
359.782043	2435.250353
360.170927	2431.782039
360.559748	2433.669951
360.948505	2433.254056
361.337199	2437.254212
361.725830	2433.622060
362.114398	2435.172215
362.502903	2433.107863
362.891344	2436.939140
363.279722	2433.334715
363.668037	2439.263112
364.056289	2432.697009
364.444478	2437.932247
364.832603	2438.317895
365.220665	2436.419901
365.608665	2438.857299
365.996601	2439.689089
366.384474	2438.058276
366.772284	2443.207814
367.160031	2441.347629
367.547715	2440.735128
367.935336	2438.433842
368.322893	2441.627413
368.710388	2444.226127
369.097820	2445.463731
369.485189	2442.832248
369.872495	2443.832917
370.259738	2445.244441
370.646918	2445.471292
371.034035	2448.919442
371.421090	2444.964657
371.808081	2446.555141
372.195010	2446.214863
372.581875	2446.686211
372.968678	2447.691921
373.355418	2446.615634
373.742096	2448.949689
374.128710	2447.886005
374.515262	2448.558999
374.901751	2448.362394
375.288177	2451.981943
375.674540	2446.839966
376.060841	2451.503033
376.447079	2451.235852
376.833254	2450.678804
377.219367	2447.054215
377.605417	2449.640327
377.991404	2449.753753
378.377329	2450.666202
378.763191	2450.769545
379.148991	2454.575616
379.534727	2455.752726
379.920402	2458.860597
380.306013	2455.661985
380.691563	2458.043930
381.077049	2455.130143
381.462474	2456.067798
381.847835	2457.312963
382.233134	2455.868672
382.618371	2456.450926
383.003545	2458.285906
383.388657	2456.380349
383.773706	2461.124075
384.158693	2459.679785
384.543618	2461.126596
384.928480	2461.570217
385.313280	2460.463684
385.698017	2457.912860
386.082692	2461.885289
386.467305	2464.617595
386.851856	2463.599282
387.236344	2462.265897
387.620770	2462.152471
388.005133	2464.357975
388.389435	2464.403346
388.773674	2466.145064
389.157851	2467.218830
389.541965	2467.145733
389.926018	2465.343521
390.310008	2468.456433
390.693936	2464.239508
391.077802	2468.406022
391.461606	2469.278142
391.845348	2470.606486
392.229027	2470.387195
392.612645	2470.152782
392.996200	2472.441466
393.379694	2469.623461
393.763125	2472.421301
394.146494	2472.088585
394.529801	2473.651342
394.913047	2474.480612
395.296230	2477.313741
395.679351	2469.769654
396.062410	2472.559933
396.445408	2474.578915
396.828343	2475.040180
397.211217	2471.723101
397.594028	2474.281487
397.976778	2470.971969
398.359466	2477.827938
398.742092	2468.514407
399.124656	2476.469348
399.507158	2479.055459
399.889598	2480.131746
400.271977	2477.167547
400.654294	2479.083186
401.036549	2480.986221
401.418742	2479.728453
401.800874	2482.972436
402.182944	2480.908083
402.564952	2483.468990
402.946898	2483.589977
403.328783	2485.982005
403.710606	2484.898157
404.092367	2485.576192
404.474067	2484.336068
404.855705	2489.077273
405.237282	2487.650627
405.618797	2487.234732
406.000250	2492.931235
406.381642	2490.360247
406.762972	2491.534836
407.144240	2490.829074
407.525447	2493.498365
407.906593	2488.855463
408.287677	2491.532315
408.668700	2491.764208
409.049661	2493.826040
409.430560	2493.619353
409.811399	2495.038438
410.192176	2494.950218
410.572891	2495.333345
410.953545	2497.392657
411.334138	2495.671103
411.714669	2497.254025
412.095139	2496.291164
412.475547	2495.885352
412.855894	2496.356699
413.236180	2500.422390
413.616405	2498.962976
413.996568	2500.941629
414.376670	2501.927174
414.756711	2501.236536
415.136691	2502.282576
415.516609	2505.317350
415.896466	2503.822648
416.276262	2504.498163
416.655997	2504.972031
417.035670	2506.325581
417.415283	2509.370438
417.794834	2506.728873
418.174324	2512.029647
418.553753	2509.753566
418.933121	2511.971673
419.312428	2512.062414
419.691674	2513.347908
420.070859	2516.246572
420.449983	2519.188085
420.829045	2517.988291
421.208047	2520.839063
421.586988	2522.268230
421.965867	2523.861235
422.344686	2524.355268
422.723444	2525.988602
423.102141	2525.502130
423.480777	2529.847605
423.859352	2530.807945
424.237866	2535.977648
424.616319	2536.287679
424.994712	2538.309182
425.373044	2538.712474
425.751314	2544.822353
426.129524	2544.353525
426.507673	2552.545400
426.885762	2551.675801
427.263789	2559.292985
427.641756	2560.243242
428.019662	2567.535271
428.397508	2567.620971
428.775292	2575.593556
429.153016	2581.617734
429.530679	2590.291040
429.908282	2594.863366
430.285824	2605.016250
430.663305	2618.292129
431.040726	2626.052985
431.418086	2635.542957
431.795385	2652.642551
432.172624	2672.613082
432.549802	2685.316790
432.926920	2702.504604
433.303977	2722.243242
433.680974	2745.752662
434.057910	2776.440687
434.434786	2802.296765
434.811601	2828.465394
435.188355	2878.839124
435.565050	2909.005389
435.941683	2945.132818
436.318257	3005.868639
436.694770	3041.781819
437.071222	3107.452930
437.447614	3124.045888
437.823946	3177.938343
438.200218	3241.172057
438.576429	3296.539049
438.952580	3371.909341
439.328670	3435.979885
439.704700	3527.958258
440.080670	3581.835590
440.456580	3687.165458
440.832429	3786.549286
441.208218	3803.560659
441.583947	3918.035181
441.959616	4018.714585
442.335224	4136.622132
442.710773	4249.400305
443.086261	4401.358326
443.461689	4449.612251
443.837057	4568.507864
444.212365	4747.234412
444.587612	4875.196541
444.962800	4947.774033
445.337927	5122.311382
445.712995	5080.704219
446.088002	5454.523420
446.462949	5636.899764
446.837837	5804.656761
447.212664	5957.360873
447.587431	6604.861796
447.962139	7321.398801
448.336786	7966.497614
448.711374	7868.101853
449.085901	7317.880075
449.460369	7483.154304
449.834776	7669.298910
450.209124	8438.311806
450.583412	8554.245741
450.957640	8875.863795
451.331808	8761.273327
451.705917	8606.575439
452.079965	8818.568561
452.453954	9123.301270
452.827883	9313.607348
453.201752	9458.631262
453.575562	9718.164985
453.949311	10287.885946
454.323001	10537.249142
454.696632	10705.366581
455.070202	11456.070006
455.443713	11752.590676
455.817164	12213.490769
456.190556	12683.593488
456.563888	12731.176940
456.937160	13160.468998
457.310373	12734.998134
457.683526	13161.693999
458.056619	13416.915015
458.429653	13647.467145
458.802628	14147.400892
459.175542	14461.457215
459.548398	15326.741026
459.921194	16360.674118
460.293930	16979.692522
460.666607	18322.691195
461.039224	19541.140600
461.411782	20061.556556
461.784280	19708.196877
462.156719	19742.761548
462.529099	19746.434029
462.901419	19301.915165
463.273680	18989.494697
463.645882	19319.460901
464.018024	19585.217929
464.390106	20368.628360
464.762130	22303.917239
465.134094	25159.796428
465.505999	28926.317210
465.877845	32385.287277
466.249631	33600.724593
466.621358	32734.868611
466.993026	31602.575046
467.364634	30504.889002
467.736184	29478.242897
468.107674	28888.659790
468.479105	28644.998140
468.850477	28447.833572
469.221790	27682.384772
469.593043	26689.310232
469.964238	26298.333463
470.335373	26469.868805
470.706449	27981.549526
471.077467	30181.619970
471.448425	34025.038512
471.819324	36603.689527
472.190164	35404.204943
472.560945	32795.579227
472.931667	30555.691229
473.302330	29883.239115
473.672934	29426.195504
474.043479	30056.024663
474.413965	29608.788617
474.784393	29478.590737
475.154761	30410.742933
475.525070	30626.937857
475.895321	30415.917677
476.265513	31091.578486
476.635645	32079.102716
477.005719	32100.905706
477.375734	32671.080371
477.745691	33429.395938
478.115588	34750.606744
478.485427	36650.093349
478.855207	39798.301487
479.224928	42360.982127
479.594591	44040.097212
479.964194	43277.960450
480.333739	43539.079617
480.703226	43721.597112
481.072653	44479.048122
481.442022	45090.419095
481.811333	45500.418658
482.180584	44416.958750
482.549777	44057.466508
482.918912	43674.986604
483.287988	43524.195610
483.657005	42850.768032
484.025964	42367.757438
484.394864	42483.711538
484.763706	42172.080010
485.132489	41448.137551
485.501213	41383.686399
485.869879	41598.391662
486.238487	41312.094452
486.607036	41591.087030
486.975527	41146.394246
487.343959	41424.504621
487.712333	41552.320557
488.080648	41541.182127
488.448905	42012.799713
488.817104	41911.583427
489.185244	42853.172662
489.553326	44533.195155
489.921350	47244.050430
490.289315	50215.137628
490.657222	50910.779050
491.025070	51245.415884
491.392861	50369.888448
491.760593	49120.345206
492.128267	47453.064230
492.495883	45968.487272
492.863440	44652.002548
493.230939	43358.805434
493.598380	42349.362268
493.965763	42069.346336
494.333088	41302.629686
494.700354	40857.374814
495.067563	40624.009720
495.434713	40515.634994
495.801805	40611.590837
496.168839	40249.494839
496.535815	39950.042739
496.902733	39999.120892
497.269593	39613.255853
497.636395	39567.265407
498.003139	39969.468825
498.369825	39456.728026
498.736453	39759.434191
499.103023	39310.660593
499.469535	39196.102893
499.835989	39312.190584
500.202385	38983.487188
500.568723	39013.509780
500.935003	39200.143378
501.301226	39034.470898
501.667390	39630.052978
502.033497	39875.438703
502.399546	39331.929222
502.765537	38684.970222
503.131470	39060.576513
503.497345	39396.087987
503.863163	38097.393494
504.228923	38713.286383
504.594625	39097.424827
504.960269	38409.972759
505.325856	39085.038712
505.691385	38461.107703
506.056856	38595.668702
506.422270	39052.926562
506.787625	38626.767580
507.152924	38819.359822
507.518164	38902.092718
507.883347	38145.728077
508.248472	38400.855832
508.613540	38858.522026
508.978550	39153.525307
509.343503	38921.566696
509.708398	39113.596848
510.073236	39623.320517
510.438016	39627.577771
510.802738	39107.958318
511.167403	39706.623063
511.532010	39929.709245
511.896561	40232.581768
512.261053	41046.501262
512.625488	40609.498758
512.989866	40491.936530
513.354186	40334.556748
513.718449	40333.866110
514.082655	40985.659576
514.446803	40668.984374
514.810894	41175.713597
515.174927	41109.797990
515.538904	41024.433611
515.902822	41660.380210
516.266684	41132.757925
516.630488	41542.797817
516.994235	41406.908474
517.357925	41947.123561
517.721558	42124.241981
518.085133	42426.794391
518.448651	42568.786051
518.812112	42339.872296
519.175516	42440.140846
519.538863	42782.311683
519.902152	42740.870878
520.265385	43186.823950
520.628560	43232.496804
520.991678	43021.002756
521.354739	43244.935851
521.717743	43573.694699
522.080690	43477.126356
522.443580	44010.596380
522.806413	44061.595213
523.169189	44005.945915
523.531908	44189.854769
523.894569	44048.624324
524.257174	44222.975150
524.619722	44500.944373
524.982213	44503.056617
525.344647	44428.044248
525.707025	44472.986134
526.069345	44871.199479
526.431608	44788.088496
526.793815	45097.426299
527.155964	44631.243077
527.518057	44811.131611
527.880093	44598.266369
528.242072	45124.025948
528.603995	44824.830946
528.965860	44810.292258
529.327669	44913.124235
529.689421	44825.443446
530.051117	44784.073217
530.412755	44939.219768
530.774337	44987.330020
531.135862	44826.446636
531.497331	45017.357653
531.858743	44921.611018
532.220098	45254.138128
532.581396	44969.476773
532.942638	44631.878262
533.303824	44926.868941
533.664953	44886.358229
534.026025	44626.731244
534.387040	45076.218165
534.747999	45017.491243
535.108902	45199.144181
535.469748	44717.403958
535.830537	44841.517165
536.191270	45049.857972
536.551947	44689.276840
536.912567	44972.526672
537.273131	45102.154902
537.633638	44620.555831
537.994089	44961.794055
538.354483	44565.153550
538.714821	45115.539165
539.075103	45463.053626
539.435328	45242.460295
539.795497	45117.739629
540.155609	45121.583508
540.515665	45556.751032
540.875665	45030.930959
541.235609	45341.526530
541.595496	45303.029759
541.955328	45988.828328
542.315102	45381.132355
542.674821	45152.947047
543.034483	45196.046392
543.394090	45164.861814
543.753640	45123.184075
544.113134	46111.774509
544.472571	45156.092727
544.831953	46369.395114
545.191278	45590.259582
545.550548	45337.027300
545.909761	45777.422500
546.268918	45981.904303
546.628019	46291.204298
546.987064	45856.823194
547.346053	45147.351366
547.704986	46000.223856
548.063863	45581.112408
548.422684	45785.337112
548.781449	45626.818029
549.140158	46005.451533
549.498811	45868.551438
549.857408	45317.626420
550.215949	46139.163098
550.574434	46084.179232
550.932864	45852.530652
551.291237	46558.514001
551.649555	46162.334761
552.007817	46407.609581
552.366022	46073.083653
552.724173	46246.322905
553.082267	46631.764487
553.440305	46923.682583
553.798288	46255.535613
554.156215	46574.290292
554.514086	46777.836961
554.871902	46529.691204
555.229661	46518.381375
555.587365	46380.399953
555.945014	46471.538973
556.302606	46397.386121
556.660143	46619.695964
557.017625	46697.054991
557.375050	46516.264090
557.732421	46849.809514
558.089735	46828.140114
558.446994	46753.341994
558.804197	47194.594190
559.161345	47141.490676
559.518437	46415.801456
559.875474	46728.368118
560.232455	46896.777944
560.589381	47057.278201
560.946251	46761.869106
561.303065	47431.525900
561.659825	47251.241636
562.016528	46930.243644
562.373177	46639.374108
562.729770	47118.084598
563.086307	46662.817994
563.442789	47112.922457
563.799216	47150.196748
564.155587	46956.863457
564.511904	46977.265007
564.868164	47068.653564
565.224370	47330.443204
565.580520	47055.874239
565.936615	47275.330790
566.292654	46983.500914
566.648638	47219.111842
567.004567	47189.043880
567.360441	47217.841471
567.716260	47097.655322
568.072023	47384.139054
568.427732	47372.665388
568.783385	46906.734223
569.138982	47307.223649
569.494525	47282.252294
569.850013	47041.325469
570.205445	47004.162083
570.560823	46971.520612
570.916145	46857.512397
571.271412	46881.059627
571.626625	46633.531411
571.981782	46709.849439
572.336884	46391.147693
572.691931	46713.400932
573.046923	46312.838409
573.401860	46163.325348
573.756743	46148.728687
574.111570	46265.547345
574.466342	46111.610671
574.821059	46223.642754
575.175722	45755.682524
575.530330	45787.131763
575.884882	45516.202511
576.239380	45464.659233
576.593823	45433.845181
576.948211	45354.769641
577.302544	44893.370474
577.656823	44937.473008
578.011047	45156.133056
578.365216	44871.179315
578.719330	44676.038770
579.073389	44514.963822
579.427394	44600.393736
579.781344	44579.954378
580.135239	44242.917955
580.489080	44316.851517
580.842866	43826.163246
581.196597	44267.594403
581.550273	44203.622161
581.903895	44065.638218
582.257463	44493.760729
582.610975	43889.205395
582.964434	44152.509902
583.317837	43814.442563
583.671186	43649.712779
584.024481	43878.286256
584.377721	43408.869133
584.730906	43697.165160
585.084037	43712.152510
585.437113	43419.115278
585.790135	43468.619409
586.143103	43059.156729
586.496016	43185.709855
586.848874	43210.522415
587.201679	43233.731887
587.554428	42718.445305
587.907124	42910.538473
588.259765	42654.707477
588.612352	42910.939244
588.964884	42325.260511
589.317362	42598.279321
589.669786	42544.485168
590.022155	42316.388080
590.374470	42726.773292
590.726731	42251.475663
591.078937	41792.629840
591.431090	41867.682538
591.783188	41543.463249
592.135232	41219.450648
592.487222	41455.459827
592.839157	41547.236553
593.191038	41215.871428
593.542866	40992.974290
593.894639	40410.221947
594.246358	40671.636021
594.598022	40643.546712
594.949633	40251.682700
595.301190	40222.771682
595.652692	40068.356099
596.004141	40378.757585
596.355535	39412.958208
596.706876	39359.136329
597.058162	39205.000529
597.409395	39653.002831
597.760573	39731.717927
598.111698	39309.889297
598.462768	39335.263945
598.813785	39369.609326
599.164748	38830.074794
599.515657	39227.978109
599.866511	38712.714212
600.217312	39314.650667
600.568060	38286.961044
600.918753	39023.637458
601.269392	38985.551541
601.619978	38640.759303
601.970510	38862.474290
602.320988	39034.632215
602.671412	39335.866363
603.021783	39083.365049
603.372100	38750.018751
603.722363	38849.069862
604.072572	38918.753732
604.422728	38943.619223
604.772830	38758.422354
605.122878	38857.521357
605.472872	38783.497053
605.822813	39067.598840
606.172701	38894.367150
606.522534	39111.416549
606.872314	39378.164164
607.222041	39153.658898
607.571714	39538.508144
607.921333	38991.177468
608.270899	39291.050505
608.620411	39616.542685
608.969870	39414.410060
609.319276	39412.819576
609.668627	39460.430754
610.017926	39962.698555
610.367171	40099.276016
610.716362	40201.132529
611.065500	40141.044496
611.414585	40334.702942
611.763616	40627.150359
612.112594	40552.397609
612.461518	40774.709973
612.810389	41054.448641
613.159207	40932.127563
613.507971	41006.794614
613.856682	41480.993271
614.205340	41364.328368
614.553945	42057.197155
614.902496	41500.910870
615.250994	41958.597227
615.599439	42042.388766
615.947830	42261.046293
616.296169	42296.881336
616.644454	42443.155456
616.992686	42613.382618
617.340864	43117.344248
617.688990	42836.103316
618.037063	43443.138897
618.385082	43414.936162
618.733048	43701.601375
619.080961	43712.651585
619.428821	43726.620622
619.776628	43834.672713
620.124382	43656.351978
620.472083	43792.846260
620.819731	43910.980659
621.167326	43587.444447
621.514868	43563.360334
621.862357	43126.998057
622.209793	43156.342614
622.557176	42828.095443
622.904506	42576.892226
623.251783	42238.610638
623.599007	42020.058975
623.946179	41807.723054
624.293297	41760.716815
624.640363	41171.118585
624.987376	41162.473006
625.334336	40929.430546
625.681243	40574.414848
626.028097	40537.992512
626.374899	40398.695349
626.721647	40371.699970
627.068343	40257.248133
627.414987	40049.451772
627.761577	39820.280918
628.108115	40149.508593
628.454600	39597.925704
628.801032	39786.868150
629.147412	39753.740208
629.493739	39759.416547
629.840014	39416.003065
630.186236	39756.800188
630.532405	39387.684383
630.878521	39603.581879
631.224585	39475.778547
631.570597	39182.569915
631.916556	39334.008698
632.262462	39314.300307
632.608316	39323.714661
632.954117	39199.417452
633.299866	39197.015342
633.645562	39120.157910
633.991206	38622.938824
634.336797	38196.580717
634.682336	38202.506593
635.027823	37960.879048
635.373257	37781.590412
635.718639	37542.329688
636.063968	37390.212871
636.409245	36825.401994
636.754470	36887.390543
637.099642	36648.379356
637.444762	36180.494744
637.789829	36331.908321
638.134845	35984.575341
638.479808	35940.833249
638.824719	35844.053178
639.169577	35456.123787
639.514383	35513.650914
639.859137	35228.792954
640.203839	35456.837110
640.548489	35093.027119
640.893086	35167.656361
641.237632	34921.650573
641.582125	35048.549019
641.926566	34971.167307
642.270955	34940.307884
642.615292	34955.854802
642.959576	34928.625010
643.303809	34941.424499
643.647990	35083.963124
643.992118	35047.666817
644.336195	35053.761572
644.680219	35144.487217
645.024192	35450.328980
645.368112	35961.592721
645.711981	35962.936188
646.055797	36827.851995
646.399562	36783.522609
646.743274	37700.997485
647.086935	38146.970722
647.430544	38038.648929
647.774101	38146.161617
648.117606	38392.656396
648.461059	38675.694499
648.804460	38309.374014
649.147810	37698.318112
649.491108	37441.083155
649.834354	37095.345700
650.177548	36264.530779
650.520690	35841.696438
650.863781	35835.054718
651.206820	35680.719793
651.549807	35245.685860
651.892742	34780.624295
652.235626	34579.285651
652.578458	34463.606294
652.921238	33857.362173
653.263967	34189.203687
653.606644	33880.478384
653.949269	33827.594160
654.291843	33419.968981
654.634365	33837.217723
654.976836	33432.034982
655.319255	33433.118830
655.661622	33444.496715
656.003938	33214.736046
656.346203	33072.177256
656.688416	33297.526915
657.030577	33108.828965
657.372687	32932.524692
657.714746	33208.432083
658.056753	33321.578260
658.398708	32783.235962
658.740612	32827.721624
659.082465	33098.028293
659.424266	32941.266052
659.766016	33053.950964
660.107715	32933.364044
660.449362	33062.372212
660.790958	33046.908472
661.132503	33086.163938
661.473996	33107.793008
661.815438	33208.817731
662.156829	33403.202103
662.498168	33177.310520
662.839456	33212.061714
663.180693	33357.551934
663.521879	33509.053731
663.863013	33468.109479
664.204097	33466.284582
664.545129	33935.593319
664.886110	33908.557611
665.227040	33963.899398
665.567918	34092.448821
665.908746	34147.994775
666.249522	34306.304650
666.590248	34305.772808
666.930922	34418.583749
667.271545	34387.719284
667.612118	34470.210205
667.952639	34255.842700
668.293109	34330.882795
668.633528	34213.335691
668.973896	34136.253928
669.314213	34159.501209
669.654480	33899.007145
669.994695	33936.956952
670.334859	33831.246476
670.674973	33728.487596
671.015035	33882.154568
671.355047	33840.244936
671.695008	33785.611431
672.034918	33685.007644
672.374777	33773.666417
672.714585	33604.661734
673.054342	33834.092207
673.394049	33594.765949
673.733705	33876.856315
674.073310	33536.001219
674.412864	33615.805205
674.752368	33210.985427
675.091820	33507.324615
675.431223	33085.574123
675.770574	32815.786692
676.109875	32684.328523
676.449125	32404.791501
676.788324	32315.558037
677.127473	31785.430299
677.466571	31712.910780
677.805619	31365.328263
678.144616	31375.060211
678.483562	31292.695319
678.822458	30951.797372
679.161303	30908.077966
679.500098	30803.373200
679.838842	30698.166840
680.177535	30855.937311
680.516179	31115.647475
680.854771	31365.741638
681.193314	32238.877046
681.531805	33352.110009
681.870247	34147.624250
682.208638	34885.066920
682.546978	35098.597594
682.885268	35186.933733
683.223508	34652.702495
683.561697	34312.424611
683.899836	34140.196110
684.237925	33630.026300
684.575963	33474.254646
684.913951	33011.428832
685.251889	33172.130734
685.589776	33157.282015
685.927614	33148.112157
686.265401	33295.187820
686.603137	33398.526433
686.940824	33910.760596
687.278460	34298.579082
687.616046	34429.366777
687.953582	35038.907812
688.291068	34907.484931
688.628504	35184.728228
688.965889	35123.412674
689.303224	34727.377107
689.640510	34363.017631
689.977745	33639.473422
690.314930	32843.011443
690.652065	32317.060301
690.989150	31566.187997
691.326185	30667.125935
691.663170	29965.049480
692.000105	29215.989471
692.336990	28536.789773
692.673825	28080.837572
693.010610	27564.005877
693.347345	26990.188978
693.684030	26345.264084
694.020665	26066.107670
694.357251	25397.723766
694.693786	25345.857855
695.030272	25113.561486
695.366707	24571.317334
695.703093	24267.655870
696.039429	24269.153093
696.375716	24014.111038
696.711952	23983.947294
697.048139	23827.994158
697.384276	23655.548888
697.720363	23770.182206
698.056400	23572.576537
698.392388	23353.457744
698.728326	23311.507782
699.064214	23100.623714
699.400053	23056.112846
699.735842	22693.792516
700.071581	22414.341194
700.407270	22128.046505
700.742910	21936.459974
701.078501	21674.123369
701.414042	21384.448587
701.749533	21090.771128
702.084974	20737.852550
702.420366	20938.573652
702.755709	20511.265288
703.091002	20210.116839
703.426246	20234.944522
703.761440	20129.365116
704.096584	19862.965341
704.431679	19822.258024
704.766725	19725.525843
705.101721	19676.697227
705.436668	19766.462533
705.771565	19435.619168
706.106413	19781.638927
706.441212	19765.779457
706.775961	19889.900226
707.110661	19963.238933
707.445311	20323.512554
707.779913	20162.765281
708.114465	20410.487581
708.448967	20699.265038
708.783421	21399.277141
709.117825	21663.446205
709.452180	21878.131303
709.786485	22284.823869
710.120742	23089.835645
710.454949	23106.504220
710.789107	23582.421910
711.123216	24267.139152
711.457275	24391.322936
711.791286	24945.502019
712.125247	25008.400496
712.459159	24700.854823
712.793023	25357.896130
713.126837	24247.647531
713.460602	24501.888043
713.794318	24117.356389
714.127985	23721.046079
714.461602	22826.205984
714.795171	22788.203245
715.128691	21767.851022
715.462162	21220.079245
715.795584	20817.081845
716.128957	20549.510001
716.462281	20132.215889
716.795556	19905.734491
717.128782	19416.525798
717.461960	18869.789978
717.795088	18784.629766
718.128167	18392.564108
718.461198	17936.201053
718.794180	17772.784490
719.127113	17430.462417
719.459997	17227.477837
719.792833	16880.802728
720.125619	16854.490426
720.458357	16542.155657
720.791046	16362.740991
721.123686	16213.532920
721.456278	15978.670603
721.788821	15923.817808
722.121315	15678.903431
722.453761	15748.725932
722.786158	15669.811710
723.118506	15678.154820
723.450805	15539.442430
723.783056	15711.383585
724.115259	15608.720487
724.447412	15541.816814
724.779518	15791.051460
725.111574	15800.037317
725.443582	16003.135323
725.775542	15988.032026
726.107453	16448.629650
726.439315	16339.934811
726.771129	16727.685242
727.102895	17104.025020
727.434612	17313.515210
727.766281	17434.979291
728.097901	17689.774330
728.429473	17737.072956
728.760996	17719.660810
729.092471	17791.754352
729.423897	17664.465217
729.755276	17540.929221
730.086606	17657.586562
730.417887	18177.057302
730.749120	18693.410087
731.080305	18858.364203
731.411442	19194.745276
731.742530	19255.861704
732.073570	19369.501915
732.404562	19644.786723
732.735506	19465.556060
733.066401	19172.816256
733.397249	18650.729158
733.728048	18019.211213
734.058798	17188.444183
734.389501	16502.539749
734.720156	16043.242743
735.050762	15521.390058
735.381320	15173.946174
735.711831	14931.696046
736.042293	14581.731584
736.372707	14583.183437
736.703073	14382.260688
737.033391	14569.345469
737.363661	14538.463361
737.693883	14641.988496
738.024056	14819.220342
738.354182	15003.719011
738.684260	15286.507577
739.014290	15506.347255
739.344272	15705.044334
739.674207	15984.079761
740.004093	16095.222080
740.333931	16087.138590
740.663722	16108.581138
740.993464	16106.841940
741.323159	15925.299908
741.652806	15649.639533
741.982405	15433.520226
742.311956	15100.655358
742.641460	14973.056193
742.970915	14669.271221
743.300323	14345.951778
743.629683	14130.742400
743.958996	13852.505995
744.288260	13579.840066
744.617477	13288.400880
744.946647	13205.940206
745.275768	12932.167743
745.604842	12747.865679
745.933869	12580.232191
746.262847	12531.000282
746.591778	12457.170063
746.920662	12366.865354
747.249498	12365.741177
747.578286	12482.779125
747.907027	12619.979168
748.235720	12843.488806
748.564365	12867.814894
748.892963	12771.874175
749.221514	12835.004544
749.550017	12684.906709
749.878473	12654.344714
750.206881	12420.314188
750.535242	12333.079541
750.863555	12244.698032
751.191821	12154.758806
751.520039	12168.324551
751.848210	12079.149060
752.176334	12105.955396
752.504411	12007.599963
752.832440	11863.082686
753.160421	11927.682552
753.488356	11800.093468
753.816243	11709.776156
754.144082	11562.057745
754.471875	11514.408759
754.799620	11458.159565
755.127318	11439.666092
755.454969	11390.570294
755.782572	11342.633962
756.110129	11354.760458
756.437638	11272.307346
756.765100	11266.333578
757.092515	11264.664957
757.419882	11291.201590
757.747203	11290.994903
758.074477	11363.549710
758.401703	11317.932309
758.728882	11478.046917
759.056014	11522.320850
759.383099	11644.052113
759.710138	11735.249106
760.037129	11822.990389
760.364073	11837.881957
760.690970	11819.501911
761.017820	11816.338587
761.344623	11999.171154
761.671379	12329.349087
761.998088	12945.796503
762.324751	14501.829296
762.651366	17359.745111
762.977935	21018.508708
763.304456	23234.801585
763.630931	23706.583009
763.957359	22524.503008
764.283740	20612.048035
764.610074	18742.016893
764.936362	16609.966738
765.262602	15102.215596
765.588796	13639.751659
765.914943	12603.776900
766.241044	11767.157090
766.567097	11137.206943
766.893104	10582.100287
767.219064	10224.644671
767.544978	9843.712401
767.870845	9532.237149
768.196665	9343.660187
768.522438	9148.350763
768.848165	8988.407555
769.173846	8821.865476
769.499479	8697.782515
769.825066	8538.968525
770.150607	8361.393880
770.476101	8299.241495
770.801548	8187.564813
771.126949	8046.478041
771.452303	7961.073333
771.777611	7794.216182
772.102872	7771.052080
772.428087	7654.016652
772.753256	7530.150461
773.078378	7445.401103
773.403453	7301.781151
773.728482	7201.691562
774.053465	7131.425439
774.378401	7050.880403
774.703291	6956.303316
775.028135	6859.656835
775.352932	6824.414128
775.677683	6738.999338
776.002388	6657.206617
776.327046	6653.602192
776.651658	6566.102885
776.976224	6489.996585
777.300743	6482.608774
777.625216	6411.362147
777.949643	6373.072063
778.274024	6372.265478
778.598359	6304.172092
778.922647	6304.847607
779.246889	6269.186485
779.571086	6270.242607
779.895236	6287.785822
780.219339	6278.331138
780.543397	6278.227794
780.867409	6330.653274
781.191374	6326.766544
781.515294	6294.074661
781.839167	6341.458987
782.162995	6310.481097
782.486776	6267.664056
782.810511	6227.170988
783.134201	6152.524102
783.457844	6139.054139
783.781441	6088.922385
784.104993	6046.778339
784.428498	6021.590214
784.751958	6002.338047
785.075372	5975.153625
785.398739	5933.869096
785.722061	5960.483867
786.045337	5960.496470
786.368568	6063.860289
786.691752	6090.810297
787.014891	6337.448749
787.337983	6620.980885
787.661030	7052.498613
787.984031	7471.778941
788.306987	7742.930003
788.629897	7831.470309
788.952760	7746.365549
789.275579	7561.093063
789.598351	7264.111128
789.921078	7002.011458
790.243759	6723.752368
790.566395	6518.342993
790.888984	6325.730587
791.211529	6187.439134
791.534027	6022.984093
791.856480	5890.379061
792.178888	5827.770451
792.501249	5757.521972
792.823566	5661.626623
793.145836	5655.123535
793.468062	5637.330782
793.790241	5596.399134
794.112375	5633.872551
794.434464	5734.844342
794.756507	5763.261326
795.078505	5887.261108
795.400457	6101.101813
795.722364	6334.968501
796.044226	6533.945364
796.366042	6686.689805
796.687812	6634.392875
797.009538	6666.182391
797.331218	6570.155972
797.652852	6503.824470
797.974442	6384.969186
798.295986	6309.336755
798.617484	6184.059040
798.938938	6072.818419
799.260346	6008.100086
799.581709	5869.455752
799.903026	5821.826931
800.224299	5739.814919
800.545526	5626.361232
800.866708	5562.257919
801.187845	5514.440054
801.508936	5435.097334
801.829983	5414.723511
802.150984	5306.046316
802.471940	5279.179487
802.792851	5259.032515
803.113717	5237.284978
803.434538	5216.835537
803.755314	5180.894631
804.076045	5173.753836
804.396731	5134.493330
804.717372	5153.992513
805.037967	5154.531917
805.358518	5186.596176
805.679024	5240.718003
805.999485	5252.602524
806.319901	5269.399648
806.640272	5289.748266
806.960598	5334.985060
807.280879	5328.978525
807.601115	5361.796437
807.921306	5327.239327
808.241453	5318.084592
808.561554	5329.147404
808.881611	5295.348988
809.201623	5294.076096
809.521590	5242.386625
809.841513	5225.070262
810.161390	5240.879320
810.481223	5151.590403
810.801011	5141.220750
811.120755	5116.829127
811.440453	5064.489347
811.760107	5033.272002
812.079716	5007.715873
812.399281	4956.278459
812.718801	4946.982572
813.038276	4914.958642
813.357707	4884.537799
813.677093	4906.544956
813.996434	4846.227550
814.315731	4861.686249
814.634983	4861.673646
814.954191	4868.093555
815.273354	4922.837965
815.592473	4968.624245
815.911547	5041.068147
816.230577	5092.944140
816.549562	5178.497562
816.868502	5227.958843
817.187399	5286.181649
817.506250	5361.201580
817.825058	5396.338423
818.143821	5543.522471
818.462539	5711.082863
818.781213	5939.066525
819.099843	6295.924765
819.418429	6924.526403
819.736970	7538.092799
820.055466	8250.276767
820.373919	9156.207402
820.692327	10597.112844
821.010691	13267.888425
821.329011	19433.154044
821.647286	28957.219483
821.965517	39270.807752
822.283704	44748.223052
822.601847	46210.833182
822.919945	41659.558502
823.237999	36553.671199
823.556010	31373.111805
823.873976	26679.454776
824.191897	22477.400987
824.509775	19424.818496
824.827609	16674.478383
825.145398	15124.888185
825.463144	14379.321696
825.780845	14663.554553
826.098502	15911.681230
826.416116	18356.083798
826.733685	20646.370731
827.051210	21177.506701
827.368692	19762.061606
827.686129	17209.564097
828.003522	14732.625922
828.320872	12525.633974
828.638177	10879.457788
828.955439	9635.180031
829.272656	8578.186181
829.589830	7747.499809
829.906960	7018.400249
830.224046	6486.190514
830.541088	6078.918215
830.858086	5823.790460
831.175041	5623.097084
831.491952	5560.188526
831.808819	5595.292600
832.125642	5836.410989
832.442421	6384.618826
832.759157	7490.118658
833.075849	9250.497143
833.392497	11087.884294
833.709101	12209.039430
834.025662	11955.043414
834.342179	10911.668241
834.658653	9598.911450
834.975083	8502.876384
835.291469	7607.098633
835.607811	6867.437856
835.924110	6349.658424
836.240366	5864.699424
836.556578	5415.499848
836.872746	5066.614194
837.188871	4791.044560
837.504952	4569.790838
837.820990	4409.373761
838.136984	4295.801606
838.452935	4244.278493
838.768842	4270.585754
839.084706	4551.146131
839.400526	5290.892608
839.716303	6189.284196
840.032037	6755.136072
840.347727	6610.994360
840.663373	6012.264079
840.978977	5437.970792
841.294537	5001.583309
841.610054	4670.049306
841.925527	4432.968882
842.240957	4229.449939
842.556344	4042.642422
842.871687	3887.904204
843.186987	3736.442737
843.502244	3619.195581
843.817458	3530.168804
844.132629	3460.056436
844.447756	3414.575146
844.762840	3366.356510
845.077881	3329.122547
845.392879	3297.333031
845.707833	3270.231788
846.022745	3243.236409
846.337613	3231.409862
846.652438	3208.134855
846.967221	3201.422559
847.281960	3183.014785
847.596656	3171.556243
847.911309	3159.530570
848.225919	3148.833242
848.540485	3138.352683
848.855009	3129.833133
849.169490	3116.990793
849.483928	3113.461986
849.798323	3105.612909
850.112675	3095.659151
850.426984	3097.733586
850.741251	3088.200764
851.055474	3084.324117
851.369654	3085.670105
851.683792	3084.601380
851.997887	3085.811257
852.311938	3085.281936
852.625947	3086.794282
852.939914	3080.044177
853.253837	3086.572471
853.567718	3083.794795
853.881555	3077.974783
854.195350	3083.714137
854.509103	3081.375042
854.822812	3081.359918
855.136479	3076.981676
855.450103	3078.620051
855.763685	3071.776685
856.077224	3075.948239
856.390720	3080.908735
856.704173	3093.501537
857.017584	3099.293823
857.330953	3102.013525
857.644278	3110.840586
857.957561	3112.310082
858.270802	3111.304372
858.584000	3111.747993
858.897155	3107.599124
859.210268	3092.218563
859.523339	3082.640371
859.836367	3079.529979
860.149352	3075.799525
860.462295	3069.150243
860.775195	3062.185889
861.088054	3058.210940
861.400869	3057.958882
861.713642	3053.797409
862.026373	3061.606157
862.339062	3067.816858
862.651708	3076.858168
862.964312	3093.811568
863.276873	3101.953032
863.589392	3132.147022
863.901869	3157.168790
864.214303	3177.497242
864.526696	3195.842001
864.839045	3215.106771
865.151353	3226.918194
865.463619	3227.044223
865.775842	3226.487176
866.088023	3233.017990
866.400162	3228.254100
866.712258	3227.533215
867.024313	3228.455746
867.336325	3224.856362
867.648296	3225.257134
867.960224	3221.347719
868.272110	3230.845253
868.583954	3227.896178
868.895755	3236.539236
869.207515	3231.573700
869.519233	3254.122781
869.830909	3258.700149
870.142542	3268.958897
870.454134	3273.647170
870.765684	3285.390538
871.077191	3306.394505
871.388657	3316.282728
871.700081	3335.963393
872.011463	3356.044829
872.322803	3373.814897
872.634101	3391.882392
872.945357	3415.144797
873.256571	3441.908282
873.567744	3456.394038
873.878874	3460.399235
874.189963	3477.498828
874.501010	3475.192501
874.812015	3475.925988
875.122979	3490.610870
875.433900	3486.882936
875.744780	3489.373266
876.055618	3496.461129
876.366415	3496.566993
876.677169	3503.929598
876.987882	3519.607587
877.298554	3539.918395
877.609183	3578.102615
877.919771	3623.117598
878.230317	3689.693597
878.540822	3797.460863
878.851285	3948.645067
879.161707	4168.119261
879.472087	4539.359913
879.782425	5161.090458
880.092722	6339.984449
880.402977	8260.409487
880.713191	10616.125555
881.023363	13001.292045
881.333494	14343.307693
881.643583	14802.657631
881.953631	14407.254729
882.263637	13564.640987
882.573602	12530.758307
882.883526	11575.933521
883.193408	10617.421132
883.503248	9707.041679
883.813048	8884.027944
884.122806	8116.199719
884.432522	7356.770057
884.742197	6699.264963
885.051831	6134.915352
885.361424	5640.907481
885.670975	5246.706894
885.980485	4924.602369
886.289954	4657.711082
886.599382	4442.312660
886.908768	4262.285495
887.218113	4100.391359
887.527417	3969.926298
887.836680	3846.110518
888.145901	3747.124942
888.455082	3669.400432
888.764221	3602.705967
889.073319	3543.860578
889.382376	3509.144672
889.691392	3485.264726
890.000366	3479.600990
890.309300	3473.153354
890.618193	3474.398519
890.927044	3469.743013
891.235855	3474.963128
891.544625	3492.080366
891.853353	3520.726723
892.162041	3581.170157
892.470687	3672.536030
892.779293	3789.710089
893.087858	3958.495482
893.396381	4238.735744
893.704864	4652.682531
894.013306	5216.863263
894.321707	5787.295027
894.630068	6146.172249
894.938387	6186.380492
895.246665	6004.798130
895.554903	5698.411923
895.863100	5357.420715
896.171256	5086.541875
896.479371	4848.402808
896.787446	4623.317810
897.095480	4426.654836
897.403473	4278.661683
897.711425	4134.913181
898.019336	4007.561032
898.327207	3886.621231
898.635038	3785.641878
898.942827	3680.924510
899.250576	3594.083073
899.558284	3511.322450
899.865952	3458.513843
900.173579	3393.908936
900.481165	3348.281453
900.788711	3305.792087
901.096216	3275.139351
901.403681	3249.837800
901.711105	3230.832650
902.018489	3229.809296
902.325832	3263.461518
902.633135	3321.528049
902.940397	3493.242352
903.247619	3891.654823
903.554800	4642.806910
903.861941	5600.979022
904.169041	6309.825747
904.476101	6523.053951
904.783121	6249.142857
905.090100	5844.396177
905.397039	5432.574237
905.703938	5076.310853
906.010796	4754.836472
906.317614	4499.718800
906.624391	4257.445987
906.931129	4066.098910
907.237826	3886.860685
907.544483	3716.222669
907.851099	3546.360990
908.157675	3383.032647
908.464211	3245.729260
908.770707	3146.577325
909.077163	3067.302661
909.383578	3009.039525
909.689954	2962.461784
909.996289	2934.269131
910.302584	2912.740884
910.608839	2899.767474
910.915054	2885.294322
911.221229	2879.756614
911.527363	2885.669888
911.833458	2895.164901
912.139513	2905.234606
912.445527	2917.923190
912.751502	2951.454425
913.057436	2994.692401
913.363331	3051.803633
913.669186	3138.234216
913.975000	3253.969026
914.280775	3441.293262
914.586510	3708.353428
914.892205	4083.984924
915.197859	4579.482456
915.503475	5161.077855
915.809050	5659.040511
916.114585	5956.307271
916.420081	6023.863774
916.725536	5954.608403
917.030952	5712.355754
917.336328	5508.814127
917.641665	5295.454852
917.946961	5070.266510
918.252218	4871.118247
918.557435	4643.356396
918.862612	4439.068678
919.167750	4271.213378
919.472848	4082.462496
919.777906	3915.940581
920.082925	3755.818412
920.387904	3600.003908
920.692843	3491.629183
920.997743	3392.751991
921.302603	3298.623567
921.607423	3234.217785
921.912204	3169.204544
922.216946	3121.946248
922.521647	3070.594534
922.826310	3032.047351
923.130932	2993.651403
923.435516	2950.814198
923.740059	2926.530960
924.044564	2894.882596
924.349028	2870.198586
924.653454	2839.739935
924.957840	2815.192036
925.262186	2794.266207
925.566493	2773.254677
925.870761	2746.937334
926.174989	2737.694378
926.479178	2723.808520
926.783328	2707.626416
927.087438	2698.388502
927.391509	2686.700586
927.695541	2670.140396
927.999533	2661.104128
928.303486	2653.597850
928.607400	2647.243475
928.911275	2641.403298
929.215110	2634.343162
929.518906	2631.489869
929.822663	2631.504993
930.126381	2632.165384
930.430060	2638.222330
930.733699	2635.139665
931.037299	2639.096971
931.340861	2636.924233
931.644383	2641.700727
931.947866	2639.137300
932.251309	2635.527834
932.554714	2639.091929
932.858080	2637.037659
933.161407	2631.943573
933.464694	2629.133130
933.767943	2627.096504
934.071153	2622.751029
934.374323	2617.170472
934.677455	2613.742487
934.980548	2613.664349
935.283602	2609.870881
935.586617	2607.798967
935.889593	2609.152517
936.192530	2610.863988
936.495428	2616.235338
936.798287	2622.680453
937.101108	2641.310037
937.403890	2661.572955
937.706632	2688.790145
938.009336	2721.751729
938.312002	2753.576533
938.614628	2774.424225
938.917216	2793.847791
939.219765	2803.504121
939.522275	2813.127684
939.824747	2814.516522
940.127179	2807.355562
940.429573	2799.135961
940.731929	2801.951446
941.034246	2790.197995
941.336524	2790.807975
941.638763	2787.246400
941.940964	2774.283073
942.243126	2759.880496
942.545250	2750.090575
942.847335	2735.083060
943.149381	2722.432285
943.451389	2708.644729
943.753359	2695.814992
944.055290	2687.537418
944.357182	2674.780778
944.659036	2671.635098
944.960851	2670.427742
945.262628	2665.999088
945.564367	2664.751402
945.866067	2661.895589
946.167729	2663.944818
946.469352	2661.653613
946.770937	2660.549601
947.072484	2653.015596
947.373992	2652.193888
947.675462	2649.990904
947.976893	2642.628299
948.278286	2642.950933
948.579641	2638.055972
948.880958	2635.847947
949.182236	2633.823924
949.483476	2631.421814
949.784678	2632.402318
950.085841	2632.649335
950.386967	2636.798204
950.688054	2639.689306
950.989103	2649.854793
951.290114	2659.594302
951.591087	2669.548060
951.892021	2680.920903
952.192917	2694.630321
952.493776	2704.783205
952.794596	2704.803370
953.095378	2711.467775
953.396122	2709.156406
953.696828	2703.616178
953.997496	2697.982689
954.298126	2687.416430
954.598718	2682.289577
954.899272	2669.893379
955.199788	2660.123623
955.500266	2647.230872
955.800706	2632.624129
956.101108	2614.090327
956.401472	2607.670417
956.701798	2590.296081
957.002087	2575.966601
957.302337	2567.512586
957.602550	2554.730740
957.902724	2544.754297
958.202861	2538.503266
958.502960	2527.884076
958.803022	2521.312932
959.103045	2513.708351
959.403031	2508.203411
959.702979	2504.944305
960.002889	2500.742503
960.302762	2491.174393
960.602596	2487.950575
960.902393	2487.247334
961.202153	2480.280460
961.501875	2479.400778
961.801559	2475.761065
962.101205	2474.709985
962.400814	2472.907772
962.700385	2471.307206
962.999918	2466.911320
963.299414	2466.200517
963.598873	2464.889817
963.898293	2462.018880
964.197677	2464.045424
964.497022	2461.481997
964.796331	2460.393108
965.095601	2458.608539
965.394835	2456.665175
965.694030	2457.504527
965.993189	2458.374126
966.292309	2456.760957
966.591393	2454.285750
966.890439	2456.045113
967.189447	2457.209619
967.488419	2456.387911
967.787353	2460.904785
968.086249	2456.166100
968.385108	2456.798765
968.683930	2458.227932
968.982714	2459.926801
969.281462	2460.771194
969.580172	2466.102215
969.878844	2462.863273
970.177480	2467.054993
970.476078	2467.329736
970.774639	2474.820890
971.073162	2476.255098
971.371649	2475.914821
971.670098	2477.901035
971.968510	2478.763073
972.266885	2474.944398
972.565223	2483.683239
972.863524	2483.862200
973.161788	2485.946717
973.460014	2486.463435
973.758204	2488.721872
974.056356	2487.496872
974.354471	2489.215905
974.652550	2487.375884
974.950591	2486.501244
975.248595	2486.513847
975.546563	2486.982674
975.844493	2484.648620
976.142386	2481.306335
976.440243	2479.196612
976.738062	2478.611838
977.035845	2473.278297
977.333590	2474.006744
977.631299	2472.817032
977.928971	2469.620940
978.226606	2466.505507
978.524204	2468.302678
978.821765	2464.783953
979.119290	2463.808490
979.416777	2466.220682
979.714228	2463.488376
980.011642	2466.150106
980.309020	2470.190590
980.606360	2474.931796
980.903664	2481.669298
981.200931	2496.328973
981.498162	2515.921418
981.795356	2542.233720
982.092513	2581.317786
982.389633	2627.865280
982.686717	2669.790036
982.983764	2703.754810
983.280775	2717.895246
983.577749	2721.645865
983.874686	2710.237734
984.171587	2693.934642
984.468451	2677.969308
984.765279	2662.782832
985.062070	2641.637712
985.358824	2623.222377
985.655543	2603.055241
985.952224	2578.716550
986.248869	2549.855945
986.545478	2524.385515
986.842050	2506.136538
987.138586	2482.899339
987.435086	2473.948771
987.731549	2460.178859
988.027975	2457.386060
988.324366	2449.899946
988.620719	2445.720830
988.917037	2443.225458
989.213318	2438.970725
989.509563	2435.419232
989.805772	2435.734304
990.101944	2435.767071
990.398080	2434.035435
990.694180	2432.432348
990.990244	2431.126689
991.286271	2432.812955
991.582262	2431.802204
991.878217	2433.879159
992.174136	2433.576690
992.470019	2439.260591
992.765865	2438.504418
993.061676	2437.612134
993.357450	2443.187650
993.653188	2444.697475
993.948890	2452.773404
994.244556	2457.559979
994.540186	2466.571042
994.835780	2476.187043
995.131337	2492.366626
995.426859	2509.597290
995.722345	2527.881555
996.017795	2544.005686
996.313208	2560.361709
996.608586	2571.575756
996.903928	2573.693041
997.199234	2573.806467
997.494504	2571.076682
997.789738	2558.927501
998.084936	2552.744526
998.380099	2540.025695
998.675225	2529.134282
998.970316	2518.436953
999.265371	2503.041269
999.560390	2486.753301
999.855373	2479.501602
1000.150320	2467.546505
1000.445232	2462.117183
1000.740108	2449.844493
1001.034948	2447.172682
1001.329752	2440.324274
1001.624521	2438.010385
1001.919254	2428.646442
1002.213951	2429.001843
1002.508613	2425.518406
1002.803239	2426.675350
1003.097829	2419.640420
1003.392384	2425.057140
1003.686903	2422.329876
1003.981386	2419.930287
1004.275834	2421.422468
1004.570246	2420.615883
1004.864623	2420.421799
1005.158964	2416.502302
1005.453270	2417.286201
1005.747540	2418.299473
1006.041775	2415.236972
1006.335974	2415.849473
1006.630138	2415.599935
1006.924266	2418.523805
1007.218359	2414.208577
1007.512416	2415.657909
1007.806438	2416.759401
1008.100425	2414.715213
1008.394376	2415.599935
1008.688292	2411.521642
1008.982172	2413.074317
1009.276017	2414.556417
1009.569827	2411.662794
1009.863602	2412.809657
1010.157341	2411.904770
1010.451045	2410.929306
1010.744714	2409.243040
1011.038347	2412.943247
1011.331945	2412.608011
1011.625508	2410.851168
1011.919036	2411.917373
1012.212528	2406.914027
1012.505986	2408.209604
1012.799408	2410.468041
1013.092795	2407.960067
1013.386147	2407.695406
1013.679464	2410.213462
1013.972745	2408.207083
1014.265992	2407.564336
1014.559204	2410.021899
1014.852380	2410.122722
1015.145521	2408.723802
1015.438628	2405.973852
1015.731699	2407.357649
1016.024736	2405.648698
1016.317737	2408.862433
1016.610703	2410.271436
1016.903635	2408.943092
1017.196531	2408.559964
1017.489393	2409.979049
1017.782219	2404.680796
1018.075011	2412.529873
1018.367768	2410.309244
1018.660490	2410.515932
1018.953177	2410.515932
1019.245829	2410.515932
