Dividing Wavelength (nm)	Counts (n)	Blue Motor Position (mm): 17.800000	Red Motor Position (mm): 0.000000	
326.493990	1973.596607
326.888308	1973.596607
327.282561	1973.596607
327.676750	1948.579881
328.070874	1950.160283
328.464933	1955.105655
328.858929	1966.851543
329.252859	1978.110961
329.646726	1992.730307
330.040528	2006.961484
330.434265	2027.942766
330.827938	2045.223842
331.221547	2066.061451
331.615091	2087.849318
332.008571	2107.353542
332.401986	2129.438837
332.795338	2147.440798
333.188625	2169.914262
333.581847	2186.539987
333.975006	2205.461958
334.368100	2223.408466
334.761129	2241.342370
335.154095	2255.692015
335.546996	2287.983126
335.939833	2347.738443
336.332606	2361.465505
336.725315	2374.655684
337.117960	2384.112888
337.510540	2387.059443
337.903056	2397.691236
338.295508	2402.061917
338.687896	2415.108423
339.080220	2420.389032
339.472480	2422.768456
339.864676	2429.258942
340.256807	2429.682399
340.648875	2434.597524
341.040879	2434.499221
341.432818	2436.702205
341.824694	2437.816300
342.216506	2437.418049
342.608253	2434.849581
342.999937	2435.404108
343.391557	2433.727925
343.783113	2432.523089
344.174605	2431.986206
344.566033	2428.220464
344.957397	2427.839857
345.348697	2425.248704
345.739934	2424.328693
346.131106	2422.511357
346.522215	2420.789803
346.913260	2418.425502
347.304241	2420.999011
347.695159	2415.476427
348.086012	2415.365522
348.476802	2411.325037
348.867528	2414.014492
349.258191	2411.050294
349.648789	2409.996693
350.039324	2405.474778
350.429796	2407.526528
350.820203	2404.096022
351.210548	2405.666342
351.600828	2404.572411
351.991045	2402.664335
352.381198	2403.155847
352.771288	2404.539644
353.161314	2402.107287
353.551276	2401.968655
353.941175	2400.388254
354.331010	2403.289438
354.720782	2405.578122
355.110490	2406.634243
355.500135	2403.591907
355.889717	2404.524520
356.279235	2403.975035
356.668689	2404.564850
357.058080	2404.947977
357.447408	2404.443862
357.836672	2404.131310
358.225873	2405.010992
358.615010	2402.104767
359.004084	2407.125756
359.393095	2407.949984
359.782043	2409.943761
360.170927	2409.490057
360.559748	2411.410737
360.948505	2408.718760
361.337199	2409.033832
361.725830	2412.950809
362.114398	2410.410067
362.502903	2413.449883
362.891344	2410.657084
363.279722	2412.126580
363.668037	2415.695717
364.056289	2413.336457
364.444478	2415.625141
364.832603	2414.407702
365.220665	2415.287384
365.608665	2414.359812
365.996601	2417.006417
366.384474	2416.870306
366.772284	2418.107909
367.160031	2415.630182
367.547715	2416.048598
367.935336	2417.631520
368.322893	2415.000038
368.710388	2416.330903
369.097820	2421.137643
369.485189	2418.362488
369.872495	2418.758218
370.259738	2418.526325
370.646918	2419.600091
371.034035	2419.370718
371.421090	2420.172262
371.808081	2420.436923
372.195010	2418.632189
372.581875	2418.299473
372.968678	2420.993970
373.355418	2421.475400
373.742096	2422.143353
374.128710	2424.220308
374.515262	2421.188054
374.901751	2422.733168
375.288177	2423.012952
375.674540	2421.493044
376.060841	2426.897161
376.447079	2423.068405
376.833254	2421.825760
377.219367	2419.133784
377.605417	2420.265523
377.991404	2418.564134
378.377329	2419.171593
378.763191	2419.496747
379.148991	2423.925401
379.534727	2424.807603
379.920402	2425.004208
380.306013	2428.409507
380.691563	2424.943714
381.077049	2423.980854
381.462474	2425.956986
381.847835	2427.078643
382.233134	2428.321287
382.618371	2426.332552
383.003545	2427.910433
383.388657	2427.834816
383.773706	2427.297933
384.158693	2431.431679
384.543618	2429.765578
384.928480	2427.365988
385.313280	2429.160639
385.698017	2426.403128
386.082692	2428.217943
386.467305	2429.725248
386.851856	2431.184663
387.236344	2433.861515
387.620770	2429.067378
388.005133	2429.821030
388.389435	2430.408325
388.773674	2432.923861
389.157851	2437.730601
389.541965	2431.524940
389.926018	2432.293716
390.310008	2433.952256
390.693936	2434.463933
391.077802	2434.693306
391.461606	2435.502411
391.845348	2438.257401
392.229027	2436.094746
392.612645	2433.412852
392.996200	2433.269180
393.379694	2437.017277
393.763125	2434.612647
394.146494	2435.714139
394.529801	2436.641712
394.913047	2438.617844
395.296230	2435.888059
395.679351	2437.188677
396.062410	2436.861002
396.445408	2437.153389
396.828343	2439.091712
397.211217	2432.523089
397.594028	2434.932760
397.976778	2436.886208
398.359466	2437.806218
398.742092	2434.607606
399.124656	2440.392330
399.507158	2435.981320
399.889598	2440.263781
400.271977	2441.125818
400.654294	2439.585745
401.036549	2439.447114
401.418742	2441.791250
401.800874	2442.106322
402.182944	2440.911569
402.564952	2442.065993
402.946898	2439.300920
403.328783	2439.744542
403.710606	2439.472319
404.092367	2444.185798
404.474067	2442.255036
404.855705	2446.416509
405.237282	2441.095571
405.618797	2442.078596
406.000250	2442.486929
406.381642	2443.989193
406.762972	2439.943667
407.144240	2445.123453
407.525447	2442.164296
407.906593	2442.338215
408.287677	2443.437187
408.668700	2446.454317
409.049661	2446.900460
409.430560	2443.613627
409.811399	2447.777620
410.192176	2445.297373
410.572891	2448.314503
410.953545	2443.323761
411.334138	2446.393824
411.714669	2443.822835
412.095139	2447.870882
412.475547	2445.766200
412.855894	2447.308793
413.236180	2446.434153
413.616405	2447.470110
413.996568	2446.073710
414.376670	2447.104626
414.756711	2445.564554
415.136691	2445.657815
415.516609	2446.658484
415.896466	2452.218877
416.276262	2450.459514
416.655997	2446.509770
417.035670	2446.038422
417.415283	2446.839966
417.794834	2443.855603
418.174324	2448.228804
418.553753	2448.397682
418.933121	2450.497323
419.312428	2447.049174
419.691674	2449.796603
420.070859	2452.239042
420.449983	2453.635441
420.829045	2450.169648
421.208047	2451.379525
421.586988	2451.780297
421.965867	2451.306428
422.344686	2449.274843
422.723444	2451.175358
423.102141	2450.308280
423.480777	2450.391459
423.859352	2449.887343
424.237866	2454.038733
424.616319	2454.832715
424.994712	2455.714917
425.373044	2453.413630
425.751314	2452.954885
426.129524	2453.869855
426.507673	2453.703497
426.885762	2452.208795
427.263789	2453.678291
427.641756	2451.382045
428.019662	2455.024279
428.397508	2454.096707
428.775292	2456.592078
429.153016	2455.515792
429.530679	2455.780452
429.908282	2457.794393
430.285824	2456.390432
430.663305	2458.931173
431.040726	2456.645010
431.418086	2455.445215
431.795385	2457.055864
432.172624	2457.277675
432.549802	2455.909002
432.926920	2454.341203
433.303977	2458.933694
433.680974	2459.392439
434.057910	2458.200206
434.434786	2462.628860
434.811601	2461.129116
435.188355	2459.281533
435.565050	2461.449230
435.941683	2459.520988
436.318257	2459.616770
436.694770	2456.917232
437.071222	2459.057202
437.447614	2458.129630
437.823946	2458.842953
438.200218	2461.668520
438.576429	2462.641463
438.952580	2461.524847
439.328670	2463.616926
439.704700	2460.060392
440.080670	2461.797069
440.456580	2460.665330
440.832429	2465.477112
441.208218	2463.629529
441.583947	2460.231791
441.959616	2462.759930
442.335224	2463.145578
442.710773	2466.727318
443.086261	2464.340331
443.461689	2463.942080
443.837057	2464.857050
444.212365	2469.252936
444.587612	2464.975517
444.962800	2468.108594
445.337927	2464.862091
445.712995	2465.386371
446.088002	2464.640280
446.462949	2468.093470
446.837837	2467.750672
447.212664	2467.034828
447.587431	2473.066569
447.962139	2473.749645
448.336786	2475.221662
448.711374	2474.392392
449.085901	2474.462968
449.460369	2472.562453
449.834776	2474.001703
450.209124	2474.878863
450.583412	2476.411374
450.957640	2473.076651
451.331808	2477.921200
451.705917	2474.621765
452.079965	2473.583287
452.453954	2473.111939
452.827883	2477.127218
453.201752	2473.215283
453.575562	2478.730305
453.949311	2479.680563
454.323001	2479.471355
454.696632	2479.068062
455.070202	2483.090903
455.443713	2482.082672
455.817164	2477.654019
456.190556	2481.916314
456.563888	2481.245841
456.937160	2475.236785
457.310373	2479.494040
457.683526	2482.725419
458.056619	2479.539410
458.429653	2484.625934
458.802628	2485.407313
459.175542	2484.217601
459.548398	2488.401759
459.921194	2487.355719
460.293930	2492.404435
460.666607	2492.684219
461.039224	2496.086998
461.411782	2495.043479
461.784280	2497.606906
462.156719	2494.592296
462.529099	2495.875269
462.901419	2494.846874
463.273680	2494.990547
463.645882	2494.811586
464.018024	2494.688078
464.390106	2498.854591
464.762130	2502.101094
465.134094	2506.519666
465.505999	2517.423681
465.877845	2523.568848
466.249631	2527.853829
466.621358	2528.365506
466.993026	2526.646472
467.364634	2527.100176
467.736184	2519.205729
468.107674	2520.201357
468.479105	2521.433919
468.850477	2516.672549
469.221790	2520.813857
469.593043	2515.901253
469.964238	2515.674401
470.335373	2517.403517
470.706449	2521.423837
471.077467	2526.240659
471.448425	2537.883204
471.819324	2543.509132
472.190164	2542.664739
472.560945	2538.505787
472.931667	2531.445651
473.302330	2527.301822
473.672934	2530.601257
474.043479	2532.027904
474.413965	2531.531350
474.784393	2528.650331
475.154761	2536.736342
475.525070	2530.954138
475.895321	2535.634850
476.265513	2536.212062
476.635645	2540.963349
477.005719	2545.381921
477.375734	2546.349822
477.745691	2551.511964
478.115588	2556.464897
478.485427	2563.393963
478.855207	2574.862588
479.224928	2587.120154
479.594591	2591.216091
479.964194	2591.233735
480.333739	2593.976123
480.703226	2596.605085
481.072653	2600.796804
481.442022	2602.115066
481.811333	2610.364914
482.180584	2605.028853
482.549777	2608.373658
482.918912	2607.758638
483.287988	2611.857096
483.657005	2610.473299
484.025964	2612.323402
484.394864	2612.008330
484.763706	2614.586881
485.132489	2613.129987
485.501213	2616.530245
485.869879	2619.310442
486.238487	2623.842439
486.607036	2626.360495
486.975527	2623.703807
487.343959	2628.830661
487.712333	2633.604633
488.080648	2637.539254
488.448905	2641.226858
488.817104	2645.158958
489.185244	2653.814619
489.553326	2662.543377
489.921350	2680.131963
490.289315	2697.246680
490.657222	2709.048021
491.025070	2716.556820
491.392861	2715.772921
491.760593	2713.413661
492.128267	2708.740511
492.495883	2706.600541
492.863440	2703.439738
493.230939	2702.209696
493.598380	2701.609799
493.965763	2701.992927
494.333088	2706.610623
494.700354	2706.514842
495.067563	2711.356870
495.434713	2713.262426
495.801805	2724.894888
496.168839	2729.318501
496.535815	2734.276476
496.902733	2740.764441
497.269593	2748.752149
497.636395	2751.746594
498.003139	2766.179418
498.369825	2769.461209
498.736453	2776.491098
499.103023	2786.782614
499.469535	2793.938532
499.835989	2799.735858
500.202385	2808.963691
500.568723	2820.432316
500.935003	2835.127279
501.301226	2842.260512
501.667390	2862.659541
502.033497	2880.026316
502.399546	2886.347923
502.765537	2893.425703
503.131470	2910.200142
503.497345	2929.568255
503.863163	2925.673964
504.228923	2949.427881
504.594625	2972.720532
504.960269	2985.265443
505.325856	3012.553209
505.691385	3021.130733
506.056856	3043.074875
506.422270	3070.939853
506.787625	3088.515836
507.152924	3113.280504
507.518164	3135.569966
507.883347	3148.402223
508.248472	3174.394412
508.613540	3213.596945
508.978550	3246.162799
509.343503	3270.675410
509.708398	3303.027014
510.073236	3345.488653
510.438016	3379.471071
510.802738	3401.755492
511.167403	3445.616051
511.532010	3488.707834
511.896561	3536.203065
512.261053	3598.075667
512.625488	3624.720685
512.989866	3662.766273
513.354186	3702.833364
513.718449	3743.460023
514.082655	3814.658759
514.446803	3851.018082
514.810894	3922.173968
515.174927	3970.228767
515.538904	4016.012526
515.902822	4096.413889
516.266684	4130.877737
516.630488	4205.340621
516.994235	4260.720216
517.357925	4345.303216
517.721558	4416.882560
518.085133	4496.215198
518.448651	4566.808996
518.812112	4629.001711
519.175516	4701.611970
519.538863	4793.532369
519.902152	4865.010890
520.265385	4969.811437
520.628560	5051.142893
520.991678	5117.103870
521.354739	5211.436461
521.717743	5314.923788
522.080690	5396.184667
522.443580	5519.584552
522.806413	5618.118945
523.169189	5704.897367
523.531908	5805.521319
523.894569	5892.481223
524.257174	6005.004818
524.619722	6123.114011
524.982213	6230.115022
525.344647	6323.043652
525.707025	6432.008192
526.069345	6577.886582
526.431608	6672.085583
526.793815	6810.737478
527.155964	6874.732405
527.518057	6998.903586
527.880093	7090.345076
528.242072	7258.026456
528.603995	7345.926535
528.965860	7464.476829
529.327669	7589.898216
529.689421	7703.414919
530.051117	7822.239956
530.412755	7958.572921
530.774337	8095.558715
531.135862	8193.319291
531.497331	8346.378804
531.858743	8460.273593
532.220098	8635.206672
532.581396	8728.858708
532.942638	8808.314854
533.303824	8986.595260
533.664953	9121.289849
534.026025	9208.264877
534.387040	9417.835724
534.747999	9551.411178
535.108902	9721.872754
535.469748	9781.547413
535.830537	9941.094891
536.191270	10120.731367
536.551947	10205.957114
536.912567	10406.027907
537.273131	10580.527447
537.633638	10631.042330
537.994089	10845.571152
538.354483	10920.873388
538.714821	11190.007989
539.075103	11421.041549
539.435328	11533.519773
539.795497	11666.079434
540.155609	11822.045173
540.515665	12086.597365
540.875665	12128.204528
541.235609	12363.187832
541.595496	12534.060263
541.955328	12871.194988
542.315102	12886.883058
542.674821	13007.512829
543.034483	13190.254656
543.394090	13357.164739
543.753640	13518.945448
544.113134	13957.651862
544.472571	13879.854255
544.831953	14387.506009
545.191278	14359.426782
545.550548	14464.365961
545.909761	14773.706285
546.268918	15005.546429
546.628019	15294.928825
546.987064	15348.783471
547.346053	15319.461600
547.704986	15766.632111
548.063863	15820.310317
548.422684	16075.561580
548.781449	16212.257508
549.140158	16536.774225
549.498811	16677.482911
549.857408	16680.880649
550.215949	17160.894277
550.574434	17336.021441
550.932864	17461.881408
551.291237	17924.787881
551.649555	17987.963621
552.007817	18267.006610
552.366022	18350.498200
552.724173	18623.942987
553.082267	18970.250092
553.440305	19296.241347
553.798288	19226.297857
554.156215	19557.307581
554.514086	19851.894967
554.871902	19954.714341
555.229661	20168.847433
555.587365	20303.224430
555.945014	20544.620082
556.302606	20716.745239
556.660143	21021.719923
557.017625	21255.284143
557.375050	21375.432483
557.732421	21747.096591
558.089735	21946.068413
558.446994	22107.443309
558.804197	22540.974978
559.161345	22718.663049
559.518437	22584.097008
559.875474	22936.229166
560.232455	23222.261715
560.589381	23512.483463
560.946251	23573.914963
561.303065	24125.311330
561.659825	24237.159410
562.016528	24285.869559
562.373177	24336.742363
562.729770	24809.831967
563.086307	24762.745069
563.442789	25200.768406
563.799216	25430.115700
564.155587	25537.179726
564.511904	25759.620639
564.868164	26000.368503
565.224370	26354.386052
565.580520	26416.987101
565.936615	26737.296975
566.292654	26764.272189
566.648638	27121.969781
567.004567	27297.941338
567.360441	27522.358384
567.716260	27658.681266
568.072023	28035.462146
568.427732	28229.591939
568.783385	28164.825715
569.138982	28602.586912
569.494525	28773.797100
569.850013	28831.273816
570.205445	29005.614560
570.560823	29169.585650
570.916145	29297.893098
571.271412	29501.933800
571.626625	29550.275945
571.981782	29775.809606
572.336884	29765.639078
572.691931	30151.980506
573.046923	30083.816544
573.401860	30164.006178
573.756743	30346.337151
574.111570	30600.252509
574.466342	30687.436744
574.821059	30957.909771
575.175722	30817.669913
575.530330	31005.036998
575.884882	30985.729379
576.239380	31137.039612
576.593823	31295.026852
576.948211	31402.446279
577.302544	31245.195047
577.656823	31439.531527
578.011047	31782.168672
578.365216	31742.036046
578.719330	31763.957504
579.073389	31830.916630
579.427394	32051.895609
579.781344	32191.704449
580.135239	32104.137086
580.489080	32318.895281
580.842866	32109.843672
581.196597	32587.767742
581.550273	32707.338870
581.903895	32753.082300
582.257463	33227.154928
582.610975	32914.913421
582.964434	33279.053607
583.317837	33168.380116
583.671186	33178.331353
584.024481	33496.176103
584.377721	33291.974084
584.730906	33647.272087
585.084037	33821.088551
585.437113	33730.889706
585.790135	33892.163779
586.143103	33716.466965
586.496016	33958.006289
586.848874	34115.912872
587.201679	34261.324955
587.554428	33980.935978
587.907124	34268.614463
588.259765	34193.264337
588.612352	34523.538051
588.964884	34170.672406
589.317362	34518.169222
589.669786	34600.481182
590.022155	34526.219945
590.374470	34995.881564
590.726731	34728.012292
591.078937	34453.660097
591.431090	34653.534286
591.783188	34480.852081
592.135232	34330.852548
592.487222	34640.407121
592.839157	34833.309393
593.191038	34672.368036
593.542866	34566.392900
593.894639	34169.089483
594.246358	34499.869834
594.598022	34580.094756
594.949633	34358.336919
595.301190	34416.171557
595.652692	34380.084457
596.004141	34760.026140
596.355535	34012.874208
596.706876	34063.532763
597.058162	34027.110426
597.409395	34511.950959
597.760573	34669.335782
598.111698	34389.927310
598.462768	34479.632122
598.813785	34604.589723
599.164748	34221.245261
599.515657	34641.858973
599.866511	34273.479177
600.217312	34884.356117
600.568060	34055.696289
600.918753	34785.294924
601.269392	34839.147050
601.619978	34600.455977
601.970510	34852.490984
602.320988	35096.623982
602.671412	35430.229900
603.021783	35278.155932
603.372100	35053.978341
603.722363	35211.945418
604.072572	35346.811407
604.422728	35425.148417
604.772830	35316.511551
605.122878	35470.861600
605.472872	35473.790510
605.822813	35799.164223
606.172701	35694.232606
606.522534	35975.304659
606.872314	36273.506553
607.222041	36118.841433
607.571714	36524.361931
607.921333	36071.913332
608.270899	36399.114463
608.620411	36770.818901
608.969870	36640.391648
609.319276	36692.318053
609.668627	36800.047511
610.017926	37279.070552
610.367171	37492.482759
610.716362	37622.136195
611.065500	37628.636763
611.414585	37852.574899
611.763616	38183.957668
612.112594	38150.388624
612.461518	38412.132894
612.810389	38730.950586
613.159207	38654.468721
613.507971	38765.744630
613.856682	39261.728634
614.205340	39178.854585
614.553945	39873.596161
614.902496	39398.928677
615.250994	39892.228266
615.599439	40000.373619
615.947830	40233.766439
616.296169	40329.850831
616.644454	40492.329740
616.992686	40676.530981
617.340864	41214.235574
617.688990	40983.920378
618.037063	41576.616398
618.385082	41597.496857
618.733048	41900.742425
619.080961	41938.969495
619.428821	41986.842812
619.776628	42120.062864
620.124382	41990.180056
620.472083	42161.521314
620.819731	42298.365955
621.167326	42028.875953
621.514868	42048.319683
621.862357	41661.764007
622.209793	41718.111504
622.557176	41420.953128
622.904506	41208.080325
623.251783	40916.280696
623.599007	40738.524571
623.946179	40539.038551
624.293297	40526.788547
624.640363	39970.270368
624.987376	39990.540848
625.334336	39775.270976
625.681243	39450.141759
626.028097	39458.762132
626.374899	39324.430505
626.721647	39323.223149
627.068343	39245.239019
627.414987	39047.240140
627.761577	38838.312040
628.108115	39180.782826
628.454600	38671.888428
628.801032	38869.035352
629.147412	38854.988177
629.493739	38875.079695
629.840014	38546.842607
630.186236	38913.538658
630.532405	38540.911689
630.878521	38771.136144
631.224585	38660.954165
631.570597	38389.798062
631.916556	38568.479239
632.262462	38524.343937
632.608316	38553.484327
632.954117	38457.825912
633.299866	38470.766554
633.645562	38409.597193
633.991206	37938.645039
634.336797	37542.024699
634.682336	37547.769093
635.027823	37325.199631
635.373257	37146.717579
635.718639	36941.958512
636.063968	36818.886303
636.409245	36267.318537
636.754470	36341.294949
637.099642	36114.117872
637.444762	35649.767109
637.789829	35804.767466
638.134845	35464.764324
638.479808	35437.030416
638.824719	35341.031724
639.169577	34988.329915
639.514383	35051.674534
639.859137	34766.458652
640.203839	35006.321793
640.548489	34656.506046
640.893086	34741.026031
641.237632	34507.103890
641.582125	34621.568329
641.926566	34550.288934
642.270955	34534.709248
642.615292	34552.302875
642.959576	34541.653438
643.303809	34554.402516
643.647990	34702.294846
643.992118	34685.028894
644.336195	34692.767065
644.680219	34779.011125
645.024192	35084.978917
645.368112	35582.119865
645.711981	35625.594776
646.055797	36486.011353
646.399562	36416.604747
646.743274	37326.664086
647.086935	37780.448590
647.430544	37682.486368
647.774101	37804.247878
648.117606	38033.143989
648.461059	38344.120167
648.804460	37963.429872
649.147810	37374.028247
649.491108	37130.467419
649.834354	36789.206510
650.177548	35967.115305
650.520690	35532.477103
650.863781	35543.837343
651.206820	35400.532462
651.549807	34989.459134
651.892742	34500.744474
652.235626	34319.555323
652.578458	34203.069381
652.921238	33612.646922
653.263967	33944.551450
653.606644	33620.937099
653.949269	33586.145576
654.291843	33192.703683
654.634365	33587.554578
654.976836	33204.313460
655.319255	33208.248081
655.661622	33194.836091
656.003938	32971.049189
656.346203	32846.729294
656.688416	33080.086827
657.030577	32887.948289
657.372687	32721.194481
657.714746	32984.372959
658.056753	33120.985708
658.398708	32562.246901
658.740612	32636.679537
659.082465	32905.990578
659.424266	32736.060844
659.766016	32866.742675
660.107715	32758.824174
660.449362	32869.444734
660.790958	32858.661706
661.132503	32893.962385
661.473996	32907.513007
661.815438	33023.580533
662.156829	33221.586974
662.498168	32999.090608
662.839456	33028.851059
663.180693	33172.448327
663.521879	33344.913762
663.863013	33304.697957
664.204097	33293.753612
664.545129	33764.294912
664.886110	33720.807398
665.227040	33801.145746
665.567918	33914.216307
665.908746	33973.575893
666.249522	34138.134278
666.590248	34139.969258
666.930922	34257.186167
667.271545	34214.805187
667.612118	34303.126202
667.952639	34096.776652
668.293109	34146.326153
668.633528	34040.981161
668.973896	33968.824606
669.314213	34016.498797
669.654480	33746.058538
669.994695	33783.171512
670.334859	33680.127807
670.674973	33581.507714
671.015035	33734.836929
671.355047	33688.256668
671.695008	33643.818897
672.034918	33538.884759
672.374777	33617.582211
672.714585	33465.941783
673.054342	33696.582133
673.394049	33457.134887
673.733705	33745.405708
674.073310	33410.685696
674.412864	33464.036227
674.752368	33074.869232
675.091820	33380.443814
675.431223	32959.890595
675.770574	32681.755014
676.109875	32559.133988
676.449125	32281.782306
676.788324	32216.877451
677.127473	31678.131860
677.466571	31597.667482
677.805619	31261.500659
678.144616	31264.810176
678.483562	31190.894258
678.822458	30863.685565
679.161303	30774.865475
679.500098	30708.120598
679.838842	30595.733114
680.177535	30747.575189
680.516179	31018.254903
680.854771	31270.526845
681.193314	32123.666516
681.531805	33243.135386
681.870247	34027.601939
682.208638	34764.686687
682.546978	34983.908823
682.885268	35077.790232
683.223508	34536.521543
683.561697	34197.292218
683.899836	34031.743247
684.237925	33512.000285
684.575963	33365.310270
684.913951	32894.179155
685.251889	33058.619073
685.589776	33038.454457
685.927614	33051.279153
686.265401	33186.286294
686.603137	33291.729588
686.940824	33796.936383
687.278460	34176.981410
687.616046	34320.797967
687.953582	34926.840441
688.291068	34800.153725
688.628504	35048.070109
688.965889	34997.900546
689.303224	34615.221516
689.640510	34275.722490
689.977745	33540.785274
690.314930	32742.536206
690.652065	32207.213559
690.989150	31471.167288
691.326185	30566.242364
691.663170	29880.993281
692.000105	29114.992475
692.336990	28440.090359
692.673825	28011.680503
693.010610	27483.455800
693.347345	26917.243482
693.684030	26259.350220
694.020665	25999.249367
694.357251	25319.124616
694.693786	25286.127744
695.030272	25040.109354
695.366707	24511.188972
695.703093	24221.705753
696.039429	24209.516243
696.375716	23946.806593
696.711952	23914.888527
697.048139	23755.446913
697.384276	23585.169339
697.720363	23711.442681
698.056400	23507.427185
698.392388	23291.615389
698.728326	23247.278441
699.064214	23044.082132
699.400053	22989.955263
699.735842	22636.968630
700.071581	22349.978262
700.407270	22069.322104
700.742910	21879.555429
701.078501	21622.370883
701.414042	21331.047644
701.749533	21038.295237
702.084974	20683.982780
702.420366	20890.203781
702.755709	20453.135743
703.091002	20159.465846
703.426246	20191.688901
703.761440	20073.436035
704.096584	19821.461522
704.431679	19773.535272
704.766725	19682.066056
705.101721	19614.867475
705.436668	19719.824298
705.771565	19391.168794
706.106413	19736.192925
706.441212	19708.509429
706.775961	19847.584781
707.110661	19918.786038
707.445311	20274.378948
707.779913	20106.926941
708.114465	20361.396825
708.448967	20637.195831
708.783421	21329.946152
709.117825	21598.745516
709.452180	21823.364208
709.786485	22221.794323
710.120742	23024.474564
710.454949	23037.266492
710.789107	23512.226364
711.123216	24216.956986
711.457275	24329.596528
711.791286	24866.504618
712.125247	24935.850730
712.459159	24629.003257
712.793023	25282.563648
713.126837	24179.483569
713.460602	24422.242853
713.794318	24052.033117
714.127985	23666.614221
714.461602	22778.526751
714.795171	22726.277712
715.128691	21723.294783
715.462162	21173.786329
715.795584	20760.696539
716.128957	20499.872280
716.462281	20095.488562
716.795556	19858.385453
717.128782	19357.776191
717.461960	18824.192742
717.795088	18746.606863
718.128167	18346.470318
718.461198	17885.240029
718.794180	17739.628821
719.127113	17388.262918
719.459997	17187.148606
719.792833	16845.023139
720.125619	16817.488356
720.458357	16500.954306
720.791046	16328.698079
721.123686	16167.817216
721.456278	15940.307423
721.788821	15888.756583
722.121315	15637.752492
722.453761	15705.387133
722.786158	15636.661082
723.118506	15639.519417
723.450805	15508.162071
723.783056	15664.261400
724.115259	15569.896041
724.447412	15496.388456
724.779518	15744.014974
725.111574	15769.336690
725.443582	15961.397090
725.775542	15937.156701
726.107453	16405.343783
726.439315	16292.076617
726.771129	16689.392637
727.102895	17056.973411
727.434612	17263.874968
727.766281	17380.040796
728.097901	17648.046179
728.429473	17673.990477
728.760996	17657.503383
729.092471	17736.367194
729.423897	17623.442828
729.755276	17478.484449
730.086606	17610.406404
730.417887	18132.750601
730.749120	18633.667373
731.080305	18807.657757
731.411442	19134.470720
731.742530	19206.889415
732.073570	19319.488628
732.404562	19600.664024
732.735506	19402.637419
733.066401	19112.360219
733.397249	18603.460779
733.728048	17958.833313
734.058798	17130.249103
734.389501	16459.009386
734.720156	16004.942577
735.050762	15483.495705
735.381320	15125.475479
735.711831	14887.719541
736.042293	14544.472416
736.372707	14551.154466
736.703073	14343.816849
737.033391	14536.703998
737.363661	14498.416435
737.693883	14611.451707
738.024056	14774.243167
738.354182	14956.309480
738.684260	15237.963786
739.014290	15463.605832
739.344272	15654.821839
739.674207	15917.395378
740.004093	16037.710077
740.333931	16023.254568
740.663722	16067.198306
740.993464	16056.253961
741.323159	15884.453958
741.652806	15613.789367
741.982405	15392.921294
742.311956	15056.872937
742.641460	14930.246714
742.970915	14625.645076
743.300323	14299.905879
743.629683	14085.203136
743.958996	13804.662925
744.288260	13541.219787
744.617477	13246.355136
744.946647	13168.134073
745.275768	12891.289027
745.604842	12705.411602
745.933869	12541.621993
746.262847	12497.075837
746.591778	12421.982810
746.920662	12320.872387
747.249498	12320.532109
747.578286	12443.291767
747.907027	12577.749422
748.235720	12793.266311
748.564365	12838.445132
748.892963	12726.758368
749.221514	12784.247687
749.550017	12644.585040
749.878473	12601.354625
750.206881	12383.576779
750.535242	12294.308027
750.863555	12207.814430
751.191821	12113.585182
751.520039	12131.110753
751.848210	12045.635469
752.176334	12073.752505
752.504411	11976.818678
752.832440	11832.946668
753.160421	11879.179090
753.488356	11768.230855
753.816243	11671.360043
754.144082	11528.345029
754.471875	11470.442336
754.799620	11418.692371
755.127318	11390.729091
755.454969	11358.667352
755.782572	11312.321504
756.110129	11307.033334
756.437638	11234.957437
756.765100	11221.323636
757.092515	11228.691283
757.419882	11241.455484
757.747203	11247.779612
758.074477	11319.837865
758.401703	11281.872935
758.728882	11441.821185
759.056014	11478.349386
759.383099	11593.638054
759.710138	11697.289218
760.037129	11777.252000
760.364073	11798.780248
760.690970	11780.032197
761.017820	11772.084818
761.344623	11956.921244
761.671379	12282.743620
761.998088	12905.429463
762.324751	14451.962202
762.651366	17295.808157
762.977935	20934.754978
763.304456	23146.833451
763.630931	23622.191573
763.957359	22434.026900
764.283740	20536.629853
764.610074	18672.287653
764.936362	16552.023715
765.262602	15040.506831
765.588796	13582.625304
765.914943	12563.848441
766.241044	11722.691592
766.567097	11087.181053
766.893104	10549.509228
767.219064	10185.553044
767.544978	9815.466816
767.870845	9497.944700
768.196665	9308.888828
768.522438	9121.453687
768.848165	8953.520249
769.173846	8786.597563
769.499479	8663.820261
769.825066	8507.143720
770.150607	8327.161925
770.476101	8268.530785
770.801548	8152.163311
771.126949	8019.273454
771.452303	7930.919671
771.777611	7765.040504
772.102872	7742.682987
772.428087	7623.479863
772.753256	7499.646439
773.078378	7416.679129
773.403453	7282.198788
773.728482	7170.827097
774.053465	7104.074658
774.378401	7024.938625
774.703291	6926.174860
775.028135	6833.394944
775.352932	6799.294059
775.677683	6719.966462
776.002388	6633.367000
776.327046	6627.118490
776.651658	6546.112189
776.976224	6470.515046
777.300743	6453.770853
777.625216	6382.632611
777.949643	6341.234656
778.274024	6345.229770
778.598359	6279.029338
778.922647	6284.677951
779.246889	6247.202013
779.571086	6253.294247
779.895236	6259.013436
780.219339	6252.298619
780.543397	6252.381798
780.867409	6302.415250
781.191374	6298.999869
781.515294	6263.673983
781.839167	6314.987888
782.162995	6290.245905
782.486776	6245.750161
782.810511	6203.386824
783.134201	6124.437314
783.457844	6110.962310
783.781441	6066.156534
784.104993	6023.092478
784.428498	5994.640205
784.751958	5977.684284
785.075372	5948.995078
785.398739	5916.177166
785.722061	5937.498726
786.045337	5934.234579
786.368568	6041.754829
786.691752	6061.483385
787.014891	6311.549821
787.337983	6593.194045
787.661030	7026.420725
787.984031	7444.506298
788.306987	7707.712502
788.629897	7796.265411
788.952760	7709.648305
789.275579	7534.062396
789.598351	7234.799339
789.921078	6971.658670
790.243759	6692.872780
790.566395	6489.036245
790.888984	6302.032123
791.211529	6163.574312
791.534027	6000.573643
791.856480	5859.398650
792.178888	5801.498478
792.501249	5736.835598
792.823566	5635.276512
793.145836	5630.333661
793.468062	5609.077636
793.790241	5568.476182
794.112375	5612.482935
794.434464	5705.489703
794.756507	5738.229477
795.078505	5861.785637
795.400457	6069.670218
795.722364	6307.411034
796.044226	6506.448391
796.366042	6655.913561
796.687812	6608.405727
797.009538	6630.932123
797.331218	6542.825357
797.652852	6472.665098
797.974442	6351.647159
798.295986	6281.108814
798.617484	6148.014790
798.938938	6046.601898
799.260346	5983.179142
799.581709	5841.200085
799.903026	5790.705368
800.224299	5719.352876
800.545526	5601.886430
800.866708	5541.599271
801.187845	5487.527855
801.508936	5417.818779
801.829983	5386.132607
802.150984	5281.866422
802.471940	5252.920116
802.792851	5239.835802
803.113717	5210.687850
803.434538	5192.380900
803.755314	5154.063089
804.076045	5145.034383
804.396731	5114.784939
804.717372	5125.661229
805.037967	5129.953771
805.358518	5160.382176
805.679024	5218.002564
805.999485	5228.417588
806.319901	5242.031224
806.640272	5265.601139
806.960598	5307.384742
807.280879	5299.318896
807.601115	5337.145194
807.921306	5302.983815
808.241453	5297.216735
808.561554	5307.130164
808.881611	5275.020535
809.201623	5271.980719
809.521590	5219.179674
809.841513	5206.123085
810.161390	5219.588007
810.481223	5128.481754
810.801011	5117.020691
811.120755	5093.982618
811.440453	5040.596799
811.760107	5008.976161
812.079716	4986.318695
812.399281	4936.408752
812.718801	4931.198719
813.038276	4898.227052
813.357707	4862.059294
813.677093	4881.868508
813.996434	4819.552285
814.315731	4839.089277
814.634983	4837.758412
814.954191	4844.160677
815.273354	4901.075304
815.592473	4944.151964
815.911547	5017.349518
816.230577	5070.175769
816.549562	5156.387061
816.868502	5209.377150
817.187399	5260.585191
817.506250	5336.875492
817.825058	5363.878433
818.143821	5519.161095
818.462539	5683.535478
818.781213	5908.708697
819.099843	6266.698675
819.418429	6887.700774
819.736970	7498.839854
820.055466	8203.981331
820.373919	9101.538609
820.692327	10532.802844
821.010691	13194.476622
821.329011	19337.394806
821.647286	28800.762232
821.965517	39044.343998
822.283704	44452.203977
822.601847	45907.257418
822.919945	41368.953627
823.237999	36295.128062
823.556010	31137.894087
823.873976	26487.885888
824.191897	22327.925735
824.509775	19297.622623
824.827609	16566.038123
825.145398	15026.086611
825.463144	14281.704793
825.780845	14572.072734
826.098502	15822.820812
826.416116	18253.574455
826.733685	20505.417549
827.051210	21025.949451
827.368692	19614.070973
827.686129	17077.342193
828.003522	14625.849242
828.320872	12429.005137
828.638177	10804.959617
828.955439	9576.059900
829.272656	8531.807566
829.589830	7694.292951
829.906960	6979.928683
830.224046	6448.855728
830.541088	6042.939500
830.858086	5790.904493
831.175041	5587.715746
831.491952	5533.929155
831.808819	5565.993414
832.125642	5804.676925
832.442421	6349.383681
832.759157	7440.473375
833.075849	9189.005148
833.392497	11017.265290
833.709101	12117.383691
834.025662	11874.148018
834.342179	10826.941568
834.658653	9536.638077
834.975083	8443.763814
835.291469	7550.045375
835.607811	6824.525034
835.924110	6313.959493
836.240366	5832.178940
836.556578	5383.148244
836.872746	5042.235174
837.188871	4768.374491
837.504952	4546.367117
837.820990	4385.080441
838.136984	4274.994243
838.452935	4223.755956
838.768842	4252.208228
839.084706	4531.820867
839.400526	5261.873206
839.716303	6153.295399
840.032037	6715.472273
840.347727	6572.535397
840.663373	5974.629345
840.978977	5402.838991
841.294537	4972.382425
841.610054	4642.451509
841.925527	4407.702618
842.240957	4200.017162
842.556344	4021.925800
842.871687	3865.634907
843.186987	3717.636713
843.502244	3602.756378
843.817458	3513.661546
844.132629	3442.402315
844.447756	3398.589647
844.762840	3353.441073
845.077881	3317.288439
845.392879	3281.561781
845.707833	3258.387597
846.022745	3229.448853
846.337613	3218.411247
846.652438	3195.942824
846.967221	3188.943182
847.281960	3170.671520
847.596656	3162.323369
847.911309	3145.662356
848.225919	3135.380923
848.540485	3124.605456
848.855009	3117.961216
849.169490	3102.689040
849.483928	3098.812393
849.798323	3092.069849
850.112675	3082.219435
850.426984	3085.465938
850.741251	3075.809608
851.055474	3071.033114
851.369654	3075.552509
851.683792	3072.051428
851.997887	3073.563774
852.311938	3073.231057
852.625947	3074.133424
852.939914	3070.745769
853.253837	3070.728125
853.567718	3074.413208
853.881555	3065.888617
854.195350	3073.147878
854.509103	3068.772157
854.822812	3065.593709
855.136479	3061.580951
855.450103	3065.394584
855.763685	3059.637586
856.077224	3062.223698
856.390720	3067.963052
856.704173	3080.422263
857.017584	3086.459045
857.330953	3089.922318
857.644278	3099.409769
857.957561	3101.892538
858.270802	3099.051848
858.584000	3101.471601
858.897155	3091.860642
859.210268	3081.196081
859.523339	3071.247363
859.836367	3064.784604
860.149352	3062.599264
860.462295	3056.872513
860.775195	3046.865823
861.088054	3045.290462
861.400869	3044.655277
861.713642	3041.859957
862.026373	3053.137018
862.339062	3055.503840
862.651708	3064.343503
862.964312	3079.557706
863.276873	3089.327462
863.589392	3120.696042
863.901869	3144.931389
864.214303	3165.022907
864.526696	3181.938499
864.839045	3196.245294
865.151353	3214.975701
865.463619	3212.833210
865.775842	3216.508212
866.088023	3217.012327
866.400162	3211.030998
866.712258	3213.851523
867.024313	3211.038560
867.336325	3209.992520
867.648296	3216.288921
867.960224	3209.271635
868.272110	3215.487378
868.583954	3213.544013
868.895755	3220.790672
869.207515	3217.602142
869.519233	3234.772312
869.830909	3241.461923
870.142542	3254.117740
870.454134	3255.735950
870.765684	3270.166253
871.077191	3291.271044
871.388657	3300.980306
871.700081	3317.926145
872.011463	3336.643949
872.322803	3357.657999
872.634101	3372.146275
872.945357	3396.905902
873.256571	3423.883637
873.567744	3438.369392
873.878874	3443.571863
874.189963	3461.936787
874.501010	3458.153401
874.812015	3457.397228
875.122979	3473.158395
875.433900	3471.487252
875.744780	3473.798622
876.055618	3479.795074
876.366415	3479.641319
876.677169	3483.051659
876.987882	3497.207219
877.298554	3520.578009
877.609183	3555.888771
877.919771	3606.219651
878.230317	3666.375740
878.540822	3770.460443
878.851285	3917.568874
879.161707	4137.406032
879.472087	4502.715766
879.782425	5117.915496
880.092722	6282.023783
880.402977	8181.291098
880.713191	10524.391679
881.023363	12874.297818
881.333494	14200.015415
881.643583	14649.278005
881.953631	14240.362290
882.263637	13412.403182
882.573602	12385.603323
882.883526	11443.804879
883.193408	10506.331745
883.503248	9600.088559
883.813048	8787.855331
884.122806	8037.214921
884.432522	7275.385669
884.742197	6629.165199
885.051831	6072.677267
885.361424	5584.544860
885.670975	5198.435326
885.980485	4879.050503
886.289954	4616.005616
886.599382	4407.216147
886.908768	4229.830546
887.218113	4070.610743
887.527417	3941.012760
887.836680	3819.064728
888.145901	3720.805078
888.455082	3646.868995
888.764221	3578.863829
889.073319	3519.413502
889.382376	3486.557782
889.691392	3466.304946
890.000366	3457.210705
890.309300	3451.229376
890.618193	3452.623255
890.927044	3450.069910
891.235855	3457.576188
891.544625	3467.973568
891.853353	3497.174452
892.162041	3555.039336
892.470687	3645.036535
892.779293	3765.255452
893.087858	3932.586471
893.396381	4207.266342
893.704864	4611.022435
894.013306	5168.702600
894.321707	5732.167489
894.630068	6084.347538
894.938387	6122.466223
895.246665	5947.742351
895.554903	5635.420185
895.863100	5299.883506
896.171256	5036.014390
896.479371	4802.087207
896.787446	4578.547322
897.095480	4387.200246
897.403473	4240.931167
897.711425	4099.463787
898.019336	3978.902072
898.327207	3857.712734
898.635038	3756.929986
898.942827	3654.334944
899.250576	3569.693971
899.558284	3487.704644
899.865952	3432.572065
900.173579	3372.582335
900.481165	3326.705314
900.788711	3286.605456
901.096216	3252.030702
901.403681	3225.216805
901.711105	3217.655074
902.018489	3211.305741
902.325832	3243.667428
902.633135	3300.919812
902.940397	3468.081953
903.247619	3862.950493
903.554800	4601.865179
903.861941	5546.138830
904.169041	6239.481486
904.476101	6448.596109
904.783121	6179.335479
905.090100	5778.709942
905.397039	5377.441657
905.703938	5022.383110
906.010796	4707.673957
906.317614	4458.363694
906.624391	4224.605390
906.931129	4034.004404
907.237826	3854.950182
907.544483	3687.241075
907.851099	3520.285622
908.157675	3364.944987
908.464211	3225.751167
908.770707	3126.178296
909.077163	3048.602500
909.383578	2987.317193
909.689954	2945.969649
909.996289	2917.691297
910.302584	2898.300498
910.608839	2883.749208
910.915054	2873.140100
911.221229	2870.185983
911.527363	2872.114225
911.833458	2880.001110
912.139513	2892.457801
912.445527	2905.108577
912.751502	2935.542023
913.057436	2976.413177
913.363331	3033.423586
913.669186	3124.446660
913.975000	3235.667117
914.280775	3417.183943
914.586510	3678.146834
914.892205	4044.477402
915.197859	4535.311866
915.503475	5105.811685
915.809050	5597.873671
916.114585	5875.341299
916.420081	5943.467453
916.725536	5879.525457
917.030952	5646.102390
917.336328	5440.077994
917.641665	5231.671653
917.946961	5006.017004
918.252218	4816.489784
918.557435	4591.795475
918.862612	4394.429260
919.167750	4230.042275
919.472848	4044.600910
919.777906	3878.835168
920.082925	3721.442784
920.387904	3573.187490
920.692843	3462.544246
920.997743	3368.572097
921.302603	3273.876542
921.607423	3211.731718
921.912204	3149.375166
922.216946	3098.777105
922.521647	3053.346226
922.826310	3010.632530
923.130932	2972.871767
923.435516	2936.343566
923.740059	2910.553023
924.044564	2879.088661
924.349028	2853.792151
924.653454	2829.166115
924.957840	2801.654017
925.262186	2781.237344
925.566493	2759.956113
925.870761	2735.849316
926.174989	2723.894219
926.479178	2713.900132
926.783328	2696.666947
927.087438	2684.958868
927.391509	2670.836075
927.695541	2659.455670
927.999533	2653.796975
928.303486	2643.127373
928.607400	2636.394912
928.911275	2631.588172
929.215110	2627.346041
929.518906	2620.875720
929.822663	2620.505195
930.126381	2623.000566
930.430060	2624.391925
930.733699	2630.239663
931.037299	2630.194293
931.340861	2629.846453
931.644383	2633.128244
931.947866	2631.504993
932.251309	2628.190434
932.554714	2627.537605
932.858080	2626.768829
933.161407	2624.026441
933.464694	2618.997890
933.767943	2616.870523
934.071153	2614.400358
934.374323	2610.629575
934.677455	2605.588421
934.980548	2602.639346
935.283602	2599.629777
935.586617	2598.722369
935.889593	2600.426279
936.192530	2601.167329
936.495428	2609.318875
936.798287	2616.545369
937.101108	2628.934004
937.403890	2653.955772
937.706632	2681.465348
938.009336	2709.796633
938.312002	2738.269070
938.614628	2763.636156
938.917216	2780.309772
939.219765	2787.707665
939.522275	2798.830971
939.824747	2800.073616
940.127179	2791.609518
940.429573	2787.448046
940.731929	2786.419651
941.034246	2777.625358
941.336524	2776.450769
941.638763	2769.236878
941.940964	2763.132040
942.243126	2747.070924
942.545250	2738.899214
942.847335	2723.236349
943.149381	2710.653629
943.451389	2697.861701
943.753359	2684.938703
944.055290	2673.764986
944.357182	2668.146620
944.659036	2662.311484
944.960851	2657.449291
945.262628	2654.081800
945.564367	2652.551810
945.866067	2654.711945
946.167729	2654.956441
946.469352	2653.620535
946.770937	2651.818322
947.072484	2642.794657
947.373992	2642.096457
947.675462	2638.902886
947.976893	2636.178142
948.278286	2629.574231
948.579641	2630.015332
948.880958	2625.014507
949.182236	2622.851852
949.483476	2622.090638
949.784678	2620.366563
950.085841	2620.994187
950.386967	2627.439302
950.688054	2627.870321
950.989103	2637.796353
951.290114	2646.154586
951.591087	2660.557162
951.892021	2670.228616
952.192917	2681.409895
952.493776	2689.969775
952.794596	2691.943386
953.095378	2698.282637
953.396122	2695.646114
953.696828	2690.955320
953.997496	2685.301666
954.298126	2677.422343
954.598718	2672.787002
954.899272	2660.917605
955.199788	2652.766059
955.500266	2637.125879
955.800706	2622.546862
956.101108	2605.454830
956.401472	2594.565938
956.701798	2579.248392
957.002087	2567.121897
957.302337	2560.268448
957.602550	2546.337219
957.902724	2538.430169
958.202861	2528.204189
958.502960	2521.007942
958.803022	2513.703310
959.103045	2503.651249
959.403031	2500.016577
959.702979	2498.048007
960.002889	2491.565083
960.302762	2484.668784
960.602596	2481.114771
960.902393	2480.484627
961.202153	2476.164358
961.501875	2474.440283
961.801559	2471.682772
962.101205	2470.306537
962.400814	2465.177163
962.700385	2461.887810
962.999918	2462.908644
963.299414	2462.563325
963.598873	2459.226081
963.898293	2459.571400
964.197677	2458.709362
964.497022	2458.674074
964.796331	2452.407920
965.095601	2454.197530
965.394835	2453.453960
965.694030	2451.646706
965.993189	2455.944290
966.292309	2450.850204
966.591393	2454.696604
966.890439	2453.844649
967.189447	2452.954885
967.488419	2452.874227
967.787353	2453.277519
968.086249	2452.400358
968.385108	2453.695935
968.683930	2453.655606
968.982714	2455.513271
969.281462	2457.325566
969.580172	2458.285906
969.878844	2461.265228
970.177480	2460.985443
970.476078	2465.280507
970.774639	2468.413584
971.073162	2471.014819
971.371649	2467.664972
971.670098	2472.650673
971.968510	2475.047742
972.266885	2474.566312
972.565223	2475.133442
972.863524	2480.477065
973.161788	2480.303145
973.460014	2479.211735
973.758204	2479.841879
974.056356	2482.659884
974.354471	2483.284988
974.652550	2482.470841
974.950591	2481.659215
975.248595	2482.465800
975.546563	2479.141159
975.844493	2480.600573
976.142386	2477.512866
976.440243	2478.639564
976.738062	2475.382979
977.035845	2470.682103
977.333590	2469.217648
977.631299	2467.738069
977.928971	2465.976186
978.226606	2463.382512
978.524204	2465.401494
978.821765	2462.593572
979.119290	2461.910495
979.416777	2459.034517
979.714228	2461.232460
980.011642	2462.346555
980.309020	2468.305199
980.606360	2468.907617
980.903664	2477.485140
981.200931	2490.559373
981.498162	2508.455469
981.795356	2537.351362
982.092513	2573.078020
982.389633	2617.876233
982.686717	2662.306443
982.983764	2689.831143
983.280775	2707.744883
983.577749	2708.299410
983.874686	2699.996630
984.171587	2683.736388
984.468451	2670.140396
984.765279	2651.921666
985.062070	2634.857360
985.358824	2615.668208
985.655543	2593.819847
985.952224	2570.585169
986.248869	2543.942671
986.545478	2519.394773
986.842050	2497.780825
987.138586	2484.298259
987.435086	2471.218986
987.731549	2460.695577
988.027975	2454.568055
988.324366	2444.639502
988.620719	2445.776282
988.917037	2438.338060
989.213318	2436.142637
989.509563	2436.949222
989.805772	2434.075764
990.101944	2433.851433
990.398080	2430.645259
990.694180	2431.058634
990.990244	2433.896803
991.286271	2429.561411
991.582262	2431.499735
991.878217	2430.690629
992.174136	2433.922009
992.470019	2436.024170
992.765865	2436.218255
993.061676	2437.062648
993.357450	2440.266301
993.653188	2445.375511
993.948890	2447.149997
994.244556	2452.039916
994.540186	2462.308746
994.835780	2473.943729
995.131337	2486.486120
995.426859	2502.955570
995.722345	2524.173786
996.017795	2539.808925
996.313208	2552.852911
996.608586	2563.247770
996.903928	2567.361351
997.199234	2563.212482
997.494504	2562.746175
997.789738	2554.322407
998.084936	2546.128011
998.380099	2529.857687
998.675225	2520.289577
998.970316	2511.177692
999.265371	2497.349807
999.560390	2487.663230
999.855373	2474.906590
1000.150320	2465.635908
1000.445232	2455.077211
1000.740108	2450.088989
1001.034948	2439.610951
1001.329752	2439.036260
1001.624521	2434.786567
1001.919254	2427.890268
1002.213951	2427.386153
1002.508613	2421.672005
1002.803239	2424.986564
1003.097829	2416.164545
1003.392384	2424.973961
1003.686903	2420.454567
1003.981386	2419.816861
1004.275834	2419.680749
1004.570246	2417.928948
1004.864623	2416.522467
1005.158964	2415.115985
1005.453270	2414.616910
1005.747540	2416.020872
1006.041775	2414.788310
1006.335974	2414.213618
1006.630138	2412.902918
1006.924266	2415.665470
1007.218359	2410.397465
1007.512416	2412.154307
1007.806438	2410.024419
1008.100425	2411.856879
1008.394376	2412.222362
1008.688292	2411.269584
1008.982172	2412.522311
1009.276017	2409.515263
1009.569827	2413.089441
1009.863602	2409.207752
1010.157341	2409.263205
1010.451045	2410.682290
1010.744714	2410.180695
1011.038347	2409.883267
1011.331945	2407.118194
1011.625508	2409.784964
1011.919036	2409.162382
1012.212528	2409.588359
1012.505986	2406.898904
1012.799408	2408.844789
1013.092795	2407.284552
1013.386147	2405.366393
1013.679464	2407.337484
1013.972745	2410.415109
1014.265992	2405.260529
1014.559204	2406.024264
1014.852380	2406.820766
1015.145521	2409.772362
1015.438628	2407.140879
1015.731699	2407.065262
1016.024736	2406.611558
1016.317737	2409.159861
1016.610703	2410.861251
1016.903635	2402.031670
1017.196531	2404.801784
1017.489393	2406.727505
1017.782219	2406.329253
1018.075011	2409.376631
1018.367768	2407.952505
1018.660490	2409.606003
1018.953177	2409.606003
1019.245829	2409.606003
