Dividing Wavelength (nm)	Counts (n)	Blue Motor Position (mm): 48.200000	Red Motor Position (mm): 0.000000	
326.493990	1974.690538
326.888308	1974.690538
327.282561	1974.690538
327.676750	1952.927877
328.070874	1953.754626
328.464933	1959.786366
328.858929	1967.892542
329.252859	1980.029120
329.646726	1996.039824
330.040528	2010.021464
330.434265	2029.669362
330.827938	2048.442618
331.221547	2070.792574
331.615091	2087.892168
332.008571	2109.276743
332.401986	2130.968828
332.795338	2151.967754
333.188625	2171.035918
333.581847	2187.301201
333.975006	2206.502956
334.368100	2224.162118
334.761129	2242.403533
335.154095	2257.819382
335.546996	2300.664148
335.939833	2385.983157
336.332606	2399.826165
336.725315	2412.083731
337.117960	2421.780390
337.510540	2426.440937
337.903056	2438.733790
338.295508	2442.683534
338.687896	2453.675770
339.080220	2460.476287
339.472480	2459.584003
339.864676	2469.348718
340.256807	2469.568008
340.648875	2473.555561
341.040879	2475.201497
341.432818	2473.303503
341.824694	2476.905407
342.216506	2472.607824
342.608253	2476.774337
342.999937	2471.161013
343.391557	2472.023050
343.783113	2473.747124
344.174605	2470.218317
344.566033	2470.026753
344.957397	2465.797225
345.348697	2467.806125
345.739934	2464.156329
346.131106	2462.520475
346.522215	2461.270269
346.913260	2458.517799
347.304241	2460.569548
347.695159	2455.530915
348.086012	2454.283229
348.476802	2453.937910
348.867528	2454.217694
349.258191	2451.324072
349.648789	2451.664350
350.039324	2449.214349
350.429796	2449.287446
350.820203	2448.622014
351.210548	2445.854420
351.600828	2448.274174
351.991045	2444.934410
352.381198	2442.885181
352.771288	2446.981118
353.161314	2444.445418
353.551276	2445.181426
353.941175	2445.209153
354.331010	2445.027671
354.720782	2449.869699
355.110490	2447.472631
355.500135	2446.166972
355.889717	2444.677311
356.279235	2450.230142
356.668689	2448.533793
357.058080	2448.465738
357.447408	2446.812239
357.836672	2446.345933
358.225873	2446.043463
358.615010	2447.583536
359.004084	2453.277519
359.393095	2453.955554
359.782043	2453.164093
360.170927	2456.957562
360.559748	2453.612756
360.948505	2456.508899
361.337199	2457.318004
361.725830	2459.392439
362.114398	2459.873869
362.502903	2463.130454
362.891344	2462.399487
363.279722	2461.635752
363.668037	2459.619291
364.056289	2462.739765
364.444478	2461.691205
364.832603	2465.971145
365.220665	2467.511217
365.608665	2466.588686
365.996601	2466.868470
366.384474	2468.582462
366.772284	2469.557926
367.160031	2471.854171
367.547715	2472.075982
367.935336	2469.714201
368.322893	2472.534727
368.710388	2476.174440
369.097820	2477.122177
369.485189	2477.195274
369.872495	2478.299286
370.259738	2479.625110
370.646918	2481.278608
371.034035	2482.521253
371.421090	2480.482106
371.808081	2479.826756
372.195010	2484.051243
372.581875	2485.135091
372.968678	2489.780514
373.355418	2489.972078
373.742096	2491.008035
374.128710	2495.716473
374.515262	2499.157060
374.901751	2503.973883
375.288177	2511.190295
375.674540	2515.374452
376.060841	2527.911802
376.447079	2538.296579
376.833254	2550.995245
377.219367	2557.296688
377.605417	2576.828638
377.991404	2593.474528
378.377329	2613.437497
378.763191	2633.914664
379.148991	2666.362051
379.534727	2697.372709
379.920402	2725.469580
380.306013	2761.145826
380.691563	2798.825930
381.077049	2838.512414
381.462474	2880.023795
381.847835	2932.058585
382.233134	2988.441370
382.618371	3036.899462
383.003545	3101.020418
383.388657	3164.896878
383.773706	3237.960842
384.158693	3296.092907
384.543618	3379.067779
384.928480	3445.457255
385.313280	3533.052344
385.698017	3621.171713
386.082692	3723.978484
386.467305	3794.443732
386.851856	3901.054054
387.236344	4031.531718
387.620770	4103.113583
388.005133	4216.647929
388.389435	4351.234134
388.773674	4437.188327
389.157851	4563.408737
389.541965	4691.534703
389.926018	4731.417792
390.310008	4906.933125
390.693936	5027.643554
391.077802	5153.359848
391.461606	5283.797184
391.845348	5401.858486
392.229027	5529.213156
392.612645	5742.857256
392.996200	5871.343664
393.379694	6049.442589
393.763125	6276.886847
394.146494	6384.901130
394.529801	6531.139962
394.913047	6778.983250
395.296230	6807.581716
395.679351	6880.870010
396.062410	7138.843497
396.445408	7073.966367
396.828343	7250.709221
397.211217	7400.935606
397.594028	7313.862276
397.976778	7525.774739
398.359466	7714.142494
398.742092	7708.811474
399.124656	7868.394240
399.507158	8071.222544
399.889598	8109.742001
400.271977	8330.597472
400.654294	8381.961788
401.036549	8586.725896
401.418742	8629.444633
401.800874	8943.221172
402.182944	9030.556642
402.564952	9399.846367
402.946898	9247.144776
403.328783	9308.528386
403.710606	9507.006174
404.092367	9777.539695
404.474067	10135.877514
404.855705	9941.568759
405.237282	9899.248273
405.618797	10329.795579
406.000250	10574.881355
406.381642	10946.406832
406.762972	10889.673687
407.144240	10705.883300
407.525447	10961.976436
407.906593	10896.423792
408.287677	11153.368882
408.668700	11306.501492
409.049661	11286.788060
409.430560	11444.785383
409.811399	11420.539954
410.192176	11580.299161
410.572891	11660.735811
410.953545	12142.292033
411.334138	11621.848351
411.714669	12204.842669
412.095139	11536.685618
412.475547	12029.518900
412.855894	11880.638504
413.236180	12195.382944
413.616405	11896.629044
413.996568	12162.565033
414.376670	12133.187709
414.756711	12015.711180
415.136691	12285.818724
415.516609	12468.142135
415.896466	12535.814584
416.276262	12819.392091
416.655997	13260.072116
417.035670	13295.163588
417.415283	13941.792392
417.794834	14032.518037
418.174324	13774.794088
418.553753	13682.876210
418.933121	14165.836392
419.312428	13980.894102
419.691674	13890.244073
420.070859	14335.630015
420.449983	13997.149302
420.829045	14535.458833
421.208047	14294.259786
421.586988	14733.568618
421.965867	14982.798223
422.344686	14987.345343
422.723444	15547.541044
423.102141	14238.965890
423.480777	15426.598722
423.859352	14924.472073
424.237866	16030.861669
424.616319	15734.330917
424.994712	16381.113477
425.373044	16168.417113
425.751314	16842.275710
426.129524	15969.120137
426.507673	17049.852781
426.885762	16751.171978
427.263789	16937.621573
427.641756	17112.264786
428.019662	17170.906008
428.397508	17209.654837
428.775292	17493.774268
429.153016	17463.905432
429.530679	17541.312349
429.908282	17570.767811
430.285824	17289.693237
430.663305	17994.733891
431.040726	17591.970904
431.418086	17428.856810
431.795385	18064.674859
432.172624	18478.714907
432.549802	18038.380201
432.926920	18230.687617
433.303977	18106.216487
433.680974	18369.261374
434.057910	18639.782293
434.434786	18673.351336
434.811601	18588.251618
435.188355	19615.815212
435.565050	19262.621892
435.941683	19217.218739
436.318257	20084.035061
436.694770	19891.745289
437.071222	20491.428347
437.447614	19577.136959
437.823946	19600.782492
438.200218	19755.908878
438.576429	19522.311891
438.952580	19790.415576
439.328670	19761.675958
439.704700	20167.153606
440.080670	19735.285517
440.456580	20331.714511
440.832429	20489.943728
441.208218	19515.629841
441.583947	19945.796540
441.959616	20051.849814
442.335224	20286.071904
442.710773	20415.725340
443.086261	20945.134714
443.461689	20310.597118
443.837057	20441.747776
444.212365	21066.092159
444.587612	21066.646686
444.962800	20652.299128
445.337927	21078.019529
445.712995	19822.931018
446.088002	21645.124131
446.462949	21841.318277
446.837837	22009.216427
447.212664	21955.989404
447.587431	24722.524223
447.962139	27609.943391
448.336786	30003.450470
448.711374	28507.276337
449.085901	24847.998542
449.460369	24786.877073
449.834776	24692.088257
450.209124	27122.524308
450.583412	26686.615735
450.957640	27227.561789
451.331808	25893.753140
451.705917	24559.160592
452.079965	24565.588063
452.453954	24924.225830
452.827883	24813.403624
453.201752	24616.823830
453.575562	24774.049857
453.949311	25876.835028
454.323001	25930.062051
454.696632	25683.935276
455.070202	27215.669707
455.443713	27368.628398
455.817164	27940.101159
456.190556	28480.200300
456.563888	27932.483976
456.937160	28365.715696
457.310373	26728.754740
457.683526	27157.454463
458.056619	27130.660730
458.429653	27070.484477
458.802628	27629.248490
459.175542	27747.806346
459.548398	29031.742860
459.921194	30578.860372
460.293930	31245.033730
460.666607	33265.326545
461.039224	35016.023494
461.411782	35411.038227
461.784280	34226.596446
462.156719	33736.752568
462.529099	33182.092054
462.901419	31893.331156
463.273680	30838.068942
463.645882	30924.088670
464.018024	30908.183830
464.390106	31712.797354
464.762130	34361.258268
465.134094	38347.517904
465.505999	43617.693890
465.877845	48206.111792
466.249631	49412.444784
466.621358	47697.834935
466.993026	45592.999449
467.364634	43514.400648
467.736184	41556.945815
468.107674	40317.593266
468.479105	39534.223164
468.850477	38851.227476
469.221790	37425.581607
469.593043	35718.001647
469.964238	34837.203685
470.335373	34744.814458
470.706449	36397.891983
471.077467	38897.389322
471.448425	43434.450468
471.819324	46309.813717
472.190164	44537.384354
472.560945	41009.920129
472.931667	37912.143693
473.302330	36817.111817
473.672934	36005.685173
474.043479	36477.799313
474.413965	35712.952931
474.784393	35333.984191
475.154761	36220.604685
475.525070	36241.651502
475.895321	35779.334845
476.265513	36378.044961
476.635645	37336.897628
477.005719	37169.818666
477.375734	37621.069991
477.745691	38306.939136
478.115588	39623.383531
478.485427	41550.281410
478.855207	44875.181991
479.224928	47463.048235
479.594591	49138.352208
479.964194	48155.889297
480.333739	48284.849574
480.703226	48305.573757
481.072653	48927.715156
481.442022	49439.757755
481.811333	49717.016176
482.180584	48418.977033
482.549777	47908.338396
482.918912	47375.228815
483.287988	47071.592557
483.657005	46260.952333
484.025964	45621.247554
484.394864	45626.994470
484.763706	45209.627260
485.132489	44344.789592
485.501213	44165.137992
485.869879	44318.656250
486.238487	43909.548972
486.607036	44115.495230
486.975527	43588.984519
487.343959	43776.855720
487.712333	43868.272004
488.080648	43778.126091
488.448905	44218.942227
488.817104	44032.779977
489.185244	44978.414739
489.553326	46622.894577
489.921350	49306.462086
490.289315	52231.727716
490.657222	52874.941138
491.025070	53156.164426
491.392861	52258.234103
491.760593	51021.691997
492.128267	49327.259366
492.495883	47813.030341
492.863440	46426.972653
493.230939	45071.028297
493.598380	44001.567673
493.965763	43659.303574
494.333088	42847.153525
494.700354	42379.737740
495.067563	42088.240581
495.434713	41949.891155
495.801805	42009.951462
496.168839	41659.003975
496.535815	41327.895949
496.902733	41352.816893
497.269593	40946.283123
497.636395	40885.096119
498.003139	41281.197220
498.369825	40750.046128
498.736453	41045.278782
499.103023	40593.427560
499.469535	40455.037805
499.835989	40538.312625
500.202385	40218.801774
500.568723	40234.205019
500.935003	40427.361870
501.301226	40223.260674
501.667390	40838.828409
502.033497	41097.053953
502.399546	40518.435355
502.765537	39847.311585
503.131470	40237.282644
503.497345	40578.195714
503.863163	39254.807129
504.228923	39874.375019
504.594625	40266.360019
504.960269	39568.238349
505.325856	40240.342624
505.691385	39620.570567
506.056856	39751.922872
506.422270	40195.725892
506.787625	39772.188310
507.152924	39955.973656
507.518164	40071.088404
507.883347	39274.623905
508.248472	39550.077593
508.613540	39999.312456
508.978550	40297.562241
509.343503	40066.891644
509.708398	40250.974418
510.073236	40772.932966
510.438016	40781.381940
510.802738	40241.728941
511.167403	40852.101767
511.532010	41088.899886
511.896561	41394.978583
512.261053	42227.976324
512.625488	41772.301387
512.989866	41661.373317
513.354186	41497.472803
513.718449	41488.481905
514.082655	42175.543283
514.446803	41845.955165
514.810894	42350.919984
515.174927	42284.225519
515.538904	42194.644215
515.902822	42839.324613
516.266684	42317.711383
516.630488	42716.726272
516.994235	42581.267948
517.357925	43149.519412
517.721558	43314.135770
518.085133	43619.390238
518.448651	43764.512455
518.812112	43522.595043
519.175516	43624.847288
519.538863	43978.186802
519.902152	43944.640443
520.265385	44405.999282
520.628560	44444.080158
520.991678	44235.973765
521.354739	44467.816431
521.717743	44784.060614
522.080690	44681.644533
522.443580	45237.613226
522.806413	45282.348425
523.169189	45217.012551
523.531908	45412.687458
523.894569	45270.083298
524.257174	45445.061748
524.619722	45745.012922
524.982213	45721.889150
525.344647	45649.399878
525.707025	45683.720053
526.069345	46085.777278
526.431608	46012.635177
526.793815	46321.163875
527.155964	45864.500871
527.518057	46032.767025
527.880093	45816.506566
528.242072	46333.134095
528.603995	46043.529888
528.965860	46050.920220
529.327669	46135.553631
529.689421	46032.716613
530.051117	45985.150806
530.412755	46136.778632
530.774337	46202.427058
531.135862	46013.925712
531.497331	46210.588686
531.858743	46123.008720
532.220098	46469.015876
532.581396	46165.835842
532.942638	45832.792014
533.303824	46113.969931
533.664953	46094.246417
534.026025	45823.133163
534.387040	46296.570606
534.747999	46250.343225
535.108902	46410.672082
535.469748	45931.447394
535.830537	46037.014197
536.191270	46244.563542
536.551947	45907.711122
536.912567	46198.777262
537.273131	46324.642271
537.633638	45808.949877
537.994089	46151.045097
538.354483	45742.013436
538.714821	46321.670511
539.075103	46655.697365
539.435328	46426.246727
539.795497	46311.588203
540.155609	46316.957032
540.515665	46764.467821
540.875665	46216.353245
541.235609	46538.830816
541.595496	46515.064296
541.955328	47168.871703
542.315102	46573.491269
542.674821	46347.876949
543.034483	46366.120885
543.394090	46346.092381
543.753640	46307.119220
544.113134	47301.285170
544.472571	46329.491861
544.831953	47574.601408
545.191278	46796.199363
545.550548	46513.556991
545.909761	46954.166440
546.268918	47154.582552
546.628019	47467.817167
546.987064	47013.344545
547.346053	46321.158834
547.704986	47191.304837
548.063863	46742.248935
548.422684	46941.692105
548.781449	46793.681307
549.140158	47181.038527
549.498811	47033.297432
549.857408	46481.805283
550.215949	47325.452462
550.574434	47236.390397
550.932864	47009.775408
551.291237	47729.279132
551.649555	47329.835745
552.007817	47573.696521
552.366022	47222.378510
552.724173	47400.850479
553.082267	47804.941810
553.440305	48101.538096
553.798288	47415.585772
554.156215	47720.779746
554.514086	47942.189744
554.871902	47674.428857
555.229661	47687.722380
555.587365	47504.809154
555.945014	47593.304089
556.302606	47527.426291
556.660143	47768.932848
557.017625	47856.805201
557.375050	47641.023651
557.732421	47970.510946
558.089735	47961.925861
558.446994	47892.126045
558.804197	48360.751707
559.161345	48290.745203
559.518437	47548.019404
559.875474	47846.974951
560.232455	48016.025004
560.589381	48188.026652
560.946251	47889.915499
561.303065	48556.441737
561.659825	48363.312613
562.016528	48059.527641
562.373177	47760.630068
562.729770	48260.957025
563.086307	47753.738810
563.442789	48219.392712
563.799216	48272.166031
564.155587	48051.328204
564.511904	48085.078729
564.868164	48156.186725
565.224370	48412.388245
565.580520	48147.846136
565.936615	48359.942601
566.292654	48087.296837
566.648638	48308.212801
567.004567	48287.448288
567.360441	48313.528698
567.716260	48172.789765
568.072023	48455.159915
568.427732	48431.940361
568.783385	47994.148917
569.138982	48389.733300
569.494525	48364.235144
569.850013	48108.525136
570.205445	48088.756251
570.560823	48044.126916
570.916145	47919.340714
571.271412	47939.449877
571.626625	47691.420066
571.981782	47760.627547
572.336884	47446.495607
572.691931	47765.898073
573.046923	47360.680045
573.401860	47215.779639
573.756743	47188.267542
574.111570	47321.469950
574.466342	47168.425561
574.821059	47299.455231
575.175722	46816.253073
575.530330	46816.568146
575.884882	46557.896459
576.239380	46520.115532
576.593823	46490.692838
576.948211	46407.705363
577.302544	45928.281550
577.656823	45962.596684
578.011047	46178.355548
578.365216	45913.821000
578.719330	45699.481221
579.073389	45555.750363
579.427394	45636.938146
579.781344	45592.560868
580.135239	45248.393733
580.489080	45339.568042
580.842866	44821.697869
581.196597	45280.029494
581.550273	45213.277056
581.903895	45092.480927
582.257463	45511.675555
582.610975	44880.455038
582.964434	45169.648390
583.317837	44822.023023
583.671186	44649.398792
584.024481	44870.594541
584.377721	44411.310137
584.730906	44695.182552
585.084037	44711.604110
585.437113	44418.927321
585.790135	44477.346732
586.143103	44073.565432
586.496016	44201.731728
586.848874	44219.728647
587.201679	44239.938633
587.554428	43708.732088
587.907124	43903.779371
588.259765	43653.833922
588.612352	43908.409671
588.964884	43307.496571
589.317362	43596.584058
589.669786	43521.438099
590.022155	43300.552381
590.374470	43738.003547
590.726731	43245.197991
591.078937	42761.983231
591.431090	42871.585477
591.783188	42510.490148
592.135232	42193.197404
592.487222	42447.755508
592.839157	42527.609906
593.191038	42195.118083
593.542866	41963.968577
593.894639	41381.082643
594.246358	41638.592343
594.598022	41619.463685
594.949633	41237.656775
595.301190	41196.773017
595.652692	41023.039732
596.004141	41348.909999
596.355535	40375.430424
596.706876	40316.058234
597.058162	40140.971399
597.409395	40626.736984
597.760573	40711.665303
598.111698	40262.299370
598.462768	40288.029419
598.813785	40331.779073
599.164748	39781.035535
599.515657	40168.039875
599.866511	39633.801076
600.217312	40251.344942
600.568060	39232.825178
600.918753	39981.461730
601.269392	39928.940469
601.619978	39573.897044
601.970510	39792.602463
602.320988	39964.641920
602.671412	40279.792173
603.021783	40022.100992
603.372100	39667.493627
603.722363	39764.308987
604.072572	39840.306902
604.422728	39856.935148
604.772830	39670.742651
605.122878	39762.882340
605.472872	39694.854490
605.822813	39979.089867
606.172701	39805.069236
606.522534	40037.398373
606.872314	40312.070682
607.222041	40061.681611
607.571714	40448.615375
607.921333	39898.564996
608.270899	40183.642246
608.620411	40530.576974
608.969870	40335.963230
609.319276	40324.655922
609.668627	40370.444723
610.017926	40843.373009
610.367171	41004.339572
610.716362	41105.422268
611.065500	41039.733513
611.414585	41225.058931
611.763616	41505.210974
612.112594	41422.606627
612.461518	41679.168590
612.810389	41949.571041
613.159207	41807.405462
613.507971	41888.691547
613.856682	42360.767878
614.205340	42253.224943
614.553945	42956.939773
614.902496	42385.530026
615.250994	42870.678069
615.599439	42942.338071
615.947830	43123.673416
616.296169	43179.365563
616.644454	43308.706448
616.992686	43466.963390
617.340864	43992.753216
617.688990	43724.198347
618.037063	44309.428418
618.385082	44259.604174
618.733048	44581.375983
619.080961	44598.470536
619.428821	44606.932112
619.776628	44730.896606
620.124382	44549.420109
620.472083	44677.692268
620.819731	44822.207026
621.167326	44492.001366
621.514868	44460.975585
621.862357	44016.653326
622.209793	44043.409250
622.557176	43728.727824
622.904506	43477.927900
623.251783	43141.153617
623.599007	42919.136161
623.946179	42681.319728
624.293297	42642.618790
624.640363	42051.926629
624.987376	42035.850389
625.334336	41785.857050
625.681243	41436.981477
626.028097	41391.732080
626.374899	41262.146700
626.721647	41203.293749
627.068343	41090.508014
627.414987	40864.092151
627.761577	40638.792903
628.108115	40965.689045
628.454600	40422.305593
628.801032	40619.555860
629.147412	40568.809085
629.493739	40564.705586
629.840014	40210.264580
630.186236	40539.956041
630.532405	40151.759469
630.878521	40376.415969
631.224585	40255.062793
631.570597	39964.110078
631.916556	40118.223193
632.262462	40074.904558
632.608316	40094.842321
632.954117	39988.925158
633.299866	39991.448256
633.645562	39898.585161
633.991206	39407.228937
634.336797	38977.208431
634.682336	38989.554217
635.027823	38729.803724
635.373257	38556.693021
635.718639	38296.445975
636.063968	38179.692852
636.409245	37598.503266
636.754470	37644.171078
637.099642	37394.192862
637.444762	36915.880623
637.789829	37060.831441
638.134845	36712.787658
638.479808	36647.847515
638.824719	36557.794863
639.169577	36164.786509
639.514383	36225.035859
639.859137	35928.492505
640.203839	36166.044277
640.548489	35793.576104
640.893086	35860.757041
641.237632	35604.439574
641.582125	35711.007046
641.926566	35656.217265
642.270955	35625.259539
642.615292	35631.934027
642.959576	35586.631698
643.303809	35592.164364
643.647990	35742.294967
643.992118	35716.799331
644.336195	35697.302669
644.680219	35787.188962
645.024192	36074.784269
645.368112	36589.836437
645.711981	36586.801662
646.055797	37462.311453
646.399562	37386.069043
646.743274	38353.978143
647.086935	38776.812483
647.430544	38663.865432
647.774101	38792.896285
648.117606	39048.649143
648.461059	39364.532884
648.804460	38987.260492
649.147810	38359.616673
649.491108	38119.476269
649.834354	37766.645911
650.177548	36941.225024
650.520690	36488.166446
650.863781	36500.328230
651.206820	36337.761100
651.549807	35904.695738
651.892742	35410.405562
652.235626	35235.293522
652.578458	35090.899752
652.921238	34480.189169
653.263967	34800.098272
653.606644	34480.171525
653.949269	34428.038433
654.291843	34017.010475
654.634365	34434.720482
654.976836	34028.640417
655.319255	34005.924977
655.661622	34022.180178
656.003938	33805.884431
656.346203	33637.151971
656.688416	33864.523133
657.030577	33668.235725
657.372687	33515.340050
657.714746	33778.929381
658.056753	33894.452463
658.398708	33340.170036
658.740612	33396.930907
659.082465	33670.675644
659.424266	33496.123171
659.766016	33619.341574
660.107715	33488.503467
660.449362	33620.425422
660.790958	33590.228911
661.132503	33622.930876
661.473996	33660.197605
661.815438	33765.124182
662.156829	33946.247798
662.498168	33731.043461
662.839456	33754.583129
663.180693	33892.980446
663.521879	34063.648709
663.863013	34002.640666
664.204097	33997.753267
664.545129	34473.018128
664.886110	34422.462917
665.227040	34491.125953
665.567918	34611.554077
665.908746	34674.114796
666.249522	34841.516392
666.590248	34843.522771
666.930922	34948.630829
667.271545	34918.494811
667.612118	34998.906256
667.952639	34787.407167
668.293109	34851.074420
668.633528	34742.659365
668.973896	34666.338816
669.314213	34688.580387
669.654480	34425.452321
669.994695	34453.153461
670.334859	34352.111094
670.674973	34248.316257
671.015035	34414.167698
671.355047	34356.569995
671.695008	34288.136331
672.034918	34179.786812
672.374777	34275.919095
672.714585	34106.601861
673.054342	34336.750698
673.394049	34097.404276
673.733705	34377.039600
674.073310	34026.079510
674.412864	34115.181905
674.752368	33711.521593
675.091820	34015.513252
675.431223	33585.898559
675.770574	33335.658203
676.109875	33172.400436
676.449125	32902.703746
676.788324	32825.178362
677.127473	32278.873561
677.466571	32206.696840
677.805619	31848.878261
678.144616	31846.405575
678.483562	31756.821751
678.822458	31432.841916
679.161303	31354.237725
679.500098	31270.128594
679.838842	31151.323721
680.177535	31300.582204
680.516179	31561.567780
680.854771	31800.316826
681.193314	32653.781652
681.531805	33754.744446
681.870247	34543.415321
682.208638	35270.332062
682.546978	35504.846538
682.885268	35629.506711
683.223508	35100.682111
683.561697	34754.501035
683.899836	34574.221812
684.237925	34068.271447
684.575963	33911.945267
684.913951	33444.360603
685.251889	33602.083184
685.589776	33575.730552
685.927614	33551.850606
686.265401	33688.191133
686.603137	33795.613080
686.940824	34276.176194
687.278460	34648.001619
687.616046	34796.869413
687.953582	35407.048154
688.291068	35273.583606
688.628504	35582.281182
688.965889	35505.131364
689.303224	35146.990150
689.640510	34807.297040
689.977745	34095.289512
690.314930	33288.231028
690.652065	32784.206384
690.989150	32035.574873
691.326185	31149.435809
691.663170	30442.940782
692.000105	29691.884477
692.336990	28999.713889
692.673825	28532.741726
693.010610	28017.795422
693.347345	27426.354650
693.684030	26765.845029
694.020665	26479.862892
694.357251	25792.884693
694.693786	25736.789253
695.030272	25490.319680
695.366707	24937.418529
695.703093	24647.022862
696.039429	24640.958354
696.375716	24359.306568
696.711952	24333.740356
697.048139	24158.356093
697.384276	23985.353776
697.720363	24110.593681
698.056400	23912.945162
698.392388	23686.360420
698.728326	23652.226768
699.064214	23447.286220
699.400053	23387.629205
699.735842	23044.740003
700.071581	22752.073296
700.407270	22459.940951
700.742910	22262.995673
701.078501	22002.834326
701.414042	21707.589069
701.749533	21402.909292
702.084974	21060.125954
702.420366	21271.506576
702.755709	20816.857513
703.091002	20516.427429
703.426246	20534.210099
703.761440	20426.596588
704.096584	20160.658079
704.431679	20111.771489
704.766725	20014.575523
705.101721	19945.521797
705.436668	20040.842455
705.771565	19709.552947
706.106413	20050.710513
706.441212	20022.583396
706.775961	20144.619648
707.110661	20215.972139
707.445311	20576.500339
707.779913	20401.020294
708.114465	20651.956330
708.448967	20926.084194
708.783421	21630.335907
709.117825	21898.490003
709.452180	22088.659970
709.786485	22505.855780
710.120742	23313.352844
710.454949	23313.330159
710.789107	23782.538074
711.123216	24489.653162
711.457275	24615.954231
711.791286	25171.307903
712.125247	25237.843572
712.459159	24944.395486
712.793023	25636.682020
713.126837	24524.822772
713.460602	24812.443284
713.794318	24445.734630
714.127985	24060.605600
714.461602	23151.239419
714.795171	23137.998828
715.128691	22114.107715
715.462162	21565.456257
715.795584	21136.217130
716.128957	20871.344825
716.462281	20458.617997
716.795556	20226.737523
717.128782	19717.059226
717.461960	19169.378189
717.795088	19097.506459
718.128167	18694.972845
718.461198	18216.695894
718.794180	18075.631807
719.127113	17706.016928
719.459997	17500.967995
719.792833	17140.780073
720.125619	17118.452803
720.458357	16783.332018
720.791046	16616.802542
721.123686	16445.957838
721.456278	16211.481170
721.788821	16157.853376
722.121315	15907.749130
722.453761	15971.234901
722.786158	15888.877571
723.118506	15891.425874
723.450805	15757.616007
723.783056	15918.529638
724.115259	15810.243133
724.447412	15733.453757
724.779518	15985.851727
725.111574	15999.077194
725.443582	16203.193513
725.775542	16174.043041
726.107453	16656.080693
726.439315	16522.651432
726.771129	16916.887307
727.102895	17285.027649
727.434612	17495.059762
727.766281	17627.062376
728.097901	17896.096154
728.429473	17938.285570
728.760996	17925.937264
729.092471	18023.594496
729.423897	17891.332263
729.755276	17760.307634
730.086606	17865.818984
730.417887	18396.032422
730.749120	18903.767355
731.080305	19078.387883
731.411442	19419.527805
731.742530	19490.905502
732.073570	19593.656821
732.404562	19900.446320
732.735506	19714.858762
733.066401	19449.794893
733.397249	18933.686603
733.728048	18297.588770
734.058798	17455.615254
734.389501	16762.363339
734.720156	16300.616332
735.050762	15764.446771
735.381320	15402.121400
735.711831	15146.527338
736.042293	14786.455363
736.372707	14795.153874
736.703073	14576.521552
737.033391	14761.514254
737.363661	14713.320823
737.693883	14813.526359
738.024056	14979.597090
738.354182	15163.342107
738.684260	15438.861329
739.014290	15654.169010
739.344272	15842.211610
739.674207	16131.785569
740.004093	16251.031543
740.333931	16243.099287
740.663722	16287.889939
740.993464	16292.666432
741.323159	16126.489837
741.652806	15858.272726
741.982405	15651.497198
742.311956	15314.014633
742.641460	15204.228385
742.970915	14888.425302
743.300323	14561.365323
743.629683	14342.876674
743.958996	14060.274631
744.288260	13794.681440
744.617477	13486.805572
744.946647	13415.392587
745.275768	13138.655926
745.604842	12953.695991
745.933869	12777.137139
746.262847	12723.978172
746.591778	12645.152170
746.920662	12540.376828
747.249498	12531.753935
747.578286	12657.399653
747.907027	12792.154737
748.235720	13017.045651
748.564365	13035.055173
748.892963	12942.355915
749.221514	13004.664577
749.550017	12847.690608
749.878473	12826.469871
750.206881	12584.184455
750.535242	12498.265550
750.863555	12413.443095
751.191821	12306.086683
751.520039	12321.452120
751.848210	12228.934344
752.176334	12265.679314
752.504411	12166.865137
752.832440	12008.424192
753.160421	12076.880541
753.488356	11947.390943
753.816243	11853.446520
754.144082	11716.395191
754.471875	11658.222796
754.799620	11600.428488
755.127318	11573.191134
755.454969	11536.327696
755.782572	11483.831641
756.110129	11493.558547
756.437638	11413.404201
756.765100	11407.168293
757.092515	11409.542677
757.419882	11420.781929
757.747203	11424.900552
758.074477	11484.585293
758.401703	11447.116917
758.728882	11606.934097
759.056014	11647.694346
759.383099	11762.279773
759.710138	11865.192408
760.037129	11943.607557
760.364073	11961.712861
760.690970	11947.678288
761.017820	11944.814913
761.344623	12134.841207
761.671379	12461.018984
761.998088	13090.916199
762.324751	14622.088542
762.651366	17469.604456
762.977935	21126.094493
763.304456	23389.615420
763.630931	23923.541668
763.957359	22787.348770
764.283740	20890.889378
764.610074	19013.384725
764.936362	16883.033439
765.262602	15353.040726
765.588796	13864.463612
765.914943	12826.043893
766.241044	11952.013681
766.567097	11305.029475
766.893104	10751.667059
767.219064	10387.668025
767.544978	9996.965999
767.870845	9680.126959
768.196665	9481.419798
768.522438	9286.919480
768.848165	9115.999158
769.173846	8950.729971
769.499479	8824.668357
769.825066	8662.297833
770.150607	8482.066501
770.476101	8420.216584
770.801548	8307.544275
771.126949	8166.490270
771.452303	8076.606497
771.777611	7910.339161
772.102872	7888.619349
772.428087	7773.615507
772.753256	7647.503481
773.078378	7552.762557
773.403453	7408.628406
773.728482	7303.356511
774.053465	7239.769917
774.378401	7153.220867
774.703291	7057.882566
775.028135	6952.671164
775.352932	6923.283758
775.677683	6841.541448
776.002388	6746.654330
776.327046	6748.917808
776.651658	6662.411608
776.976224	6583.325987
777.300743	6568.933492
777.625216	6499.237020
777.949643	6456.984589
778.274024	6457.647501
778.598359	6386.184104
778.922647	6390.179218
779.246889	6348.987950
779.571086	6359.639908
779.895236	6364.774323
780.219339	6360.101174
780.543397	6354.634042
780.867409	6402.943420
781.191374	6400.049797
781.515294	6373.694645
781.839167	6426.755310
782.162995	6395.545527
782.486776	6348.723290
782.810511	6306.906918
783.134201	6229.353808
783.457844	6221.718980
783.781441	6171.035219
784.104993	6130.164065
784.428498	6099.357573
784.751958	6086.842909
785.075372	6061.836265
785.398739	6020.178691
785.722061	6039.811464
786.045337	6042.266506
786.368568	6149.781715
786.691752	6167.637482
787.014891	6415.253917
787.337983	6688.423962
787.661030	7122.742051
787.984031	7551.832464
788.306987	7814.774007
788.629897	7906.621310
788.952760	7831.067016
789.275579	7653.774677
789.598351	7361.095367
789.921078	7098.589883
790.243759	6818.639487
790.566395	6613.255317
790.888984	6415.863897
791.211529	6279.830881
791.534027	6113.550942
791.856480	5970.339323
792.178888	5912.507206
792.501249	5841.787379
792.823566	5735.348457
793.145836	5729.906532
793.468062	5709.832657
793.790241	5662.508825
794.112375	5709.542791
794.434464	5802.070649
794.756507	5834.190361
795.078505	5950.578000
795.400457	6163.929713
795.722364	6397.874540
796.044226	6597.035405
796.366042	6759.431135
796.687812	6707.943310
797.009538	6742.283650
797.331218	6647.555328
797.652852	6587.280772
797.974442	6463.039015
798.295986	6390.756430
798.617484	6263.658860
798.938938	6157.277911
799.260346	6082.867959
799.581709	5946.318225
799.903026	5895.768055
800.224299	5826.106870
800.545526	5704.148756
800.866708	5639.513602
801.187845	5591.534420
801.508936	5511.750599
801.829983	5483.459643
802.150984	5374.795052
802.471940	5348.013922
802.792851	5328.749153
803.113717	5302.769566
803.434538	5278.849291
803.755314	5250.712091
804.076045	5236.284309
804.396731	5194.982135
804.717372	5212.217840
805.037967	5210.340010
805.358518	5237.589968
805.679024	5295.384276
805.999485	5308.526564
806.319901	5322.979552
806.640272	5335.138815
806.960598	5383.110435
807.280879	5376.173807
807.601115	5415.900620
807.921306	5380.783943
808.241453	5378.212954
808.561554	5388.219644
808.881611	5355.086661
809.201623	5351.981310
809.521590	5303.087159
809.841513	5292.110046
810.161390	5307.636800
810.481223	5221.163368
810.801011	5206.997725
811.120755	5183.563922
811.440453	5122.802894
811.760107	5104.107775
812.079716	5072.688784
812.399281	5025.344788
812.718801	5018.284652
813.038276	4983.256194
813.357707	4951.393581
813.677093	4973.768743
813.996434	4907.386829
814.315731	4930.097227
814.634983	4926.248306
814.954191	4934.394811
815.273354	4990.573429
815.592473	5032.392321
815.911547	5111.319146
816.230577	5161.755890
816.549562	5252.844499
816.868502	5304.022293
817.187399	5369.138877
817.506250	5446.296257
817.825058	5468.363908
818.143821	5628.226458
818.462539	5798.907325
818.781213	6021.481829
819.099843	6383.663527
819.418429	7014.566451
819.736970	7638.429404
820.055466	8355.876338
820.373919	9279.980331
820.692327	10753.691082
821.010691	13464.906800
821.329011	19724.731862
821.647286	29310.329624
821.965517	39713.552129
822.283704	45268.460046
822.601847	46892.392141
822.919945	42359.126983
823.237999	37292.737120
823.556010	32080.978025
823.873976	27330.056009
824.191897	23064.851686
824.509775	19932.981927
824.827609	17104.836646
825.145398	15509.752555
825.463144	14716.723602
825.780845	14991.269882
826.098502	16235.439254
826.416116	18671.148352
826.733685	20937.023497
827.051210	21446.164912
827.368692	20034.997237
827.686129	17486.497363
828.003522	14995.459081
828.320872	12770.094647
828.638177	11096.673546
828.955439	9836.241411
829.272656	8761.278368
829.589830	7902.023777
829.906960	7163.305696
830.224046	6623.191431
830.541088	6205.947730
830.858086	5942.653306
831.175041	5726.468465
831.491952	5667.280277
831.808819	5699.135328
832.125642	5941.108193
832.442421	6494.513459
832.759157	7599.123528
833.075849	9360.779945
833.392497	11214.971783
833.709101	12343.945748
834.025662	12106.489758
834.342179	11067.177755
834.658653	9763.220298
834.975083	8660.712390
835.291469	7744.674242
835.607811	6994.389233
835.924110	6465.264684
836.240366	5968.726154
836.556578	5511.332183
836.872746	5154.630219
837.188871	4874.586561
837.504952	4647.066685
837.820990	4476.673165
838.136984	4359.597408
838.452935	4307.287875
838.768842	4339.168132
839.084706	4618.637098
839.400526	5356.538513
839.716303	6268.057266
840.032037	6842.055646
840.347727	6708.618824
840.663373	6108.736640
840.978977	5530.533938
841.294537	5081.047017
841.610054	4738.455243
841.925527	4495.310311
842.240957	4289.235503
842.556344	4100.371195
842.871687	3940.115435
843.186987	3786.385448
843.502244	3665.695184
843.817458	3575.892069
844.132629	3500.075636
844.447756	3453.034109
844.762840	3405.070051
845.077881	3364.082949
845.392879	3332.323680
845.707833	3304.998106
846.022745	3278.095988
846.337613	3266.269441
846.652438	3242.724732
846.967221	3233.368351
847.281960	3210.617623
847.596656	3203.295347
847.911309	3191.136084
848.225919	3171.344514
848.540485	3169.262518
848.855009	3158.850014
849.169490	3148.001451
849.483928	3140.845533
849.798323	3134.899492
850.112675	3122.606639
850.426984	3122.296608
850.741251	3114.656739
851.055474	3112.173971
851.369654	3112.468878
851.683792	3108.534258
851.997887	3112.748663
852.311938	3112.282356
852.625947	3113.275463
852.939914	3106.117025
853.253837	3113.693879
853.567718	3110.074330
853.881555	3103.851026
854.195350	3110.863271
854.509103	3107.843620
854.822812	3100.942280
855.136479	3100.922116
855.450103	3102.280707
855.763685	3096.223760
856.077224	3100.982609
856.390720	3107.004268
856.704173	3115.770834
857.017584	3121.399282
857.330953	3123.773666
857.644278	3137.515851
857.957561	3140.505256
858.270802	3135.640542
858.584000	3135.065851
858.897155	3129.981847
859.210268	3116.234620
859.523339	3109.038373
859.836367	3104.879421
860.149352	3098.711570
860.462295	3093.125971
860.775195	3088.747729
861.088054	3082.930237
861.400869	3083.020978
861.713642	3078.375555
862.026373	3090.433995
862.339062	3091.369129
862.651708	3102.452106
862.964312	3115.584312
863.276873	3124.335755
863.589392	3155.921104
863.901869	3183.039991
864.214303	3204.467416
864.526696	3225.851990
864.839045	3241.255236
865.151353	3252.668408
865.463619	3255.708224
865.775842	3256.214860
866.088023	3262.556631
866.400162	3254.815940
866.712258	3258.039757
867.024313	3254.049684
867.336325	3255.277205
867.648296	3254.604211
867.960224	3254.072369
868.272110	3257.520519
868.583954	3259.118564
868.895755	3263.937907
869.207515	3261.404728
869.519233	3280.561112
869.830909	3287.971608
870.142542	3298.278248
870.454134	3302.779998
870.765684	3318.223573
871.077191	3338.632684
871.388657	3348.772965
871.700081	3365.312991
872.011463	3387.990621
872.322803	3407.026018
872.634101	3420.808533
872.945357	3444.859878
873.256571	3476.283910
873.567744	3488.181033
873.878874	3494.883247
874.189963	3513.701875
874.501010	3512.376051
874.812015	3513.122142
875.122979	3527.769215
875.433900	3524.999101
875.744780	3530.924977
876.055618	3538.327911
876.366415	3532.701984
876.677169	3541.629867
876.987882	3558.532856
877.298554	3579.050352
877.609183	3620.148359
877.919771	3669.329856
878.230317	3734.751430
878.540822	3843.854602
878.851285	4000.271523
879.161707	4225.023806
879.472087	4608.327939
879.782425	5244.932408
880.092722	6447.492096
880.402977	8405.708143
880.713191	10808.117900
881.023363	13216.173748
881.333494	14589.787348
881.643583	15068.407097
881.953631	14693.614953
882.263637	13852.052292
882.573602	12829.471878
882.883526	11848.664986
883.193408	10880.750844
883.503248	9941.742679
883.813048	9102.050286
884.122806	8317.803023
884.432522	7531.960235
884.742197	6853.047882
885.051831	6278.086642
885.361424	5766.419609
885.670975	5355.469788
885.980485	5018.992934
886.289954	4746.460595
886.599382	4519.611193
886.908768	4332.901978
887.218113	4165.349147
887.527417	4031.239332
887.836680	3902.210999
888.145901	3799.925987
888.455082	3717.387175
888.764221	3650.143224
889.073319	3587.963112
889.382376	3549.458779
889.691392	3529.210985
890.000366	3520.338554
890.309300	3512.872605
890.618193	3513.958974
890.927044	3509.000999
891.235855	3518.614479
891.544625	3531.441695
891.853353	3561.847415
892.162041	3621.577526
892.470687	3714.496074
892.779293	3839.635156
893.087858	4014.621168
893.396381	4297.220691
893.704864	4717.446234
894.013306	5289.135766
894.321707	5867.565320
894.630068	6229.792388
894.938387	6273.277381
895.246665	6096.196770
895.554903	5775.791114
895.863100	5436.866779
896.171256	5164.886447
896.479371	4916.541564
896.787446	4688.865412
897.095480	4489.639012
897.403473	4339.145447
897.711425	4192.339485
898.019336	4065.181420
898.327207	3940.100311
898.635038	3834.866225
898.942827	3728.802868
899.250576	3643.095691
899.558284	3555.792989
899.865952	3499.710152
900.173579	3433.240018
900.481165	3386.894170
900.788711	3344.482943
901.096216	3313.011020
901.403681	3283.111936
901.711105	3270.985441
902.018489	3269.470574
902.325832	3301.431489
902.633135	3358.116744
902.940397	3533.115358
903.247619	3942.207513
903.554800	4700.608780
903.861941	5683.260735
904.169041	6406.845273
904.476101	6631.635364
904.783121	6365.628799
905.090100	5960.950174
905.397039	5535.484351
905.703938	5173.411038
906.010796	4837.617260
906.317614	4578.330553
906.624391	4331.024148
906.931129	4133.980568
907.237826	3945.852268
907.544483	3772.577728
907.851099	3593.785645
908.157675	3433.565173
908.464211	3285.473717
908.770707	3180.534538
909.077163	3099.356837
909.383578	3036.090357
909.689954	2991.831546
909.996289	2956.868624
910.302584	2938.405398
910.608839	2924.970723
910.915054	2907.205697
911.221229	2907.770306
911.527363	2911.914134
911.833458	2912.491347
912.139513	2932.834923
912.445527	2943.751542
912.751502	2979.768065
913.057436	3022.973274
913.363331	3081.465782
913.669186	3172.244360
913.975000	3291.318935
914.280775	3487.775221
914.586510	3760.181530
914.892205	4145.870129
915.197859	4650.421573
915.503475	5239.233384
915.809050	5738.602522
916.114585	6032.978180
916.420081	6100.015444
916.725536	6037.396752
917.030952	5798.998066
917.336328	5596.598259
917.641665	5381.671186
917.946961	5151.635774
918.252218	4949.672027
918.557435	4717.473961
918.862612	4514.484339
919.167750	4344.322712
919.472848	4148.554543
919.777906	3974.438131
920.082925	3811.631547
920.387904	3654.251765
920.692843	3537.498642
920.997743	3436.819238
921.302603	3340.840709
921.607423	3272.747324
921.912204	3205.291644
922.216946	3152.185609
922.521647	3102.159719
922.826310	3059.249417
923.130932	3023.709283
923.435516	2981.282932
923.740059	2956.011628
924.044564	2921.875454
924.349028	2893.130795
924.653454	2862.369674
924.957840	2840.170953
925.262186	2817.999959
925.566493	2795.334931
925.870761	2769.834254
926.174989	2756.472676
926.479178	2742.037332
926.783328	2725.875393
927.087438	2710.121787
927.391509	2703.895962
927.695541	2686.256965
927.999533	2676.940912
928.303486	2668.176867
928.607400	2658.460042
928.911275	2654.374187
929.215110	2649.963178
929.518906	2645.819349
929.822663	2642.207362
930.126381	2647.366983
930.430060	2650.179947
930.733699	2651.281439
931.037299	2653.373518
931.340861	2652.723209
931.644383	2656.690597
931.947866	2655.253869
932.251309	2650.374032
932.554714	2650.429484
932.858080	2650.502581
933.161407	2643.412198
933.464694	2641.630150
933.767943	2637.942546
934.071153	2637.138482
934.374323	2630.292595
934.677455	2628.699591
934.980548	2626.544497
935.283602	2623.683643
935.586617	2619.784310
935.889593	2623.860083
936.192530	2623.701287
936.495428	2628.631535
936.798287	2640.929430
937.101108	2654.091883
937.403890	2673.207938
937.706632	2702.751620
938.009336	2731.264386
938.312002	2762.602719
938.614628	2786.956533
938.917216	2806.642239
939.219765	2817.566420
939.522275	2830.539829
939.824747	2830.693584
940.127179	2826.789211
940.429573	2817.795792
940.731929	2816.051553
941.034246	2806.722898
941.336524	2806.564101
941.638763	2798.170580
941.940964	2793.636062
942.243126	2776.750717
942.545250	2765.367792
942.847335	2753.137953
943.149381	2739.635222
943.451389	2725.489745
943.753359	2711.588763
944.055290	2702.514686
944.357182	2693.823737
944.659036	2686.700586
944.960851	2686.839218
945.262628	2682.657581
945.564367	2683.106244
945.866067	2681.178002
946.167729	2677.303876
946.469352	2677.911335
946.770937	2672.655932
947.072484	2667.944973
947.373992	2664.786691
947.675462	2666.162926
947.976893	2656.925011
948.278286	2655.921822
948.579641	2650.361429
948.880958	2651.783034
949.182236	2646.782210
949.483476	2646.633496
949.784678	2641.683082
950.085841	2644.657363
950.386967	2647.361942
950.688054	2653.368477
950.989103	2666.072185
951.290114	2672.270283
951.591087	2681.558609
951.892021	2696.583768
952.192917	2706.993751
952.493776	2717.081100
952.794596	2722.591081
953.095378	2723.410269
953.396122	2721.746688
953.696828	2715.651933
953.997496	2715.435163
954.298126	2704.962166
954.598718	2693.927080
954.899272	2685.178158
955.199788	2676.109122
955.500266	2662.732420
955.800706	2649.761532
956.101108	2629.080198
956.401472	2618.014865
956.701798	2605.381734
957.002087	2589.587799
957.302337	2580.848958
957.602550	2568.730025
957.902724	2557.271482
958.202861	2548.706562
958.502960	2540.915458
958.803022	2532.670651
959.103045	2522.631193
959.403031	2515.752539
959.702979	2514.101561
960.002889	2507.563184
960.302762	2499.744355
960.602596	2497.680002
960.902393	2492.913591
961.202153	2489.949393
961.501875	2490.153560
961.801559	2485.553507
962.101205	2481.165182
962.400814	2480.845069
962.700385	2479.088227
962.999918	2478.722743
963.299414	2473.827783
963.598873	2474.929275
963.898293	2472.088585
964.197677	2470.087247
964.497022	2466.608851
964.796331	2467.866618
965.095601	2466.034159
965.394835	2465.648511
965.694030	2464.819241
965.993189	2464.582307
966.292309	2461.325721
966.591393	2460.612398
966.890439	2464.209261
967.189447	2464.239508
967.488419	2463.198510
967.787353	2463.576597
968.086249	2464.801597
968.385108	2463.652214
968.683930	2467.228912
968.982714	2468.358131
969.281462	2468.448872
969.580172	2470.838379
969.878844	2474.410036
970.177480	2476.754173
970.476078	2476.189563
970.774639	2479.985552
971.073162	2484.020996
971.371649	2480.966057
971.670098	2483.776500
971.968510	2488.391676
972.266885	2485.356902
972.565223	2491.736482
972.863524	2494.178921
973.161788	2491.980978
973.460014	2492.175062
973.758204	2495.255207
974.056356	2497.085146
974.354471	2496.810403
974.652550	2495.287975
974.950591	2496.949035
975.248595	2494.430979
975.546563	2494.420896
975.844493	2493.770588
976.142386	2493.001812
976.440243	2487.000318
976.738062	2486.591984
977.035845	2485.059474
977.333590	2478.130408
977.631299	2480.925727
977.928971	2477.109574
978.226606	2473.986579
978.524204	2475.730818
978.821765	2471.844089
979.119290	2474.006744
979.416777	2472.358287
979.714228	2474.107567
980.011642	2474.863740
980.309020	2480.608135
980.606360	2481.298773
980.903664	2492.969044
981.200931	2503.021105
981.498162	2524.907274
981.795356	2555.249979
982.092513	2594.525609
982.389633	2639.550674
982.686717	2684.104392
982.983764	2716.461038
983.280775	2735.632546
983.577749	2736.300499
983.874686	2726.505537
984.171587	2709.509287
984.468451	2695.212575
984.765279	2676.202383
985.062070	2654.845535
985.358824	2639.732156
985.655543	2616.827673
985.952224	2593.592995
986.248869	2564.671896
986.545478	2534.268697
986.842050	2515.487878
987.138586	2493.503406
987.435086	2482.569144
987.731549	2470.931640
988.027975	2467.365024
988.324366	2457.060905
988.620719	2452.861624
988.917037	2450.502364
989.213318	2450.225101
989.509563	2446.567743
989.805772	2446.146807
990.101944	2440.967022
990.398080	2438.998451
990.694180	2440.447783
990.990244	2440.334357
991.286271	2437.581887
991.582262	2439.517690
991.878217	2443.994234
992.174136	2442.393668
992.470019	2442.300407
992.765865	2446.161931
993.061676	2447.142435
993.357450	2449.539504
993.653188	2451.051850
993.948890	2459.737758
994.244556	2465.267904
994.540186	2478.352218
994.835780	2483.494195
995.131337	2504.024294
995.426859	2517.552231
995.722345	2541.452341
996.017795	2558.594785
996.313208	2572.682289
996.608586	2580.846438
996.903928	2584.400451
997.199234	2582.147056
997.494504	2582.399113
997.789738	2575.671693
998.084936	2568.278841
998.380099	2552.598332
998.675225	2538.621733
998.970316	2528.688140
999.265371	2515.137518
999.560390	2497.649755
999.855373	2488.016110
1000.150320	2476.829790
1000.445232	2465.666155
1000.740108	2459.210957
1001.034948	2454.283229
1001.329752	2448.354832
1001.624521	2446.013217
1001.919254	2434.963007
1002.213951	2436.142637
1002.508613	2433.833789
1002.803239	2433.531320
1003.097829	2429.662234
1003.392384	2431.575352
1003.686903	2425.735175
1003.981386	2427.310536
1004.275834	2426.012439
1004.570246	2425.939342
1004.864623	2426.587130
1005.158964	2424.661409
1005.453270	2420.154618
1005.747540	2423.983374
1006.041775	2422.745771
1006.335974	2422.450863
1006.630138	2422.617222
1006.924266	2418.097827
1007.218359	2420.787283
1007.512416	2417.664288
1007.806438	2419.768970
1008.100425	2419.567323
1008.394376	2418.823753
1008.688292	2421.117478
1008.982172	2417.732343
1009.276017	2418.377611
1009.569827	2417.472724
1009.863602	2421.356933
1010.157341	2419.121181
1010.451045	2416.368711
1010.744714	2417.346695
1011.038347	2418.450708
1011.331945	2417.387024
1011.625508	2416.703948
1011.919036	2417.311407
1012.212528	2415.940213
1012.505986	2414.294277
1012.799408	2413.066756
1013.092795	2414.813515
1013.386147	2415.267219
1013.679464	2412.459297
1013.972745	2414.599266
1014.265992	2412.819739
1014.559204	2414.334606
1014.852380	2415.297466
1015.145521	2413.268402
1015.438628	2411.990469
1015.731699	2413.928793
1016.024736	2413.830490
1016.317737	2410.951992
1016.610703	2418.213774
1016.903635	2412.842424
1017.196531	2411.423339
1017.489393	2413.361663
1017.782219	2413.956519
1018.075011	2415.920049
1018.367768	2417.061870
1018.660490	2415.741088
1018.953177	2415.741088
1019.245829	2415.741088
