Dividing Wavelength (nm)	Counts (n)	Blue Motor Position (mm): 49.000000	Red Motor Position (mm): 0.000000	
326.493990	1975.146762
326.888308	1975.146762
327.282561	1975.146762
327.676750	1950.525767
328.070874	1951.279419
328.464933	1957.616150
328.858929	1967.259877
329.252859	1978.683132
329.646726	1992.069916
330.040528	2011.775786
330.434265	2028.615760
330.827938	2050.547300
331.221547	2068.745866
331.615091	2087.272106
332.008571	2110.365632
332.401986	2128.377674
332.795338	2150.778042
333.188625	2172.455003
333.581847	2189.925122
333.975006	2206.477750
334.368100	2224.903168
334.761129	2242.900087
335.154095	2255.429875
335.546996	2299.250105
335.939833	2382.013248
336.332606	2396.231822
336.725315	2411.067938
337.117960	2418.022210
337.510540	2425.493200
337.903056	2438.461568
338.295508	2440.944336
338.687896	2449.594956
339.080220	2456.735751
339.472480	2461.418983
339.864676	2467.483491
340.256807	2468.484160
340.648875	2472.701085
341.040879	2476.446662
341.432818	2475.536734
341.824694	2475.950109
342.216506	2473.008595
342.608253	2476.537403
342.999937	2472.075982
343.391557	2473.681589
343.783113	2471.675210
344.174605	2468.466516
344.566033	2469.714201
344.957397	2468.590024
345.348697	2464.398305
345.739934	2464.907461
346.131106	2463.695064
346.522215	2460.778756
346.913260	2457.164249
347.304241	2460.410752
347.695159	2454.593260
348.086012	2453.330451
348.476802	2451.903805
348.867528	2450.885492
349.258191	2451.261058
349.648789	2450.106633
350.039324	2450.393979
350.429796	2450.320882
350.820203	2446.940789
351.210548	2447.815429
351.600828	2447.926334
351.991045	2445.894749
352.381198	2447.220573
352.771288	2446.865172
353.161314	2446.330809
353.551276	2443.517845
353.941175	2440.528441
354.331010	2446.666046
354.720782	2448.957250
355.110490	2449.421037
355.500135	2448.145625
355.889717	2449.468927
356.279235	2447.187805
356.668689	2449.136211
357.058080	2446.454317
357.447408	2448.400203
357.836672	2445.400716
358.225873	2453.204423
358.615010	2446.797116
359.004084	2454.046295
359.393095	2455.470421
359.782043	2455.387242
360.170927	2454.769701
360.559748	2455.296501
360.948505	2458.323714
361.337199	2456.879424
361.725830	2458.694239
362.114398	2460.357820
362.502903	2459.084928
362.891344	2462.757409
363.279722	2460.481328
363.668037	2461.913016
364.056289	2465.716566
364.444478	2463.246401
364.832603	2465.744293
365.220665	2465.570373
365.608665	2466.303861
365.996601	2470.974490
366.384474	2470.190590
366.772284	2471.042545
367.160031	2471.758389
367.547715	2471.032463
367.935336	2469.936012
368.322893	2471.960035
368.710388	2473.550519
369.097820	2477.447331
369.485189	2474.200828
369.872495	2478.228710
370.259738	2477.046560
370.646918	2481.414719
371.034035	2481.994452
371.421090	2484.870430
371.808081	2483.254741
372.195010	2487.668271
372.581875	2489.558703
372.968678	2492.071719
373.355418	2497.059940
373.742096	2502.524551
374.128710	2505.607217
374.515262	2514.278001
374.901751	2523.397449
375.288177	2531.697708
375.674540	2541.525438
376.060841	2557.669733
376.447079	2569.332442
376.833254	2587.311718
377.219367	2609.737291
377.605417	2632.485497
377.991404	2654.164979
378.377329	2684.338806
378.763191	2708.236396
379.148991	2745.548496
379.534727	2785.267747
379.920402	2824.498006
380.306013	2865.170035
380.691563	2915.493354
381.077049	2960.538584
381.462474	3009.785616
381.847835	3073.410018
382.233134	3136.898310
382.618371	3190.667257
383.003545	3266.080398
383.388657	3336.243177
383.773706	3418.424067
384.158693	3485.524345
384.543618	3575.037594
384.928480	3650.080210
385.313280	3745.005137
385.698017	3839.385619
386.082692	3955.942137
386.467305	4019.677445
386.851856	4138.573059
387.236344	4278.636477
387.620770	4348.965614
388.005133	4466.124550
388.389435	4606.326601
388.773674	4693.737688
389.157851	4827.789530
389.541965	4955.580260
389.926018	4995.244058
390.310008	5164.770500
390.693936	5293.806395
391.077802	5412.036576
391.461606	5545.261669
391.845348	5664.157282
392.229027	5790.453310
392.612645	6014.497310
392.996200	6134.806967
393.379694	6308.822557
393.763125	6532.087699
394.146494	6637.722557
394.529801	6780.422499
394.913047	7024.414345
395.296230	7036.371962
395.679351	7106.196984
396.062410	7362.353135
396.445408	7283.360774
396.828343	7446.026206
397.211217	7588.768998
397.594028	7486.060529
397.976778	7697.960390
398.359466	7870.219138
398.742092	7856.784463
399.124656	8004.833069
399.507158	8195.111421
399.889598	8231.634580
400.271977	8450.685318
400.654294	8493.832554
401.036549	8687.238942
401.418742	8716.802788
401.800874	9022.800827
402.182944	9102.680430
402.564952	9462.079411
402.946898	9303.706522
403.328783	9361.924287
403.710606	9561.112878
404.092367	9814.511518
404.474067	10174.026445
404.855705	9972.806269
405.237282	9927.256923
405.618797	10351.205359
406.000250	10596.616290
406.381642	10957.278080
406.762972	10905.923846
407.144240	10713.901255
407.525447	10962.399893
407.906593	10904.918136
408.287677	11159.299800
408.668700	11308.016359
409.049661	11295.075717
409.430560	11450.502052
409.811399	11416.565004
410.192176	11578.617936
410.572891	11656.251705
410.953545	12131.246864
411.334138	11610.536001
411.714669	12202.760673
412.095139	11528.755883
412.475547	12027.003365
412.855894	11878.100283
413.236180	12189.699043
413.616405	11886.299720
413.996568	12150.504072
414.376670	12127.092954
414.756711	12006.937052
415.136691	12284.092128
415.516609	12456.602934
415.896466	12518.944363
416.276262	12807.855410
416.655997	13250.004932
417.035670	13290.402218
417.415283	13928.448457
417.794834	14018.546480
418.174324	13762.266821
418.553753	13666.827696
418.933121	14151.365760
419.312428	13966.181494
419.691674	13875.627247
420.070859	14327.934694
420.449983	13987.223270
420.829045	14527.408111
421.208047	14273.709523
421.586988	14727.274737
421.965867	14970.306243
422.344686	14960.894409
422.723444	15526.637900
423.102141	14231.638573
423.480777	15410.305713
423.859352	14909.373817
424.237866	16000.937380
424.616319	15717.800974
424.994712	16360.757297
425.373044	16150.536141
425.751314	16823.852813
426.129524	15961.293746
426.507673	17025.325047
426.885762	16733.132208
427.263789	16924.020540
427.641756	17093.655367
428.019662	17152.606620
428.397508	17195.590018
428.775292	17479.999315
429.153016	17438.399714
429.530679	17521.177981
429.908282	17550.585552
430.285824	17263.272550
430.663305	17967.403275
431.040726	17573.399293
431.418086	17409.208912
431.795385	18033.339047
432.172624	18454.257749
432.549802	18013.610491
432.926920	18200.168472
433.303977	18084.156398
433.680974	18345.446964
434.057910	18631.043452
434.434786	18661.003030
434.811601	18572.772755
435.188355	19598.982800
435.565050	19240.529035
435.941683	19191.675213
436.318257	20064.583769
436.694770	19879.555779
437.071222	20465.244594
437.447614	19554.837415
437.823946	19574.976825
438.200218	19724.265555
438.576429	19506.273460
438.952580	19779.105747
439.328670	19739.825076
439.704700	20153.983591
440.080670	19723.491738
440.456580	20305.634102
440.832429	20482.114816
441.208218	19491.054216
441.583947	19925.417676
441.959616	20035.811383
442.335224	20248.457335
442.710773	20397.650283
443.086261	20921.655540
443.461689	20294.699839
443.837057	20413.144269
444.212365	21046.363604
444.587612	21049.025333
444.962800	20638.241871
445.337927	21046.875281
445.712995	19800.134920
446.088002	21624.979681
446.462949	21809.977424
446.837837	21977.467240
447.212664	21927.731216
447.587431	24694.664286
447.962139	27592.702645
448.336786	29978.708487
448.711374	28472.159660
449.085901	24835.746018
449.460369	24763.045018
449.834776	24667.593290
450.209124	27104.061082
450.583412	26656.462073
450.957640	27201.302419
451.331808	25880.121860
451.705917	24521.972000
452.079965	24535.328537
452.453954	24886.422217
452.827883	24777.797954
453.201752	24588.757206
453.575562	24748.231587
453.949311	25851.440215
454.323001	25902.217237
454.696632	25662.596072
455.070202	27186.960336
455.443713	27339.724942
455.817164	27915.502849
456.190556	28451.017060
456.563888	27905.864163
456.937160	28328.287649
457.310373	26689.451384
457.683526	27107.700795
458.056619	27094.596316
458.429653	27042.304427
458.802628	27588.304238
459.175542	27710.264873
459.548398	29013.788791
459.921194	30559.025953
460.293930	31224.367520
460.666607	33225.975298
461.039224	34992.834186
461.411782	35375.508175
461.784280	34201.443609
462.156719	33717.195411
462.529099	33147.151817
462.901419	31849.137880
463.273680	30805.374538
463.645882	30890.423845
464.018024	30855.067712
464.390106	31680.775945
464.762130	34326.096220
465.134094	38336.523148
465.505999	43613.245072
465.877845	48216.148729
466.249631	49383.838756
466.621358	47667.363680
466.993026	45545.111008
467.364634	43467.039007
467.736184	41505.468073
468.107674	40281.314602
468.479105	39487.463941
468.850477	38801.811565
469.221790	37391.531133
469.593043	35666.468451
469.964238	34797.118950
470.335373	34690.196077
470.706449	36365.154730
471.077467	38852.039102
471.448425	43420.289867
471.819324	46275.518747
472.190164	44516.796282
472.560945	40972.865128
472.931667	37876.164978
473.302330	36760.880266
473.672934	35956.460826
474.043479	36461.939843
474.413965	35666.128173
474.784393	35297.304755
475.154761	36171.395462
475.525070	36208.377366
475.895321	35755.354076
476.265513	36350.454726
476.635645	37306.330592
477.005719	37123.016594
477.375734	37581.436439
477.745691	38273.964949
478.115588	39588.942368
478.485427	41521.239323
478.855207	44837.209499
479.224928	47464.290880
479.594591	49107.417167
479.964194	48103.108416
480.333739	48257.163557
480.703226	48270.121843
481.072653	48891.620495
481.442022	49391.561804
481.811333	49665.162867
482.180584	48360.086274
482.549777	47847.194241
482.918912	47342.811675
483.287988	47047.478197
483.657005	46230.589464
484.025964	45575.141161
484.394864	45591.250168
484.763706	45154.991235
485.132489	44296.601202
485.501213	44119.334068
485.869879	44263.034679
486.238487	43858.482083
486.607036	44068.768775
486.975527	43527.721897
487.343959	43728.236312
487.712333	43804.715657
488.080648	43718.476638
488.448905	44167.403991
488.817104	43969.019463
489.185244	44918.661943
489.553326	46546.523616
489.921350	49268.444224
490.289315	52187.980583
490.657222	52808.748268
491.025070	53116.538436
491.392861	52196.971481
491.760593	50946.442693
492.128267	49262.281413
492.495883	47725.611692
492.863440	46333.887747
493.230939	44999.776629
493.598380	43908.293724
493.965763	43580.623765
494.333088	42773.693831
494.700354	42288.765078
495.067563	42014.332224
495.434713	41873.651264
495.801805	41951.153964
496.168839	41583.134609
496.535815	41241.419996
496.902733	41288.166616
497.269593	40875.734696
497.636395	40812.342186
498.003139	41208.975130
498.369825	40658.342498
498.736453	40956.312499
499.103023	40488.445531
499.469535	40372.778777
499.835989	40456.184667
500.202385	40135.859669
500.568723	40159.275829
500.935003	40333.692190
501.301226	40138.637345
501.667390	40749.259708
502.033497	40996.626606
502.399546	40452.108894
502.765537	39768.218402
503.131470	40131.108382
503.497345	40490.240182
503.863163	39167.305302
504.228923	39777.615113
504.594625	40171.654382
504.960269	39466.512906
505.325856	40147.870218
505.691385	39531.352227
506.056856	39653.282615
506.422270	40085.695147
506.787625	39669.298360
507.152924	39860.315241
507.518164	39964.541097
507.883347	39194.734220
508.248472	39416.875184
508.613540	39913.164178
508.978550	40197.830574
509.343503	39953.135487
509.708398	40155.318523
510.073236	40689.534638
510.438016	40667.469507
510.802738	40141.883848
511.167403	40761.789496
511.532010	40960.917593
511.896561	41275.800665
512.261053	42110.983746
512.625488	41664.692917
512.989866	41529.806763
513.354186	41390.885166
513.718449	41381.516182
514.082655	42067.087899
514.446803	41729.514594
514.810894	42240.226328
515.174927	42174.426668
515.538904	42068.464134
515.902822	42729.460227
516.266684	42205.543190
516.630488	42616.646765
516.994235	42462.170688
517.357925	43027.888972
517.721558	43204.142834
518.085133	43518.194116
518.448651	43644.976615
518.812112	43431.012402
519.175516	43532.374882
519.538863	43855.343965
519.902152	43836.502652
520.265385	44287.786745
520.628560	44335.007233
520.991678	44117.806599
521.354739	44362.597468
521.717743	44679.413822
522.080690	44563.452160
522.443580	45113.361387
522.806413	45165.199572
523.169189	45122.558972
523.531908	45304.378267
523.894569	45157.189178
524.257174	45322.092882
524.619722	45622.253264
524.982213	45609.655421
525.344647	45534.275047
525.707025	45580.414208
526.069345	45971.489279
526.431608	45903.642910
526.793815	46216.443986
527.155964	45770.687519
527.518057	45922.179233
527.880093	45708.812397
528.242072	46226.211222
528.603995	45938.973837
528.965860	45951.052442
529.327669	46040.903447
529.689421	45928.601663
530.051117	45890.351908
530.412755	46048.777730
530.774337	46108.172604
531.135862	45915.497184
531.497331	46119.794984
531.858743	46035.569907
532.220098	46368.694394
532.581396	46078.303768
532.942638	45756.262257
533.303824	46041.523509
533.664953	46015.327153
534.026025	45729.032465
534.387040	46211.705301
534.747999	46169.697366
535.108902	46316.485684
535.469748	45844.575711
535.830537	45961.094420
536.191270	46159.128587
536.551947	45813.696123
536.912567	46136.652603
537.273131	46239.998777
537.633638	45736.425317
537.994089	46074.275886
538.354483	45689.887905
538.714821	46247.152175
539.075103	46598.475227
539.435328	46370.557100
539.795497	46236.676657
540.155609	46238.625063
540.515665	46699.855352
540.875665	46173.473191
541.235609	46482.448030
541.595496	46444.556198
541.955328	47112.549411
542.315102	46489.251068
542.674821	46287.304965
543.034483	46337.613160
543.394090	46300.913560
543.753640	46252.072341
544.113134	47256.166843
544.472571	46278.707277
544.831953	47503.679935
545.191278	46740.252638
545.550548	46461.411295
545.909761	46907.944100
546.268918	47113.716438
546.628019	47404.573371
546.987064	46975.240983
547.346053	46265.973322
547.704986	47121.414280
548.063863	46707.467494
548.422684	46892.218221
548.781449	46753.084895
549.140158	47130.148079
549.498811	46990.248498
549.857408	46425.190605
550.215949	47250.596368
550.574434	47193.656536
550.932864	46931.846731
551.291237	47672.871141
551.649555	47271.388607
552.007817	47513.817696
552.366022	47163.023964
552.724173	47347.454578
553.082267	47744.110206
553.440305	48022.523051
553.798288	47352.478087
554.156215	47654.082760
554.514086	47850.100466
554.871902	47608.780431
555.229661	47612.031976
555.587365	47453.432234
555.945014	47553.141216
556.302606	47466.508987
556.660143	47682.466977
557.017625	47777.354095
557.375050	47566.159996
557.732421	47897.900687
558.089735	47900.726253
558.446994	47821.920416
558.804197	48279.321948
559.161345	48211.137822
559.518437	47455.811659
559.875474	47762.578473
560.232455	47909.911236
560.589381	48088.569728
560.946251	47806.262592
561.303065	48473.923090
561.659825	48274.994118
562.016528	47944.375084
562.373177	47675.149742
562.729770	48149.396290
563.086307	47662.115839
563.442789	48116.175087
563.799216	48186.252166
564.155587	47947.306515
564.511904	47970.016913
564.868164	48080.703007
565.224370	48329.030246
565.580520	48054.123524
565.936615	48256.001571
566.292654	47981.966968
566.648638	48212.735868
567.004567	48164.154268
567.360441	48206.976350
567.716260	48050.826609
568.072023	48347.264099
568.427732	48313.211105
568.783385	47888.503976
569.138982	48276.995456
569.494525	48244.873224
569.850013	48005.032768
570.205445	47976.875403
570.560823	47933.254299
570.916145	47802.484247
571.271412	47832.146397
571.626625	47594.647557
571.981782	47648.918098
572.336884	47323.932554
572.691931	47642.389804
573.046923	47254.639374
573.401860	47103.079604
573.756743	47059.803819
574.111570	47195.867082
574.466342	47050.523054
574.821059	47161.453645
575.175722	46697.712861
575.530330	46694.824280
575.884882	46401.164466
576.239380	46386.159471
576.593823	46367.774383
576.948211	46268.486338
577.302544	45795.731971
577.656823	45821.444376
578.011047	46047.719087
578.365216	45768.913033
578.719330	45563.279326
579.073389	45427.175734
579.427394	45499.365057
579.781344	45468.835829
580.135239	45114.425070
580.489080	45210.834617
580.842866	44687.272981
581.196597	45127.456453
581.550273	45091.276092
581.903895	44955.767356
582.257463	45359.215939
582.610975	44735.042955
582.964434	45014.365728
583.317837	44671.171536
583.671186	44499.321122
584.024481	44727.355195
584.377721	44263.584165
584.730906	44553.410182
585.084037	44580.211476
585.437113	44283.058142
585.790135	44321.864945
586.143103	43919.253193
586.496016	44056.576744
586.848874	44066.452364
587.201679	44081.227986
587.554428	43568.588011
587.907124	43751.486113
588.259765	43501.679296
588.612352	43741.262653
588.964884	43147.346675
589.317362	43434.694964
589.669786	43378.869227
590.022155	43145.015141
590.374470	43579.242489
590.726731	43089.217130
591.078937	42603.449024
591.431090	42698.585680
591.783188	42369.771379
592.135232	42052.876887
592.487222	42278.879375
592.839157	42376.960064
593.191038	42042.350957
593.542866	41821.709736
593.894639	41222.682027
594.246358	41485.507624
594.598022	41471.573875
594.949633	41075.984450
595.301190	41039.236959
595.652692	40854.755934
596.004141	41198.061032
596.355535	40218.174150
596.706876	40171.722438
597.058162	39996.083597
597.409395	40473.483387
597.760573	40535.925639
598.111698	40123.876847
598.462768	40136.898147
598.813785	40175.188231
599.164748	39628.391917
599.515657	40005.702118
599.866511	39470.074481
600.217312	40109.668355
600.568060	39066.608253
600.918753	39821.949540
601.269392	39759.451835
601.619978	39421.480278
601.970510	39629.062391
602.320988	39804.207199
602.671412	40121.142021
603.021783	39867.488803
603.372100	39516.523673
603.722363	39628.142380
604.072572	39690.259478
604.422728	39708.042148
604.772830	39511.490080
605.122878	39613.512952
605.472872	39552.318385
605.822813	39826.819295
606.172701	39643.989248
606.522534	39904.087580
606.872314	40170.550370
607.222041	39920.851937
607.571714	40293.748608
607.921333	39744.782077
608.270899	40058.987114
608.620411	40371.523529
608.969870	40176.108242
609.319276	40169.975678
609.668627	40206.163601
610.017926	40691.820801
610.367171	40855.098733
610.716362	40944.700201
611.065500	40888.652653
611.414585	41077.413617
611.763616	41369.349357
612.112594	41296.517287
612.461518	41518.832172
612.810389	41806.646768
613.159207	41661.988338
613.507971	41754.339756
613.856682	42205.399517
614.205340	42102.751542
614.553945	42805.707678
614.902496	42249.086156
615.250994	42720.870100
615.599439	42807.212463
615.947830	43003.494829
616.296169	43050.178434
616.644454	43170.621682
616.992686	43359.606978
617.340864	43869.890214
617.688990	43574.733177
618.037063	44181.816650
618.385082	44151.577288
618.733048	44463.546573
619.080961	44473.986803
619.428821	44482.060211
619.776628	44596.975833
620.124382	44404.998613
620.472083	44555.524946
620.819731	44681.044636
621.167326	44355.519688
621.514868	44333.008415
621.862357	43891.365530
622.209793	43922.902988
622.557176	43603.601345
622.904506	43358.830640
623.251783	43021.713559
623.599007	42811.646158
623.946179	42577.156887
624.293297	42526.571428
624.640363	41938.472941
624.987376	41922.855447
625.334336	41684.355937
625.681243	41342.485048
626.028097	41291.241719
626.374899	41141.539615
626.721647	41102.916815
627.068343	41003.157421
627.414987	40770.508171
627.761577	40542.421165
628.108115	40881.998330
628.454600	40336.033806
628.801032	40501.229897
629.147412	40472.601185
629.493739	40473.682512
629.840014	40129.459925
630.186236	40450.326846
630.532405	40068.751829
630.878521	40287.381631
631.224585	40166.996356
631.570597	39873.563394
631.916556	40055.274305
632.262462	40006.430565
632.608316	40023.842710
632.954117	39906.545143
633.299866	39904.385008
633.645562	39820.449797
633.991206	39329.393521
634.336797	38894.692304
634.682336	38902.082636
635.027823	38648.628544
635.373257	38475.754776
635.718639	38230.401818
636.063968	38101.128989
636.409245	37538.417753
636.754470	37580.980215
637.099642	37325.872625
637.444762	36848.576178
637.789829	36996.022367
638.134845	36648.628893
638.479808	36607.077183
638.824719	36490.490418
639.169577	36114.599302
639.514383	36170.987128
639.859137	35862.017330
640.203839	36115.262214
640.548489	35736.084265
640.893086	35808.266027
641.237632	35550.844547
641.582125	35666.319737
641.926566	35597.326506
642.270955	35566.827525
642.615292	35580.557108
642.959576	35556.324281
643.303809	35547.426644
643.647990	35700.045057
643.992118	35660.396382
644.336195	35652.093601
644.680219	35731.978246
645.024192	36033.265326
645.368112	36550.308749
645.711981	36544.665178
646.055797	37410.097703
646.399562	37352.197530
646.743274	38298.734658
647.086935	38751.233669
647.430544	38647.756424
647.774101	38763.753374
648.117606	39010.538020
648.461059	39321.501595
648.804460	38948.952764
649.147810	38333.563990
649.491108	38079.900691
649.834354	37730.170643
650.177548	36898.793633
650.520690	36449.798224
650.863781	36468.878991
651.206820	36315.456515
651.549807	35872.964195
651.892742	35378.109410
652.235626	35200.580136
652.578458	35059.793312
652.921238	34440.021256
653.263967	34765.619300
653.606644	34452.634223
653.949269	34402.807458
654.291843	34006.227447
654.634365	34400.549021
654.976836	34005.458671
655.319255	34003.522867
655.661622	34002.524719
656.003938	33765.729120
656.346203	33635.987464
656.688416	33842.387426
657.030577	33652.550175
657.372687	33497.053264
657.714746	33765.756846
658.056753	33883.001482
658.398708	33330.077646
658.740612	33391.791451
659.082465	33665.722710
659.424266	33478.247240
659.766016	33576.872373
660.107715	33483.658918
660.449362	33604.482773
660.790958	33581.359000
661.132503	33608.351859
661.473996	33634.528050
661.815438	33750.124228
662.156829	33948.360042
662.498168	33716.764393
662.839456	33741.992847
663.180693	33891.873913
663.521879	34058.405909
663.863013	34003.716952
664.204097	34005.083105
664.545129	34471.999815
664.886110	34420.529634
665.227040	34481.865353
665.567918	34625.427332
665.908746	34677.021021
666.249522	34842.653172
666.590248	34833.294270
666.930922	34945.923729
667.271545	34913.428452
667.612118	35003.859190
667.952639	34779.676558
668.293109	34849.516703
668.633528	34736.368005
668.973896	34675.133109
669.314213	34683.750962
669.654480	34439.905309
669.994695	34463.933969
670.334859	34345.391236
670.674973	34261.975263
671.015035	34408.231739
671.355047	34359.337588
671.695008	34307.990916
672.034918	34186.642781
672.374777	34275.414980
672.714585	34103.380563
673.054342	34345.335783
673.394049	34102.833598
673.733705	34392.483175
674.073310	34034.362126
674.412864	34120.291114
674.752368	33706.987075
675.091820	34027.075138
675.431223	33603.620736
675.770574	33331.776515
676.109875	33180.725901
676.449125	32903.979158
676.788324	32823.227435
677.127473	32286.606691
677.466571	32211.264126
677.805619	31851.736595
678.144616	31843.721161
678.483562	31785.939455
678.822458	31435.942226
679.161303	31372.622813
679.500098	31284.815995
679.838842	31168.014981
680.177535	31307.970015
680.516179	31564.930229
680.854771	31820.042861
681.193314	32663.211130
681.531805	33785.540855
681.870247	34572.394394
682.208638	35309.280016
682.546978	35547.169546
682.885268	35640.753526
683.223508	35116.891941
683.561697	34797.829753
683.899836	34598.436995
684.237925	34101.099441
684.575963	33933.473514
684.913951	33469.611743
685.251889	33635.521157
685.589776	33602.657875
685.927614	33587.668004
686.265401	33727.471803
686.603137	33820.720547
686.940824	34326.151673
687.278460	34699.557500
687.616046	34830.879557
687.953582	35456.015402
688.291068	35331.148542
688.628504	35617.160926
688.965889	35554.050721
689.303224	35169.022513
689.640510	34835.393911
689.977745	34102.122796
690.314930	33318.147755
690.652065	32785.973308
690.989150	32061.569583
691.326185	31162.772181
691.663170	30458.182711
692.000105	29699.756238
692.336990	29005.584313
692.673825	28534.435554
693.010610	28026.919911
693.347345	27425.573271
693.684030	26770.886183
694.020665	26487.248183
694.357251	25797.298223
694.693786	25749.109833
695.030272	25504.596228
695.366707	24958.596417
695.703093	24662.373175
696.039429	24647.877337
696.375716	24375.939855
696.711952	24345.277037
697.048139	24175.715307
697.384276	23989.530372
697.720363	24122.455516
698.056400	23908.922322
698.392388	23704.740467
698.728326	23663.776051
699.064214	23468.696000
699.400053	23421.092384
699.735842	23049.957597
700.071581	22766.851438
700.407270	22467.061581
700.742910	22286.429477
701.078501	22012.558712
701.414042	21721.633723
701.749533	21420.656674
702.084974	21063.437992
702.420366	21283.025612
702.755709	20832.744710
703.091002	20530.446878
703.426246	20551.337420
703.761440	20436.777198
704.096584	20172.658546
704.431679	20124.051740
704.766725	20031.609582
705.101721	19964.963007
705.436668	20039.700633
705.771565	19712.766683
706.106413	20063.358768
706.441212	20036.824655
706.775961	20168.550005
707.110661	20245.609083
707.445311	20594.358627
707.779913	20428.517268
708.114465	20677.149496
708.448967	20946.483223
708.783421	21656.098723
709.117825	21918.805853
709.452180	22140.775419
709.786485	22530.965768
710.120742	23337.862934
710.454949	23339.080373
710.789107	23808.225273
711.123216	24511.022613
711.457275	24649.697194
711.791286	25213.051178
712.125247	25268.067810
712.459159	24975.554858
712.793023	25663.301833
713.126837	24554.668923
713.460602	24835.887170
713.794318	24467.136849
714.127985	24079.835081
714.461602	23173.183562
714.795171	23135.500937
715.128691	22113.722067
715.462162	21572.783574
715.795584	21142.710136
716.128957	20883.136083
716.462281	20472.846654
716.795556	20235.446117
717.128782	19733.269056
717.461960	19174.535290
717.795088	19089.228884
718.128167	18693.563842
718.461198	18220.950628
718.794180	18075.054595
719.127113	17709.772587
719.459997	17505.013521
719.792833	17148.137637
720.125619	17115.876773
720.458357	16783.185825
720.791046	16612.847757
721.123686	16460.925024
721.456278	16209.197528
721.788821	16161.893860
722.121315	15897.616411
722.453761	15985.183774
722.786158	15893.235648
723.118506	15902.856691
723.450805	15761.530463
723.783056	15920.888898
724.115259	15828.706359
724.447412	15752.839514
724.779518	15991.485216
725.111574	16010.749986
725.443582	16210.805656
725.775542	16178.837178
726.107453	16654.943912
726.439315	16532.922783
726.771129	16937.750122
727.102895	17297.605328
727.434612	17505.978902
727.766281	17644.734141
728.097901	17912.147188
728.429473	17946.472404
728.760996	17937.189119
729.092471	18029.411988
729.423897	17891.841420
729.755276	17763.196215
730.086606	17882.111993
730.417887	18400.259429
730.749120	18911.135001
731.080305	19084.318801
731.411442	19423.364123
731.742530	19500.655094
732.073570	19602.819118
732.404562	19903.546630
732.735506	19722.549042
733.066401	19445.456980
733.397249	18926.523123
733.728048	18294.203635
734.058798	17448.424048
734.389501	16754.410919
734.720156	16293.732636
735.050762	15762.818478
735.381320	15395.920780
735.711831	15151.523121
736.042293	14785.489982
736.372707	14783.675166
736.703073	14574.338732
737.033391	14755.152318
737.363661	14710.376789
737.693883	14816.780424
738.024056	14981.842924
738.354182	15156.145859
738.684260	15443.320229
739.014290	15669.138716
739.344272	15851.562950
739.674207	16136.972916
740.004093	16260.526556
740.333931	16246.471819
740.663722	16302.756302
740.993464	16292.031247
741.323159	16132.755991
741.652806	15859.843045
741.982405	15650.438556
742.311956	15314.415405
742.641460	15192.943762
742.970915	14881.198808
743.300323	14545.432756
743.629683	14340.386344
743.958996	14054.709197
744.288260	13784.047126
744.617477	13484.320283
744.946647	13405.776586
745.275768	13132.735090
745.604842	12945.557048
745.933869	12765.708843
746.262847	12719.476422
746.591778	12643.304587
746.920662	12522.871422
747.249498	12526.677493
747.578286	12642.906336
747.907027	12791.968214
748.235720	13011.921318
748.564365	13034.712374
748.892963	12933.526334
749.221514	12990.171260
749.550017	12851.539529
749.878473	12809.234166
750.206881	12587.035228
750.535242	12496.581804
750.863555	12404.613514
751.191821	12306.109368
751.520039	12321.416832
751.848210	12227.361504
752.176334	12257.242943
752.504411	12164.223572
752.832440	12010.569203
753.160421	12066.246227
753.488356	11934.956937
753.816243	11853.864936
754.144082	11706.834643
754.471875	11651.195428
754.799620	11596.367838
755.127318	11563.968343
755.454969	11521.736076
755.782572	11478.513223
756.110129	11495.965698
756.437638	11412.998388
756.765100	11404.272151
757.092515	11399.679659
757.419882	11418.712536
757.747203	11414.402349
758.074477	11485.666621
758.401703	11440.170207
758.728882	11603.395207
759.056014	11643.815178
759.383099	11755.766602
759.710138	11854.999195
760.037129	11934.697317
760.364073	11958.007612
760.690970	11940.406424
761.017820	11944.086466
761.344623	12129.643777
761.671379	12455.415742
761.998088	13082.620980
762.324751	14626.222288
762.651366	17478.434037
762.977935	21138.296606
763.304456	23386.903279
763.630931	23905.358226
763.957359	22768.658692
764.283740	20864.791325
764.610074	18995.786057
764.936362	16848.859457
765.262602	15325.813454
765.588796	13841.165920
765.914943	12805.992704
766.241044	11933.018613
766.567097	11295.234513
766.893104	10740.309339
767.219064	10369.610612
767.544978	9977.174429
767.870845	9660.519391
768.196665	9470.258683
768.522438	9266.674206
768.848165	9103.366027
769.173846	8937.229761
769.499479	8815.564033
769.825066	8655.724168
770.150607	8463.298285
770.476101	8403.782423
770.801548	8293.381153
771.126949	8157.305287
771.452303	8068.016371
771.777611	7897.761482
772.102872	7877.052422
772.428087	7757.932477
772.753256	7633.582335
773.078378	7544.462297
773.403453	7402.064824
773.728482	7291.633308
774.053465	7229.543937
774.378401	7142.992366
774.703291	7053.355610
775.028135	6952.668644
775.352932	6907.792292
775.677683	6829.064593
776.002388	6735.515901
776.327046	6737.943216
776.651658	6647.570451
776.976224	6573.576395
777.300743	6554.062089
777.625216	6492.471792
777.949643	6449.899247
778.274024	6447.096366
778.598359	6377.225973
778.922647	6378.950048
779.246889	6339.054357
779.571086	6348.917374
779.895236	6357.326019
780.219339	6352.882242
780.543397	6346.820254
780.867409	6394.978397
781.191374	6391.131996
781.515294	6359.695361
781.839167	6416.468836
782.162995	6386.325256
782.486776	6333.836762
782.810511	6296.139014
783.134201	6220.758640
783.457844	6211.762701
783.781441	6162.117418
784.104993	6120.240553
784.428498	6091.266522
784.751958	6075.263379
785.075372	6047.985695
785.398739	6010.837432
785.722061	6031.039857
786.045337	6028.947778
786.368568	6133.874354
786.691752	6159.818652
787.014891	6409.229739
787.337983	6677.809813
787.661030	7110.910463
787.984031	7542.639920
788.306987	7810.816701
788.629897	7898.298365
788.952760	7817.070253
789.275579	7639.150289
789.598351	7346.188675
789.921078	7080.378715
790.243759	6806.833104
790.566395	6602.295849
790.888984	6404.365025
791.211529	6265.380414
791.534027	6098.235917
791.856480	5958.926151
792.178888	5898.250823
792.501249	5829.769269
792.823566	5722.256581
793.145836	5713.031269
793.468062	5699.263878
793.790241	5656.479605
794.112375	5692.886818
794.434464	5792.568074
794.756507	5820.337270
795.078505	5938.002842
795.400457	6154.994268
795.722364	6393.715588
796.044226	6587.164825
796.366042	6746.182982
796.687812	6694.286824
797.009538	6729.837041
797.331218	6636.570654
797.652852	6575.822229
797.974442	6449.319515
798.295986	6385.682509
798.617484	6252.225523
798.938938	6139.659078
799.260346	6077.118523
799.581709	5937.213901
799.903026	5886.663731
800.224299	5813.632535
800.545526	5693.020409
800.866708	5631.236027
801.187845	5579.770888
801.508936	5505.471842
801.829983	5472.142253
802.150984	5361.085634
802.471940	5335.549669
802.792851	5321.157175
803.113717	5294.887722
803.434538	5270.649854
803.755314	5239.505606
804.076045	5225.602104
804.396731	5187.682544
804.717372	5201.167631
805.037967	5201.374318
805.358518	5227.137135
805.679024	5283.991268
805.999485	5292.649450
806.319901	5311.818437
806.640272	5330.909287
806.960598	5376.088108
807.280879	5372.529053
807.601115	5408.306122
807.921306	5374.548035
808.241453	5370.908322
808.561554	5379.463160
808.881611	5344.495197
809.201623	5343.567624
809.521590	5293.776148
809.841513	5275.832161
810.161390	5295.054080
810.481223	5207.511923
810.801011	5190.301424
811.120755	5173.353065
811.440453	5118.545640
811.760107	5087.371145
812.079716	5063.738215
812.399281	5005.323845
812.718801	5006.085059
813.038276	4974.267817
813.357707	4940.315646
813.677093	4960.717195
813.996434	4897.221342
814.315731	4918.099281
814.634983	4917.625412
814.954191	4923.233696
815.273354	4981.574969
815.592473	5027.913256
815.911547	5098.963278
816.230577	5150.166278
816.549562	5241.794290
816.868502	5290.375889
817.187399	5350.249674
817.506250	5429.796561
817.825058	5457.585921
818.143821	5614.915292
818.462539	5781.911075
818.781213	6009.650241
819.099843	6372.976281
819.418429	7000.829307
819.736970	7620.366950
820.055466	8332.180394
820.373919	9252.611907
820.692327	10712.555267
821.010691	13416.912494
821.329011	19645.598349
821.647286	29212.937053
821.965517	39564.885982
822.283704	45083.721923
822.601847	46677.709563
822.919945	42149.924139
823.237999	37103.169571
823.556010	31910.760945
823.873976	27186.867075
824.191897	22934.431995
824.509775	19820.528908
824.827609	17014.826844
825.145398	15427.503609
825.463144	14646.719619
825.780845	14920.703810
826.098502	16165.904098
826.416116	18603.594370
826.733685	20854.676249
827.051210	21376.775950
827.368692	19964.501742
827.686129	17402.834373
828.003522	14937.500935
828.320872	12720.068757
828.638177	11051.426669
828.955439	9794.611563
829.272656	8725.034992
829.589830	7881.266826
829.906960	7132.451313
830.224046	6593.151196
830.541088	6177.256003
830.858086	5911.141053
831.175041	5705.708993
831.491952	5642.707173
831.808819	5676.833264
832.125642	5919.499287
832.442421	6467.399613
832.759157	7571.568581
833.075849	9340.816976
833.392497	11175.827223
833.709101	12305.511991
834.025662	12067.778737
834.342179	11027.057732
834.658653	9730.220905
834.975083	8623.284343
835.291469	7714.545786
835.607811	6965.999975
835.924110	6441.692249
836.240366	5949.358041
836.556578	5490.870140
836.872746	5136.847549
837.188871	4860.115929
837.504952	4631.333244
837.820990	4464.612204
838.136984	4348.622816
838.452935	4299.171617
838.768842	4321.549299
839.084706	4605.814923
839.400526	5343.507130
839.716303	6248.860552
840.032037	6821.540671
840.347727	6687.675351
840.663373	6089.272745
840.978977	5507.894116
841.294537	5064.645623
841.610054	4726.885795
841.925527	4484.323116
842.240957	4273.184469
842.556344	4091.395420
842.871687	3930.000359
843.186987	3774.258953
843.502244	3657.021879
843.817458	3567.606933
844.132629	3492.944924
844.447756	3443.496246
844.762840	3397.326838
845.077881	3359.366950
845.392879	3326.269254
845.707833	3300.841674
846.022745	3272.825462
846.337613	3259.302567
846.652438	3234.734503
846.967221	3229.400962
847.281960	3207.252653
847.596656	3193.490303
847.911309	3184.363294
848.225919	3169.524658
848.540485	3159.361692
848.855009	3154.108809
849.169490	3141.974752
849.483928	3133.704739
849.798323	3129.162659
850.112675	3113.928292
850.426984	3119.619755
850.741251	3110.064248
851.055474	3106.900924
851.369654	3107.954525
851.683792	3106.142230
851.997887	3108.473764
852.311938	3106.989144
852.625947	3109.431583
852.939914	3104.408073
853.253837	3105.910337
853.567718	3107.142899
853.881555	3098.031014
854.195350	3105.113835
854.509103	3101.592589
854.822812	3097.930191
855.136479	3093.831733
855.450103	3097.158894
855.763685	3092.165631
856.077224	3091.538008
856.390720	3101.421190
856.704173	3108.695575
857.017584	3118.903911
857.330953	3124.401290
857.644278	3130.922022
857.957561	3131.857156
858.270802	3129.260962
858.584000	3133.283803
858.897155	3126.231228
859.210268	3113.479630
859.523339	3104.481170
859.836367	3102.126951
860.149352	3094.729058
860.462295	3091.240580
860.775195	3082.952923
861.088054	3077.594176
861.400869	3079.086358
861.713642	3072.497570
862.026373	3083.134404
862.339062	3087.351329
862.651708	3097.060592
862.964312	3115.957357
863.276873	3121.268212
863.589392	3150.796771
863.901869	3176.005061
864.214303	3197.465253
864.526696	3216.145248
864.839045	3233.751478
865.151353	3243.730442
865.463619	3249.661360
865.775842	3251.418202
866.088023	3256.199736
866.400162	3250.094899
866.712258	3246.490474
867.024313	3251.012389
867.336325	3250.649426
867.648296	3248.330495
867.960224	3248.756473
868.272110	3252.355857
868.583954	3250.228490
868.895755	3259.973040
869.207515	3256.350971
869.519233	3274.988117
869.830909	3278.156482
870.142542	3291.671815
870.454134	3298.938639
870.765684	3312.282573
871.077191	3333.185717
871.388657	3341.881708
871.700081	3361.083463
872.011463	3382.001731
872.322803	3399.025707
872.634101	3416.962133
872.945357	3438.286213
873.256571	3467.068681
873.567744	3482.547544
873.878874	3486.310765
874.189963	3505.048734
874.501010	3505.683920
874.812015	3501.527488
875.122979	3516.817308
875.433900	3517.049201
875.744780	3522.148328
876.055618	3526.884492
876.366415	3528.487579
876.677169	3529.800800
876.987882	3548.379972
877.298554	3570.770257
877.609183	3610.139148
877.919771	3654.871827
878.230317	3725.722723
878.540822	3832.907736
878.851285	3987.272908
879.161707	4209.003019
879.472087	4584.669804
879.782425	5223.310899
880.092722	6410.797537
880.402977	8348.296963
880.713191	10736.712476
881.023363	13126.801652
881.333494	14492.513244
881.643583	14963.790552
881.953631	14584.242079
882.263637	13761.455195
882.573602	12725.210734
882.883526	11762.988055
883.193408	10807.039093
883.503248	9873.240960
883.813048	9037.836068
884.122806	8263.451823
884.432522	7483.187072
884.742197	6810.203116
885.051831	6235.748511
885.361424	5729.059618
885.670975	5324.126414
885.980485	4998.581302
886.289954	4720.294486
886.599382	4499.761649
886.908768	4313.649811
887.218113	4150.762569
887.527417	4011.354500
887.836680	3890.775141
888.145901	3787.471817
888.455082	3710.566494
888.764221	3638.273827
889.073319	3577.933737
889.382376	3540.780433
889.691392	3516.504756
890.000366	3507.798684
890.309300	3502.243332
890.618193	3507.775998
890.927044	3500.317611
891.235855	3507.793642
891.544625	3520.900643
891.853353	3553.872309
892.162041	3611.298613
892.470687	3706.347048
892.779293	3825.038495
893.087858	3999.414527
893.396381	4284.713588
893.704864	4699.298080
894.013306	5266.884113
894.321707	5839.828891
894.630068	6199.144693
894.938387	6240.958544
895.246665	6064.944137
895.554903	5747.293471
895.863100	5408.520371
896.171256	5140.933404
896.479371	4898.403493
896.787446	4670.631559
897.095480	4469.146722
897.403473	4319.071572
897.711425	4173.067154
898.019336	4051.232548
898.327207	3927.404165
898.635038	3822.159996
898.942827	3715.325343
899.250576	3627.319400
899.558284	3545.183881
899.865952	3491.278823
900.173579	3423.538318
900.481165	3377.192470
900.788711	3335.935667
901.096216	3301.149185
901.403681	3273.581635
901.711105	3260.388935
902.018489	3258.906836
902.325832	3290.605611
902.633135	3350.963346
902.940397	3521.676980
903.247619	3924.790327
903.554800	4680.933157
903.861941	5650.904089
904.169041	6370.085179
904.476101	6593.826710
904.783121	6319.900492
905.090100	5922.312250
905.397039	5503.969578
905.703938	5140.530112
906.010796	4818.107994
906.317614	4559.360691
906.624391	4314.534534
906.931129	4113.891569
907.237826	3929.135802
907.544483	3755.251282
907.851099	3579.345260
908.157675	3421.789037
908.464211	3277.188580
908.770707	3171.523475
909.077163	3089.098089
909.383578	3030.655993
909.689954	2981.560195
909.996289	2951.416616
910.302584	2930.959614
910.608839	2919.226328
910.915054	2904.463309
911.221229	2899.240674
911.527363	2900.805952
911.833458	2909.443969
912.139513	2924.660692
912.445527	2936.671241
912.751502	2972.017291
913.057436	3015.509846
913.363331	3073.886407
913.669186	3166.608350
913.975000	3285.188892
914.280775	3475.091678
914.586510	3750.242896
914.892205	4123.658805
915.197859	4626.574395
915.503475	5212.958890
915.809050	5709.313418
916.114585	5999.900649
916.420081	6062.625206
916.725536	6001.264281
917.030952	5765.907932
917.336328	5563.104833
917.641665	5350.549622
917.946961	5120.204180
918.252218	4918.169857
918.557435	4693.767935
918.862612	4490.218745
919.167750	4319.948733
919.472848	4124.422540
919.777906	3955.337199
920.082925	3793.952220
920.387904	3636.106131
920.692843	3524.963812
920.997743	3425.660643
921.302603	3327.847135
921.607423	3261.208123
921.912204	3195.000129
922.216946	3143.487098
922.521647	3097.713421
922.826310	3053.371432
923.130932	3016.223169
923.435516	2973.784216
923.740059	2945.417643
924.044564	2914.091913
924.349028	2886.965464
924.653454	2862.142822
924.957840	2834.635767
925.262186	2811.471665
925.566493	2789.272944
925.870761	2763.704211
926.174989	2753.934455
926.479178	2739.166395
926.783328	2720.955227
927.087438	2710.663711
927.391509	2697.672658
927.695541	2687.323169
927.999533	2672.061076
928.303486	2667.161074
928.607400	2658.339055
928.911275	2653.144146
929.215110	2646.061325
929.518906	2642.837507
929.822663	2645.552168
930.126381	2643.628968
930.430060	2644.556540
930.733699	2646.714154
931.037299	2652.221615
931.340861	2649.519556
931.644383	2653.388642
931.947866	2650.706748
932.251309	2648.813795
932.554714	2648.055101
932.858080	2644.748104
933.161407	2640.407671
933.464694	2640.213586
933.767943	2635.653862
934.071153	2631.779736
934.374323	2629.881741
934.677455	2624.875876
934.980548	2622.012500
935.283602	2618.907149
935.586617	2616.653754
935.889593	2621.130298
936.192530	2619.554938
936.495428	2625.906792
936.798287	2637.176291
937.101108	2650.386635
937.403890	2671.713236
937.706632	2699.086701
938.009336	2729.066443
938.312002	2761.312184
938.614628	2782.991666
938.917216	2803.385654
939.219765	2811.391006
939.522275	2824.039261
939.824747	2825.090342
940.127179	2816.525421
940.429573	2812.474854
940.731929	2811.040646
941.034246	2805.056796
941.336524	2801.475057
941.638763	2796.285189
941.940964	2789.149435
942.243126	2772.448093
942.545250	2763.489962
942.847335	2747.653177
943.149381	2735.463667
943.451389	2723.337172
943.753359	2707.820500
944.055290	2699.177442
944.357182	2690.836853
944.659036	2683.050791
944.960851	2683.353260
945.262628	2676.257836
945.564367	2676.593073
945.866067	2675.400840
946.167729	2672.867660
946.469352	2672.595438
946.770937	2671.814059
947.072484	2666.775426
947.373992	2662.213182
947.675462	2662.056906
947.976893	2657.872748
948.278286	2652.377890
948.579641	2647.762714
948.880958	2644.150727
949.182236	2645.479071
949.483476	2642.267856
949.784678	2639.948926
950.085841	2638.907927
950.386967	2645.368166
950.688054	2650.623569
950.989103	2657.721513
951.290114	2665.759633
951.591087	2679.811850
951.892021	2689.974816
952.192917	2703.802701
952.493776	2711.215717
952.794596	2716.398024
953.095378	2718.205277
953.396122	2715.183106
953.696828	2715.188147
953.997496	2708.750593
954.298126	2699.878162
954.598718	2693.841381
954.899272	2682.357632
955.199788	2672.529903
955.500266	2656.425937
955.800706	2642.237609
956.101108	2624.475104
956.401472	2615.030502
956.701798	2602.301589
957.002087	2586.369022
957.302337	2573.088102
957.602550	2567.600806
957.902724	2555.819630
958.202861	2544.860161
958.502960	2539.057793
958.803022	2529.204858
959.103045	2521.703621
959.403031	2516.017199
959.702979	2509.345232
960.002889	2504.082268
960.302762	2498.375682
960.602596	2491.658344
960.902393	2492.144815
961.202153	2488.159783
961.501875	2487.186841
961.801559	2484.215080
962.101205	2482.990080
962.400814	2478.198463
962.700385	2479.241982
962.999918	2473.691672
963.299414	2475.120839
963.598873	2469.575570
963.898293	2468.431228
964.197677	2470.843420
964.497022	2468.300158
964.796331	2465.187245
965.095601	2464.352934
965.394835	2465.555249
965.694030	2465.666155
965.993189	2466.170270
966.292309	2463.332101
966.591393	2461.673561
966.890439	2463.316977
967.189447	2462.606174
967.488419	2463.435444
967.787353	2464.194138
968.086249	2462.281020
968.385108	2463.445527
968.683930	2462.570886
968.982714	2466.616412
969.281462	2467.188583
969.580172	2467.596917
969.878844	2471.241671
970.177480	2474.967084
970.476078	2477.553196
970.774639	2480.043526
971.073162	2482.541417
971.371649	2481.666777
971.670098	2480.920686
971.968510	2485.175420
972.266885	2481.674339
972.565223	2489.480566
972.863524	2490.088025
973.161788	2493.959631
973.460014	2489.861173
973.758204	2494.352841
974.056356	2492.469970
974.354471	2495.048520
974.652550	2494.173880
974.950591	2496.394508
975.248595	2492.785042
975.546563	2495.940804
975.844493	2492.535505
976.142386	2488.474855
976.440243	2485.679536
976.738062	2484.598208
977.035845	2482.062508
977.333590	2480.227528
977.631299	2479.115953
977.928971	2477.575881
978.226606	2475.982876
978.524204	2473.842906
978.821765	2472.144038
979.119290	2471.466002
979.416777	2474.215952
979.714228	2470.694706
980.011642	2472.194449
980.309020	2479.274750
980.606360	2478.848772
980.903664	2489.220946
981.200931	2504.740138
981.498162	2522.873169
981.795356	2550.602035
982.092513	2591.553849
982.389633	2636.873822
982.686717	2677.583660
982.983764	2712.476006
983.280775	2728.819427
983.577749	2732.295302
983.874686	2721.403889
984.171587	2703.769933
984.468451	2691.335927
984.765279	2671.544357
985.062070	2654.399393
985.358824	2634.186887
985.655543	2615.073352
985.952224	2588.360278
986.248869	2562.390774
986.545478	2530.737369
986.842050	2513.461334
987.138586	2494.335197
987.435086	2478.798361
987.731549	2467.627164
988.027975	2463.889148
988.324366	2455.782973
988.620719	2451.084617
988.917037	2451.049329
989.213318	2446.345933
989.509563	2444.717640
989.805772	2440.992227
990.101944	2439.318564
990.398080	2442.292845
990.694180	2436.404777
990.990244	2440.034408
991.286271	2439.215221
991.582262	2439.739501
991.878217	2441.191353
992.174136	2442.822166
992.470019	2444.208483
992.765865	2447.313834
993.061676	2445.864502
993.357450	2449.005141
993.653188	2449.738629
993.948890	2457.476800
994.244556	2462.790177
994.540186	2471.992803
994.835780	2483.779021
995.131337	2499.608244
995.426859	2517.022910
995.722345	2535.322298
996.017795	2551.821995
996.313208	2570.045766
996.608586	2580.420460
996.903928	2583.863568
997.199234	2583.883733
997.494504	2580.163362
997.789738	2570.002916
998.084936	2558.236863
998.380099	2548.336037
998.675225	2535.017308
998.970316	2523.760412
999.265371	2513.940244
999.560390	2497.727893
999.855373	2484.872951
1000.150320	2474.541106
1000.445232	2466.205558
1000.740108	2460.372943
1001.034948	2452.811212
1001.329752	2451.031685
1001.624521	2444.891560
1001.919254	2437.642381
1002.213951	2437.970056
1002.508613	2432.691968
1002.803239	2431.091401
1003.097829	2427.925557
1003.392384	2429.034610
1003.686903	2428.565783
1003.981386	2427.618046
1004.275834	2425.372212
1004.570246	2427.408838
1004.864623	2425.175607
1005.158964	2424.416913
1005.453270	2419.844587
1005.747540	2420.605801
1006.041775	2419.365677
1006.335974	2422.082859
1006.630138	2420.003383
1006.924266	2418.422982
1007.218359	2422.097983
1007.512416	2417.679411
1007.806438	2419.098496
1008.100425	2418.004566
1008.394376	2418.917015
1008.688292	2419.179155
1008.982172	2420.237797
1009.276017	2418.002045
1009.569827	2416.398958
1009.863602	2416.454411
1010.157341	2417.828125
1010.451045	2418.397776
1010.744714	2417.260996
1011.038347	2418.637231
1011.331945	2415.103382
1011.625508	2413.782599
1011.919036	2415.335275
1012.212528	2413.233114
1012.505986	2414.364853
1012.799408	2413.517939
1013.092795	2414.095151
1013.386147	2411.572053
1013.679464	2416.325862
1013.972745	2413.215470
1014.265992	2412.696231
1014.559204	2415.579771
1014.852380	2413.333937
1015.145521	2412.852507
1015.438628	2413.321334
1015.731699	2416.061201
1016.024736	2412.688669
1016.317737	2414.952147
1016.610703	2415.007600
1016.903635	2412.683628
1017.196531	2409.621127
1017.489393	2414.372414
1017.782219	2411.105747
1018.075011	2416.275450
1018.367768	2417.732343
1018.660490	2413.396951
1018.953177	2413.396951
1019.245829	2413.396951
