Dividing Wavelength (nm)	Counts (n)	Blue Motor Position (mm): 41.400000	Red Motor Position (mm): 0.000000	
326.493990	1969.745166
326.888308	1969.745166
327.282561	1969.745166
327.676750	1947.846393
328.070874	1950.223297
328.464933	1956.456684
328.858929	1966.050000
329.252859	1977.899232
329.646726	1991.258290
330.040528	2007.090033
330.434265	2024.260203
330.827938	2046.373225
331.221547	2064.191183
331.615091	2085.202712
332.008571	2103.733994
332.401986	2125.884824
332.795338	2147.518936
333.188625	2168.369148
333.581847	2187.084432
333.975006	2204.199149
334.368100	2220.673640
334.761129	2238.174005
335.154095	2253.335275
335.546996	2296.152316
335.939833	2380.072404
336.332606	2393.801986
336.725315	2403.876732
337.117960	2413.792682
337.510540	2418.196130
337.903056	2428.570824
338.295508	2437.949891
338.687896	2443.951385
339.080220	2453.481686
339.472480	2453.816923
339.864676	2461.030814
340.256807	2465.371247
340.648875	2465.348562
341.040879	2467.871660
341.432818	2468.897534
341.824694	2469.452061
342.216506	2467.075157
342.608253	2469.094139
342.999937	2468.181691
343.391557	2464.768829
343.783113	2465.567852
344.174605	2463.977368
344.566033	2461.923098
344.957397	2461.514765
345.348697	2458.031327
345.739934	2457.305401
346.131106	2458.505196
346.522215	2456.944959
346.913260	2451.392128
347.304241	2449.395831
347.695159	2450.189813
348.086012	2447.870882
348.476802	2444.228648
348.867528	2445.763679
349.258191	2442.497012
349.648789	2442.484409
350.039324	2443.722012
350.429796	2441.430808
350.820203	2441.778647
351.210548	2439.419387
351.600828	2437.907041
351.991045	2439.598348
352.381198	2436.634150
352.771288	2438.466609
353.161314	2439.184974
353.551276	2439.747062
353.941175	2436.220775
354.331010	2437.796136
354.720782	2439.605910
355.110490	2440.047011
355.500135	2438.022988
355.889717	2438.466609
356.279235	2438.617844
356.668689	2440.737649
357.058080	2442.318051
357.447408	2435.764551
357.836672	2437.922165
358.225873	2437.261773
358.615010	2439.237906
359.004084	2442.890222
359.393095	2443.931220
359.782043	2444.694955
360.170927	2444.969698
360.559748	2445.849379
360.948505	2446.298042
361.337199	2448.710234
361.725830	2447.586057
362.114398	2451.989504
362.502903	2445.400716
362.891344	2451.994546
363.279722	2450.056222
363.668037	2451.281222
364.056289	2450.847683
364.444478	2455.233487
364.832603	2453.925308
365.220665	2454.091666
365.608665	2455.747685
365.996601	2457.174331
366.384474	2455.659464
366.772284	2457.174331
367.160031	2457.870010
367.547715	2457.554938
367.935336	2457.592747
368.322893	2461.658438
368.710388	2461.149281
369.097820	2462.989302
369.485189	2464.332770
369.872495	2464.010136
370.259738	2461.184569
370.646918	2465.799745
371.034035	2466.134982
371.421090	2466.613892
371.808081	2465.172122
372.195010	2465.726649
372.581875	2466.250929
372.968678	2467.422997
373.355418	2469.562967
373.742096	2471.448358
374.128710	2469.323512
374.515262	2469.875518
374.901751	2473.124542
375.288177	2472.000365
375.674540	2472.721250
376.060841	2476.723926
376.447079	2473.724439
376.833254	2473.676548
377.219367	2473.059007
377.605417	2478.793319
377.991404	2476.071096
378.377329	2475.546816
378.763191	2472.948102
379.148991	2481.392034
379.534727	2482.332209
379.920402	2482.077631
380.306013	2483.229535
380.691563	2485.298928
381.077049	2485.913949
381.462474	2485.220791
381.847835	2489.493168
382.233134	2488.404279
382.618371	2490.612305
383.003545	2494.362923
383.388657	2494.345279
383.773706	2496.616319
384.158693	2497.722852
384.543618	2500.326608
384.928480	2500.855929
385.313280	2499.946001
385.698017	2505.408091
386.082692	2504.997237
386.467305	2510.550068
386.851856	2512.543844
387.236344	2515.281191
387.620770	2522.328724
388.005133	2526.333921
388.389435	2534.979500
388.773674	2537.744573
389.157851	2552.217725
389.541965	2562.544529
389.926018	2573.125911
390.310008	2587.165524
390.693936	2602.349480
391.077802	2623.005608
391.461606	2647.583753
391.845348	2672.504697
392.229027	2699.416897
392.612645	2737.132289
392.996200	2773.040428
393.379694	2816.724547
393.763125	2869.913761
394.146494	2916.660381
394.529801	2973.643063
394.913047	3045.545041
395.296230	3091.495158
395.679351	3151.331133
396.062410	3235.450347
396.445408	3285.468676
396.828343	3364.801314
397.211217	3453.931434
397.594028	3496.128412
397.976778	3603.799897
398.359466	3711.052966
398.742092	3782.072741
399.124656	3895.828898
399.507158	4022.137528
399.889598	4116.177733
400.271977	4262.797172
400.654294	4360.388869
401.036549	4510.832023
401.418742	4616.688692
401.800874	4820.492460
402.182944	4945.868477
402.564952	5193.212690
402.946898	5237.171552
403.328783	5369.017889
403.710606	5556.624430
404.092367	5786.243946
404.474067	6062.632768
404.855705	6091.649649
405.237282	6187.948291
405.618797	6516.278641
406.000250	6773.611900
406.381642	7086.942297
406.762972	7190.149840
407.144240	7211.063067
407.525447	7481.576423
407.906593	7572.765855
408.287677	7859.857046
408.668700	8081.385511
409.049661	8198.705763
409.430560	8418.265658
409.811399	8535.719501
410.192176	8762.032021
410.572891	8938.132127
410.953545	9398.507941
411.334138	9153.573399
411.714669	9700.168066
412.095139	9322.762083
412.475547	9799.670361
412.855894	9800.005597
413.236180	10154.837293
413.616405	10019.288228
413.996568	10332.134674
414.376670	10412.004195
414.756711	10409.700388
415.136691	10733.886909
415.516609	10969.505399
415.896466	11118.801691
416.276262	11440.265989
416.655997	11905.559448
417.035670	12014.907116
417.415283	12666.650170
417.794834	12841.260616
418.174324	12680.190710
418.553753	12675.378928
418.933121	13201.478785
419.312428	13088.917381
419.691674	13070.416347
420.070859	13554.034400
420.449983	13296.484370
420.829045	13850.250079
421.208047	13662.436851
421.586988	14140.529800
421.965867	14426.738789
422.344686	14469.265963
422.723444	15042.205700
423.102141	13828.837778
423.480777	14991.078318
423.859352	14554.385845
424.237866	15643.736342
424.616319	15389.747887
424.994712	16054.040894
425.373044	15873.701177
425.751314	16540.577776
426.129524	15715.053545
426.507673	16786.570960
426.885762	16522.953902
427.263789	16713.196966
427.641756	16894.081127
428.019662	16963.868341
428.397508	17018.998399
428.775292	17309.938511
429.153016	17293.196839
429.530679	17363.934310
429.908282	17404.694559
430.285824	17134.899567
430.663305	17845.233432
431.040726	17446.430272
431.418086	17290.663659
431.795385	17920.472653
432.172624	18352.892748
432.549802	17903.927586
432.926920	18099.083255
433.303977	17984.923805
433.680974	18246.489114
434.057910	18528.418163
434.434786	18564.326302
434.811601	18476.174165
435.188355	19501.431432
435.565050	19155.366302
435.941683	19111.112533
436.318257	19978.516149
436.694770	19786.009607
437.071222	20385.748119
437.447614	19467.953129
437.823946	19490.361058
438.200218	19645.237907
438.576429	19419.149718
438.952580	19701.469457
439.328670	19659.859773
439.704700	20067.046372
440.080670	19660.817593
440.456580	20228.509489
440.832429	20401.531971
441.208218	19411.681249
441.583947	19855.416213
441.959616	19962.329004
442.335224	20189.075063
442.710773	20323.575568
443.086261	20845.357677
443.461689	20215.767973
443.837057	20343.304124
444.212365	20974.048252
444.587612	20978.686113
444.962800	20570.277035
445.337927	20982.345991
445.712995	19739.404140
446.088002	21552.379503
446.462949	21742.189028
446.837837	21904.398235
447.212664	21869.790714
447.587431	24636.413754
447.962139	27536.992854
448.336786	29911.540153
448.711374	28381.033242
449.085901	24740.188426
449.460369	24677.872203
449.834776	24580.648510
450.209124	27040.408953
450.583412	26593.908916
450.957640	27122.090769
451.331808	25791.389991
451.705917	24424.713018
452.079965	24459.504542
452.453954	24817.796990
452.827883	24707.940165
453.201752	24518.952348
453.575562	24680.531412
453.949311	25760.301195
454.323001	25828.190414
454.696632	25596.186432
455.070202	27126.973126
455.443713	27269.516792
455.817164	27836.573503
456.190556	28377.277582
456.563888	27828.852976
456.937160	28265.210212
457.310373	26614.653264
457.683526	27030.548456
458.056619	27015.866095
458.429653	26953.146580
458.802628	27531.898768
459.175542	27639.547567
459.548398	28943.484859
459.921194	30498.574956
460.293930	31180.685922
460.666607	33195.972871
461.039224	34943.730827
461.411782	35305.829346
461.784280	34095.642392
462.156719	33603.892958
462.529099	33023.928373
462.901419	31730.484242
463.273680	30690.181652
463.645882	30784.733534
464.018024	30767.046646
464.390106	31611.974277
464.762130	34293.321158
465.134094	38340.840896
465.505999	43636.903207
465.877845	48219.390191
466.249631	49349.579075
466.621358	47551.817913
466.993026	45419.099806
467.364634	43298.470385
467.736184	41350.029135
468.107674	40120.433739
468.479105	39338.144964
468.850477	38638.203438
469.221790	37232.790239
469.593043	35520.058220
469.964238	34647.825179
470.335373	34570.761060
470.706449	36226.429738
471.077467	38754.283567
471.448425	43331.278214
471.819324	46211.249077
472.190164	44406.115228
472.560945	40857.742818
472.931667	37757.697863
473.302330	36648.059243
473.672934	35827.755128
474.043479	36321.394994
474.413965	35558.023150
474.784393	35183.064647
475.154761	36066.163896
475.525070	36088.208862
475.895321	35656.126524
476.265513	36248.260455
476.635645	37195.120217
477.005719	37029.112501
477.375734	37490.123499
477.745691	38180.285187
478.115588	39491.590126
478.485427	41449.750720
478.855207	44781.809739
479.224928	47413.725586
479.594591	49051.888858
479.964194	48005.504116
480.333739	48109.230897
480.703226	48143.359509
481.072653	48775.618503
481.442022	49282.433426
481.811333	49568.682744
482.180584	48278.689284
482.549777	47741.503930
482.918912	47225.062924
483.287988	46928.955629
483.657005	46100.341172
484.025964	45462.410879
484.394864	45453.709847
484.763706	45019.812695
485.132489	44158.392928
485.501213	43991.629038
485.869879	44156.915870
486.238487	43741.003034
486.607036	43952.078666
486.975527	43414.283332
487.343959	43620.582471
487.712333	43687.937328
488.080648	43608.266932
488.448905	44030.100604
488.817104	43865.345614
489.185244	44798.841278
489.553326	46464.980432
489.921350	49185.421461
490.289315	52101.194599
490.657222	52766.997432
491.025070	53048.155184
491.392861	52129.442705
491.760593	50834.385405
492.128267	49135.004882
492.495883	47594.811394
492.863440	46190.809719
493.230939	44864.623294
493.598380	43779.492243
493.965763	43450.937562
494.333088	42647.412927
494.700354	42168.180678
495.067563	41892.306054
495.434713	41761.662032
495.801805	41835.900584
496.168839	41443.895420
496.535815	41131.711885
496.902733	41155.163333
497.269593	40752.990162
497.636395	40697.056039
498.003139	41077.393453
498.369825	40541.720445
498.736453	40832.267347
499.103023	40375.619467
499.469535	40252.562381
499.835989	40346.900013
500.202385	40001.701963
500.568723	40022.781547
500.935003	40212.086957
501.301226	40033.642713
501.667390	40625.078444
502.033497	40879.996992
502.399546	40301.857304
502.765537	39641.004884
503.131470	40004.275472
503.497345	40356.750428
503.863163	39041.888956
504.228923	39640.866253
504.594625	40034.900481
504.960269	39323.495371
505.325856	40013.755362
505.691385	39377.342456
506.056856	39523.377121
506.422270	39950.907297
506.787625	39524.150938
507.152924	39723.011855
507.518164	39808.356069
507.883347	39043.479440
508.248472	39281.346284
508.613540	39750.647460
508.978550	40053.048635
509.343503	39808.469495
509.708398	40000.527374
510.073236	40538.320187
510.438016	40523.456345
510.802738	39971.989402
511.167403	40581.936250
511.532010	40820.713022
511.896561	41114.299740
512.261053	41946.127933
512.625488	41491.839313
512.989866	41373.089893
513.354186	41220.249670
513.718449	41202.005735
514.082655	41875.433312
514.446803	41561.687020
514.810894	42077.240783
515.174927	42006.417613
515.538904	41891.779254
515.902822	42558.970924
516.266684	42014.448171
516.630488	42429.851851
516.994235	42289.692650
517.357925	42850.775594
517.721558	43025.577603
518.085133	43331.747041
518.448651	43472.067558
518.812112	43242.856375
519.175516	43350.142212
519.538863	43688.081001
519.902152	43652.233356
520.265385	44109.753355
520.628560	44165.652190
520.991678	43948.428871
521.354739	44199.765678
521.717743	44498.484290
522.080690	44412.114201
522.443580	44949.927179
522.806413	45013.314647
523.169189	44941.095077
523.531908	45146.932951
523.894569	44996.898130
524.257174	45172.045458
524.619722	45469.029914
524.982213	45465.869110
525.344647	45374.316715
525.707025	45441.195183
526.069345	45828.068453
526.431608	45754.817967
526.793815	46069.723724
527.155964	45609.481501
527.518057	45778.430731
527.880093	45566.782928
528.242072	46109.241329
528.603995	45789.675025
528.965860	45802.711449
529.327669	45904.462098
529.689421	45809.675803
530.051117	45759.954902
530.412755	45908.994095
530.774337	45981.616958
531.135862	45791.837680
531.497331	46006.283323
531.858743	45909.079795
532.220098	46259.175327
532.581396	45971.333004
532.942638	45617.605321
533.303824	45929.302383
533.664953	45900.348516
534.026025	45623.937010
534.387040	46093.568382
534.747999	46037.840946
535.108902	46205.464353
535.469748	45748.637512
535.830537	45863.666560
536.191270	46049.785960
536.551947	45691.987546
536.912567	46011.132913
537.273131	46113.659900
537.633638	45629.956148
537.994089	45965.066849
538.354483	45572.791983
538.714821	46143.024621
539.075103	46487.123701
539.435328	46249.108142
539.795497	46148.642987
540.155609	46129.962992
540.515665	46591.457941
540.875665	46045.460650
541.235609	46383.263328
541.595496	46350.430293
541.955328	47011.950666
542.315102	46390.487302
542.674821	46186.033225
543.034483	46217.636219
543.394090	46186.416353
543.753640	46140.398180
544.113134	47150.151378
544.472571	46170.539239
544.831953	47422.429138
545.191278	46628.679301
545.550548	46354.342229
545.909761	46810.082701
546.268918	46996.708737
546.628019	47301.842218
546.987064	46870.586630
547.346053	46179.943512
547.704986	47053.588076
548.063863	46597.971112
548.422684	46799.985270
548.781449	46659.054773
549.140158	47056.779126
549.498811	46885.508445
549.857408	46332.009917
550.215949	47167.359357
550.574434	47097.559540
550.932864	46871.196609
551.291237	47578.157942
551.649555	47197.427319
552.007817	47435.107640
552.366022	47092.465454
552.724173	47266.297042
553.082267	47661.972166
553.440305	47961.162126
553.798288	47278.746171
554.156215	47587.998275
554.514086	47808.064805
554.871902	47532.469965
555.229661	47565.759224
555.587365	47382.845998
555.945014	47481.105648
556.302606	47403.824760
556.660143	47623.011609
557.017625	47718.168429
557.375050	47508.937859
557.732421	47858.526755
558.089735	47848.820013
558.446994	47771.435781
558.804197	48232.575329
559.161345	48168.648457
559.518437	47421.733459
559.875474	47730.342815
560.232455	47870.270123
560.589381	48064.374710
560.946251	47752.614633
561.303065	48434.418088
561.659825	48235.032891
562.016528	47924.888504
562.373177	47632.851941
562.729770	48112.784911
563.086307	47627.987227
563.442789	48069.798992
563.799216	48135.079413
564.155587	47926.146272
564.511904	47957.782033
564.868164	48042.052481
565.224370	48288.905182
565.580520	48013.191875
565.936615	48215.011949
566.292654	47943.142522
566.648638	48183.887865
567.004567	48121.143144
567.360441	48172.532666
567.716260	48021.545067
568.072023	48321.897013
568.427732	48311.923090
568.783385	47851.912761
569.138982	48247.595447
569.494525	48216.695694
569.850013	47971.667891
570.205445	47948.135785
570.560823	47906.649609
570.916145	47766.629041
571.271412	47778.185886
571.626625	47547.096873
571.981782	47599.406406
572.336884	47281.120555
572.691931	47621.438769
573.046923	47216.422386
573.401860	47057.021102
573.756743	47033.761218
574.111570	47170.449584
574.466342	47011.025614
574.821059	47129.643964
575.175722	46647.820562
575.530330	46660.584763
575.884882	46379.341311
576.239380	46343.002153
576.593823	46313.985272
576.948211	46231.121305
577.302544	45765.394307
577.656823	45777.183046
578.011047	46005.953128
578.365216	45714.776082
578.719330	45527.784562
579.073389	45377.681686
579.427394	45456.888295
579.781344	45424.634993
580.135239	45062.019755
580.489080	45170.205437
580.842866	44650.706972
581.196597	45085.927427
581.550273	45037.330704
581.903895	44888.195729
582.257463	45333.715262
582.610975	44703.838213
582.964434	44996.288150
583.317837	44624.692097
583.671186	44460.857118
584.024481	44680.895922
584.377721	44210.248757
584.730906	44502.439075
585.084037	44522.636458
585.437113	44220.603287
585.790135	44269.653714
586.143103	43876.196698
586.496016	43991.026621
586.848874	44026.052558
587.201679	44026.284451
587.554428	43518.287378
587.907124	43713.553951
588.259765	43460.818224
588.612352	43719.557965
588.964884	43083.114813
589.317362	43382.420720
589.669786	43326.816793
590.022155	43095.422790
590.374470	43512.089279
590.726731	43032.211762
591.078937	42540.270764
591.431090	42644.660457
591.783188	42306.600680
592.135232	41985.764005
592.487222	42231.371541
592.839157	42309.948006
593.191038	41990.326250
593.542866	41750.463108
593.894639	41147.392394
594.246358	41432.494850
594.598022	41411.861408
594.949633	41008.160766
595.301190	40970.858748
595.652692	40793.584053
596.004141	41139.782773
596.355535	40152.954222
596.706876	40108.566863
597.058162	39940.157036
597.409395	40401.571327
597.760573	40486.335808
598.111698	40058.505684
598.462768	40075.045710
598.813785	40117.421649
599.164748	39573.196324
599.515657	39952.951484
599.866511	39428.729458
600.217312	40050.107122
600.568060	39008.675313
600.918753	39767.011045
601.269392	39717.796781
601.619978	39369.299295
601.970510	39571.003422
602.320988	39764.361919
602.671412	40068.835008
603.021783	39808.401439
603.372100	39468.942742
603.722363	39561.077390
604.072572	39652.816308
604.422728	39671.289616
604.772830	39467.105241
605.122878	39564.817926
605.472872	39499.477011
605.822813	39768.974575
606.172701	39611.814083
606.522534	39861.923369
606.872314	40133.989401
607.222041	39871.894772
607.571714	40257.061611
607.921333	39726.795241
608.270899	40011.151606
608.620411	40343.860198
608.969870	40147.832410
609.319276	40139.406121
609.668627	40196.948372
610.017926	40670.698366
610.367171	40833.462100
610.716362	40924.031470
611.065500	40854.269463
611.414585	41061.400392
611.763616	41340.642507
612.112594	41282.129834
612.461518	41489.825372
612.810389	41775.673919
613.159207	41658.729232
613.507971	41725.857237
613.856682	42195.231509
614.205340	42079.834457
614.553945	42792.358703
614.902496	42238.373704
615.250994	42700.289590
615.599439	42779.871765
615.947830	42981.275943
616.296169	43031.269066
616.644454	43142.224862
616.992686	43322.710773
617.340864	43865.390984
617.688990	43567.504162
618.037063	44165.962221
618.385082	44142.760310
618.733048	44453.920490
619.080961	44456.103310
619.428821	44455.384945
619.776628	44587.022075
620.124382	44381.040529
620.472083	44516.009862
620.819731	44634.446730
621.167326	44319.717413
621.514868	44296.913754
621.862357	43864.554153
622.209793	43873.217376
622.557176	43546.550607
622.904506	43296.106083
623.251783	42959.382212
623.599007	42733.788057
623.946179	42504.415557
624.293297	42469.891215
624.640363	41875.007335
624.987376	41859.783050
625.334336	41613.845319
625.681243	41267.704572
626.028097	41223.309651
626.374899	41081.648187
626.721647	41075.777763
627.068343	40943.331528
627.414987	40718.528834
627.761577	40495.336788
628.108115	40828.511687
628.454600	40270.418148
628.801032	40460.565430
629.147412	40430.631058
629.493739	40439.599271
629.840014	40086.907545
630.186236	40412.104818
630.532405	40035.787724
630.878521	40254.697310
631.224585	40131.448660
631.570597	39841.768836
631.916556	40006.178507
632.262462	39956.008944
632.608316	39955.141866
632.954117	39854.311227
633.299866	39859.692659
633.645562	39773.113362
633.991206	39274.870922
634.336797	38828.469187
634.682336	38837.187863
635.027823	38591.852549
635.373257	38406.587624
635.718639	38171.085081
636.063968	38026.081332
636.409245	37451.687222
636.754470	37506.776951
637.099642	37256.566842
637.444762	36777.392566
637.789829	36925.594927
638.134845	36582.735972
638.479808	36537.063118
638.824719	36432.751562
639.169577	36040.711110
639.514383	36101.341067
639.859137	35811.593188
640.203839	36059.693575
640.548489	35671.771745
640.893086	35762.116784
641.237632	35509.270151
641.582125	35610.927539
641.926566	35562.562709
642.270955	35518.704670
642.615292	35539.234769
642.959576	35506.971385
643.303809	35507.372157
643.647990	35664.104150
643.992118	35626.509745
644.336195	35615.731758
644.680219	35722.208489
645.024192	36015.591040
645.368112	36525.410491
645.711981	36540.576802
646.055797	37414.271778
646.399562	37350.765842
646.743274	38306.477871
647.086935	38745.426260
647.430544	38633.913416
647.774101	38750.076724
648.117606	38982.932661
648.461059	39292.439343
648.804460	38905.598841
649.147810	38288.422978
649.491108	38029.537043
649.834354	37665.235540
650.177548	36842.892278
650.520690	36390.841930
650.863781	36411.407317
651.206820	36231.090285
651.549807	35819.265824
651.892742	35327.408005
652.235626	35146.082743
652.578458	34992.473744
652.921238	34393.607352
653.263967	34725.980707
653.606644	34403.982047
653.949269	34352.985734
654.291843	33951.651915
654.634365	34365.860841
654.976836	33963.112978
655.319255	33962.795386
655.661622	33957.119046
656.003938	33736.298864
656.346203	33585.560802
656.688416	33817.360618
657.030577	33620.117912
657.372687	33449.752117
657.714746	33722.223962
658.056753	33852.550392
658.398708	33289.448466
658.740612	33345.974924
659.082465	33624.344919
659.424266	33436.072947
659.766016	33562.222780
660.107715	33443.314564
660.449362	33569.661003
660.790958	33550.398754
661.132503	33586.604321
661.473996	33615.583394
661.815438	33726.335023
662.156829	33921.823408
662.498168	33681.078065
662.839456	33715.662901
663.180693	33869.798700
663.521879	34035.040161
663.863013	33989.692462
664.204097	33989.447966
664.545129	34443.136689
664.886110	34416.799180
665.227040	34472.740865
665.567918	34582.764047
665.908746	34667.606667
666.249522	34813.832896
666.590248	34814.926826
666.930922	34931.170793
667.271545	34888.688989
667.612118	34983.860933
667.952639	34767.096358
668.293109	34829.258826
668.633528	34717.972835
668.973896	34640.553314
669.314213	34676.756361
669.654480	34411.447996
669.994695	34430.148156
670.334859	34319.792257
670.674973	34224.277515
671.015035	34389.040067
671.355047	34344.551884
671.695008	34270.462046
672.034918	34169.949000
672.374777	34265.282260
672.714585	34099.859317
673.054342	34319.144469
673.394049	34075.205555
673.733705	34362.694997
674.073310	34018.847975
674.412864	34087.584108
674.752368	33685.186605
675.091820	33989.203470
675.431223	33573.222578
675.770574	33295.218067
676.109875	33152.873526
676.449125	32877.558471
676.788324	32798.621563
677.127473	32255.870776
677.466571	32194.298123
677.805619	31823.856494
678.144616	31831.526609
678.483562	31758.349220
678.822458	31419.714752
679.161303	31360.052696
679.500098	31258.191141
679.838842	31152.135347
680.177535	31294.646245
680.516179	31572.537331
680.854771	31827.622236
681.193314	32700.926522
681.531805	33826.560723
681.870247	34616.083554
682.208638	35360.425042
682.546978	35586.304023
682.885268	35675.582858
683.223508	35142.216178
683.561697	34788.788443
683.899836	34598.830205
684.237925	34079.553550
684.575963	33931.492341
684.913951	33466.725683
685.251889	33632.478821
685.589776	33612.841006
685.927614	33612.225985
686.265401	33755.765279
686.603137	33853.863613
686.940824	34358.009244
687.278460	34749.192700
687.616046	34884.595572
687.953582	35491.275752
688.291068	35358.242223
688.628504	35647.929608
688.965889	35574.361529
689.303224	35176.559038
689.640510	34809.013553
689.977745	34071.875872
690.314930	33270.965076
690.652065	32733.111769
690.989150	31985.410351
691.326185	31090.280389
691.663170	30378.545083
692.000105	29632.509767
692.336990	28927.101109
692.673825	28467.108423
693.010610	27952.336040
693.347345	27380.999389
693.684030	26702.956635
694.020665	26422.053460
694.357251	25753.268785
694.693786	25700.702154
695.030272	25466.691792
695.366707	24924.760192
695.703093	24617.958089
696.039429	24603.414361
696.375716	24344.551111
696.711952	24312.673374
697.048139	24150.799404
697.384276	23965.484068
697.720363	24105.116467
698.056400	23880.349062
698.392388	23680.409338
698.728326	23644.092866
699.064214	23431.348612
699.400053	23369.672615
699.735842	23006.580989
700.071581	22726.113874
700.407270	22435.869441
700.742910	22234.402248
701.078501	21969.504737
701.414042	21672.575735
701.749533	21380.075386
702.084974	21038.083509
702.420366	21241.352914
702.755709	20790.267947
703.091002	20493.974130
703.426246	20509.768065
703.761440	20416.176523
704.096584	20138.534975
704.431679	20095.964952
704.766725	19998.819396
705.101721	19932.250960
705.436668	20041.079389
705.771565	19715.592250
706.106413	20050.735719
706.441212	20029.678820
706.775961	20162.089767
707.110661	20240.164637
707.445311	20598.585634
707.779913	20432.547670
708.114465	20678.626554
708.448967	20965.637087
708.783421	21673.445334
709.117825	21938.478956
709.452180	22165.361126
709.786485	22575.711049
710.120742	23379.039079
710.454949	23398.704620
710.789107	23857.832748
711.123216	24574.342026
711.457275	24688.947618
711.791286	25234.347532
712.125247	25299.958149
712.459159	24992.730069
712.793023	25662.283520
713.126837	24539.106882
713.460602	24797.650018
713.794318	24420.727986
714.127985	24032.009654
714.461602	23124.959884
714.795171	23085.850613
715.128691	22054.483468
715.462162	21513.333246
715.795584	21088.104358
716.128957	20819.221814
716.462281	20406.018598
716.795556	20183.791934
717.128782	19667.391257
717.461960	19130.528537
717.795088	19049.260096
718.128167	18637.861613
718.461198	18180.492848
718.794180	18036.013379
719.127113	17663.262902
719.459997	17460.462324
719.792833	17112.663037
720.125619	17086.716219
720.458357	16756.845796
720.791046	16583.230978
721.123686	16427.229952
721.456278	16181.642581
721.788821	16137.116589
722.121315	15880.113525
722.453761	15953.051459
722.786158	15878.172681
723.118506	15887.143414
723.450805	15750.775161
723.783056	15917.463434
724.115259	15804.561752
724.447412	15737.527009
724.779518	15979.764534
725.111574	16007.069943
725.443582	16207.017228
725.775542	16182.567632
726.107453	16655.755538
726.439315	16542.407714
726.771129	16947.923171
727.102895	17311.087894
727.434612	17520.232764
727.766281	17656.785019
728.097901	17919.875277
728.429473	17959.712995
728.760996	17932.011854
729.092471	18025.046349
729.423897	17885.877735
729.755276	17756.093229
730.086606	17878.341210
730.417887	18403.566426
730.749120	18919.052133
731.080305	19104.889229
731.411442	19433.327964
731.742530	19491.097066
732.073570	19603.784499
732.404562	19895.155629
732.735506	19702.187822
733.066401	19410.970446
733.397249	18889.969717
733.728048	18251.767202
734.058798	17407.177327
734.389501	16712.884414
734.720156	16259.997235
735.050762	15727.240535
735.381320	15367.622263
735.711831	15126.246776
736.042293	14770.011119
736.372707	14787.203974
736.703073	14565.478904
737.033391	14753.019910
737.363661	14713.310741
737.693883	14821.080528
738.024056	14996.948742
738.354182	15186.581826
738.684260	15472.511031
739.014290	15691.261820
739.344272	15871.813265
739.674207	16164.996691
740.004093	16282.294258
740.333931	16258.784837
740.663722	16300.152546
740.993464	16297.289170
741.323159	16130.290867
741.652806	15843.779409
741.982405	15626.210770
742.311956	15288.703000
742.641460	15169.472150
742.970915	14859.078225
743.300323	14516.259599
743.629683	14301.214058
743.958996	14022.448333
744.288260	13751.362805
744.617477	13454.390953
744.946647	13380.754818
745.275768	13106.468158
745.604842	12918.266762
745.933869	12747.855597
746.262847	12691.936598
746.591778	12625.481588
746.920662	12517.883200
747.249498	12519.824044
747.578286	12643.075214
747.907027	12785.709621
748.235720	13005.458559
748.564365	13028.499152
748.892963	12922.324891
749.221514	12990.433400
749.550017	12838.062004
749.878473	12810.930514
750.206881	12578.858476
750.535242	12491.346566
750.863555	12400.013461
751.191821	12295.858182
751.520039	12318.107314
751.848210	12219.197355
752.176334	12253.895617
752.504411	12157.372644
752.832440	12005.228101
753.160421	12068.277812
753.488356	11937.727051
753.816243	11846.893020
754.144082	11697.982377
754.471875	11642.456587
754.799620	11590.389030
755.127318	11558.014740
755.454969	11519.323884
755.782572	11472.967954
756.110129	11486.979841
756.437638	11400.602191
756.765100	11396.312169
757.092515	11392.291848
757.419882	11412.466546
757.747203	11411.352451
758.074477	11482.591517
758.401703	11438.741040
758.728882	11608.199427
759.056014	11654.673824
759.383099	11768.528283
759.710138	11862.220648
760.037129	11940.015734
760.364073	11969.173768
760.690970	11948.247939
761.017820	11954.574587
761.344623	12138.919501
761.671379	12466.234058
761.998088	13102.785595
762.324751	14665.956662
762.651366	17563.614414
762.977935	21251.082341
763.304456	23487.834741
763.630931	23977.171983
763.957359	22784.926495
764.283740	20852.319510
764.610074	18957.997567
764.936362	16809.059547
765.262602	15281.151351
765.588796	13796.483653
765.914943	12761.388575
766.241044	11895.462017
766.567097	11256.614234
766.893104	10707.746006
767.219064	10343.038690
767.544978	9960.546183
767.870845	9644.276793
768.196665	9445.640208
768.522438	9255.896219
768.848165	9081.202594
769.173846	8913.019619
769.499479	8790.222153
769.825066	8639.597517
770.150607	8448.815050
770.476101	8383.438846
770.801548	8276.768031
771.126949	8134.383161
771.452303	8044.149028
771.777611	7879.832618
772.102872	7860.764454
772.428087	7744.258347
772.753256	7619.993905
773.078378	7523.017228
773.403453	7383.752833
773.728482	7273.911132
774.053465	7214.589354
774.378401	7128.448637
774.703291	7030.047835
775.028135	6935.284225
775.352932	6898.090592
775.677683	6813.908364
776.002388	6725.471402
776.327046	6725.441155
776.651658	6636.177444
776.976224	6561.908645
777.300743	6545.106479
777.625216	6470.777186
777.949643	6437.112361
778.274024	6437.402227
778.598359	6362.394899
778.922647	6370.687597
779.246889	6330.277708
779.571086	6335.714592
779.895236	6344.844122
780.219339	6343.828329
780.543397	6338.265416
780.867409	6389.458333
781.191374	6389.375154
781.515294	6354.666810
781.839167	6407.535911
782.162995	6373.641713
782.486776	6334.267781
782.810511	6288.259690
783.134201	6212.380243
783.457844	6202.358429
783.781441	6147.132588
784.104993	6106.387462
784.428498	6078.509882
784.751958	6059.668569
785.075372	6037.137132
785.398739	5998.105998
785.722061	6020.309761
786.045337	6017.093504
786.368568	6127.940916
786.691752	6154.026366
787.014891	6403.734881
787.337983	6686.646955
787.661030	7124.566949
787.984031	7558.630460
788.306987	7820.019328
788.629897	7912.194305
788.952760	7824.198444
789.275579	7638.371431
789.598351	7342.231369
789.921078	7075.221614
790.243759	6793.277442
790.566395	6584.455205
790.888984	6392.238530
791.211529	6253.785760
791.534027	6086.757209
791.856480	5946.545077
792.178888	5888.097939
792.501249	5820.538916
792.823566	5716.353389
793.145836	5706.263520
793.468062	5689.037897
793.790241	5647.927288
794.112375	5694.557961
794.434464	5787.022805
794.756507	5818.774512
795.078505	5940.286484
795.400457	6164.272512
795.722364	6398.159365
796.044226	6600.145797
796.366042	6753.205310
796.687812	6705.173196
797.009538	6730.583132
797.331218	6635.277598
797.652852	6563.652884
797.974442	6440.621004
798.295986	6371.486620
798.617484	6243.463997
798.938938	6133.753366
799.260346	6069.667698
799.581709	5925.437766
799.903026	5872.659406
800.224299	5806.239683
800.545526	5683.454819
800.866708	5619.548112
801.187845	5572.415844
801.508936	5494.625799
801.829983	5459.002486
802.150984	5352.422411
802.471940	5329.089430
802.792851	5315.538809
803.113717	5290.017967
803.434538	5264.945789
803.755314	5233.592332
804.076045	5221.448193
804.396731	5182.306154
804.717372	5198.100089
805.037967	5200.827353
805.358518	5229.816508
805.679024	5287.419253
805.999485	5298.935769
806.319901	5318.946629
806.640272	5335.436243
806.960598	5381.766967
807.280879	5370.217684
807.601115	5408.641359
807.921306	5372.997880
808.241453	5367.407241
808.561554	5379.216144
808.881611	5339.423796
809.201623	5341.226008
809.521590	5294.421415
809.841513	5272.515081
810.161390	5291.618534
810.481223	5200.545048
810.801011	5185.726577
811.120755	5159.288245
811.440453	5110.605823
811.760107	5080.149692
812.079716	5055.750507
812.399281	5001.003576
812.718801	4996.176672
813.038276	4964.298935
813.357707	4925.366104
813.677093	4949.384682
813.996434	4889.924272
814.315731	4911.044186
814.634983	4904.606632
814.954191	4913.453858
815.273354	4966.028051
815.592473	5011.063199
815.911547	5088.555816
816.230577	5144.656296
816.549562	5232.967229
816.868502	5283.298109
817.187399	5337.581254
817.506250	5420.379685
817.825058	5446.361792
818.143821	5602.198981
818.462539	5775.302122
818.781213	6002.632955
819.099843	6369.268512
819.418429	7005.043712
819.736970	7625.519009
820.055466	8348.402827
820.373919	9273.792315
820.692327	10737.118289
821.010691	13456.455305
821.329011	19718.886644
821.647286	29324.046604
821.965517	39695.101506
822.283704	45197.765425
822.601847	46700.707307
822.919945	42140.010710
823.237999	36994.537747
823.556010	31780.767231
823.873976	27041.553295
824.191897	22809.718890
824.509775	19713.858093
824.827609	16914.984272
825.145398	15338.857439
825.463144	14581.925669
825.780845	14869.921747
826.098502	16140.032897
826.416116	18615.834291
826.733685	20916.853841
827.051210	21449.290428
827.368692	20016.589464
827.686129	17434.268488
828.003522	14926.944759
828.320872	12693.237216
828.638177	11026.215859
828.955439	9764.079815
829.272656	8691.902009
829.589830	7843.944644
829.906960	7099.875377
830.224046	6568.008441
830.541088	6152.899668
830.858086	5892.519031
831.175041	5682.363410
831.491952	5623.966683
831.808819	5664.280791
832.125642	5904.721144
832.442421	6462.716381
832.759157	7585.058709
833.075849	9363.116520
833.392497	11226.642054
833.709101	12363.497863
834.025662	12108.317176
834.342179	11042.995340
834.658653	9725.409123
834.975083	8610.880584
835.291469	7694.739093
835.607811	6955.360620
835.924110	6426.107522
836.240366	5930.196615
836.556578	5475.729034
836.872746	5120.466320
837.188871	4842.139175
837.504952	4615.972848
837.820990	4451.117035
838.136984	4332.831402
838.452935	4283.004637
838.768842	4314.829441
839.084706	4599.566413
839.400526	5344.533005
839.716303	6259.885556
840.032037	6829.828327
840.347727	6680.854670
840.663373	6075.497792
840.978977	5498.588146
841.294537	5045.249784
841.610054	4712.014391
841.925527	4471.568997
842.240957	4261.647789
842.556344	4077.325560
842.871687	3917.301693
843.186987	3762.785286
843.502244	3644.484529
843.817458	3556.702917
844.132629	3482.892863
844.447756	3433.280348
844.762840	3389.399624
845.077881	3350.088706
845.392879	3317.084272
845.707833	3290.870272
846.022745	3261.034203
846.337613	3252.192019
846.652438	3228.937176
846.967221	3220.551217
847.281960	3198.670089
847.596656	3189.101979
847.911309	3176.867098
848.225919	3162.756909
848.540485	3152.397337
848.855009	3147.958602
849.169490	3134.614667
849.483928	3127.645272
849.798323	3122.251238
850.112675	3112.599948
850.426984	3110.328909
850.741251	3108.123404
851.055474	3097.715942
851.369654	3102.159719
851.683792	3099.737444
851.997887	3100.949842
852.311938	3101.663165
852.625947	3103.833382
852.939914	3098.633432
853.253837	3103.931684
853.567718	3099.182917
853.881555	3093.017586
854.195350	3099.860953
854.509103	3097.239553
854.822812	3093.980447
855.136479	3091.643872
855.450103	3093.156218
855.763685	3088.455342
856.077224	3088.021803
856.390720	3099.029162
856.704173	3109.416460
857.017584	3112.443673
857.330953	3120.721247
857.644278	3125.336424
857.957561	3130.448154
858.270802	3125.462452
858.584000	3130.246507
858.897155	3122.100003
859.210268	3110.817901
859.523339	3095.417176
859.836367	3091.560693
860.149352	3089.531628
860.462295	3083.988880
860.775195	3075.552509
861.088054	3073.447827
861.400869	3070.886921
861.713642	3070.370203
862.026373	3083.991400
862.339062	3084.949220
862.651708	3092.495827
862.964312	3108.564505
863.276873	3116.310238
863.589392	3151.734426
863.901869	3173.267714
864.214303	3193.722196
864.526696	3216.956874
864.839045	3230.857856
865.151353	3246.959301
865.463619	3244.022829
865.775842	3247.092892
866.088023	3254.573964
866.400162	3245.862850
866.712258	3247.274373
867.024313	3245.668766
867.336325	3243.790936
867.648296	3247.050042
867.960224	3244.484095
868.272110	3246.447624
868.583954	3248.378386
868.895755	3255.796444
869.207515	3249.404261
869.519233	3270.519134
869.830909	3276.520628
870.142542	3290.396403
870.454134	3294.182310
870.765684	3308.020277
871.077191	3325.482834
871.388657	3338.746110
871.700081	3357.932742
872.011463	3378.256153
872.322803	3396.679050
872.634101	3414.083634
872.945357	3437.293106
873.256571	3459.728761
873.567744	3474.968169
873.878874	3484.236331
874.189963	3498.117148
874.501010	3503.135616
874.812015	3498.076818
875.122979	3514.808408
875.433900	3511.347656
875.744780	3515.625075
876.055618	3523.234697
876.366415	3524.638658
876.677169	3532.124772
876.987882	3543.374106
877.298554	3569.131882
877.609183	3605.662603
877.919771	3655.118843
878.230317	3721.036971
878.540822	3826.064370
878.851285	3986.970439
879.161707	4207.740210
879.472087	4591.893777
879.782425	5229.178802
880.092722	6424.244815
880.402977	8380.744349
880.713191	10765.923442
881.023363	13163.017302
881.333494	14520.416030
881.643583	14978.500639
881.953631	14572.140789
882.263637	13747.256785
882.573602	12692.838965
882.883526	11731.533776
883.193408	10774.828640
883.503248	9844.244243
883.813048	9004.766099
884.122806	8234.195487
884.432522	7452.219264
884.742197	6784.004239
885.051831	6212.707918
885.361424	5708.181679
885.670975	5313.247604
885.980485	4978.250328
886.289954	4708.863670
886.599382	4490.571626
886.908768	4305.135302
887.218113	4143.480622
887.527417	4005.831916
887.836680	3882.374058
888.145901	3777.276083
888.455082	3700.884958
888.764221	3630.664206
889.073319	3571.307140
889.382376	3536.185421
889.691392	3511.584590
890.000366	3507.193745
890.309300	3496.332579
890.618193	3503.816172
890.927044	3494.237980
891.235855	3505.646111
891.544625	3518.848893
891.853353	3549.113460
892.162041	3608.962038
892.470687	3700.932849
892.779293	3822.535562
893.087858	3997.377901
893.396381	4281.638484
893.704864	4698.925035
894.013306	5273.548518
894.321707	5854.828844
894.630068	6220.924998
894.938387	6263.270691
895.246665	6087.851140
895.554903	5763.001707
895.863100	5421.677782
896.171256	5144.704187
896.479371	4900.876179
896.787446	4673.542825
897.095480	4472.241991
897.403473	4318.267508
897.711425	4170.561700
898.019336	4046.869429
898.327207	3922.380655
898.635038	3817.809481
898.942827	3710.805949
899.250576	3626.396869
899.558284	3537.412942
899.865952	3479.510249
900.173579	3418.623193
900.481165	3373.257849
900.788711	3327.537104
901.096216	3296.004687
901.403681	3269.389915
901.711105	3257.586054
902.018489	3251.201432
902.325832	3285.708130
902.633135	3347.888243
902.940397	3517.896115
903.247619	3929.274433
903.554800	4690.967574
903.861941	5672.288664
904.169041	6386.630246
904.476101	6607.405058
904.783121	6326.849723
905.090100	5920.855357
905.397039	5501.862376
905.703938	5138.876613
906.010796	4807.337569
906.317614	4546.049524
906.624391	4307.189572
906.931129	4104.565435
907.237826	3919.098864
907.544483	3746.668718
907.851099	3574.150351
908.157675	3409.609610
908.464211	3268.951335
908.770707	3168.075326
909.077163	3083.295721
909.383578	3023.134591
909.689954	2977.222283
909.996289	2945.382355
910.302584	2924.832091
910.608839	2912.012437
910.915054	2899.379305
911.221229	2894.189438
911.527363	2901.151271
911.833458	2905.864750
912.139513	2921.331010
912.445527	2930.599171
912.751502	2968.617033
913.057436	3015.794671
913.363331	3071.118814
913.669186	3159.986795
913.975000	3280.205711
914.280775	3469.755616
914.586510	3744.105291
914.892205	4125.745843
915.197859	4633.392556
915.503475	5226.738884
915.809050	5727.325461
916.114585	6020.226582
916.420081	6092.214258
916.725536	6023.798239
917.030952	5787.804183
917.336328	5574.081946
917.641665	5360.538669
917.946961	5129.200119
918.252218	4922.336371
918.557435	4696.205332
918.862612	4491.612624
919.167750	4317.004699
919.472848	4121.385245
919.777906	3951.450469
920.082925	3789.034574
920.387904	3633.837612
920.692843	3519.534490
920.997743	3420.556475
921.302603	3325.210612
921.607423	3255.725868
921.912204	3187.730785
922.216946	3141.274032
922.521647	3089.410641
922.826310	3046.654094
923.130932	3011.857530
923.435516	2970.255408
923.740059	2941.740121
924.044564	2908.672673
924.349028	2885.183416
924.653454	2854.414734
924.957840	2829.967658
925.262186	2807.398412
925.566493	2787.024589
925.870761	2758.247162
926.174989	2748.192581
926.479178	2732.076012
926.783328	2715.684700
927.087438	2706.245140
927.391509	2689.168231
927.695541	2680.467200
927.999533	2671.809018
928.303486	2656.703200
928.607400	2651.737664
928.911275	2650.739515
929.215110	2643.528145
929.518906	2638.418935
929.822663	2639.800212
930.126381	2639.742238
930.430060	2644.168371
930.733699	2645.932775
931.037299	2648.418064
931.340861	2648.140801
931.644383	2649.975781
931.947866	2650.900832
932.251309	2648.576860
932.554714	2646.847745
932.858080	2642.958494
933.161407	2637.264511
933.464694	2636.604120
933.767943	2635.439613
934.071153	2629.261679
934.374323	2627.025928
934.677455	2624.293622
934.980548	2619.691049
935.283602	2617.709875
935.586617	2616.104268
935.889593	2618.705503
936.192530	2618.531583
936.495428	2626.637759
936.798287	2632.803090
937.101108	2648.039977
937.403890	2671.047804
937.706632	2697.415559
938.009336	2732.582648
938.312002	2760.319077
938.614628	2784.801440
938.917216	2806.362455
939.219765	2814.120791
939.522275	2826.088490
939.824747	2825.329797
940.127179	2820.762511
940.429573	2813.112560
940.731929	2811.837148
941.034246	2801.162505
941.336524	2800.920530
941.638763	2794.404838
941.940964	2785.938220
942.243126	2770.187135
942.545250	2762.474170
942.847335	2748.568147
943.149381	2731.758419
943.451389	2718.263251
943.753359	2703.175077
944.055290	2698.083512
944.357182	2686.844259
944.659036	2680.908301
944.960851	2679.627847
945.262628	2672.338339
945.564367	2675.105932
945.866067	2674.395130
946.167729	2672.189625
946.469352	2669.812721
946.770937	2668.023111
947.072484	2660.373160
947.373992	2660.809220
947.675462	2656.501554
947.976893	2649.501912
948.278286	2648.491161
948.579641	2646.061325
948.880958	2643.084523
949.182236	2644.881695
949.483476	2637.773668
949.784678	2636.634367
950.085841	2637.269552
950.386967	2644.969915
950.688054	2648.995276
950.989103	2657.330824
951.290114	2665.328615
951.591087	2675.844462
951.892021	2690.068077
952.192917	2702.849923
952.493776	2710.265460
952.794596	2712.400389
953.095378	2717.418857
953.396122	2715.967005
953.696828	2715.694783
953.997496	2707.860830
954.298126	2694.690815
954.598718	2690.698221
954.899272	2677.792867
955.199788	2670.072340
955.500266	2654.354023
955.800706	2639.366672
956.101108	2620.154835
956.401472	2609.202928
956.701798	2596.330342
957.002087	2585.711151
957.302337	2573.070458
957.602550	2559.522357
957.902724	2547.176571
958.202861	2539.864378
958.502960	2532.534540
958.803022	2525.124044
959.103045	2516.261695
959.403031	2510.413957
959.702979	2505.599655
960.002889	2499.247801
960.302762	2495.605568
960.602596	2490.082983
960.902393	2487.529639
961.202153	2483.335399
961.501875	2481.092086
961.801559	2478.763072
962.101205	2476.343319
962.400814	2474.921713
962.700385	2475.902218
962.999918	2470.661938
963.299414	2468.819397
963.598873	2467.042390
963.898293	2465.262862
964.197677	2465.933336
964.497022	2462.659107
964.796331	2462.336473
965.095601	2462.822944
965.394835	2460.993005
965.694030	2460.153653
965.993189	2461.141719
966.292309	2455.818261
966.591393	2458.207768
966.890439	2459.107614
967.189447	2457.471759
967.488419	2456.753395
967.787353	2457.965792
968.086249	2460.821606
968.385108	2460.496452
968.683930	2459.962089
968.982714	2462.820423
969.281462	2461.799590
969.580172	2466.495425
969.878844	2468.055662
970.177480	2472.582618
970.476078	2474.571353
970.774639	2477.396920
971.073162	2477.674183
971.371649	2480.225007
971.670098	2479.829277
971.968510	2483.209370
972.266885	2481.588639
972.565223	2484.625934
972.863524	2485.472848
973.161788	2486.730616
973.460014	2490.554331
973.758204	2489.775473
974.056356	2491.512151
974.354471	2493.493324
974.652550	2490.332521
974.950591	2492.807727
975.248595	2492.391832
975.546563	2489.919146
975.844493	2487.393528
976.142386	2485.641727
976.440243	2488.094248
976.738062	2482.480923
977.035845	2478.513535
977.333590	2475.509008
977.631299	2476.149234
977.928971	2472.370889
978.226606	2469.724284
978.524204	2470.271249
978.821765	2468.398460
979.119290	2471.040025
979.416777	2468.204376
979.714228	2469.131948
980.011642	2467.871660
980.309020	2473.111939
980.606360	2477.527990
980.903664	2487.300267
981.200931	2500.283758
981.498162	2522.487520
981.795356	2549.112374
982.092513	2590.941348
982.389633	2635.484984
982.686717	2675.879750
982.983764	2708.344780
983.280775	2727.594426
983.577749	2729.467215
983.874686	2722.281050
984.171587	2700.989737
984.468451	2687.179496
984.765279	2670.982269
985.062070	2650.079124
985.358824	2629.652369
985.655543	2607.345263
985.952224	2583.944227
986.248869	2555.403734
986.545478	2529.582944
986.842050	2504.820797
987.138586	2490.403097
987.435086	2476.905407
987.731549	2465.335959
988.027975	2457.847325
988.324366	2454.147118
988.620719	2448.148145
988.917037	2446.371138
989.213318	2441.161106
989.509563	2439.268153
989.805772	2440.505756
990.101944	2437.110539
990.398080	2437.435693
990.694180	2436.906372
990.990244	2436.462751
991.286271	2436.525765
991.582262	2435.512493
991.878217	2436.437545
992.174136	2441.216559
992.470019	2438.154058
992.765865	2441.024995
993.061676	2442.542382
993.357450	2443.732094
993.653188	2447.707044
993.948890	2455.195678
994.244556	2462.691874
994.540186	2468.673203
994.835780	2480.149390
995.131337	2494.410814
995.426859	2510.920593
995.722345	2533.709129
996.017795	2553.155380
996.313208	2565.546536
996.608586	2578.683783
996.903928	2579.631520
997.199234	2576.579101
997.494504	2576.339646
997.789738	2568.112483
998.084936	2557.576472
998.380099	2546.614483
998.675225	2534.215765
998.970316	2520.153466
999.265371	2509.017557
999.560390	2493.153046
999.855373	2482.745584
1000.150320	2470.349387
1000.445232	2460.183900
1000.740108	2457.955710
1001.034948	2448.206118
1001.329752	2445.095727
1001.624521	2441.445931
1001.919254	2430.458736
1002.213951	2431.708943
1002.508613	2427.446647
1002.803239	2427.834816
1003.097829	2421.520771
1003.392384	2425.823395
1003.686903	2424.676533
1003.981386	2421.664443
1004.275834	2422.667633
1004.570246	2420.956161
1004.864623	2421.621594
1005.158964	2419.647982
1005.453270	2417.190419
1005.747540	2420.036151
1006.041775	2414.700089
1006.335974	2419.811819
1006.630138	2415.819226
1006.924266	2417.510533
1007.218359	2416.822415
1007.512416	2414.624472
1007.806438	2415.665470
1008.100425	2416.956006
1008.394376	2415.657909
1008.688292	2415.582291
1008.982172	2413.129770
1009.276017	2415.854514
1009.569827	2413.729667
1009.863602	2413.981725
1010.157341	2411.488874
1010.451045	2412.658422
1010.744714	2411.163720
1011.038347	2413.855696
1011.331945	2412.572722
1011.625508	2410.498288
1011.919036	2414.143042
1012.212528	2411.635068
1012.505986	2410.954512
1012.799408	2410.357135
1013.092795	2409.422001
1013.386147	2411.700603
1013.679464	2409.757238
1013.972745	2411.834193
1014.265992	2410.775551
1014.559204	2407.410581
1014.852380	2408.945612
1015.145521	2410.919224
1015.438628	2407.639953
1015.731699	2407.841600
1016.024736	2407.334964
1016.317737	2407.634912
1016.610703	2412.121539
1016.903635	2406.528379
1017.196531	2408.123904
1017.489393	2409.381672
1017.782219	2405.966290
1018.075011	2411.995510
1018.367768	2414.102713
1018.660490	2412.943247
1018.953177	2412.943247
1019.245829	2412.943247
