Dividing Wavelength (nm)	Counts (n)	Blue Motor Position (mm): 25.600000	Red Motor Position (mm): 0.000000	
326.493990	1971.446555
326.888308	1971.446555
327.282561	1971.446555
327.676750	1945.668615
328.070874	1950.061981
328.464933	1954.593978
328.858929	1963.216872
329.252859	1976.061732
329.646726	1989.461118
330.040528	2006.621206
330.434265	2024.096366
330.827938	2044.482792
331.221547	2063.492983
331.615091	2086.004256
332.008571	2106.882194
332.401986	2125.816768
332.795338	2145.852834
333.188625	2165.034425
333.581847	2186.023269
333.975006	2204.264684
334.368100	2220.131716
334.761129	2236.787688
335.154095	2254.532549
335.546996	2292.673919
335.939833	2361.558766
336.332606	2374.396064
336.725315	2388.380225
337.117960	2394.853067
337.510540	2399.896741
337.903056	2413.580953
338.295508	2415.758732
338.687896	2427.698705
339.080220	2432.959149
339.472480	2436.140117
339.864676	2439.507607
340.256807	2444.387444
340.648875	2445.458690
341.040879	2449.163938
341.432818	2447.318875
341.824694	2447.916252
342.216506	2451.256017
342.608253	2449.819288
342.999937	2447.623865
343.391557	2448.695110
343.783113	2445.551951
344.174605	2446.209822
344.566033	2441.110694
344.957397	2442.131528
345.348697	2439.374017
345.739934	2437.712957
346.131106	2440.324274
346.522215	2433.097780
346.913260	2436.550971
347.304241	2433.707760
347.695159	2429.503438
348.086012	2428.883376
348.476802	2426.738365
348.867528	2428.490166
349.258191	2424.308529
349.648789	2423.940524
350.039324	2425.261307
350.429796	2423.708631
350.820203	2419.794175
351.210548	2420.353743
351.600828	2416.588002
351.991045	2421.240987
352.381198	2419.322827
352.771288	2417.785276
353.161314	2416.610687
353.551276	2418.213774
353.941175	2417.727302
354.331010	2420.631007
354.720782	2420.628486
355.110490	2420.530184
355.500135	2416.933321
355.889717	2419.136305
356.279235	2417.298804
356.668689	2420.081521
357.058080	2418.233938
357.447408	2416.739236
357.836672	2416.368711
358.225873	2419.032961
358.615010	2417.805440
359.004084	2424.870617
359.393095	2420.381470
359.782043	2423.461615
360.170927	2425.417582
360.559748	2424.966399
360.948505	2423.133940
361.337199	2425.341965
361.725830	2427.181986
362.114398	2426.060330
362.502903	2425.014290
362.891344	2427.892789
363.279722	2427.955803
363.668037	2426.730803
364.056289	2428.033941
364.444478	2428.747265
364.832603	2429.684919
365.220665	2428.774991
365.608665	2431.449323
365.996601	2432.709612
366.384474	2434.123655
366.772284	2430.932605
367.160031	2434.537030
367.547715	2429.909251
367.935336	2428.553180
368.322893	2433.566608
368.710388	2434.148861
369.097820	2434.824376
369.485189	2433.909406
369.872495	2436.253543
370.259738	2436.029211
370.646918	2435.837648
371.034035	2435.033583
371.421090	2437.453337
371.808081	2437.342432
372.195010	2437.768409
372.581875	2436.490477
372.968678	2437.019798
373.355418	2438.194387
373.742096	2436.913934
374.128710	2437.155909
374.515262	2437.347473
374.901751	2439.888215
375.288177	2441.332505
375.674540	2439.799994
376.060841	2441.365273
376.447079	2442.161775
376.833254	2440.218410
377.219367	2437.634819
377.605417	2436.616506
377.991404	2436.868563
378.377329	2438.252360
378.763191	2438.229675
379.148991	2443.545572
379.534727	2442.791919
379.920402	2445.022630
380.306013	2444.800819
380.691563	2444.604214
381.077049	2447.021447
381.462474	2443.164965
381.847835	2444.150510
382.233134	2449.320213
382.618371	2445.564554
383.003545	2447.122270
383.388657	2446.421550
383.773706	2448.813577
384.158693	2446.398865
384.543618	2448.468258
384.928480	2448.616972
385.313280	2449.168979
385.698017	2446.955912
386.082692	2449.123608
386.467305	2448.858948
386.851856	2451.162755
387.236344	2450.494802
387.620770	2450.366253
388.005133	2451.480348
388.389435	2452.140739
388.773674	2450.303238
389.157851	2454.651234
389.541965	2452.246603
389.926018	2454.232818
390.310008	2452.783486
390.693936	2452.904474
391.077802	2454.048816
391.461606	2457.575103
391.845348	2455.752726
392.229027	2456.914712
392.612645	2453.083435
392.996200	2457.759105
393.379694	2456.503858
393.763125	2457.650720
394.146494	2456.176183
394.529801	2459.969651
394.913047	2459.405042
395.296230	2459.591564
395.679351	2458.651389
396.062410	2460.980402
396.445408	2460.148612
396.828343	2462.172635
397.211217	2454.726851
397.594028	2459.084928
397.976778	2457.068467
398.359466	2460.529219
398.742092	2455.961934
399.124656	2462.444857
399.507158	2459.647017
399.889598	2464.531895
400.271977	2461.091308
400.654294	2461.532409
401.036549	2463.248922
401.418742	2466.661783
401.800874	2463.160701
402.182944	2461.681123
402.564952	2464.841926
402.946898	2464.410907
403.328783	2463.379992
403.710606	2467.591876
404.092367	2468.786629
404.474067	2466.291258
404.855705	2468.201855
405.237282	2469.326033
405.618797	2468.549695
406.000250	2469.797380
406.381642	2469.966259
406.762972	2471.944912
407.144240	2464.894858
407.525447	2471.024901
407.906593	2469.202524
408.287677	2471.284521
408.668700	2470.692185
409.049661	2472.348204
409.430560	2471.967597
409.811399	2475.705613
410.192176	2474.067238
410.572891	2474.626806
410.953545	2473.084213
411.334138	2474.863740
411.714669	2475.050263
412.095139	2473.787454
412.475547	2476.350880
412.855894	2477.538072
413.236180	2475.428349
413.616405	2478.115284
413.996568	2476.093782
414.376670	2476.912969
414.756711	2476.547485
415.136691	2479.609986
415.516609	2478.384986
415.896466	2479.289873
416.276262	2480.555203
416.655997	2475.849286
417.035670	2474.334419
417.415283	2482.148207
417.794834	2474.755355
418.174324	2482.795996
418.553753	2481.825573
418.933121	2480.855151
419.312428	2480.242651
419.691674	2481.064359
420.070859	2484.184833
420.449983	2485.734988
420.829045	2482.889257
421.208047	2485.498054
421.586988	2485.477889
421.965867	2485.671974
422.344686	2487.111223
422.723444	2485.437560
423.102141	2485.671974
423.480777	2491.290340
423.859352	2486.483600
424.237866	2490.219095
424.616319	2489.702376
424.994712	2491.040803
425.373044	2491.791935
425.751314	2494.524240
426.129524	2490.939980
426.507673	2494.476349
426.885762	2493.682367
427.263789	2494.246977
427.641756	2492.706904
428.019662	2495.224960
428.397508	2497.490959
428.775292	2497.294354
429.153016	2496.021463
429.530679	2496.704539
429.908282	2495.018273
430.285824	2496.112203
430.663305	2495.139261
431.040726	2499.731752
431.418086	2499.681340
431.795385	2500.745024
432.172624	2498.358038
432.549802	2502.272493
432.926920	2503.507576
433.303977	2505.433297
433.680974	2504.929182
434.057910	2508.959584
434.434786	2506.733915
434.811601	2509.433452
435.188355	2509.783813
435.565050	2512.904287
435.941683	2509.657784
436.318257	2513.030316
436.694770	2505.778616
437.071222	2514.446880
437.447614	2509.395644
437.823946	2513.257168
438.200218	2516.163393
438.576429	2517.506860
438.952580	2517.010307
439.328670	2518.111799
439.704700	2522.890813
440.080670	2522.366533
440.456580	2522.197654
440.832429	2527.442975
441.208218	2526.006246
441.583947	2527.657224
441.959616	2529.671165
442.335224	2529.996319
442.710773	2533.099149
443.086261	2533.409180
443.461689	2538.233564
443.837057	2538.004192
444.212365	2539.816487
444.587612	2544.557692
444.962800	2548.638506
445.337927	2551.398538
445.712995	2550.959957
446.088002	2556.785011
446.462949	2561.906823
446.837837	2567.227761
447.212664	2571.122052
447.587431	2585.938003
447.962139	2605.480036
448.336786	2621.785648
448.711374	2622.072994
449.085901	2611.756273
449.460369	2617.442694
449.834776	2630.247225
450.209124	2653.008035
450.583412	2661.041113
450.957640	2673.649039
451.331808	2680.126922
451.705917	2679.393434
452.079965	2696.296423
452.453954	2713.784185
452.827883	2727.221381
453.201752	2745.540934
453.575562	2765.130858
453.949311	2799.035138
454.323001	2822.562203
454.696632	2845.280163
455.070202	2894.262534
455.443713	2930.442895
455.817164	2972.193732
456.190556	3017.523787
456.563888	3046.339022
456.937160	3086.572471
457.310373	3096.281733
457.683526	3148.026657
458.056619	3195.978112
458.429653	3242.964187
458.802628	3311.758293
459.175542	3374.560988
459.548398	3483.928820
459.921194	3611.359107
460.293930	3725.163155
460.666607	3900.736461
461.039224	4073.648038
461.411782	4179.199718
461.784280	4197.574723
462.156719	4252.165378
462.529099	4313.233916
462.901419	4333.486752
463.273680	4365.397255
463.645882	4469.078667
464.018024	4579.749637
464.390106	4748.222478
464.762130	5094.529583
465.134094	5609.412872
465.505999	6257.312047
465.877845	6862.363934
466.249631	7139.032540
466.621358	7107.714372
466.993026	7035.772065
467.364634	6983.923798
467.736184	6950.332069
468.107674	6986.267934
468.479105	7069.411685
468.850477	7149.490413
469.221790	7140.648230
469.593043	7079.766215
469.964238	7130.208000
470.335373	7285.057123
470.706449	7721.051395
471.077467	8329.889189
471.448425	9297.432806
471.819324	9999.408438
472.190164	9896.584023
472.560945	9470.866142
472.931667	9117.461093
473.302330	9109.115463
473.672934	9158.299480
474.043479	9455.447773
474.413965	9497.929577
474.784393	9612.593142
475.154761	10010.851857
475.525070	10226.885464
475.895321	10334.529222
476.265513	10686.298417
476.635645	11136.014710
477.005719	11327.092085
477.375734	11671.138232
477.745691	12083.534864
478.115588	12692.768388
478.485427	13528.052293
478.855207	14790.291681
479.224928	15906.647638
479.594591	16734.647075
479.964194	16712.642439
480.333739	17049.157102
480.703226	17402.216832
481.072653	17989.874218
481.442022	18515.003653
481.811333	18955.721487
482.180584	18812.751843
482.549777	18944.167162
482.918912	19062.624195
483.287988	19281.380025
483.657005	19275.905332
484.025964	19340.530404
484.394864	19655.113527
484.763706	19802.153902
485.132489	19755.298898
485.501213	20001.917185
485.869879	20389.833974
486.238487	20530.656086
486.607036	20940.847213
486.975527	21006.810711
487.343959	21410.614696
487.712333	21769.686002
488.080648	22039.377650
488.448905	22562.709913
488.817104	22805.323004
489.185244	23624.984372
489.553326	24852.172618
489.921350	26694.348865
490.289315	28803.791965
490.657222	29561.185002
491.025070	30117.788880
491.392861	29888.625588
491.760593	29439.516753
492.128267	28744.903727
492.495883	28139.783784
492.863440	27630.833932
493.230939	27119.726467
493.598380	26775.536648
493.965763	26885.902629
494.333088	26696.536726
494.700354	26672.291296
495.067563	26775.892049
495.434713	26979.907545
495.801805	27319.482189
496.168839	27338.850302
496.535815	27397.264672
496.902733	27690.405248
497.269593	27661.534559
497.636395	27885.346667
498.003139	28439.586244
498.369825	28301.713207
498.736453	28774.422203
499.103023	28698.358753
499.469535	28864.731954
499.835989	29170.203192
500.202385	29164.443673
500.568723	29421.691233
500.935003	29807.992332
501.301226	29881.504958
501.667390	30555.214840
502.033497	31002.597080
502.399546	30793.868105
502.765537	30491.209831
503.131470	31007.822236
503.497345	31487.669506
503.863163	30671.395792
504.228923	31366.500332
504.594625	31886.129867
504.960269	31511.405778
505.325856	32270.931223
505.691385	31958.210806
506.056856	32240.885946
506.422270	32806.823521
506.787625	32633.896820
507.152924	32981.809532
507.518164	33252.274998
507.883347	32771.215330
508.248472	33157.216480
508.613540	33720.225145
508.978550	34151.379910
509.343503	34103.428454
509.708398	34427.557003
510.073236	35048.009615
510.438016	35215.045727
510.802738	34880.144233
511.167403	35553.990227
511.532010	35907.990132
511.896561	36323.822310
512.261053	37191.243570
512.625488	36941.572864
512.989866	36951.282126
513.354186	36947.294574
513.718449	37063.135248
514.082655	37801.122362
514.446803	37639.742425
514.810894	38224.735561
515.174927	38259.640510
515.538904	38291.329203
515.902822	38991.326182
516.266684	38604.657080
516.630488	39098.019683
516.994235	39052.455214
517.357925	39668.383391
517.721558	39929.691601
518.085133	40302.144650
518.448651	40508.375733
518.812112	40383.234130
519.175516	40560.362632
519.538863	40947.949225
519.902152	40989.175781
520.265385	41504.724502
520.628560	41603.967178
520.991678	41473.928094
521.354739	41756.147009
521.717743	42112.806123
522.080690	42084.527771
522.443580	42655.007425
522.806413	42762.663786
523.169189	42772.899849
523.531908	42982.054802
523.894569	42901.834921
524.257174	43116.429278
524.619722	43443.272488
524.982213	43469.612517
525.344647	43432.018112
525.707025	43514.511553
526.069345	43947.183706
526.431608	43907.971090
526.793815	44246.424077
527.155964	43826.203575
527.518057	44027.350655
527.880093	43830.296992
528.242072	44391.158125
528.603995	44115.825425
528.965860	44150.758101
529.327669	44264.133651
529.689421	44203.801122
530.051117	44173.811297
530.412755	44336.920351
530.774337	44409.104632
531.135862	44252.163431
531.497331	44458.341582
531.858743	44386.845418
532.220098	44742.105612
532.581396	44481.470396
532.942638	44140.612779
533.303824	44458.835615
533.664953	44444.059993
534.026025	44196.095718
534.387040	44666.359754
534.747999	44603.546978
535.108902	44801.180373
535.469748	44329.416593
535.830537	44464.595133
536.191270	44676.316033
536.551947	44337.051421
536.912567	44633.801462
537.273131	44759.157314
537.633638	44269.273107
537.994089	44625.055060
538.354483	44247.485240
538.714821	44799.385722
539.075103	45157.746226
539.435328	44932.026042
539.795497	44835.530795
540.155609	44831.961658
540.515665	45290.704138
540.875665	44760.770484
541.235609	45070.821610
541.595496	45054.798302
541.955328	45731.870634
542.315102	45119.824146
542.674821	44929.873469
543.034483	44980.537065
543.394090	44943.088854
543.753640	44899.271144
544.113134	45886.865950
544.472571	44928.393890
544.831953	46140.753582
545.191278	45388.295835
545.550548	45117.142252
545.909761	45576.799701
546.268918	45777.311595
546.628019	46079.826196
546.987064	45644.545247
547.346053	44955.757273
547.704986	45812.534137
548.063863	45390.967647
548.422684	45594.574809
548.781449	45453.558613
549.140158	45834.291757
549.498811	45694.480396
549.857408	45147.447148
550.215949	45971.907695
550.574434	45891.811322
550.932864	45680.450865
551.291237	46388.770789
551.649555	46000.107910
552.007817	46245.780981
552.366022	45897.094452
552.724173	46089.810201
553.082267	46469.013355
553.440305	46770.920497
553.798288	46105.102542
554.156215	46420.830007
554.514086	46636.787997
554.871902	46358.967488
555.229661	46409.283244
555.587365	46204.730865
555.945014	46325.504308
556.302606	46259.681962
556.660143	46474.674571
557.017625	46554.284473
557.375050	46358.914555
557.732421	46715.382106
558.089735	46698.055660
558.446994	46620.172353
558.804197	47071.227073
559.161345	47006.667537
559.518437	46283.778678
559.875474	46587.586335
560.232455	46756.790143
560.589381	46928.781710
560.946251	46627.809702
561.303065	47286.756565
561.659825	47089.193746
562.016528	46784.897097
562.373177	46519.871036
562.729770	46993.517687
563.086307	46509.526588
563.442789	46964.145404
563.799216	47016.144906
564.155587	46810.410376
564.511904	46842.794748
564.868164	46917.492046
565.224370	47172.992846
565.580520	46909.950479
565.936615	47107.825850
566.292654	46855.584156
566.648638	47089.473530
567.004567	47051.813590
567.360441	47086.405987
567.716260	46940.469625
568.072023	47236.128257
568.427732	47213.533805
568.783385	46769.481248
569.138982	47178.127261
569.494525	47132.940879
569.850013	46910.845284
570.205445	46863.700413
570.560823	46813.354410
570.916145	46709.448668
571.271412	46738.899088
571.626625	46498.299939
571.981782	46564.959116
572.336884	46257.698268
572.691931	46574.108810
573.046923	46165.351892
573.401860	46020.953081
573.756743	46001.194278
574.111570	46126.812271
574.466342	45980.492780
574.821059	46113.203676
575.175722	45625.681249
575.530330	45648.789898
575.884882	45391.451597
576.239380	45346.686151
576.593823	45321.659343
576.948211	45240.269914
577.302544	44786.044308
577.656823	44819.038660
578.011047	45044.388320
578.365216	44770.983861
578.719330	44554.214246
579.073389	44422.292291
579.427394	44499.457233
579.781344	44490.521788
580.135239	44162.879555
580.489080	44216.635899
580.842866	43714.395824
581.196597	44165.420297
581.550273	44108.082213
581.903895	43985.236855
582.257463	44416.386579
582.610975	43805.983507
582.964434	44084.396352
583.317837	43735.306530
583.671186	43584.349178
584.024481	43815.276874
584.377721	43348.211450
584.730906	43632.691323
585.084037	43667.921427
585.437113	43376.509967
585.790135	43417.055967
586.143103	43026.003581
586.496016	43147.303825
586.848874	43168.854758
587.201679	43201.322309
587.554428	42687.963969
587.907124	42869.745456
588.259765	42641.867658
588.612352	42878.975808
588.964884	42303.754949
589.317362	42577.688728
589.669786	42532.542675
590.022155	42304.382573
590.374470	42720.318094
590.726731	42249.507092
591.078937	41774.711058
591.431090	41878.286605
591.783188	41546.707232
592.135232	41224.136400
592.487222	41457.569549
592.839157	41544.413507
593.191038	41240.235325
593.542866	40991.003199
593.894639	40415.230333
594.246358	40682.419049
594.598022	40663.494557
594.949633	40276.633891
595.301190	40241.227347
595.652692	40085.851423
596.004141	40394.541438
596.355535	39442.746386
596.706876	39376.427487
597.058162	39226.453160
597.409395	39679.501656
597.760573	39750.720557
598.111698	39318.338271
598.462768	39330.245476
598.813785	39387.434846
599.164748	38857.342396
599.515657	39244.457641
599.866511	38721.359791
600.217312	39333.751599
600.568060	38306.427459
600.918753	39041.198318
601.269392	39013.103967
601.619978	38682.699182
601.970510	38880.067917
602.320988	39056.989732
602.671412	39351.357828
603.021783	39096.320814
603.372100	38765.754712
603.722363	38865.940083
604.072572	38942.119480
604.422728	38952.257240
604.772830	38767.907285
605.122878	38856.092189
605.472872	38783.302969
605.822813	39074.714429
606.172701	38906.047503
606.522534	39134.174838
606.872314	39409.545347
607.222041	39157.825412
607.571714	39546.211027
607.921333	39000.080146
608.270899	39290.130494
608.620411	39630.857042
608.969870	39398.810210
609.319276	39422.997666
609.668627	39474.488011
610.017926	39947.073499
610.367171	40105.711049
610.716362	40193.359070
611.065500	40144.696812
611.414585	40337.921718
611.763616	40627.044494
612.112594	40550.245036
612.461518	40775.652669
612.810389	41053.029556
613.159207	40927.358632
613.507971	41000.679694
613.856682	41474.699390
614.205340	41347.364885
614.553945	42032.281253
614.902496	41498.695283
615.250994	41952.409211
615.599439	42026.282279
615.947830	42243.422420
616.296169	42306.154538
616.644454	42439.679580
616.992686	42594.032149
617.340864	43114.027168
617.688990	42833.794467
618.037063	43438.301910
618.385082	43402.779419
618.733048	43677.761759
619.080961	43696.545098
619.428821	43706.214031
619.776628	43823.715766
620.124382	43643.106347
620.472083	43777.942089
620.819731	43892.600612
621.167326	43567.884770
621.514868	43561.782453
621.862357	43105.563071
622.209793	43131.174653
622.557176	42811.555417
622.904506	42560.616861
623.251783	42230.517066
623.599007	42007.367870
623.946179	41790.028604
624.293297	41736.491551
624.640363	41150.008753
624.987376	41141.887454
625.334336	40903.672771
625.681243	40541.556607
626.028097	40508.221978
626.374899	40359.394513
626.721647	40341.374909
627.068343	40236.012273
627.414987	40001.790183
627.761577	39790.706989
628.108115	40119.622113
628.454600	39556.333664
628.801032	39746.485988
629.147412	39721.514632
629.493739	39724.435981
629.840014	39360.699087
630.186236	39719.788037
630.532405	39339.634625
630.878521	39552.988859
631.224585	39437.029718
631.570597	39142.969131
631.916556	39303.464346
632.262462	39276.562229
632.608316	39261.211915
632.954117	39167.017956
633.299866	39173.768061
633.645562	39078.311292
633.991206	38585.878782
634.336797	38157.428596
634.682336	38159.263576
635.027823	37906.537930
635.373257	37724.610250
635.718639	37480.338620
636.063968	37364.896197
636.409245	36780.152597
636.754470	36837.543613
637.099642	36607.321679
637.444762	36144.500906
637.789829	36285.653214
638.134845	35945.266944
638.479808	35883.598509
638.824719	35784.912882
639.169577	35387.720370
639.514383	35468.613245
639.859137	35171.386814
640.203839	35395.592132
640.548489	35040.301691
640.893086	35114.666272
641.237632	34862.233014
641.582125	34967.923325
641.926566	34910.738996
642.270955	34883.594903
642.615292	34901.148201
642.959576	34868.340372
643.303809	34868.242069
643.647990	35018.133217
643.992118	34974.751568
644.336195	34979.434799
644.680219	35077.119758
645.024192	35386.901182
645.368112	35890.414149
645.711981	35888.453140
646.055797	36759.526716
646.399562	36690.760337
646.743274	37617.931873
647.086935	38060.285561
647.430544	37945.427912
647.774101	38075.630833
648.117606	38315.052873
648.461059	38616.360118
648.804460	38223.344203
649.147810	37616.714434
649.491108	37369.592031
649.834354	37009.704058
650.177548	36204.266305
650.520690	35752.500783
650.863781	35761.458913
651.206820	35612.606243
651.549807	35177.405952
651.892742	34701.750402
652.235626	34501.787993
652.578458	34374.105648
652.921238	33777.769916
653.263967	34112.631081
653.606644	33791.791885
653.949269	33740.757764
654.291843	33352.162941
654.634365	33756.065228
654.976836	33351.351315
655.319255	33346.519369
655.661622	33343.414018
656.003938	33126.717500
656.346203	32983.510922
656.688416	33217.324678
657.030577	33016.462424
657.372687	32841.667976
657.714746	33110.502628
658.056753	33238.177411
658.398708	32694.272199
658.740612	32747.471496
659.082465	33009.172915
659.424266	32845.690817
659.766016	32960.193065
660.107715	32844.455734
660.449362	32977.219562
660.790958	32948.316106
661.132503	32977.343070
661.473996	32997.159846
661.815438	33115.843731
662.156829	33303.031855
662.498168	33102.431741
662.839456	33115.947074
663.180693	33256.565020
663.521879	33403.965838
663.863013	33359.124774
664.204097	33363.283726
664.545129	33836.224615
664.886110	33798.410920
665.227040	33856.248078
665.567918	33976.615709
665.908746	34032.494379
666.249522	34202.567786
666.590248	34191.620920
666.930922	34323.242927
667.271545	34275.546050
667.612118	34363.617528
667.952639	34152.587266
668.293109	34206.210020
668.633528	34096.970736
668.973896	34019.316802
669.314213	34038.168197
669.654480	33794.287257
669.994695	33829.053574
670.334859	33709.416911
670.674973	33604.888586
671.015035	33767.269192
671.355047	33722.528952
671.695008	33677.723177
672.034918	33567.773091
672.374777	33658.418078
672.714585	33489.131091
673.054342	33722.314703
673.394049	33485.443487
673.733705	33748.087602
674.073310	33428.425516
674.412864	33494.273068
674.752368	33099.502831
675.091820	33390.442942
675.431223	32965.685402
675.770574	32699.782180
676.109875	32555.700962
676.449125	32290.316980
676.788324	32216.436350
677.127473	31689.592923
677.466571	31604.904059
677.805619	31267.688675
678.144616	31256.174680
678.483562	31190.601871
678.822458	30856.761540
679.161303	30787.470880
679.500098	30697.992920
679.838842	30592.068196
680.177535	30753.848905
680.516179	31022.706242
680.854771	31261.881266
681.193314	32118.605198
681.531805	33234.583068
681.870247	34004.354658
682.208638	34751.078092
682.546978	34964.109692
682.885268	35053.338115
683.223508	34519.182494
683.561697	34185.241340
683.899836	33985.886391
684.237925	33490.683766
684.575963	33346.201776
684.913951	32896.666964
685.251889	33054.409709
685.589776	33033.375495
685.927614	33031.278375
686.265401	33179.500901
686.603137	33274.597227
686.940824	33785.800474
687.278460	34172.325904
687.616046	34300.829957
687.953582	34914.252680
688.291068	34780.846105
688.628504	35054.243002
688.965889	34994.364177
689.303224	34610.707163
689.640510	34262.078607
689.977745	33528.943603
690.314930	32738.946905
690.652065	32221.525394
690.989150	31460.409466
691.326185	30579.339282
691.663170	29865.834531
692.000105	29122.544123
692.336990	28447.253839
692.673825	27981.315112
693.010610	27469.290158
693.347345	26901.363847
693.684030	26255.866783
694.020665	25977.229607
694.357251	25314.932897
694.693786	25254.582723
695.030272	25029.500245
695.366707	24500.824359
695.703093	24208.429874
696.039429	24180.103631
696.375716	23927.289766
696.711952	23904.717999
697.048139	23743.217074
697.384276	23569.423295
697.720363	23687.373692
698.056400	23486.559329
698.392388	23263.410133
698.728326	23234.388211
699.064214	23038.582233
699.400053	22975.572852
699.735842	22621.149489
700.071581	22347.177901
700.407270	22056.210063
700.742910	21869.286599
701.078501	21601.563521
701.414042	21316.055252
701.749533	21028.507837
702.084974	20673.333343
702.420366	20881.858151
702.755709	20448.132398
703.091002	20154.399486
703.426246	20161.729324
703.761440	20064.944211
704.096584	19804.029212
704.431679	19760.133365
704.766725	19666.993006
705.101721	19606.433625
705.436668	19695.604075
705.771565	19370.255567
706.106413	19715.677949
706.441212	19700.088181
706.775961	19832.093315
707.110661	19895.264014
707.445311	20246.382900
707.779913	20092.710887
708.114465	20340.944864
708.448967	20625.747371
708.783421	21319.248823
709.117825	21584.834452
709.452180	21798.859159
709.786485	22210.655893
710.120742	22998.905832
710.454949	23026.506149
710.789107	23489.175688
711.123216	24198.244223
711.457275	24312.648168
711.791286	24857.014646
712.125247	24927.651294
712.459159	24623.367248
712.793023	25275.309428
713.126837	24169.590305
713.460602	24421.171608
713.794318	24049.285689
714.127985	23661.409229
714.461602	22763.360439
714.795171	22721.705385
715.128691	21718.707333
715.462162	21178.298162
715.795584	20749.542986
716.128957	20490.001701
716.462281	20093.247770
716.795556	19857.089877
717.128782	19369.156596
717.461960	18826.403288
717.795088	18741.215349
718.128167	18338.948916
718.461198	17883.349596
718.794180	17736.541114
719.127113	17379.778656
719.459997	17181.202565
719.792833	16839.261100
720.125619	16808.512582
720.458357	16491.436608
720.791046	16325.993500
721.123686	16166.687998
721.456278	15927.346616
721.788821	15885.908331
722.121315	15635.514220
722.453761	15707.643049
722.786158	15629.726975
723.118506	15631.209074
723.450805	15509.382030
723.783056	15666.910526
724.115259	15569.162553
724.447412	15499.335010
724.779518	15735.606329
725.111574	15768.905671
725.443582	15966.808768
725.775542	15940.249449
726.107453	16409.502734
726.439315	16296.291022
726.771129	16689.516145
727.102895	17054.016774
727.434612	17263.227179
727.766281	17381.107000
728.097901	17649.863515
728.429473	17678.303184
728.760996	17664.364394
729.092471	17754.306140
729.423897	17627.838714
729.755276	17491.472982
730.086606	17608.977237
730.417887	18129.758676
730.749120	18642.607859
731.080305	18814.700249
731.411442	19141.094796
731.742530	19218.778977
732.073570	19311.208532
732.404562	19608.059397
732.735506	19416.046888
733.066401	19123.670048
733.397249	18615.042830
733.728048	17969.034088
734.058798	17148.094787
734.389501	16468.101107
734.720156	16009.340983
735.050762	15486.807743
735.381320	15131.812210
735.711831	14892.740530
736.042293	14541.808167
736.372707	14554.678232
736.703073	14354.960320
737.033391	14541.208269
737.363661	14504.521272
737.693883	14615.814826
738.024056	14767.649338
738.354182	14964.609740
738.684260	15249.656743
739.014290	15474.454396
739.344272	15662.134033
739.674207	15939.707525
740.004093	16047.179884
740.333931	16036.941301
740.663722	16076.446303
740.993464	16063.631690
741.323159	15891.645164
741.652806	15619.390089
741.982405	15407.041566
742.311956	15067.650924
742.641460	14947.308500
742.970915	14647.707685
743.300323	14314.678980
743.629683	14104.919089
743.958996	13827.562366
744.288260	13561.233167
744.617477	13259.840223
744.946647	13184.664016
745.275768	12914.450608
745.604842	12722.044889
745.933869	12560.117987
746.262847	12506.462466
746.591778	12442.570882
746.920662	12335.751353
747.249498	12341.672188
747.578286	12458.689971
747.907027	12593.319026
748.235720	12815.991833
748.564365	12844.204650
748.892963	12751.911205
749.221514	12805.957416
749.550017	12659.433759
749.878473	12626.648615
750.206881	12402.518915
750.535242	12310.159935
750.863555	12228.762944
751.191821	12130.427677
751.520039	12149.881490
751.848210	12064.509549
752.176334	12087.754310
752.504411	11995.090340
752.832440	11846.378822
753.160421	11903.890826
753.488356	11782.353648
753.816243	11692.868126
754.144082	11552.494677
754.471875	11497.999803
754.799620	11436.434712
755.127318	11414.921588
755.454969	11376.591175
755.782572	11333.015441
756.110129	11333.973260
756.437638	11253.758420
756.765100	11244.437327
757.092515	11254.270097
757.419882	11266.736871
757.747203	11271.079825
758.074477	11350.115035
758.401703	11299.403548
758.728882	11468.423354
759.056014	11502.156235
759.383099	11614.949532
759.710138	11725.706202
760.037129	11805.172431
760.364073	11818.881849
760.690970	11807.259468
761.017820	11803.713017
761.344623	11994.929023
761.671379	12308.634986
761.998088	12937.723095
762.324751	14479.907838
762.651366	17343.094180
762.977935	20993.078608
763.304456	23203.284291
763.630931	23667.511546
763.957359	22469.486376
764.283740	20578.456307
764.610074	18712.594198
764.936362	16597.928462
765.262602	15083.507874
765.588796	13624.565183
765.914943	12594.392792
766.241044	11747.778894
766.567097	11119.474685
766.893104	10578.395039
767.219064	10220.256347
767.544978	9832.021966
767.870845	9523.805819
768.196665	9339.350000
768.522438	9139.919433
768.848165	8977.092685
769.173846	8814.591091
769.499479	8693.900826
769.825066	8539.518010
770.150607	8349.753856
770.476101	8294.535578
770.801548	8178.100047
771.126949	8036.965383
771.452303	7949.309800
771.777611	7790.818444
772.102872	7766.487315
772.428087	7654.634193
772.753256	7523.707866
773.078378	7439.802902
773.403453	7304.074876
773.728482	7192.002464
774.053465	7134.371993
774.378401	7045.332613
774.703291	6952.318284
775.028135	6859.422421
775.352932	6820.131668
775.677683	6742.495378
776.002388	6648.994577
776.327046	6649.896944
776.651658	6565.868471
776.976224	6489.247974
777.300743	6474.875644
777.625216	6398.756742
777.949643	6362.765424
778.274024	6368.887905
778.598359	6299.211597
778.922647	6307.390869
779.246889	6265.564416
779.571086	6269.763697
779.895236	6279.987157
780.219339	6279.979595
780.543397	6273.945334
780.867409	6325.531461
781.191374	6320.036604
781.515294	6290.946625
781.839167	6342.721796
782.162995	6310.783566
782.486776	6263.177429
782.810511	6224.887345
783.134201	6149.764071
783.457844	6136.157997
783.781441	6088.483805
784.104993	6049.558535
784.428498	6016.604513
784.751958	5997.972408
785.075372	5978.737885
785.398739	5936.878664
785.722061	5962.155010
786.045337	5961.676100
786.368568	6074.333286
786.691752	6091.107725
787.014891	6340.032340
787.337983	6618.780422
787.661030	7050.792183
787.984031	7473.820608
788.306987	7738.564364
788.629897	7823.767426
788.952760	7738.201401
789.275579	7560.846047
789.598351	7261.214986
789.921078	7000.814184
790.243759	6723.190280
790.566395	6519.454567
790.888984	6324.737480
791.211529	6183.048289
791.534027	6025.819742
791.856480	5890.868053
792.178888	5826.623589
792.501249	5759.477940
792.823566	5659.330378
793.145836	5654.810983
793.468062	5631.898939
793.790241	5595.070790
794.112375	5638.896061
794.434464	5732.943827
794.756507	5763.616727
795.078505	5885.010233
795.400457	6093.179639
795.722364	6337.007648
796.044226	6527.943871
796.366042	6687.955135
796.687812	6633.493029
797.009538	6662.174674
797.331218	6573.581436
797.652852	6506.077866
797.974442	6381.906685
798.295986	6307.927752
798.617484	6182.753382
798.938938	6076.543832
799.260346	6005.203943
799.581709	5873.541608
799.903026	5818.648483
800.224299	5749.688019
800.545526	5628.622189
800.866708	5566.220266
801.187845	5515.571793
801.508936	5440.579589
801.829983	5413.871556
802.150984	5304.957427
802.471940	5275.552377
802.792851	5265.313793
803.113717	5238.862859
803.434538	5215.401329
803.755314	5180.733314
804.076045	5169.909957
804.396731	5133.795130
804.717372	5153.682482
805.037967	5154.070651
805.358518	5184.559550
805.679024	5242.789918
805.999485	5251.314509
806.319901	5269.278661
806.640272	5289.665087
806.960598	5334.453218
807.280879	5324.612886
807.601115	5361.156210
807.921306	5323.642464
808.241453	5322.682124
808.561554	5333.739895
808.881611	5294.456703
809.201623	5292.183143
809.521590	5249.393829
809.841513	5227.001024
810.161390	5243.409980
810.481223	5158.456455
810.801011	5142.324763
811.120755	5119.417760
811.440453	5065.195109
811.760107	5038.431623
812.079716	5007.015152
812.399281	4956.401968
812.718801	4952.989107
813.038276	4917.494342
813.357707	4890.148603
813.677093	4908.790790
813.996434	4844.049772
814.315731	4865.981312
814.634983	4862.442422
814.954191	4868.506930
815.273354	4927.475827
815.592473	4967.641220
815.911547	5044.463364
816.230577	5096.243575
816.549562	5181.300444
816.868502	5234.104010
817.187399	5291.961332
817.506250	5373.002922
817.825058	5396.464452
818.143821	5547.290733
818.462539	5717.061672
818.781213	5947.336538
819.099843	6309.397248
819.418429	6931.914213
819.736970	7546.067904
820.055466	8260.313705
820.373919	9165.072271
820.692327	10620.649991
821.010691	13307.118684
821.329011	19507.163223
821.647286	29061.132787
821.965517	39383.608610
822.283704	44845.673597
822.601847	46332.166193
822.919945	41745.185020
823.237999	36630.667262
823.556010	31442.513370
823.873976	26749.851969
824.191897	22549.045866
824.509775	19478.290015
824.827609	16719.712657
825.145398	15169.270503
825.463144	14414.508950
825.780845	14704.304720
826.098502	15962.753160
826.416116	18408.105985
826.733685	20677.814928
827.051210	21204.403777
827.368692	19778.636920
827.686129	17231.689721
828.003522	14746.181585
828.320872	12541.460676
828.638177	10895.680221
828.955439	9657.174586
829.272656	8604.838761
829.589830	7757.650172
829.906960	7038.017899
830.224046	6495.025136
830.541088	6091.478250
830.858086	5832.148693
831.175041	5630.646212
831.491952	5573.981122
831.808819	5603.486996
832.125642	5849.417166
832.442421	6399.434777
832.759157	7498.348342
833.075849	9263.145398
833.392497	11108.253076
833.709101	12222.953015
834.025662	11974.812299
834.342179	10916.822821
834.658653	9614.496177
834.975083	8511.998352
835.291469	7610.841690
835.607811	6878.956892
835.924110	6359.024887
836.240366	5878.192072
836.556578	5421.163585
836.872746	5070.432868
837.188871	4797.681239
837.504952	4578.723763
837.820990	4412.249739
838.136984	4299.133809
838.452935	4248.490377
838.768842	4280.272332
839.084706	4557.671904
839.400526	5295.117095
839.716303	6198.837183
840.032037	6766.176198
840.347727	6618.427541
840.663373	6017.806828
840.978977	5446.523109
841.294537	5003.231766
841.610054	4671.569214
841.925527	4431.789252
842.240957	4228.033375
842.556344	4046.778688
842.871687	3890.114750
843.186987	3735.772263
843.502244	3619.722381
843.817458	3534.027807
844.132629	3463.171869
844.447756	3416.407606
844.762840	3372.466388
845.077881	3330.637414
845.392879	3297.970737
845.707833	3271.849998
846.022745	3245.930906
846.337613	3235.994792
846.652438	3209.967314
846.967221	3204.530430
847.281960	3182.482944
847.596656	3172.934998
847.911309	3162.235149
848.225919	3148.346770
848.540485	3137.954432
848.855009	3129.296250
849.169490	3117.933489
849.483928	3112.297479
849.798323	3105.287755
850.112675	3095.397011
850.426984	3097.123606
850.741251	3092.213522
851.055474	3085.690269
851.369654	3087.641196
851.683792	3088.510795
851.997887	3087.174889
852.311938	3084.964343
852.625947	3089.914756
852.939914	3082.131215
853.253837	3086.930393
853.567718	3085.743201
853.881555	3077.657191
854.195350	3086.527101
854.509103	3081.067531
854.822812	3076.903538
855.136479	3073.407498
855.450103	3077.342118
855.763685	3073.228537
856.077224	3074.100657
856.390720	3080.641554
856.704173	3091.873244
857.017584	3100.352465
857.330953	3104.907148
857.644278	3112.637757
857.957561	3113.787140
858.270802	3112.645319
858.584000	3110.293621
858.897155	3106.149792
859.210268	3096.054882
859.523339	3086.292687
859.836367	3082.022830
860.149352	3075.234916
860.462295	3071.663259
860.775195	3064.131775
861.088054	3058.402503
861.400869	3056.897719
861.713642	3053.731874
862.026373	3064.056158
862.339062	3071.519586
862.651708	3074.992941
862.964312	3093.703183
863.276873	3103.553598
863.589392	3132.560397
863.901869	3159.611229
864.214303	3177.910617
864.526696	3199.050696
864.839045	3214.925289
865.151353	3228.969944
865.463619	3229.035479
865.775842	3230.966241
866.088023	3236.098135
866.400162	3228.294429
866.712258	3230.290726
867.024313	3228.082701
867.336325	3227.301322
867.648296	3228.062536
867.960224	3226.661095
868.272110	3227.538256
868.583954	3229.070767
868.895755	3238.641397
869.207515	3235.233577
869.519233	3253.159921
869.830909	3258.349788
870.142542	3268.101901
870.454134	3276.354269
870.765684	3291.979326
871.077191	3309.386430
871.388657	3319.335147
871.700081	3339.353569
872.011463	3358.157073
872.322803	3378.510732
872.634101	3393.291395
872.945357	3417.221752
873.256571	3440.501800
873.567744	3457.339254
873.878874	3464.225470
874.189963	3483.089468
874.501010	3479.837924
874.812015	3476.893890
875.122979	3494.487517
875.433900	3489.300170
875.744780	3497.434071
876.055618	3502.949094
876.366415	3499.304339
876.677169	3505.000843
876.987882	3521.135056
877.298554	3544.309240
877.609183	3583.882298
877.919771	3628.045326
878.230317	3695.780790
878.540822	3794.226963
878.851285	3951.289152
879.161707	4172.227802
879.472087	4547.198907
879.782425	5173.012787
880.092722	6354.933991
880.402977	8294.825444
880.713191	10673.619915
881.023363	13063.086509
881.333494	14408.313372
881.643583	14865.757754
881.953631	14456.048057
882.263637	13620.597795
882.573602	12574.127353
882.883526	11611.821496
883.193408	10662.335292
883.503248	9745.679603
883.813048	8911.653467
884.122806	8147.122157
884.432522	7375.719754
884.742197	6717.284568
885.051831	6148.922198
885.361424	5651.372916
885.670975	5262.768010
885.980485	4938.412610
886.289954	4664.776259
886.599382	4450.043270
886.908768	4270.878141
887.218113	4106.082822
887.527417	3973.742451
887.836680	3848.926003
888.145901	3751.808174
888.455082	3675.298582
888.764221	3605.075309
889.073319	3544.163047
889.382376	3513.313706
889.691392	3489.015344
890.000366	3479.507728
890.309300	3476.387254
890.618193	3480.059735
890.927044	3473.097901
891.235855	3480.082420
891.544625	3495.319307
891.853353	3522.609594
892.162041	3583.695775
892.470687	3675.109539
892.779293	3794.105975
893.087858	3969.744816
893.396381	4246.536930
893.704864	4657.643026
894.013306	5224.593873
894.321707	5798.413292
894.630068	6160.262274
894.938387	6196.835845
895.246665	6019.941756
895.554903	5703.732861
895.863100	5365.118557
896.171256	5095.404223
896.479371	4854.013612
896.787446	4628.159838
897.095480	4433.664561
897.403473	4283.904483
897.711425	4139.692195
898.019336	4018.757435
898.327207	3895.657499
898.635038	3792.034061
898.942827	3684.168492
899.250576	3597.460646
899.558284	3513.966535
899.865952	3461.747743
900.173579	3394.806261
900.481165	3350.106350
900.788711	3309.784681
901.096216	3274.388219
901.403681	3247.841503
901.711105	3235.866242
902.018489	3232.604616
902.325832	3266.544184
902.633135	3324.895540
902.940397	3498.273423
903.247619	3900.171852
903.554800	4652.906862
903.861941	5620.924347
904.169041	6333.085630
904.476101	6539.183123
904.783121	6264.359580
905.090100	5858.892014
905.397039	5444.249549
905.703938	5086.370476
906.010796	4764.765025
906.317614	4508.306405
906.624391	4266.580558
906.931129	4073.136361
907.237826	3891.667426
907.544483	3719.975808
907.851099	3545.912327
908.157675	3386.319479
908.464211	3249.628592
908.770707	3143.504742
909.077163	3066.896848
909.383578	3006.385358
909.689954	2960.619242
909.996289	2933.603699
910.302584	2912.330030
910.608839	2900.586662
910.915054	2887.625855
911.221229	2880.139742
911.527363	2889.188613
911.833458	2891.487379
912.139513	2906.961201
912.445527	2920.927718
912.751502	2951.741770
913.057436	2997.407063
913.363331	3054.735064
913.669186	3139.905358
913.975000	3258.521188
914.280775	3445.132100
914.586510	3714.004561
914.892205	4091.755863
915.197859	4592.695321
915.503475	5177.191903
915.809050	5672.094579
916.114585	5968.416123
916.420081	6029.923241
916.725536	5963.241378
917.030952	5724.515017
917.336328	5520.993554
917.641665	5306.603364
917.946961	5079.428807
918.252218	4878.606882
918.557435	4645.957632
918.862612	4452.218527
919.167750	4275.881487
919.472848	4088.186726
919.777906	3919.852517
920.082925	3761.013321
920.387904	3607.179991
920.692843	3494.595902
920.997743	3395.131416
921.302603	3301.650779
921.607423	3234.810121
921.912204	3169.383505
922.216946	3120.945579
922.521647	3071.718711
922.826310	3033.267310
923.130932	2995.080570
923.435516	2954.428705
923.740059	2926.833429
924.044564	2893.682802
924.349028	2869.860829
924.653454	2842.565502
924.957840	2815.648261
925.262186	2795.886937
925.566493	2773.199225
925.870761	2748.200143
926.174989	2737.686816
926.479178	2725.353633
926.783328	2705.153730
927.087438	2696.402287
927.391509	2681.520801
927.695541	2670.934378
927.999533	2659.627070
928.303486	2653.270175
928.607400	2645.169040
928.911275	2641.559574
929.215110	2636.861219
929.518906	2632.616567
929.822663	2634.464150
930.126381	2630.663120
930.430060	2633.100518
930.733699	2634.799387
931.037299	2640.448000
931.340861	2637.390540
931.644383	2644.425470
931.947866	2639.694347
932.251309	2637.219141
932.554714	2636.788122
932.858080	2633.287041
933.161407	2630.549694
933.464694	2628.044241
933.767943	2624.003756
934.071153	2620.099382
934.374323	2617.679628
934.677455	2613.732405
934.980548	2611.836931
935.283602	2608.610593
935.586617	2606.402567
935.889593	2612.199894
936.192530	2611.166458
936.495428	2616.623507
936.798287	2624.679271
937.101108	2639.351549
937.403890	2661.399035
937.706632	2687.262675
938.009336	2720.564537
938.312002	2751.187026
938.614628	2772.289296
938.917216	2792.955507
939.219765	2800.986065
939.522275	2814.229176
939.824747	2811.229689
940.127179	2806.599389
940.429573	2800.348359
940.731929	2799.226702
941.034246	2792.164045
941.336524	2790.462656
941.638763	2784.244393
941.940964	2776.082765
942.243126	2757.450660
942.545250	2749.646954
942.847335	2735.143554
943.149381	2722.049157
943.451389	2706.320757
943.753359	2694.088397
944.055290	2685.896522
944.357182	2676.401509
944.659036	2674.085099
944.960851	2668.998575
945.262628	2663.113027
945.564367	2663.967503
945.866067	2662.266114
946.167729	2661.641011
946.469352	2661.885507
946.770937	2658.611277
947.072484	2653.968374
947.373992	2651.863693
947.675462	2651.493168
947.976893	2643.656694
948.278286	2639.578401
948.579641	2637.960190
948.880958	2633.506331
949.182236	2634.224695
949.483476	2630.998357
949.784678	2627.729169
950.085841	2630.849643
950.386967	2633.912144
950.688054	2639.636374
950.989103	2648.062663
951.290114	2657.842501
951.591087	2666.881290
951.892021	2679.781603
952.192917	2690.751153
952.493776	2702.514686
952.794596	2706.504759
953.095378	2708.813608
953.396122	2706.524924
953.696828	2703.555684
953.997496	2698.469160
954.298126	2689.087573
954.598718	2681.397292
954.899272	2668.292813
955.199788	2662.235867
955.500266	2646.784730
955.800706	2631.053810
956.101108	2613.868516
956.401472	2603.876949
956.701798	2590.389342
957.002087	2575.641447
957.302337	2566.854715
957.602550	2554.995401
957.902724	2545.328988
958.202861	2536.524613
958.502960	2526.701925
958.803022	2519.699762
959.103045	2510.688700
959.403031	2503.492453
959.702979	2500.533295
960.002889	2497.531288
960.302762	2490.914774
960.602596	2488.177427
960.902393	2481.407158
961.202153	2479.549493
961.501875	2477.107053
961.801559	2475.294759
962.101205	2474.289048
962.400814	2468.602627
962.700385	2468.549695
962.999918	2465.479632
963.299414	2463.760599
963.598873	2464.257152
963.898293	2463.868983
964.197677	2462.220526
964.497022	2459.730196
964.796331	2458.477469
965.095601	2458.149794
965.394835	2460.894703
965.694030	2456.680298
965.993189	2457.950669
966.292309	2454.845318
966.591393	2455.097376
966.890439	2457.159208
967.189447	2452.904474
967.488419	2454.631069
967.787353	2455.568724
968.086249	2454.381532
968.385108	2457.847325
968.683930	2457.348251
968.982714	2457.502006
969.281462	2460.415793
969.580172	2460.811524
969.878844	2462.984261
970.177480	2466.124900
970.476078	2469.356279
970.774639	2473.928606
971.073162	2474.485653
971.371649	2475.693010
971.670098	2472.713688
971.968510	2477.298617
972.266885	2475.546816
972.565223	2481.873464
972.863524	2483.801706
973.161788	2488.469814
973.460014	2486.029896
973.758204	2481.578557
974.056356	2486.198774
974.354471	2484.726757
974.652550	2486.377735
974.950591	2487.985863
975.248595	2485.510657
975.546563	2481.291211
975.844493	2482.770790
976.142386	2480.474544
976.440243	2476.247537
976.738062	2478.097640
977.035845	2474.284007
977.333590	2475.851806
977.631299	2470.913996
977.928971	2469.162195
978.226606	2468.264870
978.524204	2465.472070
978.821765	2463.536267
979.119290	2462.432255
979.416777	2461.585341
979.714228	2462.359158
980.011642	2464.058027
980.309020	2471.707978
980.606360	2472.723770
980.903664	2482.448156
981.200931	2495.214878
981.498162	2512.402692
981.795356	2543.420912
982.092513	2582.094123
982.389633	2623.499641
982.686717	2668.817093
982.983764	2700.997299
983.280775	2720.130998
983.577749	2719.052191
983.874686	2709.602548
984.171587	2692.686957
984.468451	2677.598783
984.765279	2660.025321
985.062070	2643.583597
985.358824	2623.048457
985.655543	2599.879314
985.952224	2575.802763
986.248869	2548.038609
986.545478	2522.792510
986.842050	2502.711074
987.138586	2483.443784
987.435086	2471.123204
987.731549	2461.166925
988.027975	2458.343879
988.324366	2448.558999
988.620719	2445.579677
988.917037	2441.032557
989.213318	2439.502566
989.509563	2437.672628
989.805772	2434.436207
990.101944	2433.707760
990.398080	2434.559715
990.694180	2432.785229
990.990244	2431.943356
991.286271	2433.357400
991.582262	2435.111721
991.878217	2432.271031
992.174136	2434.836978
992.470019	2436.407298
992.765865	2436.966866
993.061676	2438.832093
993.357450	2441.551795
993.653188	2445.919955
993.948890	2450.048660
994.244556	2457.935545
994.540186	2464.428552
994.835780	2474.919193
995.131337	2487.663230
995.426859	2506.885149
995.722345	2529.643438
996.017795	2544.318237
996.313208	2558.589744
996.608586	2568.238512
996.903928	2571.792526
997.199234	2571.570715
997.494504	2567.615930
997.789738	2560.666699
998.084936	2552.026161
998.380099	2540.257588
998.675225	2530.082019
998.970316	2517.421161
999.265371	2503.247957
999.560390	2488.920998
999.855373	2477.830459
1000.150320	2467.765795
1000.445232	2458.520319
1000.740108	2451.064453
1001.034948	2445.995573
1001.329752	2437.874274
1001.624521	2435.719180
1001.919254	2430.441092
1002.213951	2430.715835
1002.508613	2424.343817
1002.803239	2422.493713
1003.097829	2418.942220
1003.392384	2424.784918
1003.686903	2419.900040
1003.981386	2420.023548
1004.275834	2418.538928
1004.570246	2419.723599
1004.864623	2415.867117
1005.158964	2415.166396
1005.453270	2416.761921
1005.747540	2414.508526
1006.041775	2415.136149
1006.335974	2414.387538
1006.630138	2414.735377
1006.924266	2413.999369
1007.218359	2410.732701
1007.512416	2412.124060
1007.806438	2412.512229
1008.100425	2412.459297
1008.394376	2412.960891
1008.688292	2414.349729
1008.982172	2411.801426
1009.276017	2410.959553
1009.569827	2409.608524
1009.863602	2410.399985
1010.157341	2411.080541
1010.451045	2411.635068
1010.744714	2409.202711
1011.038347	2410.352094
1011.331945	2410.163051
1011.625508	2408.421332
1011.919036	2409.916034
1012.212528	2408.000396
1012.505986	2409.343863
1012.799408	2409.258164
1013.092795	2409.101888
1013.386147	2406.760272
1013.679464	2405.452093
1013.972745	2407.589542
1014.265992	2408.199522
1014.559204	2408.605334
1014.852380	2408.325550
1015.145521	2406.140210
1015.438628	2408.307906
1015.731699	2408.885118
1016.024736	2406.442679
1016.317737	2409.540468
1016.610703	2406.742628
1016.903635	2407.604665
1017.196531	2403.347411
1017.489393	2407.864285
1017.782219	2406.969480
1018.075011	2410.730181
1018.367768	2406.946795
1018.660490	2411.466189
1018.953177	2411.466189
1019.245829	2411.466189
