Dividing Wavelength (nm)	Counts (n)	Blue Motor Position (mm): 47.800000	Red Motor Position (mm): 0.000000	
326.493990	1977.069962
326.888308	1977.069962
327.282561	1977.069962
327.676750	1950.626590
328.070874	1952.915274
328.464933	1959.544391
328.858929	1968.590742
329.252859	1979.923255
329.646726	1995.775164
330.040528	2008.267143
330.434265	2027.368075
330.827938	2048.069573
331.221547	2066.111863
331.615091	2089.855697
332.008571	2109.685076
332.401986	2128.884310
332.795338	2150.097486
333.188625	2171.356032
333.581847	2189.168949
333.975006	2206.760055
334.368100	2223.521892
334.761129	2240.876064
335.154095	2257.204361
335.546996	2297.110135
335.939833	2384.717827
336.332606	2399.188459
336.725315	2411.829152
337.117960	2417.770152
337.510540	2425.765422
337.903056	2437.118101
338.295508	2442.686055
338.687896	2451.671912
339.080220	2458.769856
339.472480	2461.199692
339.864676	2465.686319
340.256807	2469.658749
340.648875	2471.307206
341.040879	2471.314768
341.432818	2472.459110
341.824694	2477.336426
342.216506	2472.335601
342.608253	2473.563122
342.999937	2472.443986
343.391557	2469.323512
343.783113	2470.999696
344.174605	2467.833851
344.566033	2468.358131
344.957397	2467.044910
345.348697	2466.255970
345.739934	2464.229426
346.131106	2461.393777
346.522215	2457.504527
346.913260	2460.761112
347.304241	2458.585854
347.695159	2456.851697
348.086012	2456.153498
348.476802	2452.778445
348.867528	2451.190482
349.258191	2448.422888
349.648789	2448.995059
350.039324	2449.484051
350.429796	2450.116716
350.820203	2448.808536
351.210548	2445.801488
351.600828	2445.486416
351.991045	2445.622527
352.381198	2444.110181
352.771288	2446.787034
353.161314	2444.589091
353.551276	2447.674277
353.941175	2441.582042
354.331010	2447.344081
354.720782	2446.043463
355.110490	2449.985646
355.500135	2446.280398
355.889717	2447.606221
356.279235	2445.123453
356.668689	2447.575974
357.058080	2447.192847
357.447408	2445.499019
357.836672	2446.555141
358.225873	2446.948351
358.615010	2445.259564
359.004084	2453.519495
359.393095	2450.746860
359.782043	2452.564196
360.170927	2453.522015
360.559748	2456.518981
360.948505	2456.254321
361.337199	2457.325566
361.725830	2459.589044
362.114398	2459.084928
362.502903	2459.798252
362.891344	2462.974179
363.279722	2458.240535
363.668037	2463.637090
364.056289	2461.030814
364.444478	2462.583489
364.832603	2464.189097
365.220665	2467.181022
365.608665	2466.298820
365.996601	2466.513069
366.384474	2465.469550
366.772284	2468.847123
367.160031	2464.652883
367.547715	2470.571197
367.935336	2470.949284
368.322893	2471.960035
368.710388	2470.964408
369.097820	2471.682772
369.485189	2474.717547
369.872495	2476.348360
370.259738	2475.498925
370.646918	2478.581591
371.034035	2477.270891
371.421090	2478.954636
371.808081	2477.467496
372.195010	2482.680049
372.581875	2484.323465
372.968678	2482.054946
373.355418	2487.948055
373.742096	2490.798827
374.128710	2491.504589
374.515262	2493.843684
374.901751	2497.702687
375.288177	2502.461537
375.674540	2506.386075
376.060841	2514.613238
376.447079	2522.059022
376.833254	2531.992616
377.219367	2539.914789
377.605417	2553.104968
377.991404	2563.794735
378.377329	2584.957499
378.763191	2600.242277
379.148991	2627.275465
379.534727	2652.876965
379.920402	2682.929803
380.306013	2708.884184
380.691563	2747.701068
381.077049	2779.828342
381.462474	2817.586584
381.847835	2863.672813
382.233134	2915.785741
382.618371	2958.338120
383.003545	3017.813653
383.388657	3075.716346
383.773706	3142.551964
384.158693	3202.413145
384.543618	3273.506018
384.928480	3339.822396
385.313280	3424.665016
385.698017	3510.367152
386.082692	3605.234105
386.467305	3669.150895
386.851856	3771.206534
387.236344	3902.258890
387.620770	3969.946462
388.005133	4078.737083
388.389435	4208.256928
388.773674	4293.301194
389.157851	4418.556223
389.541965	4541.245304
389.926018	4583.558229
390.310008	4754.135752
390.693936	4871.214029
391.077802	4994.223224
391.461606	5131.544255
391.845348	5247.165639
392.229027	5376.889651
392.612645	5586.644501
392.996200	5714.687288
393.379694	5894.026336
393.763125	6110.213698
394.146494	6226.669393
394.529801	6376.137084
394.913047	6619.322346
395.296230	6650.990874
395.679351	6735.939358
396.062410	6995.100036
396.445408	6939.909483
396.828343	7105.077848
397.211217	7261.514934
397.594028	7192.511620
397.976778	7405.918786
398.359466	7591.360151
398.742092	7593.691685
399.124656	7764.496059
399.507158	7967.566339
399.889598	8020.805965
400.271977	8241.144717
400.654294	8291.793190
401.036549	8509.059359
401.418742	8558.039210
401.800874	8862.025828
402.182944	8961.074418
402.564952	9334.369340
402.946898	9181.755969
403.328783	9259.588864
403.710606	9458.598494
404.092367	9722.258402
404.474067	10085.559237
404.855705	9894.691070
405.237282	9865.366678
405.618797	10291.591194
406.000250	10540.402383
406.381642	10904.701366
406.762972	10862.166631
407.144240	10671.815182
407.525447	10926.393451
407.906593	10874.666172
408.287677	11139.167952
408.668700	11288.834769
409.049661	11268.960020
409.430560	11424.139338
409.811399	11402.270813
410.192176	11563.310472
410.572891	11637.241514
410.953545	12120.862088
411.334138	11605.341092
411.714669	12186.311388
412.095139	11525.902590
412.475547	12015.186900
412.855894	11862.865916
413.236180	12179.762929
413.616405	11870.697348
413.996568	12146.282106
414.376670	12121.494752
414.756711	11998.747697
415.136691	12273.190633
415.516609	12448.761419
415.896466	12518.157943
416.276262	12799.466930
416.655997	13241.944127
417.035670	13283.468111
417.415283	13923.374536
417.794834	14005.323533
418.174324	13755.115944
418.553753	13668.198890
418.933121	14144.582887
419.312428	13967.272904
419.691674	13874.089696
420.070859	14328.892513
420.449983	13979.283453
420.829045	14524.012893
421.208047	14276.618268
421.586988	14717.510022
421.965867	14964.478670
422.344686	14969.784484
422.723444	15523.167065
423.102141	14232.886259
423.480777	15402.703653
423.859352	14917.021247
424.237866	16012.872312
424.616319	15708.426948
424.994712	16366.421034
425.373044	16145.154709
425.751314	16812.669013
426.129524	15957.165041
426.507673	17022.844799
426.885762	16731.350161
427.263789	16917.393943
427.641756	17087.021208
428.019662	17147.520096
428.397508	17188.872681
428.775292	17477.748440
429.153016	17436.824353
429.530679	17510.788162
429.908282	17550.106642
430.285824	17268.361595
430.663305	17964.073593
431.040726	17573.109427
431.418086	17400.258344
431.795385	18032.303090
432.172624	18459.316547
432.549802	18010.439605
432.926920	18205.287763
433.303977	18087.924661
433.680974	18344.166511
434.057910	18626.723184
434.434786	18657.481784
434.811601	18562.818997
435.188355	19592.883003
435.565050	19236.801102
435.941683	19198.299289
436.318257	20061.163346
436.694770	19881.315141
437.071222	20469.769030
437.447614	19552.576458
437.823946	19579.178627
438.200218	19719.751202
438.576429	19502.916051
438.952580	19768.577297
439.328670	19727.007943
439.704700	20142.051180
440.080670	19725.140195
440.456580	20305.518155
440.832429	20475.039556
441.208218	19485.287136
441.583947	19926.748540
441.959616	20026.384426
442.335224	20260.362020
442.710773	20383.595546
443.086261	20917.655384
443.461689	20294.276382
443.837057	20404.473485
444.212365	21052.208822
444.587612	21042.353366
444.962800	20629.805500
445.337927	21050.320910
445.712995	19792.366502
446.088002	21616.543310
446.462949	21810.965490
446.837837	21975.740645
447.212664	21924.041091
447.587431	24691.422824
447.962139	27585.887005
448.336786	29966.960077
448.711374	28466.894174
449.085901	24818.532998
449.460369	24751.939356
449.834776	24658.730942
450.209124	27104.033356
450.583412	26652.487123
450.957640	27201.836781
451.331808	25865.600817
451.705917	24514.155691
452.079965	24526.052814
452.453954	24891.549070
452.827883	24787.691219
453.201752	24583.264869
453.575562	24750.011114
453.949311	25841.768762
454.323001	25894.403449
454.696632	25659.987275
455.070202	27203.906175
455.443713	27340.917175
455.817164	27902.269820
456.190556	28429.191385
456.563888	27889.326658
456.937160	28338.427930
457.310373	26687.790324
457.683526	27124.490358
458.056619	27084.728257
458.429653	27029.515019
458.802628	27597.234642
459.175542	27703.156846
459.548398	29004.437450
459.921194	30542.001976
460.293930	31219.306201
460.666607	33221.239134
461.039224	34975.628728
461.411782	35373.015324
461.784280	34182.302347
462.156719	33694.545507
462.529099	33134.546412
462.901419	31858.138861
463.273680	30812.023820
463.645882	30884.276158
464.018024	30846.994304
464.390106	31667.497546
464.762130	34327.845500
465.134094	38335.159516
465.505999	43594.391157
465.877845	48183.441723
466.249631	49366.477022
466.621358	47642.825864
466.993026	45540.715122
467.364634	43458.441320
467.736184	41499.569923
468.107674	40267.615266
468.479105	39476.101180
468.850477	38781.977146
469.221790	37381.952941
469.593043	35664.167165
469.964238	34798.023837
470.335373	34706.242070
470.706449	36360.214400
471.077467	38844.797484
471.448425	43396.556115
471.819324	46262.865451
472.190164	44480.767155
472.560945	40942.124172
472.931667	37856.421299
473.302330	36766.899404
473.672934	35944.856090
474.043479	36440.933355
474.413965	35644.524309
474.784393	35286.468795
475.154761	36169.605852
475.525070	36196.210542
475.895321	35730.493626
476.265513	36322.317526
476.635645	37298.579818
477.005719	37111.958823
477.375734	37577.451407
477.745691	38256.041127
478.115588	39567.759440
478.485427	41497.772751
478.855207	44825.546790
479.224928	47439.604349
479.594591	49088.427141
479.964194	48105.124877
480.333739	48231.274711
480.703226	48246.680477
481.072653	48873.918483
481.442022	49373.650584
481.811333	49656.613070
482.180584	48372.979025
482.549777	47845.840691
482.918912	47325.916248
483.287988	47030.827266
483.657005	46218.692341
484.025964	45574.490852
484.394864	45595.371312
484.763706	45151.981666
485.132489	44273.396771
485.501213	44120.065036
485.869879	44267.717911
486.238487	43870.316192
486.607036	44073.560391
486.975527	43536.070048
487.343959	43723.235487
487.712333	43814.424919
488.080648	43717.768356
488.448905	44171.278117
488.817104	43970.869567
489.185244	44919.889464
489.553326	46582.041066
489.921350	49276.147107
490.289315	52189.865975
490.657222	52819.624557
491.025070	53120.462975
491.392861	52215.696847
491.760593	50967.562607
492.128267	49292.016659
492.495883	47752.992719
492.863440	46371.918212
493.230939	45023.989291
493.598380	43946.372080
493.965763	43606.484885
494.333088	42802.647698
494.700354	42340.363808
495.067563	42048.702811
495.434713	41913.615012
495.801805	41987.815755
496.168839	41615.284568
496.535815	41288.093519
496.902733	41317.637201
497.269593	40928.253437
497.636395	40844.832423
498.003139	41269.882351
498.369825	40709.598430
498.736453	41015.445234
499.103023	40548.382330
499.469535	40429.469072
499.835989	40511.914623
500.202385	40192.648268
500.568723	40203.330473
500.935003	40407.769426
501.301226	40197.157580
501.667390	40806.265075
502.033497	41075.797928
502.399546	40496.569351
502.765537	39841.153816
503.131470	40192.373525
503.497345	40558.623434
503.863163	39238.178883
504.228923	39846.666317
504.594625	40248.158933
504.960269	39543.387981
505.325856	40240.761040
505.691385	39602.510634
506.056856	39749.694682
506.422270	40172.697901
506.787625	39760.936455
507.152924	39949.430238
507.518164	40048.708202
507.883347	39264.332390
508.248472	39533.751816
508.613540	39992.383390
508.978550	40280.361824
509.343503	40050.759951
509.708398	40234.641079
510.073236	40756.992838
510.438016	40766.805444
510.802738	40216.926464
511.167403	40837.492503
511.532010	41073.887330
511.896561	41381.740513
512.261053	42224.376940
512.625488	41762.803853
512.989866	41634.574543
513.354186	41480.824392
513.718449	41485.608447
514.082655	42140.908036
514.446803	41822.458347
514.810894	42339.095958
515.174927	42287.693833
515.538904	42182.114427
515.902822	42833.998634
516.266684	42293.919658
516.630488	42727.181625
516.994235	42570.890732
517.357925	43142.837362
517.721558	43321.251359
518.085133	43617.499806
518.448651	43755.400569
518.812112	43528.074778
519.175516	43629.953976
519.538863	43971.958456
519.902152	43944.665649
520.265385	44397.661213
520.628560	44438.918016
520.991678	44231.880348
521.354739	44464.743848
521.717743	44779.921827
522.080690	44665.958983
522.443580	45215.343929
522.806413	45283.671728
523.169189	45210.078444
523.531908	45410.144196
523.894569	45263.474345
524.257174	45426.311176
524.619722	45730.789307
524.982213	45727.348719
525.344647	45630.903884
525.707025	45686.475044
526.069345	46070.747078
526.431608	45995.717065
526.793815	46307.111658
527.155964	45843.333066
527.518057	46002.953641
527.880093	45804.422920
528.242072	46332.665267
528.603995	46015.952256
528.965860	46019.286980
529.327669	46109.090094
529.689421	46003.225863
530.051117	45960.552496
530.412755	46113.029756
530.774337	46185.183791
531.135862	45997.178999
531.497331	46199.372118
531.858743	46107.534898
532.220098	46444.374716
532.581396	46141.542522
532.942638	45810.474826
533.303824	46099.413599
533.664953	46069.464104
534.026025	45795.343802
534.387040	46264.750843
534.747999	46203.213478
535.108902	46378.123872
535.469748	45902.460760
535.830537	46007.349527
536.191270	46219.589666
536.551947	45851.580394
536.912567	46172.412028
537.273131	46289.139945
537.633638	45778.917203
537.994089	46119.036291
538.354483	45719.850003
538.714821	46271.881555
539.075103	46625.609238
539.435328	46392.440749
539.795497	46276.985723
540.155609	46270.144877
540.515665	46745.180366
540.875665	46190.071190
541.235609	46511.112031
541.595496	46480.159347
541.955328	47143.759195
542.315102	46519.382044
542.674821	46319.591035
543.034483	46349.096908
543.394090	46328.685276
543.753640	46274.520599
544.113134	47276.641490
544.472571	46293.036757
544.831953	47531.103812
545.191278	46762.133766
545.550548	46473.772205
545.909761	46931.125846
546.268918	47135.143863
546.628019	47442.772715
546.987064	46998.009355
547.346053	46279.143337
547.704986	47160.117739
548.063863	46726.225628
548.422684	46900.460507
548.781449	46757.962212
549.140158	47161.410795
549.498811	47012.548042
549.857408	46450.217413
550.215949	47282.345555
550.574434	47218.837099
550.932864	46971.107237
551.291237	47695.248823
551.649555	47300.760890
552.007817	47538.663022
552.366022	47179.828651
552.724173	47366.842855
553.082267	47779.569683
553.440305	48071.651616
553.798288	47393.485353
554.156215	47692.924851
554.514086	47889.343328
554.871902	47622.008419
555.229661	47660.185077
555.587365	47486.764344
555.945014	47563.825942
556.302606	47506.825615
556.660143	47729.001868
557.017625	47817.595106
557.375050	47604.001417
557.732421	47945.872307
558.089735	47932.946788
558.446994	47867.550420
558.804197	48330.613168
559.161345	48283.075087
559.518437	47520.981175
559.875474	47837.769804
560.232455	47977.959251
560.589381	48162.001696
560.946251	47851.585086
561.303065	48542.523111
561.659825	48339.941823
562.016528	48017.582720
562.373177	47745.962830
562.729770	48214.959017
563.086307	47733.816170
563.442789	48189.082774
563.799216	48234.574146
564.155587	48031.077889
564.511904	48071.223118
564.868164	48139.629055
565.224370	48397.902490
565.580520	48119.214902
565.936615	48337.698510
566.292654	48053.974810
566.648638	48305.107450
567.004567	48246.801465
567.360441	48300.711564
567.716260	48138.129312
568.072023	48438.496381
568.427732	48422.195810
568.783385	47974.521184
569.138982	48370.607162
569.494525	48326.615533
569.850013	48101.432232
570.205445	48061.103001
570.560823	48026.092188
570.916145	47896.713495
571.271412	47924.991848
571.626625	47686.325980
571.981782	47739.343795
572.336884	47403.081190
572.691931	47757.426414
573.046923	47345.811162
573.401860	47194.294242
573.756743	47183.034824
574.111570	47288.810835
574.466342	47158.905342
574.821059	47273.994884
575.175722	46811.204358
575.530330	46802.470559
575.884882	46526.084258
576.239380	46501.375043
576.593823	46478.326887
576.948211	46387.860861
577.302544	45911.759168
577.656823	45935.669361
578.011047	46168.069074
578.365216	45872.760802
578.719330	45679.409867
579.073389	45539.732097
579.427394	45627.838863
579.781344	45586.917297
580.135239	45253.036636
580.489080	45338.015367
580.842866	44816.568495
581.196597	45265.899140
581.550273	45217.115894
581.903895	45068.908492
582.257463	45495.143091
582.610975	44886.486778
582.964434	45152.684907
583.317837	44805.220858
583.671186	44640.551567
584.024481	44873.916661
584.377721	44405.348973
584.730906	44684.273495
585.084037	44704.430548
585.437113	44424.409576
585.790135	44477.654243
586.143103	44078.367132
586.496016	44193.313001
586.848874	44224.079163
587.201679	44239.363941
587.554428	43711.605545
587.907124	43909.175926
588.259765	43662.121579
588.612352	43921.889716
588.964884	43302.762927
589.317362	43592.911578
589.669786	43539.583732
590.022155	43304.683607
590.374470	43740.745935
590.726731	43261.380095
591.078937	42764.718057
591.431090	42865.110115
591.783188	42527.499001
592.135232	42202.107643
592.487222	42452.600057
592.839157	42532.918241
593.191038	42216.749675
593.542866	41980.750578
593.894639	41369.621579
594.246358	41664.208966
594.598022	41646.207006
594.949633	41231.443553
595.301190	41204.485982
595.652692	41030.402337
596.004141	41363.610003
596.355535	40377.467050
596.706876	40329.344195
597.058162	40166.169607
597.409395	40643.929839
597.760573	40715.282331
598.111698	40295.190378
598.462768	40301.103651
598.813785	40339.245021
599.164748	39791.261516
599.515657	40194.677332
599.866511	39653.849744
600.217312	40271.885124
600.568060	39239.862629
600.918753	39991.279377
601.269392	39943.010329
601.619978	39589.098644
601.970510	39810.284310
602.320988	39980.647584
602.671412	40290.761724
603.021783	40028.914111
603.372100	39686.763438
603.722363	39797.502464
604.072572	39875.791584
604.422728	39875.637828
604.772830	39688.671515
605.122878	39784.244230
605.472872	39718.608407
605.822813	40007.723621
606.172701	39815.015433
606.522534	40073.656872
606.872314	40334.014824
607.222041	40084.051731
607.571714	40476.755095
607.921333	39927.607083
608.270899	40212.482687
608.620411	40544.084746
608.969870	40359.896108
609.319276	40338.904743
609.668627	40381.142051
610.017926	40856.192663
610.367171	41027.964939
610.716362	41110.473504
611.065500	41059.068858
611.414585	41255.691503
611.763616	41534.643751
612.112594	41471.770480
612.461518	41687.037831
612.810389	41959.640746
613.159207	41831.673576
613.507971	41916.606936
613.856682	42389.046231
614.205340	42262.346911
614.553945	42970.687000
614.902496	42408.318562
615.250994	42878.902712
615.599439	42955.530771
615.947830	43175.020089
616.296169	43206.161817
616.644454	43330.199407
616.992686	43492.181762
617.340864	44022.085169
617.688990	43734.232764
618.037063	44330.646635
618.385082	44293.601716
618.733048	44616.570798
619.080961	44612.968894
619.428821	44617.752949
619.776628	44736.799797
620.124382	44561.798662
620.472083	44691.510071
620.819731	44836.808728
621.167326	44506.764385
621.514868	44476.396475
621.862357	44046.575095
622.209793	44056.085232
622.557176	43749.038633
622.904506	43498.037063
623.251783	43158.268334
623.599007	42926.914661
623.946179	42717.701735
624.293297	42655.642611
624.640363	42069.323651
624.987376	42053.171794
625.334336	41803.440594
625.681243	41452.460340
626.028097	41393.267112
626.374899	41261.274580
626.721647	41238.027299
627.068343	41108.900664
627.414987	40881.022866
627.761577	40652.729173
628.108115	40979.040541
628.454600	40441.414086
628.801032	40633.313169
629.147412	40577.227812
629.493739	40588.459503
629.840014	40220.830838
630.186236	40554.782075
630.532405	40179.397595
630.878521	40385.946271
631.224585	40265.618969
631.570597	39971.329011
631.916556	40142.070371
632.262462	40086.594993
632.608316	40100.720307
632.954117	40006.627170
633.299866	40001.996870
633.645562	39910.076471
633.991206	39411.806304
634.336797	38976.817742
634.682336	38989.886933
635.027823	38742.338553
635.373257	38547.767658
635.718639	38308.005340
636.063968	38179.576905
636.409245	37589.139323
636.754470	37649.018148
637.099642	37406.314317
637.444762	36923.795235
637.789829	37057.816831
638.134845	36709.463017
638.479808	36656.445203
638.824719	36572.278098
639.169577	36172.733888
639.514383	36216.818778
639.859137	35937.763187
640.203839	36163.806005
640.548489	35794.065096
640.893086	35872.767590
641.237632	35616.838292
641.582125	35718.314198
641.926566	35660.633316
642.270955	35616.555987
642.615292	35634.235314
642.959576	35601.392196
643.303809	35597.881033
643.647990	35735.411271
643.992118	35699.094799
644.336195	35697.058173
644.680219	35783.309795
645.024192	36080.604281
645.368112	36596.896573
645.711981	36597.710719
646.055797	37472.713874
646.399562	37387.919146
646.743274	38343.406843
647.086935	38788.480234
647.430544	38681.454017
647.774101	38796.997263
648.117606	39041.178153
648.461059	39374.501766
648.804460	38989.178651
649.147810	38365.779484
649.491108	38108.766337
649.834354	37761.231712
650.177548	36924.811028
650.520690	36466.968394
650.863781	36499.478795
651.206820	36333.234144
651.549807	35900.526704
651.892742	35401.908698
652.235626	35224.545782
652.578458	35084.691571
652.921238	34460.579081
653.263967	34790.184843
653.606644	34460.153103
653.949269	34416.279942
654.291843	34001.816437
654.634365	34425.681693
654.976836	34027.279305
655.319255	34012.077706
655.661622	34011.737428
656.003938	33779.758651
656.346203	33630.684170
656.688416	33857.034498
657.030577	33663.008049
657.372687	33500.556866
657.714746	33757.073459
658.056753	33872.687281
658.398708	33340.938812
658.740612	33393.664240
659.082465	33656.217614
659.424266	33481.065245
659.766016	33598.309880
660.107715	33470.604850
660.449362	33595.312914
660.790958	33581.394288
661.132503	33617.741008
661.473996	33639.531395
661.815438	33738.695933
662.156829	33930.584933
662.498168	33703.783422
662.839456	33736.331631
663.180693	33888.067842
663.521879	34038.480749
663.863013	33996.593802
664.204097	33991.245137
664.545129	34435.060760
664.886110	34404.483642
665.227040	34487.597145
665.567918	34595.843321
665.908746	34642.350486
666.249522	34815.052855
666.590248	34826.284546
666.930922	34917.594965
667.271545	34886.629678
667.612118	34977.367926
667.952639	34769.508550
668.293109	34821.712219
668.633528	34722.570367
668.973896	34655.883463
669.314213	34658.192312
669.654480	34401.897530
669.994695	34432.393990
670.334859	34319.751928
670.674973	34223.511260
671.015035	34391.850510
671.355047	34338.477294
671.695008	34280.153664
672.034918	34164.431457
672.374777	34245.591513
672.714585	34071.606171
673.054342	34301.845749
673.394049	34060.293822
673.733705	34342.464846
674.073310	34009.216851
674.412864	34096.103658
674.752368	33674.920295
675.091820	33983.733818
675.431223	33562.658840
675.770574	33287.981491
676.109875	33150.267250
676.449125	32881.906466
676.788324	32793.981181
677.127473	32258.570313
677.466571	32176.490247
677.805619	31822.114775
678.144616	31818.230566
678.483562	31743.956726
678.822458	31402.297565
679.161303	31334.909941
679.500098	31239.382596
679.838842	31125.215585
680.177535	31290.174742
680.516179	31542.602959
680.854771	31766.967073
681.193314	32621.798051
681.531805	33732.517998
681.870247	34510.269734
682.208638	35238.764356
682.546978	35488.361965
682.885268	35587.239157
683.223508	35080.189821
683.561697	34729.504474
683.899836	34546.795415
684.237925	34033.386663
684.575963	33890.253182
684.913951	33416.606531
685.251889	33557.950403
685.589776	33544.225861
685.927614	33516.416336
686.265401	33666.514171
686.603137	33751.891153
686.940824	34264.717651
687.278460	34624.837517
687.616046	34756.673773
687.953582	35371.664295
688.291068	35252.413280
688.628504	35542.249379
688.965889	35484.351727
689.303224	35115.394719
689.640510	34789.418588
689.977745	34053.730239
690.314930	33265.175311
690.652065	32746.831269
690.989150	32011.470596
691.326185	31115.226539
691.663170	30414.191082
692.000105	29658.131431
692.336990	28962.676532
692.673825	28492.909049
693.010610	27979.454927
693.347345	27386.920224
693.684030	26733.629536
694.020665	26443.438035
694.357251	25761.387564
694.693786	25712.132970
695.030272	25468.625075
695.366707	24923.973772
695.703093	24623.291630
696.039429	24610.068684
696.375716	24338.431150
696.711952	24310.576254
697.048139	24139.025789
697.384276	23968.571774
697.720363	24083.966307
698.056400	23870.233986
698.392388	23663.269415
698.728326	23629.649960
699.064214	23427.298045
699.400053	23366.199260
699.735842	23007.112831
700.071581	22717.947205
700.407270	22437.149894
700.742910	22241.290985
701.078501	21975.450778
701.414042	21686.396058
701.749533	21379.057073
702.084974	21038.012933
702.420366	21242.318295
702.755709	20793.758946
703.091002	20501.997126
703.426246	20523.729541
703.761440	20412.541851
704.096584	20138.771909
704.431679	20090.180228
704.766725	19988.250617
705.101721	19926.229302
705.436668	20010.908083
705.771565	19691.568631
706.106413	20032.665703
706.441212	20006.756693
706.775961	20135.139758
707.110661	20196.682164
707.445311	20546.437418
707.779913	20382.660412
708.114465	20628.688884
708.448967	20907.399157
708.783421	21610.640118
709.117825	21871.847505
709.452180	22079.517838
709.786485	22464.578812
710.120742	23291.466675
710.454949	23290.241675
710.789107	23751.933229
711.123216	24465.687517
711.457275	24595.618216
711.791286	25150.976930
712.125247	25224.600461
712.459159	24919.908081
712.793023	25607.745797
713.126837	24518.317163
713.460602	24788.954028
713.794318	24422.809983
714.127985	24035.460324
714.461602	23144.267503
714.795171	23112.455302
715.128691	22081.020102
715.462162	21540.643697
715.795584	21118.578133
716.128957	20852.294304
716.462281	20439.943043
716.795556	20197.786177
717.128782	19702.041628
717.461960	19151.126692
717.795088	19066.783147
718.128167	18671.344957
718.461198	18198.741825
718.794180	18057.851657
719.127113	17686.169905
719.459997	17473.075291
719.792833	17125.946478
720.125619	17091.659070
720.458357	16770.847601
720.791046	16598.659430
721.123686	16434.380829
721.456278	16184.755493
721.788821	16147.057745
722.121315	15884.617796
722.453761	15959.083200
722.786158	15868.355034
723.118506	15882.618978
723.450805	15741.844757
723.783056	15901.573717
724.115259	15800.821216
724.447412	15724.117540
724.779518	15963.181658
725.111574	15981.844010
725.443582	16178.360789
725.775542	16153.480175
726.107453	16631.079090
726.439315	16513.678179
726.771129	16908.340031
727.102895	17277.654962
727.434612	17478.343296
727.766281	17618.142054
728.097901	17887.780771
728.429473	17918.103311
728.760996	17911.973268
729.092471	18004.148245
729.423897	17881.244915
729.755276	17741.327690
730.086606	17848.968927
730.417887	18374.352940
730.749120	18879.776504
731.080305	19064.809535
731.411442	19398.385206
731.742530	19478.254727
732.073570	19574.457586
732.404562	19884.508712
732.735506	19715.544359
733.066401	19430.421738
733.397249	18912.478469
733.728048	18287.950083
734.058798	17438.240917
734.389501	16743.448930
734.720156	16282.019515
735.050762	15747.942033
735.381320	15381.719850
735.711831	15137.138189
736.042293	14774.056645
736.372707	14781.215083
736.703073	14564.395056
737.033391	14751.573099
737.363661	14706.364031
737.693883	14798.239060
738.024056	14960.985150
738.354182	15141.443334
738.684260	15429.013435
739.014290	15647.103833
739.344272	15843.048441
739.674207	16127.533356
740.004093	16240.220788
740.333931	16242.123824
740.663722	16283.088240
740.993464	16279.272087
741.323159	16118.305524
741.652806	15842.856877
741.982405	15636.338448
742.311956	15305.306040
742.641460	15184.895560
742.970915	14877.039856
743.300323	14546.057859
743.629683	14330.283872
743.958996	14052.012179
744.288260	13783.855562
744.617477	13476.289725
744.946647	13399.528075
745.275768	13122.877114
745.604842	12938.844752
745.933869	12768.915017
746.262847	12719.821741
746.591778	12638.407106
746.920662	12539.272816
747.249498	12523.829241
747.578286	12644.501861
747.907027	12786.997636
748.235720	13011.432326
748.564365	13026.853216
748.892963	12927.502156
749.221514	12993.982372
749.550017	12842.679701
749.878473	12811.361533
750.206881	12589.444899
750.535242	12487.658962
750.863555	12401.853482
751.191821	12297.977987
751.520039	12325.016215
751.848210	12229.609858
752.176334	12259.508942
752.504411	12162.885146
752.832440	11999.082934
753.160421	12067.599777
753.488356	11940.356012
753.816243	11846.751868
754.144082	11703.479755
754.471875	11647.165025
754.799620	11593.615368
755.127318	11565.826008
755.454969	11524.302024
755.782572	11488.436735
756.110129	11491.882363
756.437638	11414.934191
756.765100	11398.401727
757.092515	11400.168651
757.419882	11414.578790
757.747203	11413.840261
758.074477	11480.814510
758.401703	11443.285640
758.728882	11602.276071
759.056014	11637.052471
759.383099	11749.916343
759.710138	11858.238137
760.037129	11944.288112
760.364073	11955.814711
760.690970	11945.697115
761.017820	11942.894233
761.344623	12140.078966
761.671379	12454.646966
761.998088	13088.826640
762.324751	14626.852432
762.651366	17473.929766
762.977935	21121.078545
763.304456	23387.409915
763.630931	23914.724690
763.957359	22768.890585
764.283740	20880.721371
764.610074	19003.216717
764.936362	16860.459152
765.262602	15336.170504
765.588796	13855.996994
765.914943	12815.891009
766.241044	11938.231166
766.567097	11304.079218
766.893104	10750.081616
767.219064	10373.194872
767.544978	9989.608435
767.870845	9672.063633
768.196665	9479.181526
768.522438	9282.503429
768.848165	9115.157286
769.173846	8949.956154
769.499479	8822.914036
769.825066	8659.560486
770.150607	8477.148855
770.476101	8414.557889
770.801548	8305.235427
771.126949	8167.143099
771.452303	8073.044922
771.777611	7914.694717
772.102872	7887.094400
772.428087	7767.482943
772.753256	7644.335116
773.078378	7550.080663
773.403453	7404.880308
773.728482	7301.531613
774.053465	7236.228507
774.378401	7150.967472
774.703291	7056.884417
775.028135	6956.497400
775.352932	6918.862666
775.677683	6836.472568
776.002388	6745.063846
776.327046	6744.342961
776.651658	6661.841958
776.976224	6582.892448
777.300743	6568.535241
777.625216	6500.323389
777.949643	6450.385719
778.274024	6457.370237
778.598359	6389.934722
778.922647	6389.604527
779.246889	6350.480132
779.571086	6353.373754
779.895236	6364.005547
780.219339	6354.835689
780.543397	6355.052458
780.867409	6399.724643
781.191374	6400.062400
781.515294	6367.259612
781.839167	6423.927223
782.162995	6393.385392
782.486776	6346.192630
782.810511	6304.252751
783.134201	6227.501184
783.457844	6219.881480
783.781441	6175.378173
784.104993	6126.027798
784.428498	6097.121822
784.751958	6078.809830
785.075372	6057.047169
785.398739	6015.520664
785.722061	6039.839191
786.045337	6033.525145
786.368568	6147.936653
786.691752	6164.164127
787.014891	6414.102014
787.337983	6687.866915
787.661030	7123.432689
787.984031	7553.173411
788.306987	7816.946744
788.629897	7908.211794
788.952760	7837.683531
789.275579	7656.244842
789.598351	7365.302210
789.921078	7099.711540
790.243759	6822.148130
790.566395	6614.034175
790.888984	6417.058651
791.211529	6275.727382
791.534027	6109.966682
791.856480	5970.485517
792.178888	5908.496968
792.501249	5839.531463
792.823566	5733.815946
793.145836	5728.051387
793.468062	5707.357450
793.790241	5667.159290
794.112375	5706.288726
794.434464	5804.155166
794.756507	5830.147355
795.078505	5951.296364
795.400457	6167.506412
795.722364	6404.828811
796.044226	6597.985662
796.366042	6758.407780
796.687812	6706.849379
797.009538	6738.386838
797.331218	6652.924157
797.652852	6584.745072
797.974442	6462.955836
798.295986	6392.601493
798.617484	6263.878150
798.938938	6156.753631
799.260346	6088.955152
799.581709	5947.555828
799.903026	5896.423405
800.224299	5823.709802
800.545526	5704.247058
800.866708	5640.110979
801.187845	5590.387558
801.508936	5511.112893
801.829983	5486.265046
802.150984	5377.487028
802.471940	5347.645918
802.792851	5326.150438
803.113717	5304.171007
803.434538	5281.387512
803.755314	5248.778808
804.076045	5235.339092
804.396731	5195.944996
804.717372	5213.926791
805.037967	5212.762285
805.358518	5237.907560
805.679024	5296.803361
805.999485	5301.965502
806.319901	5326.097506
806.640272	5344.560732
806.960598	5384.088419
807.280879	5382.843254
807.601115	5415.240229
807.921306	5379.359817
808.241453	5378.666658
808.561554	5387.483636
808.881611	5355.575653
809.201623	5352.745045
809.521590	5301.905008
809.841513	5288.747597
810.161390	5309.703673
810.481223	5217.521134
810.801011	5204.467066
811.120755	5183.838665
811.440453	5130.236076
811.760107	5098.509574
812.079716	5078.965021
812.399281	5022.919993
812.718801	5022.052914
813.038276	4985.812059
813.357707	4949.818221
813.677093	4970.489472
813.996434	4908.463115
814.315731	4930.346764
814.634983	4929.368780
814.954191	4935.682825
815.273354	4992.857072
815.592473	5034.595305
815.911547	5109.567345
816.230577	5163.139687
816.549562	5252.786526
816.868502	5308.887006
817.187399	5366.913208
817.506250	5445.550167
817.825058	5476.510413
818.143821	5632.256861
818.462539	5803.192306
818.781213	6031.722933
819.099843	6396.410084
819.418429	7026.355190
819.736970	7645.804613
820.055466	8364.668110
820.373919	9290.317217
820.692327	10761.449418
821.010691	13492.963341
821.329011	19774.205746
821.647286	29401.617359
821.965517	39841.456285
822.283704	45403.767136
822.601847	47007.234666
822.919945	42455.080305
823.237999	37347.234514
823.556010	32130.409059
823.873976	27371.456485
824.191897	23087.325150
824.509775	19962.530650
824.827609	17122.324409
825.145398	15529.962541
825.463144	14733.329163
825.780845	15008.205638
826.098502	16252.730412
826.416116	18713.390701
826.733685	20972.878704
827.051210	21477.200776
827.368692	20051.925432
827.686129	17498.797778
828.003522	15011.497512
828.320872	12786.112914
828.638177	11107.454053
828.955439	9843.780457
829.272656	8766.054861
829.589830	7915.834018
829.906960	7170.549834
830.224046	6625.686803
830.541088	6206.434202
830.858086	5938.612821
831.175041	5735.635803
831.491952	5668.338920
831.808819	5698.285894
832.125642	5944.238749
832.442421	6500.610734
832.759157	7617.485931
833.075849	9379.699396
833.392497	11229.699513
833.709101	12367.608924
834.025662	12125.658745
834.342179	11080.453633
834.658653	9769.690619
834.975083	8660.737596
835.291469	7749.798575
835.607811	6998.006261
835.924110	6471.692155
836.240366	5968.700948
836.556578	5510.076936
836.872746	5153.432945
837.188871	4874.463053
837.504952	4648.241274
837.820990	4478.692147
838.136984	4358.495916
838.452935	4312.387002
838.768842	4336.874407
839.084706	4622.415443
839.400526	5358.471796
839.716303	6274.202433
840.032037	6851.104517
840.347727	6709.662343
840.663373	6115.307784
840.978977	5528.499832
841.294537	5077.992078
841.610054	4743.277107
841.925527	4499.350795
842.240957	4286.992190
842.556344	4101.949076
842.871687	3939.485290
843.186987	3786.161117
843.502244	3667.910771
843.817458	3576.272676
844.132629	3501.257787
844.447756	3456.381435
844.762840	3404.530647
845.077881	3366.522868
845.392879	3328.666323
845.707833	3306.442396
846.022745	3277.223868
846.337613	3267.403701
846.652438	3241.872777
846.967221	3233.506982
847.281960	3211.824980
847.596656	3203.202086
847.911309	3192.499716
848.225919	3174.984227
848.540485	3163.409738
848.855009	3160.579130
849.169490	3144.649084
849.483928	3141.604227
849.798323	3134.009729
850.112675	3119.841566
850.426984	3124.451701
850.741251	3117.542800
851.055474	3109.930657
851.369654	3115.813684
851.683792	3109.655915
851.997887	3111.989969
852.311938	3113.570371
852.625947	3112.965432
852.939914	3106.303547
853.253837	3112.854527
853.567718	3107.974690
853.881555	3104.957559
854.195350	3111.904269
854.509103	3106.283383
854.822812	3106.316150
855.136479	3098.106631
855.450103	3104.511417
855.763685	3095.817947
856.077224	3098.981271
856.390720	3104.390429
856.704173	3115.506174
857.017584	3120.398613
857.330953	3128.098976
857.644278	3137.062147
857.957561	3136.374030
858.270802	3134.385295
858.584000	3135.600213
858.897155	3129.334059
859.210268	3121.215280
859.523339	3107.667179
859.836367	3104.529061
860.149352	3100.581838
860.462295	3096.735437
860.775195	3085.851586
861.088054	3083.686411
861.400869	3081.780854
861.713642	3081.876636
862.026373	3089.617328
862.339062	3092.820981
862.651708	3101.617795
862.964312	3116.746298
863.276873	3127.163842
863.589392	3157.700631
863.901869	3181.520083
864.214303	3201.747713
864.526696	3221.690518
864.839045	3240.625092
865.151353	3256.464397
865.463619	3257.759973
865.775842	3258.458173
866.088023	3265.198196
866.400162	3258.405241
866.712258	3256.471959
867.024313	3254.694952
867.336325	3254.238727
867.648296	3255.425919
867.960224	3253.744694
868.272110	3257.686877
868.583954	3256.582864
868.895755	3266.619801
869.207515	3261.944131
869.519233	3283.721916
869.830909	3287.389355
870.142542	3301.378557
870.454134	3304.602375
870.765684	3318.964622
871.077191	3336.437262
871.388657	3347.903366
871.700081	3368.178887
872.011463	3387.322668
872.322803	3409.523910
872.634101	3424.876744
872.945357	3448.237451
873.256571	3478.411277
873.567744	3494.689163
873.878874	3498.291068
874.189963	3513.001154
874.501010	3515.819159
874.812015	3514.130373
875.122979	3530.390615
875.433900	3527.035727
875.744780	3528.500182
876.055618	3542.023077
876.366415	3540.687171
876.677169	3543.981565
876.987882	3563.831109
877.298554	3580.706371
877.609183	3623.125160
877.919771	3670.154084
878.230317	3742.393819
878.540822	3849.901466
878.851285	4004.198582
879.161707	4226.994897
879.472087	4614.435297
879.782425	5256.262401
880.092722	6463.122194
880.402977	8430.329139
880.713191	10847.943015
881.023363	13267.008744
881.333494	14657.827802
881.643583	15129.883968
881.953631	14739.413836
882.263637	13898.723294
882.573602	12870.481664
882.883526	11888.112014
883.193408	10915.691082
883.503248	9968.992636
883.813048	9121.746074
884.122806	8337.334974
884.432522	7543.630506
884.742197	6865.002978
885.051831	6286.437313
885.361424	5770.523108
885.670975	5364.480851
885.980485	5025.622051
886.289954	4751.254732
886.599382	4526.636041
886.908768	4337.638142
887.218113	4171.743851
887.527417	4033.177655
887.836680	3907.481525
888.145901	3802.350782
888.455082	3720.840366
888.764221	3650.501146
889.073319	3590.282043
889.382376	3557.131415
889.691392	3530.128475
890.000366	3519.990714
890.309300	3514.654653
890.618193	3517.664222
890.927044	3511.539220
891.235855	3520.552803
891.544625	3537.201213
891.853353	3566.369330
892.162041	3625.353350
892.470687	3717.646795
892.779293	3840.600537
893.087858	4018.674256
893.396381	4302.287050
893.704864	4725.197008
894.013306	5297.279750
894.321707	5878.398759
894.630068	6241.886116
894.938387	6279.425068
895.246665	6107.884685
895.554903	5787.937774
895.863100	5448.476556
896.171256	5172.937169
896.479371	4926.472637
896.787446	4695.615518
897.095480	4496.764683
897.403473	4343.848843
897.711425	4194.610525
898.019336	4068.987492
898.327207	3942.230199
898.635038	3839.032738
898.942827	3732.591295
899.250576	3643.672903
899.558284	3560.786252
899.865952	3500.471367
900.173579	3437.101542
900.481165	3389.152607
900.788711	3344.893797
901.096216	3312.693427
901.403681	3283.759724
901.711105	3275.300668
902.018489	3267.154164
902.325832	3305.204793
902.633135	3361.779142
902.940397	3535.104093
903.247619	3945.375879
903.554800	4715.817942
903.861941	5702.591039
904.169041	6425.563077
904.476101	6647.966182
904.783121	6376.484924
905.090100	5969.668850
905.397039	5549.866763
905.703938	5182.144837
906.010796	4845.184032
906.317614	4586.527469
906.624391	4338.472453
906.931129	4137.325373
907.237826	3949.514666
907.544483	3773.084364
907.851099	3597.178341
908.157675	3435.700101
908.464211	3285.123357
908.770707	3180.799198
909.077163	3101.292640
909.383578	3038.048845
909.689954	2990.057060
909.996289	2958.386011
910.302584	2939.300203
910.608839	2926.417534
910.915054	2911.921696
911.221229	2909.527148
911.527363	2911.727612
911.833458	2919.440577
912.139513	2931.652772
912.445527	2941.659463
912.751502	2979.856285
913.057436	3025.781197
913.363331	3085.962492
913.669186	3174.878363
913.975000	3298.772281
914.280775	3490.497444
914.586510	3767.100514
914.892205	4150.497908
915.197859	4660.196371
915.503475	5254.969345
915.809050	5757.443834
916.114585	6048.373864
916.420081	6117.349452
916.725536	6053.357045
917.030952	5815.573379
917.336328	5607.981185
917.641665	5394.407661
917.946961	5159.938554
918.252218	4959.708965
918.557435	4727.490733
918.862612	4522.061193
919.167750	4344.247094
919.472848	4149.189729
919.777906	3979.491887
920.082925	3816.758400
920.387904	3657.301663
920.692843	3543.414436
920.997743	3440.327881
921.302603	3342.055628
921.607423	3275.885442
921.912204	3207.232488
922.216946	3154.202071
922.521647	3106.235492
922.826310	3064.058678
923.130932	3023.709283
923.435516	2980.483909
923.740059	2954.882409
924.044564	2919.438057
924.349028	2895.976527
924.653454	2861.598378
924.957840	2840.231447
925.262186	2816.207829
925.566493	2795.087915
925.870761	2769.728390
926.174989	2758.584920
926.479178	2741.092116
926.783328	2724.010166
927.087438	2712.445759
927.391509	2700.115097
927.695541	2685.883919
927.999533	2675.146262
928.303486	2668.111332
928.607400	2660.511792
928.911275	2656.834270
929.215110	2646.520070
929.518906	2643.253402
929.822663	2645.781541
930.126381	2645.027888
930.430060	2647.936634
930.733699	2650.487458
931.037299	2658.429796
931.340861	2651.498209
931.644383	2656.425937
931.947866	2654.790082
932.251309	2651.321769
932.554714	2650.358908
932.858080	2648.896974
933.161407	2644.730460
933.464694	2642.845068
933.767943	2640.448000
934.071153	2634.685961
934.374323	2631.346197
934.677455	2629.526340
934.980548	2623.101389
935.283602	2623.310597
935.586617	2619.234824
935.889593	2626.234467
936.192530	2625.092645
936.495428	2630.970631
936.798287	2642.245171
937.101108	2654.016265
937.403890	2673.891014
937.706632	2701.556867
938.009336	2733.129613
938.312002	2765.340066
938.614628	2788.065587
938.917216	2806.188535
939.219765	2816.913590
939.522275	2829.881958
939.824747	2830.877586
940.127179	2823.724189
940.429573	2818.055412
940.731929	2818.834270
941.034246	2808.119297
941.336524	2809.079637
941.638763	2801.409522
941.940964	2793.600774
942.243126	2777.718619
942.545250	2764.485590
942.847335	2751.917994
943.149381	2740.582959
943.451389	2726.724827
943.753359	2713.731253
944.055290	2703.117104
944.357182	2691.892975
944.659036	2688.550690
944.960851	2686.347706
945.262628	2679.461489
945.564367	2681.674556
945.866067	2679.466531
946.167729	2677.916376
946.469352	2675.242044
946.770937	2672.547547
947.072484	2671.700633
947.373992	2667.380364
947.675462	2664.035559
947.976893	2656.645227
948.278286	2654.417037
948.579641	2651.112561
948.880958	2649.045688
949.182236	2648.085348
949.483476	2643.689462
949.784678	2645.479071
950.085841	2643.608803
950.386967	2647.750111
950.688054	2654.933755
950.989103	2665.709222
951.290114	2672.860098
951.591087	2682.889474
951.892021	2694.229550
952.192917	2705.778833
952.493776	2718.850545
952.794596	2722.195351
953.095378	2719.969681
953.396122	2718.963971
953.696828	2718.774928
953.997496	2711.956767
954.298126	2703.901003
954.598718	2695.820034
954.899272	2688.787624
955.199788	2674.874039
955.500266	2664.282575
955.800706	2645.532003
956.101108	2627.255300
956.401472	2618.478651
956.701798	2606.024481
957.002087	2588.882037
957.302337	2576.894173
957.602550	2567.252967
957.902724	2555.633107
958.202861	2548.784699
958.502960	2539.629964
958.803022	2531.934643
959.103045	2522.021214
959.403031	2517.181706
959.702979	2509.879595
960.002889	2509.337671
960.302762	2500.384581
960.602596	2494.758654
960.902393	2492.477532
961.202153	2489.435195
961.501875	2484.789772
961.801559	2481.013948
962.101205	2480.025882
962.400814	2479.216776
962.700385	2476.098823
962.999918	2474.273925
963.299414	2473.603452
963.598873	2472.322998
963.898293	2471.208903
964.197677	2469.762092
964.497022	2464.224385
964.796331	2464.917543
965.095601	2465.414097
965.394835	2464.786473
965.694030	2466.818058
965.993189	2464.025259
966.292309	2462.427213
966.591393	2463.178345
966.890439	2462.976699
967.189447	2463.125413
967.488419	2461.229939
967.787353	2464.463840
968.086249	2461.789508
968.385108	2465.214972
968.683930	2464.123562
968.982714	2468.423666
969.281462	2466.626495
969.580172	2470.498101
969.878844	2471.196301
970.177480	2475.826600
970.476078	2475.171250
970.774639	2480.182157
971.073162	2481.570995
971.371649	2483.106027
971.670098	2482.256592
971.968510	2487.746409
972.266885	2483.731130
972.565223	2493.437871
972.863524	2489.951913
973.161788	2492.900988
973.460014	2493.435351
973.758204	2495.035917
974.056356	2495.474498
974.354471	2494.524240
974.652550	2496.923829
974.950591	2495.983654
975.248595	2497.490959
975.546563	2494.272182
975.844493	2490.970227
976.142386	2491.602891
976.440243	2490.214053
976.738062	2487.814464
977.035845	2482.324648
977.333590	2481.979329
977.631299	2477.260809
977.928971	2477.288535
978.226606	2476.232413
978.524204	2475.105715
978.821765	2471.844089
979.119290	2473.981538
979.416777	2472.643112
979.714228	2471.516414
980.011642	2472.980869
980.309020	2479.131077
980.606360	2482.075111
980.903664	2491.544918
981.200931	2504.820797
981.498162	2525.905423
981.795356	2557.989846
982.092513	2594.848243
982.389633	2641.163844
982.686717	2683.920390
982.983764	2718.674105
983.280775	2737.628843
983.577749	2739.466344
983.874686	2730.392267
984.171587	2709.849565
984.468451	2694.325332
984.765279	2676.898063
985.062070	2656.574651
985.358824	2638.020684
985.655543	2614.183588
985.952224	2592.395721
986.248869	2562.116031
986.545478	2536.716177
986.842050	2515.712210
987.138586	2494.521719
987.435086	2482.801037
987.731549	2468.068265
988.027975	2465.615743
988.324366	2459.339507
988.620719	2455.604012
988.917037	2451.535801
989.213318	2445.909873
989.509563	2443.497681
989.805772	2443.540531
990.101944	2441.256888
990.398080	2439.663883
990.694180	2441.413164
990.990244	2438.005344
991.286271	2440.626744
991.582262	2439.343770
991.878217	2442.544903
992.174136	2442.043308
992.470019	2442.761672
992.765865	2446.270315
993.061676	2447.943978
993.357450	2450.280553
993.653188	2451.616459
993.948890	2458.293467
994.244556	2466.258490
994.540186	2475.609831
994.835780	2486.786069
995.131337	2501.871722
995.426859	2517.945441
995.722345	2539.209028
996.017795	2555.650751
996.313208	2572.354614
996.608586	2581.035481
996.903928	2585.696028
997.199234	2583.172930
997.494504	2584.201326
997.789738	2575.288566
998.084936	2562.148798
998.380099	2550.423074
998.675225	2538.493184
998.970316	2528.829292
999.265371	2510.015706
999.560390	2496.240753
999.855373	2486.682725
1000.150320	2475.461117
1000.445232	2466.283696
1000.740108	2459.964610
1001.034948	2456.647531
1001.329752	2444.047167
1001.624521	2445.556992
1001.919254	2434.605085
1002.213951	2435.068872
1002.508613	2431.802204
1002.803239	2433.516196
1003.097829	2427.174425
1003.392384	2427.683581
1003.686903	2428.601071
1003.981386	2425.490679
1004.275834	2424.006059
1004.570246	2423.466656
1004.864623	2423.920360
1005.158964	2422.929773
1005.453270	2423.275092
1005.747540	2422.796183
1006.041775	2419.590009
1006.335974	2420.124371
1006.630138	2419.206881
1006.924266	2418.692683
1007.218359	2419.380801
1007.512416	2417.873496
1007.806438	2417.581109
1008.100425	2418.160842
1008.394376	2419.690832
1008.688292	2419.073290
1008.982172	2420.038671
1009.276017	2417.878537
1009.569827	2416.053639
1009.863602	2413.780079
1010.157341	2418.296953
1010.451045	2416.956006
1010.744714	2414.750501
1011.038347	2416.706469
1011.331945	2417.039185
1011.625508	2415.562127
1011.919036	2418.251582
1012.212528	2412.182033
1012.505986	2414.392579
1012.799408	2414.611869
1013.092795	2413.800243
1013.386147	2412.479461
1013.679464	2413.807805
1013.972745	2412.144224
1014.265992	2415.935172
1014.559204	2413.316293
1014.852380	2415.259657
1015.145521	2412.645819
1015.438628	2415.012641
1015.731699	2413.051632
1016.024736	2414.763104
1016.317737	2414.594225
1016.610703	2415.312590
1016.903635	2412.418967
1017.196531	2409.941240
1017.489393	2411.105747
1017.782219	2412.119019
1018.075011	2414.264030
1018.367768	2414.760583
1018.660490	2414.705131
1018.953177	2414.705131
1019.245829	2414.705131
