Dividing Wavelength (nm)	Counts (n)	Blue Motor Position (mm): 45.600000	Red Motor Position (mm): 0.000000	
326.493990	1975.237503
326.888308	1975.237503
327.282561	1975.237503
327.676750	1948.748760
328.070874	1952.995932
328.464933	1958.410131
328.858929	1969.067131
329.252859	1977.485857
329.646726	1994.088898
330.040528	2006.938799
330.434265	2029.301357
330.827938	2049.536549
331.221547	2069.106308
331.615091	2087.158680
332.008571	2108.616351
332.401986	2129.756430
332.795338	2149.056488
333.188625	2170.529282
333.581847	2190.489731
333.975006	2207.082689
334.368100	2224.779659
334.761129	2241.092833
335.154095	2256.959865
335.546996	2300.432255
335.939833	2384.727909
336.332606	2396.516648
336.725315	2409.704306
337.117960	2418.780903
337.510540	2426.708118
337.903056	2436.510642
338.295508	2439.890735
338.687896	2449.242076
339.080220	2456.501337
339.472480	2460.677933
339.864676	2465.577935
340.256807	2467.402832
340.648875	2469.890642
341.040879	2469.555405
341.432818	2473.903400
341.824694	2474.760396
342.216506	2474.538586
342.608253	2474.911631
342.999937	2473.681589
343.391557	2473.190077
343.783113	2471.733183
344.174605	2469.842751
344.566033	2466.553398
344.957397	2465.630867
345.348697	2464.221864
345.739934	2460.919908
346.131106	2463.410238
346.522215	2461.219857
346.913260	2457.383539
347.304241	2459.805813
347.695159	2455.518312
348.086012	2453.809361
348.476802	2451.767694
348.867528	2451.303908
349.258191	2447.911211
349.648789	2447.157558
350.039324	2445.204111
350.429796	2449.078238
350.820203	2446.671087
351.210548	2446.512291
351.600828	2445.781323
351.991045	2447.507919
352.381198	2443.868206
352.771288	2447.941458
353.161314	2443.802671
353.551276	2442.310489
353.941175	2443.386775
354.331010	2445.758638
354.720782	2445.793926
355.110490	2449.373146
355.500135	2443.338884
355.889717	2445.262085
356.279235	2442.464244
356.668689	2446.063628
357.058080	2447.331478
357.447408	2444.621858
357.836672	2442.872578
358.225873	2445.804009
358.615010	2444.268977
359.004084	2448.642178
359.393095	2450.532611
359.782043	2451.581171
360.170927	2451.850873
360.559748	2448.851386
360.948505	2454.988991
361.337199	2454.842798
361.725830	2456.841615
362.114398	2458.308591
362.502903	2457.650720
362.891344	2459.533591
363.279722	2458.974023
363.668037	2460.100721
364.056289	2459.815896
364.444478	2461.945783
364.832603	2462.580969
365.220665	2459.198354
365.608665	2464.168932
365.996601	2463.395115
366.384474	2468.642956
366.772284	2465.986268
367.160031	2466.732359
367.547715	2469.048769
367.935336	2464.872173
368.322893	2466.876032
368.710388	2470.571197
369.097820	2472.738894
369.485189	2469.676393
369.872495	2472.023050
370.259738	2473.442135
370.646918	2473.535396
371.034035	2476.149234
371.421090	2477.490181
371.808081	2477.414564
372.195010	2479.859523
372.581875	2480.222487
372.968678	2482.266674
373.355418	2480.393886
373.742096	2483.239617
374.128710	2481.865903
374.515262	2482.034781
374.901751	2484.731799
375.288177	2490.045175
375.674540	2487.632983
376.060841	2490.589619
376.447079	2491.751605
376.833254	2490.468632
377.219367	2489.835967
377.605417	2498.317708
377.991404	2493.548777
378.377329	2501.360045
378.763191	2501.241577
379.148991	2510.325737
379.534727	2517.075842
379.920402	2527.085053
380.306013	2534.114942
380.691563	2545.651622
381.077049	2554.040102
381.462474	2567.200034
381.847835	2586.979002
382.233134	2604.635643
382.618371	2625.969806
383.003545	2651.588950
383.388657	2676.071313
383.773706	2709.582384
384.158693	2741.230747
384.543618	2779.566202
384.928480	2819.338385
385.313280	2866.064840
385.698017	2918.951585
386.082692	2978.810246
386.467305	3022.328007
386.851856	3089.531628
387.236344	3166.782270
387.620770	3225.950293
388.005133	3302.265800
388.389435	3393.480438
388.773674	3462.435861
389.157851	3557.161662
389.541965	3652.875530
389.926018	3705.616081
390.310008	3833.570648
390.693936	3932.994805
391.077802	4038.433058
391.461606	4157.250534
391.845348	4266.179786
392.229027	4382.249833
392.612645	4553.931368
392.996200	4680.676058
393.379694	4834.401003
393.763125	5026.085837
394.146494	5143.814424
394.529801	5294.507115
394.913047	5512.282441
395.296230	5574.943983
395.679351	5679.497514
396.062410	5919.882414
396.445408	5924.230409
396.828343	6094.253405
397.211217	6265.463593
397.594028	6251.771819
397.976778	6464.954653
398.359466	6656.067316
398.742092	6702.952568
399.124656	6888.270424
399.507158	7095.943277
399.889598	7182.386463
400.271977	7421.596775
400.654294	7514.374170
401.036549	7739.847337
401.418742	7824.251376
401.800874	8149.877147
402.182944	8283.750029
402.564952	8653.697624
402.946898	8569.926250
403.328783	8669.320160
403.710606	8899.340448
404.092367	9186.562709
404.474067	9563.641017
404.855705	9425.979708
405.237282	9431.066233
405.618797	9867.473880
406.000250	10146.267332
406.381642	10530.511640
406.762972	10520.948571
407.144240	10377.585717
407.525447	10653.515793
407.906593	10625.068562
408.287677	10904.363609
408.668700	11081.844992
409.049661	11077.441544
409.430560	11260.193453
409.811399	11257.549368
410.192176	11440.107193
410.572891	11523.107270
410.953545	12018.372909
411.334138	11519.762465
411.714669	12116.456119
412.095139	11464.241717
412.475547	11957.972324
412.855894	11818.818834
413.236180	12145.309163
413.616405	11847.399656
413.996568	12120.872170
414.376670	12111.611570
414.756711	11986.926192
415.136691	12260.126483
415.516609	12445.388887
415.896466	12515.193744
416.276262	12802.569760
416.655997	13247.706166
417.035670	13287.133030
417.415283	13928.375361
417.794834	14021.319114
418.174324	13773.571608
418.553753	13679.332278
418.933121	14165.181042
419.312428	13982.958454
419.691674	13888.696439
420.070859	14347.133928
420.449983	14001.953522
420.829045	14543.998548
421.208047	14296.271207
421.586988	14753.236679
421.965867	14997.583927
422.344686	14992.303318
422.723444	15549.688576
423.102141	14260.121092
423.480777	15436.449137
423.859352	14939.769454
424.237866	16038.894748
424.616319	15748.962867
424.994712	16399.203657
425.373044	16192.193716
425.751314	16859.831528
426.129524	15994.908160
426.507673	17056.570119
426.885762	16780.821524
427.263789	16963.933876
427.641756	17133.699772
428.019662	17191.191612
428.397508	17235.067294
428.775292	17520.283176
429.153016	17491.848547
429.530679	17562.132314
429.908282	17590.808918
430.285824	17305.749312
430.663305	18009.965737
431.040726	17621.791850
431.418086	17454.044935
431.795385	18086.056913
432.172624	18507.406634
432.549802	18064.715188
432.926920	18253.284589
433.303977	18134.164644
433.680974	18393.645436
434.057910	18666.490326
434.434786	18702.040543
434.811601	18616.144322
435.188355	19640.174068
435.565050	19302.411719
435.941683	19234.562829
436.318257	20121.105186
436.694770	19923.103786
437.071222	20516.626555
437.447614	19612.556106
437.823946	19632.934971
438.200218	19772.585015
438.576429	19556.848836
438.952580	19832.461319
439.328670	19782.405182
439.704700	20203.981755
440.080670	19757.466594
440.456580	20360.625528
440.832429	20520.903974
441.208218	19542.922648
441.583947	19972.159254
441.959616	20076.274205
442.335224	20309.026798
442.710773	20437.004050
443.086261	20974.393571
443.461689	20330.434058
443.837057	20471.248608
444.212365	21102.128848
444.587612	21111.152513
444.962800	20684.514622
445.337927	21106.139086
445.712995	19853.956799
446.088002	21691.883354
446.462949	21873.478318
446.837837	22030.343903
447.212664	21991.113643
447.587431	24761.966211
447.962139	27658.956009
448.336786	30042.123681
448.711374	28543.073571
449.085901	24888.393308
449.460369	24827.009698
449.834776	24718.803852
450.209124	27167.609867
450.583412	26726.821457
450.957640	27264.833560
451.331808	25932.716218
451.705917	24577.669188
452.079965	24601.007210
452.453954	24958.583814
452.827883	24850.246897
453.201752	24656.717001
453.575562	24810.893129
453.949311	25910.701499
454.323001	25966.701157
454.696632	25744.446766
455.070202	27264.717614
455.443713	27397.897337
455.817164	27971.116858
456.190556	28525.416929
456.563888	27973.619791
456.937160	28414.655218
457.310373	26761.086180
457.683526	27185.712651
458.056619	27169.051637
458.429653	27106.748017
458.802628	27673.345983
459.175542	27784.934444
459.548398	29072.906402
459.921194	30630.103701
460.293930	31294.056430
460.666607	33297.733603
461.039224	35046.199841
461.411782	35441.040654
461.784280	34259.878143
462.156719	33782.443066
462.529099	33220.800554
462.901419	31939.518207
463.273680	30893.998023
463.645882	30986.220891
464.018024	30951.255448
464.390106	31775.705913
464.762130	34408.125875
465.134094	38398.980523
465.505999	43680.869630
465.877845	48248.026465
466.249631	49458.457915
466.621358	47757.139068
466.993026	45641.964176
467.364634	43573.994648
467.736184	41610.094700
468.107674	40381.321012
468.479105	39600.118606
468.850477	38904.905682
469.221790	37491.696339
469.593043	35779.861645
469.964238	34896.661574
470.335373	34798.409485
470.706449	36475.162790
471.077467	38965.611257
471.448425	43512.835370
471.819324	46402.860814
472.190164	44609.493018
472.560945	41074.131826
472.931667	37977.547623
473.302330	36866.346246
473.672934	36063.925623
474.043479	36563.400626
474.413965	35764.922186
474.784393	35393.419394
475.154761	36273.246934
475.525070	36307.665412
475.895321	35860.815014
476.265513	36449.999870
476.635645	37412.358660
477.005719	37217.190389
477.375734	37692.767802
477.745691	38372.466575
478.115588	39689.410044
478.485427	41641.916984
478.855207	44958.744157
479.224928	47547.575782
479.594591	49217.762984
479.964194	48220.912619
480.333739	48376.623779
480.703226	48384.182990
481.072653	49013.946613
481.442022	49518.593840
481.811333	49794.460902
482.180584	48492.560236
482.549777	47978.080239
482.918912	47444.776573
483.287988	47159.127152
483.657005	46332.088055
484.025964	45700.620522
484.394864	45705.470112
484.763706	45276.044462
485.132489	44410.934571
485.501213	44243.124642
485.869879	44404.665897
486.238487	43993.683309
486.607036	44185.148852
486.975527	43651.210002
487.343959	43846.156462
487.712333	43923.250828
488.080648	43841.042211
488.448905	44270.914003
488.817104	44081.659005
489.185244	45028.866607
489.553326	46675.309974
489.921350	49392.212113
490.289315	52288.798619
490.657222	52924.067182
491.025070	53216.806986
491.392861	52308.673368
491.760593	51068.153791
492.128267	49393.147247
492.495883	47860.442393
492.863440	46486.503639
493.230939	45126.304549
493.598380	44035.272828
493.965763	43712.752408
494.333088	42907.952361
494.700354	42420.606374
495.067563	42139.841832
495.434713	42008.179496
495.801805	42081.959303
496.168839	41692.910776
496.535815	41358.861237
496.902733	41395.097050
497.269593	40997.322286
497.636395	40912.676271
498.003139	41318.209372
498.369825	40768.098500
498.736453	41086.543147
499.103023	40613.120828
499.469535	40485.302372
499.835989	40580.665879
500.202385	40261.200398
500.568723	40269.878744
500.935003	40455.947733
501.301226	40257.323751
501.667390	40855.302899
502.033497	41115.965841
502.399546	40542.020394
502.765537	39874.059947
503.131470	40257.051528
503.497345	40613.130910
503.863163	39291.849528
504.228923	39878.297037
504.594625	40298.215070
504.960269	39584.672511
505.325856	40263.262230
505.691385	39642.391202
506.056856	39763.204974
506.422270	40206.380371
506.787625	39780.352459
507.152924	39972.758178
507.518164	40084.404612
507.883347	39301.936877
508.248472	39548.071213
508.613540	40009.198158
508.978550	40305.184465
509.343503	40063.451056
509.708398	40259.884657
510.073236	40771.889447
510.438016	40767.349888
510.802738	40243.528633
511.167403	40842.826044
511.532010	41086.311254
511.896561	41390.406257
512.261053	42213.304046
512.625488	41772.755091
512.989866	41651.417038
513.354186	41493.301248
513.718449	41494.775785
514.082655	42163.857888
514.446803	41836.981911
514.810894	42353.969882
515.174927	42285.589151
515.538904	42195.566746
515.902822	42863.081050
516.266684	42303.064311
516.630488	42734.503901
516.994235	42589.122065
517.357925	43168.113708
517.721558	43328.263604
518.085133	43642.917303
518.448651	43771.812046
518.812112	43554.140064
519.175516	43655.653779
519.538863	44003.155637
519.902152	43960.429337
520.265385	44423.585347
520.628560	44471.859436
520.991678	44269.668838
521.354739	44494.922715
521.717743	44824.377242
522.080690	44716.635182
522.443580	45272.288803
522.806413	45327.136557
523.169189	45266.877124
523.531908	45466.889944
523.894569	45314.831100
524.257174	45481.705895
524.619722	45792.326672
524.982213	45767.090656
525.344647	45673.088260
525.707025	45751.478202
526.069345	46135.135216
526.431608	46058.597897
526.793815	46379.883235
527.155964	45917.901814
527.518057	46081.918275
527.880093	45874.810031
528.242072	46399.936945
528.603995	46092.900429
528.965860	46090.931858
529.327669	46202.290947
529.689421	46088.128977
530.051117	46053.947433
530.412755	46201.005452
530.774337	46270.906092
531.135862	46065.232056
531.497331	46287.418391
531.858743	46187.873247
532.220098	46526.618620
532.581396	46230.390338
532.942638	45908.883190
533.303824	46182.116249
533.664953	46166.276943
534.026025	45900.628300
534.387040	46359.738784
534.747999	46317.869481
535.108902	46469.633417
535.469748	46000.191089
535.830537	46117.685262
536.191270	46311.689026
536.551947	45957.852958
536.912567	46261.280008
537.273131	46382.635705
537.633638	45869.501696
537.994089	46211.987606
538.354483	45811.314178
538.714821	46373.256638
539.075103	46729.018427
539.435328	46494.609814
539.795497	46386.973618
540.155609	46354.942126
540.515665	46825.793457
540.875665	46289.747404
541.235609	46611.209182
541.595496	46589.330574
541.955328	47247.007067
542.315102	46632.918911
542.674821	46415.264573
543.034483	46450.784543
543.394090	46425.016685
543.753640	46374.995836
544.113134	47385.404384
544.472571	46410.447751
544.831953	47643.115730
545.191278	46849.078547
545.550548	46570.602688
545.909761	47039.999646
546.268918	47235.377125
546.628019	47538.370636
546.987064	47114.265924
547.346053	46392.289514
547.704986	47261.039118
548.063863	46830.632965
548.422684	47017.430400
548.781449	46871.884727
549.140158	47269.120088
549.498811	47115.443034
549.857408	46546.934470
550.215949	47383.571924
550.574434	47318.346955
550.932864	47066.528718
551.291237	47800.563568
551.649555	47404.888443
552.007817	47655.514448
552.366022	47275.053526
552.724173	47477.912078
553.082267	47875.074342
553.440305	48177.513326
553.798288	47497.139038
554.156215	47809.919949
554.514086	48002.171913
554.871902	47738.572499
555.229661	47759.911703
555.587365	47581.235567
555.945014	47685.113583
556.302606	47602.917569
556.660143	47826.618771
557.017625	47916.164787
557.375050	47720.865446
557.732421	48056.500428
558.089735	48046.145898
558.446994	47954.986713
558.804197	48425.785112
559.161345	48365.548364
559.518437	47613.829147
559.875474	47927.194832
560.232455	48081.381043
560.589381	48250.620139
560.946251	47958.187846
561.303065	48628.046286
561.659825	48440.008727
562.016528	48117.301784
562.373177	47822.089295
562.729770	48312.031475
563.086307	47821.141558
563.442789	48279.921846
563.799216	48321.660079
564.155587	48121.864029
564.511904	48148.448553
564.868164	48222.326663
565.224370	48483.004728
565.580520	48199.757417
565.936615	48410.472607
566.292654	48136.531266
566.648638	48376.268378
567.004567	48332.425463
567.360441	48365.760093
567.716260	48208.665136
568.072023	48508.681846
568.427732	48494.082664
568.783385	48045.135147
569.138982	48446.463925
569.494525	48393.355369
569.850013	48150.207916
570.205445	48139.361874
570.560823	48087.473277
570.916145	47973.331472
571.271412	47982.266917
571.626625	47737.997807
571.981782	47789.344480
572.336884	47476.014083
572.691931	47814.686360
573.046923	47408.626459
573.401860	47251.430679
573.756743	47255.312368
574.111570	47363.671970
574.466342	47206.624904
574.821059	47330.627206
575.175722	46852.163733
575.530330	46864.925414
575.884882	46586.111797
576.239380	46553.538382
576.593823	46534.901236
576.948211	46441.695343
577.302544	45964.812271
577.656823	45980.233161
578.011047	46220.116467
578.365216	45931.273475
578.719330	45726.040540
579.073389	45580.416729
579.427394	45670.602971
579.781344	45639.234391
580.135239	45275.878104
580.489080	45374.979627
580.842866	44850.581160
581.196597	45299.269058
581.550273	45258.110557
581.903895	45090.809785
582.257463	45522.889602
582.610975	44894.141770
582.964434	45196.401793
583.317837	44835.034242
583.671186	44675.327967
584.024481	44897.063119
584.377721	44427.870328
584.730906	44725.008538
585.084037	44739.479170
585.437113	44444.909428
585.790135	44482.632382
586.143103	44098.123413
586.496016	44211.859406
586.848874	44242.363428
587.201679	44249.547072
587.554428	43727.515427
587.907124	43911.880505
588.259765	43677.424002
588.612352	43922.056074
588.964884	43305.800222
589.317362	43591.618522
589.669786	43549.572778
590.022155	43314.561748
590.374470	43743.843724
590.726731	43255.615536
591.078937	42759.339145
591.431090	42866.718243
591.783188	42521.537836
592.135232	42200.229813
592.487222	42456.839668
592.839157	42534.415464
593.191038	42195.304606
593.542866	41967.018475
593.894639	41379.721531
594.246358	41664.589573
594.598022	41634.075469
594.949633	41238.833884
595.301190	41204.294418
595.652692	41017.554957
596.004141	41355.597089
596.355535	40385.401826
596.706876	40340.868273
597.058162	40160.306745
597.409395	40634.757460
597.760573	40701.726668
598.111698	40291.132249
598.462768	40290.139142
598.813785	40333.762767
599.164748	39788.773707
599.515657	40179.725270
599.866511	39645.241974
600.217312	40271.028128
600.568060	39215.944874
600.918753	39985.711423
601.269392	39938.553949
601.619978	39582.542623
601.970510	39788.009972
602.320988	39981.043314
602.671412	40286.892639
603.021783	40038.550277
603.372100	39675.269607
603.722363	39780.259198
604.072572	39853.474396
604.422728	39860.274912
604.772830	39677.638949
605.122878	39778.157037
605.472872	39713.814269
605.822813	39992.322896
606.172701	39823.159417
606.522534	40064.681098
606.872314	40341.251401
607.222041	40080.417059
607.571714	40460.951078
607.921333	39911.508159
608.270899	40205.896420
608.620411	40547.079192
608.969870	40343.719045
609.319276	40329.402168
609.668627	40374.003777
610.017926	40854.642508
610.367171	41024.955370
610.716362	41117.263938
611.065500	41059.545247
611.414585	41242.438309
611.763616	41528.314582
612.112594	41448.886162
612.461518	41688.277955
612.810389	41975.346461
613.159207	41843.094310
613.507971	41909.279619
613.856682	42389.126889
614.205340	42264.285235
614.553945	42967.609375
614.902496	42432.165740
615.250994	42901.630754
615.599439	42950.852580
615.947830	43168.272504
616.296169	43200.984552
616.644454	43328.195548
616.992686	43509.651881
617.340864	44015.299776
617.688990	43739.417591
618.037063	44333.111759
618.385082	44299.847705
618.733048	44604.441782
619.080961	44627.341224
619.428821	44638.207431
619.776628	44754.423671
620.124382	44566.915433
620.472083	44708.740735
620.819731	44841.441548
621.167326	44505.733469
621.514868	44493.911964
621.862357	44058.850304
622.209793	44076.058283
622.557176	43776.364207
622.904506	43525.168553
623.251783	43185.382180
623.599007	42972.491733
623.946179	42730.594486
624.293297	42689.758619
624.640363	42105.695576
624.987376	42082.158429
625.334336	41845.176307
625.681243	41474.371715
626.028097	41441.173197
626.374899	41290.183077
626.721647	41259.961360
627.068343	41153.078816
627.414987	40927.456934
627.761577	40702.031658
628.108115	41014.714266
628.454600	40477.619653
628.801032	40660.059011
629.147412	40611.590837
629.493739	40619.029060
629.840014	40275.504672
630.186236	40596.013672
630.532405	40218.153985
630.878521	40427.785327
631.224585	40315.034880
631.570597	40002.737920
631.916556	40182.974293
632.262462	40119.357452
632.608316	40152.939099
632.954117	40036.806037
633.299866	40047.379858
633.645562	39969.491510
633.991206	39456.322213
634.336797	39032.570383
634.682336	39044.217969
635.027823	38793.917118
635.373257	38620.481262
635.718639	38380.245075
636.063968	38233.683609
636.409245	37666.291662
636.754470	37717.088848
637.099642	37449.214536
637.444762	36983.719431
637.789829	37138.639130
638.134845	36781.017155
638.479808	36723.961376
638.824719	36639.222100
639.169577	36240.998673
639.514383	36309.326472
639.859137	36000.613772
640.203839	36242.498416
640.548489	35881.955093
640.893086	35936.777641
641.237632	35690.189601
641.582125	35788.910517
641.926566	35730.896918
642.270955	35697.302669
642.615292	35721.906020
642.959576	35685.249270
643.303809	35675.724010
643.647990	35829.648081
643.992118	35783.214013
644.336195	35771.349657
644.680219	35863.701075
645.024192	36163.720305
645.368112	36677.673501
645.711981	36678.737185
646.055797	37548.754639
646.399562	37454.371636
646.743274	38423.906508
647.086935	38871.036690
647.430544	38751.299204
647.774101	38883.702589
648.117606	39133.627873
648.461059	39447.568250
648.804460	39061.521729
649.147810	38444.494581
649.491108	38213.670228
649.834354	37841.915379
650.177548	37007.178440
650.520690	36569.553354
650.863781	36591.615964
651.206820	36419.969717
651.549807	35994.095560
651.892742	35494.854972
652.235626	35314.089277
652.578458	35169.085528
652.921238	34560.996345
653.263967	34880.466867
653.606644	34582.403605
653.949269	34513.168398
654.291843	34099.698001
654.634365	34527.359246
654.976836	34120.772544
655.319255	34119.313130
655.661622	34106.191007
656.003938	33875.752303
656.346203	33739.623505
656.688416	33962.245900
657.030577	33760.874489
657.372687	33602.254583
657.714746	33863.827453
658.056753	33993.322093
658.398708	33442.891107
658.740612	33495.493027
659.082465	33757.960702
659.424266	33584.643312
659.766016	33704.466498
660.107715	33577.689040
660.449362	33701.363668
660.790958	33693.416289
661.132503	33725.120105
661.473996	33749.957870
661.815438	33858.773697
662.156829	34055.121598
662.498168	33836.766539
662.839456	33858.143552
663.180693	33989.405116
663.521879	34149.350845
663.863013	34106.193527
664.204097	34088.877164
664.545129	34563.910132
664.886110	34525.181468
665.227040	34588.763020
665.567918	34712.992175
665.908746	34772.969302
666.249522	34930.505360
666.590248	34942.873831
666.930922	35046.615736
667.271545	35011.320097
667.612118	35116.975120
667.952639	34889.258639
668.293109	34954.544102
668.633528	34855.976942
668.973896	34761.757776
669.314213	34792.160975
669.654480	34531.326634
669.994695	34566.773507
670.334859	34442.257007
670.674973	34355.957495
671.015035	34522.181981
671.355047	34466.630986
671.695008	34400.309566
672.034918	34287.402843
672.374777	34372.484918
672.714585	34200.180800
673.054342	34436.444557
673.394049	34197.831622
673.733705	34475.889065
674.073310	34129.816374
674.412864	34207.316553
674.752368	33812.899197
675.091820	34115.489415
675.431223	33694.006104
675.770574	33428.821247
676.109875	33280.213072
676.449125	33013.478061
676.788324	32914.124480
677.127473	32388.954717
677.466571	32319.822853
677.805619	31951.168314
678.144616	31958.069653
678.483562	31869.415922
678.822458	31541.677907
679.161303	31465.465743
679.500098	31360.067819
679.838842	31255.045461
680.177535	31401.458213
680.516179	31666.829593
680.854771	31900.862639
681.193314	32748.754469
681.531805	33880.037283
681.870247	34649.531609
682.208638	35380.393053
682.546978	35633.461497
682.885268	35719.302264
683.223508	35199.829004
683.561697	34878.223554
683.899836	34671.621946
684.237925	34171.345400
684.575963	34009.622664
684.913951	33556.291863
685.251889	33704.479101
685.589776	33683.883467
685.927614	33667.446785
686.265401	33798.317659
686.603137	33879.132396
686.940824	34385.579315
687.278460	34749.623719
687.616046	34898.395731
687.953582	35489.271894
688.291068	35373.035489
688.628504	35656.139127
688.965889	35613.861490
689.303224	35235.563223
689.640510	34923.273825
689.977745	34180.762275
690.314930	33391.935124
690.652065	32871.125958
690.989150	32143.664773
691.326185	31243.773441
691.663170	30534.367149
692.000105	29773.699883
692.336990	29083.258411
692.673825	28625.874523
693.010610	28099.225180
693.347345	27502.914654
693.684030	26839.216503
694.020665	26558.945993
694.357251	25881.026747
694.693786	25828.140002
695.030272	25581.398207
695.366707	25030.228692
695.703093	24727.855243
696.039429	24725.425407
696.375716	24445.611122
696.711952	24411.974023
697.048139	24245.154680
697.384276	24059.345311
697.720363	24176.927704
698.056400	23981.686336
698.392388	23770.030971
698.728326	23735.768769
699.064214	23518.265666
699.400053	23472.839829
699.735842	23111.893213
700.071581	22823.725736
700.407270	22533.090614
700.742910	22338.786901
701.078501	22071.499882
701.414042	21770.459819
701.749533	21486.897436
702.084974	21122.079214
702.420366	21339.121052
702.755709	20882.674818
703.091002	20588.483162
703.426246	20607.954618
703.761440	20508.195225
704.096584	20228.050744
704.431679	20178.448311
704.766725	20087.326934
705.101721	20008.901704
705.436668	20103.740931
705.771565	19777.164903
706.106413	20123.683736
706.441212	20097.741958
706.775961	20226.989581
707.110661	20287.924528
707.445311	20650.627986
707.779913	20473.867488
708.114465	20723.805375
708.448967	20994.843012
708.783421	21686.620389
709.117825	21964.156073
709.452180	22176.106345
709.786485	22567.599832
710.120742	23386.668865
710.454949	23387.576273
710.789107	23848.577189
711.123216	24555.871239
711.457275	24686.177504
711.791286	25239.756690
712.125247	25303.146679
712.459159	25004.566698
712.793023	25699.880446
713.126837	24597.211221
713.460602	24875.215732
713.794318	24511.153683
714.127985	24122.790753
714.461602	23230.040215
714.795171	23199.221121
715.128691	22180.388806
715.462162	21633.746247
715.795584	21203.975279
716.128957	20946.757966
716.462281	20518.126298
716.795556	20284.872110
717.128782	19775.360170
717.461960	19225.730728
717.795088	19150.385642
718.128167	18744.880268
718.461198	18288.028221
718.794180	18141.544893
719.127113	17769.293491
719.459997	17562.921255
719.792833	17199.680915
720.125619	17158.315727
720.458357	16840.229001
720.791046	16665.338772
721.123686	16502.849780
721.456278	16253.731081
721.788821	16215.572067
722.121315	15946.739935
722.453761	16018.669638
722.786158	15937.781804
723.118506	15948.055676
723.450805	15799.681915
723.783056	15967.217102
724.115259	15865.574837
724.447412	15781.291786
724.779518	16023.075607
725.111574	16047.041252
725.443582	16250.338384
725.775542	16223.116153
726.107453	16691.396496
726.439315	16573.844350
726.771129	16975.044579
727.102895	17341.221391
727.434612	17551.366930
727.766281	17676.143050
728.097901	17956.363148
728.429473	17990.617788
728.760996	17976.835274
729.092471	18065.378100
729.423897	17947.394935
729.755276	17804.793296
730.086606	17926.804343
730.417887	18447.472356
730.749120	18954.188976
731.080305	19130.387385
731.411442	19466.246698
731.742530	19549.927332
732.073570	19659.196862
732.404562	19952.443302
732.735506	19781.722106
733.066401	19504.907307
733.397249	18986.124685
733.728048	18350.934260
734.058798	17501.676277
734.389501	16808.517623
734.720156	16342.152919
735.050762	15806.134592
735.381320	15447.789212
735.711831	15188.189954
736.042293	14828.697711
736.372707	14832.042517
736.703073	14619.552841
737.033391	14802.085460
737.363661	14760.269089
737.693883	14855.277195
738.024056	15016.606721
738.354182	15189.603997
738.684260	15475.059334
739.014290	15700.996288
739.344272	15880.947836
739.674207	16168.596074
740.004093	16291.443953
740.333931	16276.519617
740.663722	16330.293605
740.993464	16326.671536
741.323159	16169.533729
741.652806	15886.470420
741.982405	15687.090265
742.311956	15353.993504
742.641460	15242.770527
742.970915	14924.081383
743.300323	14591.324900
743.629683	14373.433628
743.958996	14096.366772
744.288260	13833.294158
744.617477	13524.455429
744.946647	13451.336013
745.275768	13175.428622
745.604842	12988.336280
745.933869	12810.461687
746.262847	12764.904779
746.591778	12686.174559
746.920662	12575.329668
747.249498	12573.955954
747.578286	12687.079446
747.907027	12829.451713
748.235720	13048.260475
748.564365	13072.117736
748.892963	12974.881440
749.221514	13042.710165
749.550017	12885.958007
749.878473	12852.215043
750.206881	12626.068882
750.535242	12535.451621
750.863555	12447.007097
751.191821	12338.821415
751.520039	12361.390661
751.848210	12263.516659
752.176334	12295.611165
752.504411	12198.004344
752.832440	12040.168338
753.160421	12104.770724
753.488356	11980.279430
753.816243	11885.543547
754.144082	11741.419479
754.471875	11681.422186
754.799620	11625.966973
755.127318	11594.424474
755.454969	11554.170860
755.782572	11510.693429
756.110129	11528.682786
756.437638	11434.718199
756.765100	11429.913980
757.092515	11433.841038
757.419882	11447.784870
757.747203	11440.066863
758.074477	11511.711742
758.401703	11467.982253
758.728882	11626.549227
759.056014	11669.557831
759.383099	11784.990171
759.710138	11883.660676
760.037129	11968.384828
760.364073	11993.668735
760.690970	11973.574696
761.017820	11967.611011
761.344623	12160.966987
761.671379	12485.508910
761.998088	13117.306639
762.324751	14658.127750
762.651366	17517.119852
762.977935	21187.306704
763.304456	23431.595628
763.630931	23960.349652
763.957359	22814.341628
764.283740	20923.634193
764.610074	19054.523061
764.936362	16914.326401
765.262602	15382.097937
765.588796	13882.785686
765.914943	12848.701359
766.241044	11974.300622
766.567097	11329.448825
766.893104	10777.364341
767.219064	10402.912474
767.544978	10012.996868
767.870845	9697.879382
768.196665	9506.595320
768.522438	9299.217374
768.848165	9136.335173
769.173846	8961.356723
769.499479	8841.049587
769.825066	8684.148714
770.150607	8495.533943
770.476101	8434.566228
770.801548	8320.222777
771.126949	8182.213629
771.452303	8092.954959
771.777611	7925.472704
772.102872	7902.210300
772.428087	7783.654964
772.753256	7659.093094
773.078378	7568.027170
773.403453	7426.075840
773.728482	7321.754202
774.053465	7250.003459
774.378401	7169.004720
774.703291	7068.443783
775.028135	6969.937116
775.352932	6932.614934
775.677683	6848.515885
776.002388	6764.260560
776.327046	6760.159581
776.651658	6669.771693
776.976224	6592.009374
777.300743	6577.440440
777.625216	6508.306056
777.949643	6468.707792
778.274024	6468.009592
778.598359	6398.144241
778.922647	6397.246916
779.246889	6361.177460
779.571086	6370.259099
779.895236	6374.019800
780.219339	6367.083172
780.543397	6366.226176
780.867409	6416.093270
781.191374	6412.889616
781.515294	6378.393001
781.839167	6435.524397
782.162995	6405.174130
782.486776	6356.360638
782.810511	6316.321273
783.134201	6241.107258
783.457844	6233.555609
783.781441	6181.906468
784.104993	6135.910980
784.428498	6112.678822
784.751958	6088.839206
785.075372	6070.265075
785.398739	6029.373755
785.722061	6060.155041
786.045337	6050.470984
786.368568	6156.705740
786.691752	6173.560837
787.014891	6431.309992
787.337983	6701.193205
787.661030	7131.493494
787.984031	7561.755975
788.306987	7827.074423
788.629897	7916.499451
788.952760	7842.833069
789.275579	7669.790423
789.598351	7370.355966
789.921078	7106.282684
790.243759	6824.625857
790.566395	6625.631350
790.888984	6427.695485
791.211529	6284.229288
791.534027	6118.004802
791.856480	5980.353575
792.178888	5919.937867
792.501249	5850.576631
792.823566	5741.748202
793.145836	5735.499692
793.468062	5721.767589
793.790241	5672.976781
794.112375	5713.764757
794.434464	5811.021218
794.756507	5842.079766
795.078505	5954.023629
795.400457	6171.854407
795.722364	6408.085397
796.044226	6603.490602
796.366042	6765.414984
796.687812	6712.815585
797.009538	6740.604946
797.331218	6655.850547
797.652852	6591.691782
797.974442	6472.188709
798.295986	6404.629686
798.617484	6270.829901
798.938938	6164.635475
799.260346	6093.487150
799.581709	5948.455674
799.903026	5901.731740
800.224299	5830.066697
800.545526	5713.873142
800.866708	5646.601464
801.187845	5597.780410
801.508936	5519.024984
801.829983	5491.396940
802.150984	5381.998861
802.471940	5347.971072
802.792851	5332.487168
803.113717	5312.539322
803.434538	5286.597545
803.755314	5250.500362
804.076045	5244.151029
804.396731	5203.358012
804.717372	5217.422832
805.037967	5213.843612
805.358518	5244.705556
805.679024	5299.959123
805.999485	5309.360875
806.319901	5328.713864
806.640272	5341.841029
806.960598	5390.770468
807.280879	5383.382657
807.601115	5418.799284
807.921306	5384.887442
808.241453	5379.581627
808.561554	5389.752155
808.881611	5358.350808
809.201623	5352.414849
809.521590	5307.016738
809.841513	5295.291014
810.161390	5314.361699
810.481223	5227.704265
810.801011	5209.339341
811.120755	5188.118604
811.440453	5136.174555
811.760107	5102.552579
812.079716	5079.501903
812.399281	5029.811250
812.718801	5019.398747
813.038276	4985.950691
813.357707	4953.798212
813.677093	4979.243436
813.996434	4914.278086
814.315731	4931.440694
814.634983	4933.731899
814.954191	4936.832208
815.273354	4994.976877
815.592473	5036.470614
815.911547	5113.227223
816.230577	5168.705121
816.549562	5256.743832
816.868502	5310.623684
817.187399	5369.804309
817.506250	5450.510662
817.825058	5480.485363
818.143821	5636.143591
818.462539	5802.587367
818.781213	6036.161669
819.099843	6393.282048
819.418429	7026.874428
819.736970	7650.414748
820.055466	8370.500725
820.373919	9299.449268
820.692327	10771.143557
821.010691	13497.656656
821.329011	19746.441591
821.647286	29336.536063
821.965517	39695.996311
822.283704	45260.026196
822.601847	46853.366048
822.919945	42331.577077
823.237999	37271.377752
823.556010	32084.075814
823.873976	27336.513727
824.191897	23065.746491
824.509775	19954.384146
824.827609	17121.946322
825.145398	15523.013310
825.463144	14733.409821
825.780845	15011.885680
826.098502	16259.190650
826.416116	18693.972176
826.733685	20942.752769
827.051210	21458.994649
827.368692	20039.309944
827.686129	17492.246799
828.003522	15000.931253
828.320872	12779.241821
828.638177	11102.448188
828.955439	9842.956228
829.272656	8768.328422
829.589830	7913.739419
829.906960	7167.023547
830.224046	6622.495752
830.541088	6206.199788
830.858086	5941.745898
831.175041	5735.217387
831.491952	5673.445608
831.808819	5705.703952
832.125642	5940.614159
832.442421	6498.528738
832.759157	7611.466793
833.075849	9374.995999
833.392497	11228.237579
833.709101	12351.825072
834.025662	12118.757406
834.342179	11070.893085
834.658653	9773.095918
834.975083	8663.684150
835.291469	7748.807988
835.607811	6997.474419
835.924110	6471.392207
836.240366	5970.455270
836.556578	5513.406618
836.872746	5154.995703
837.188871	4880.769537
837.504952	4650.046007
837.820990	4481.116942
838.136984	4361.818036
838.452935	4314.153927
838.768842	4338.921115
839.084706	4624.900732
839.400526	5361.556982
839.716303	6273.993225
840.032037	6848.256265
840.347727	6706.219235
840.663373	6114.037413
840.978977	5528.923289
841.294537	5084.028860
841.610054	4744.020677
841.925527	4498.395497
842.240957	4289.280873
842.556344	4100.865228
842.871687	3942.625929
843.186987	3789.989873
843.502244	3665.924556
843.817458	3577.031370
844.132629	3502.543281
844.447756	3456.933441
844.762840	3404.878487
845.077881	3366.921119
845.392879	3332.222857
845.707833	3304.153712
846.022745	3278.242182
846.337613	3267.945625
846.652438	3243.422932
846.967221	3235.120152
847.281960	3215.046277
847.596656	3201.742672
847.911309	3190.926876
848.225919	3174.144875
848.540485	3167.067095
848.855009	3159.044099
849.169490	3145.241420
849.483928	3139.655821
849.798323	3136.169863
850.112675	3122.057153
850.426984	3125.681743
850.741251	3116.375773
851.055474	3113.209928
851.369654	3113.840072
851.683792	3109.224896
851.997887	3112.715895
852.311938	3113.086420
852.625947	3113.898046
852.939914	3108.415791
853.253837	3110.989300
853.567718	3110.618775
853.881555	3103.596448
854.195350	3111.014506
854.509103	3106.197683
854.822812	3102.787342
855.136479	3100.806169
855.450103	3105.191973
855.763685	3095.926332
856.077224	3100.538988
856.390720	3107.621809
856.704173	3119.024899
857.017584	3123.448512
857.330953	3124.083697
857.644278	3134.254225
857.957561	3137.583907
858.270802	3137.291520
858.584000	3135.564925
858.897155	3131.710963
859.210268	3122.861217
859.523339	3109.978548
859.836367	3107.049638
860.149352	3103.631736
860.462295	3098.255345
860.775195	3086.784200
861.088054	3079.963518
861.400869	3084.440063
861.713642	3082.032912
862.026373	3090.872575
862.339062	3095.492793
862.651708	3101.953032
862.964312	3121.124540
863.276873	3125.147380
863.589392	3157.204078
863.901869	3182.997141
864.214303	3203.796942
864.526696	3221.080538
864.839045	3239.909248
865.151353	3250.465424
865.463619	3254.130343
865.775842	3252.471803
866.088023	3259.163935
866.400162	3255.801485
866.712258	3254.861310
867.024313	3255.604880
867.336325	3255.246958
867.648296	3258.208636
867.960224	3254.316865
868.272110	3258.553955
868.583954	3258.760642
868.895755	3267.423865
869.207515	3261.704676
869.519233	3281.309724
869.830909	3288.132925
870.142542	3296.448309
870.454134	3304.446099
870.765684	3318.926814
871.077191	3337.755523
871.388657	3346.892615
871.700081	3365.128989
872.011463	3384.834859
872.322803	3407.638518
872.634101	3425.358174
872.945357	3444.844754
873.256571	3470.574804
873.567744	3489.264882
873.878874	3496.554390
874.189963	3512.176926
874.501010	3511.062831
874.812015	3511.100639
875.122979	3525.757794
875.433900	3525.911549
875.744780	3528.096890
876.055618	3540.215823
876.366415	3536.071995
876.677169	3543.008623
876.987882	3562.159966
877.298554	3579.574632
877.609183	3620.700365
877.919771	3671.532840
878.230317	3739.321236
878.540822	3845.926516
878.851285	4001.642717
879.161707	4231.005135
879.472087	4613.404381
879.782425	5250.482718
880.092722	6449.533764
880.402977	8400.946773
880.713191	10797.271857
881.023363	13204.347201
881.333494	14564.165684
881.643583	15042.256112
881.953631	14663.189069
882.263637	13831.260052
882.573602	12805.516315
882.883526	11832.687048
883.193408	10864.878771
883.503248	9938.186145
883.813048	9089.346578
884.122806	8312.078793
884.432522	7528.864967
884.742197	6852.727769
885.051831	6272.997597
885.361424	5762.878198
885.670975	5356.725036
885.980485	5021.321947
886.289954	4741.323659
886.599382	4518.174464
886.908768	4334.764684
887.218113	4163.516688
887.527417	4029.018703
887.836680	3904.661000
888.145901	3801.881955
888.455082	3718.365159
888.764221	3647.413439
889.073319	3588.794902
889.382376	3554.280643
889.691392	3524.905839
890.000366	3519.547093
890.309300	3516.908049
890.618193	3516.663553
890.927044	3510.856143
891.235855	3518.193543
891.544625	3532.457488
891.853353	3567.226326
892.162041	3623.178092
892.470687	3714.780899
892.779293	3837.596009
893.087858	4015.989841
893.396381	4301.243532
893.704864	4719.213159
894.013306	5286.587462
894.321707	5863.398806
894.630068	6227.012192
894.938387	6265.123315
895.246665	6087.331901
895.554903	5775.022338
895.863100	5432.828815
896.171256	5164.137835
896.479371	4916.090381
896.787446	4690.402964
897.095480	4491.030371
897.403473	4333.229653
897.711425	4190.368394
898.019336	4066.320721
898.327207	3939.061833
898.635038	3836.716328
898.942827	3727.855131
899.250576	3638.956904
899.558284	3557.650654
899.865952	3499.982375
900.173579	3432.390584
900.481165	3384.509705
900.788711	3343.257943
901.096216	3308.844506
901.403681	3281.755866
901.711105	3271.096346
902.018489	3268.447220
902.325832	3301.335707
902.633135	3361.537167
902.940397	3529.939431
903.247619	3939.268521
903.554800	4701.637176
903.861941	5685.194017
904.169041	6399.989304
904.476101	6625.117152
904.783121	6355.521286
905.090100	5950.673782
905.397039	5533.609042
905.703938	5168.248896
906.010796	4837.692877
906.317614	4577.929781
906.624391	4332.481041
906.931129	4129.778766
907.237826	3945.814459
907.544483	3770.299126
907.851099	3594.375460
908.157675	3428.287085
908.464211	3283.870630
908.770707	3179.876667
909.077163	3101.090994
909.383578	3037.297713
909.689954	2988.494303
909.996289	2959.484983
910.302584	2936.885490
910.608839	2920.229518
910.915054	2909.731315
911.221229	2906.268042
911.527363	2912.153589
911.833458	2917.318251
912.139513	2929.517844
912.445527	2945.667180
912.751502	2978.868219
913.057436	3025.481248
913.363331	3080.780185
913.669186	3172.529185
913.975000	3296.113072
914.280775	3482.819766
914.586510	3762.276130
914.892205	4144.451044
915.197859	4648.344618
915.503475	5238.157097
915.809050	5735.628241
916.114585	6027.939547
916.420081	6088.650163
916.725536	6032.688314
917.030952	5793.165451
917.336328	5589.714564
917.641665	5374.447212
917.946961	5148.628726
918.252218	4942.705153
918.557435	4711.023804
918.862612	4511.540305
919.167750	4335.946835
919.472848	4140.004746
919.777906	3967.882110
920.082925	3807.840599
920.387904	3648.595590
920.692843	3537.652397
920.997743	3436.612550
921.302603	3340.699557
921.607423	3271.590379
921.912204	3201.798125
922.216946	3155.215342
922.521647	3101.562342
922.826310	3059.433419
923.130932	3021.642410
923.435516	2978.621203
923.740059	2951.214970
924.044564	2919.551483
924.349028	2894.184396
924.653454	2864.988554
924.957840	2838.207424
925.262186	2814.897129
925.566493	2795.952472
925.870761	2767.028852
926.174989	2756.444950
926.479178	2741.495408
926.783328	2722.107130
927.087438	2712.455841
927.391509	2697.176104
927.695541	2687.164372
927.999533	2674.465706
928.303486	2668.867505
928.607400	2663.168480
928.911275	2658.185300
929.215110	2649.393527
929.518906	2645.937816
929.822663	2647.046870
930.126381	2644.904380
930.430060	2647.971922
930.733699	2648.977632
931.037299	2656.050371
931.340861	2650.469814
931.644383	2656.788900
931.947866	2656.516678
932.251309	2651.306645
932.554714	2648.443270
932.858080	2648.037457
933.161407	2643.518062
933.464694	2639.966570
933.767943	2640.354738
934.071153	2632.120014
934.374323	2632.356948
934.677455	2628.971813
934.980548	2625.939559
935.283602	2623.340844
935.586617	2618.327417
935.889593	2624.580968
936.192530	2622.403190
936.495428	2630.164046
936.798287	2635.563122
937.101108	2651.992242
937.403890	2673.989317
937.706632	2698.756506
938.009336	2733.341342
938.312002	2761.818820
938.614628	2785.562654
938.917216	2806.722898
939.219765	2815.915442
939.522275	2826.544715
939.824747	2832.669717
940.127179	2822.917604
940.429573	2816.527942
940.731929	2813.946871
941.034246	2806.049904
941.336524	2806.506128
941.638763	2797.502627
941.940964	2794.440126
942.243126	2773.368103
942.545250	2768.427772
942.847335	2750.791296
943.149381	2737.724625
943.451389	2723.435474
943.753359	2714.442056
944.055290	2702.358410
944.357182	2695.951104
944.659036	2690.105886
944.960851	2683.625482
945.262628	2679.224555
945.564367	2683.030626
945.866067	2678.047446
946.167729	2674.637105
946.469352	2675.758762
946.770937	2670.878925
947.072484	2667.718122
947.373992	2669.366579
947.675462	2664.516989
947.976893	2655.947027
948.278286	2652.806388
948.579641	2650.331182
948.880958	2648.024854
949.182236	2646.457055
949.483476	2643.502939
949.784678	2643.588639
950.085841	2642.174595
950.386967	2643.432363
950.688054	2651.170534
950.989103	2660.640342
951.290114	2671.078051
951.591087	2683.582633
951.892021	2693.569158
952.192917	2705.312526
952.493776	2715.535986
952.794596	2719.994887
953.095378	2719.458004
953.396122	2719.097562
953.696828	2718.711913
953.997496	2712.090358
954.298126	2702.824717
954.598718	2694.809282
954.899272	2685.896522
955.199788	2674.100222
955.500266	2660.698315
955.800706	2643.119811
956.101108	2628.107255
956.401472	2615.643002
956.701798	2602.654469
957.002087	2586.242993
957.302337	2577.834348
957.602550	2568.573749
957.902724	2554.619835
958.202861	2545.376879
958.502960	2536.285158
958.803022	2528.370547
959.103045	2520.297139
959.403031	2517.552231
959.702979	2512.949657
960.002889	2503.802484
960.302762	2499.532626
960.602596	2495.988695
960.902393	2491.943169
961.202153	2491.658344
961.501875	2489.326810
961.801559	2482.969915
962.101205	2485.195585
962.400814	2481.424802
962.700385	2472.885087
962.999918	2473.454737
963.299414	2474.122690
963.598873	2473.182515
963.898293	2472.227217
964.197677	2469.235292
964.497022	2465.638428
964.796331	2468.282514
965.095601	2466.455095
965.394835	2466.182873
965.694030	2464.907461
965.993189	2464.604992
966.292309	2464.846967
966.591393	2461.650876
966.890439	2460.579631
967.189447	2463.775722
967.488419	2462.409569
967.787353	2463.929477
968.086249	2461.426544
968.385108	2464.635239
968.683930	2464.176494
968.982714	2465.832513
969.281462	2464.688171
969.580172	2467.967442
969.878844	2469.638584
970.177480	2471.934830
970.476078	2476.706282
970.774639	2482.261633
971.073162	2480.487147
971.371649	2481.273567
971.670098	2481.444966
971.968510	2485.485451
972.266885	2481.520584
972.565223	2491.313025
972.863524	2492.538025
973.161788	2489.195740
973.460014	2491.164311
973.758204	2494.516678
974.056356	2496.220588
974.354471	2495.595485
974.652550	2495.532471
974.950591	2495.661020
975.248595	2493.556338
975.546563	2493.914260
975.844493	2490.060298
976.142386	2493.067347
976.440243	2487.209526
976.738062	2487.217088
977.035845	2482.140646
977.333590	2484.013434
977.631299	2478.163175
977.928971	2479.557054
978.226606	2472.081023
978.524204	2472.431383
978.821765	2473.527834
979.119290	2469.366362
979.416777	2472.297793
979.714228	2472.406177
980.011642	2474.992289
980.309020	2478.611838
980.606360	2481.233238
980.903664	2490.698004
981.200931	2503.757113
981.498162	2520.970133
981.795356	2552.111861
982.092513	2593.275403
982.389633	2637.950108
982.686717	2681.742612
982.983764	2713.476675
983.280775	2734.221023
983.577749	2733.558111
983.874686	2726.654251
984.171587	2707.815459
984.468451	2692.523119
984.765279	2673.459996
985.062070	2649.716161
985.358824	2636.825931
985.655543	2612.298197
985.952224	2591.291709
986.248869	2562.436144
986.545478	2534.248532
986.842050	2513.274812
987.138586	2495.028355
987.435086	2481.208032
987.731549	2467.775878
988.027975	2465.701443
988.324366	2456.002263
988.620719	2455.694752
988.917037	2448.811057
989.213318	2445.531786
989.509563	2445.463731
989.805772	2441.380396
990.101944	2442.643205
990.398080	2439.172371
990.694180	2440.251178
990.990244	2441.657660
991.286271	2440.034408
991.582262	2441.168668
991.878217	2440.435180
992.174136	2442.411312
992.470019	2443.490119
992.765865	2445.456169
993.061676	2448.012034
993.357450	2449.889864
993.653188	2451.414813
993.948890	2458.164918
994.244556	2463.362347
994.540186	2474.266363
994.835780	2484.275574
995.131337	2501.357524
995.426859	2517.635410
995.722345	2536.834644
996.017795	2553.740154
996.313208	2569.168605
996.608586	2578.363670
996.903928	2583.717375
997.199234	2583.253589
997.494504	2579.036664
997.789738	2575.762434
998.084936	2562.705846
998.380099	2550.342416
998.675225	2539.957639
998.970316	2523.684794
999.265371	2509.798936
999.560390	2497.750578
999.855373	2485.926552
1000.150320	2477.349029
1000.445232	2467.463326
1000.740108	2461.446709
1001.034948	2449.794082
1001.329752	2450.346088
1001.624521	2445.257043
1001.919254	2436.172884
1002.213951	2436.298913
1002.508613	2432.195414
1002.803239	2432.192893
1003.097829	2424.704259
1003.392384	2430.020156
1003.686903	2426.791297
1003.981386	2427.539908
1004.275834	2424.709300
1004.570246	2425.682243
1004.864623	2421.820719
1005.158964	2423.789290
1005.453270	2421.273754
1005.747540	2421.122519
1006.041775	2421.102355
1006.335974	2420.515060
1006.630138	2421.205698
1006.924266	2421.740061
1007.218359	2416.950965
1007.512416	2421.251069
1007.806438	2416.247724
1008.100425	2419.630338
1008.394376	2417.480286
1008.688292	2420.215112
1008.982172	2417.192940
1009.276017	2419.126223
1009.569827	2418.428023
1009.863602	2418.314597
1010.157341	2418.359967
1010.451045	2416.363670
1010.744714	2413.989287
1011.038347	2417.510533
1011.331945	2414.679925
1011.625508	2414.977353
1011.919036	2414.644637
1012.212528	2413.701941
1012.505986	2413.356622
1012.799408	2414.775707
1013.092795	2412.103895
1013.386147	2416.988773
1013.679464	2413.709503
1013.972745	2414.939544
1014.265992	2413.933834
1014.559204	2414.080028
1014.852380	2410.725140
1015.145521	2413.230593
1015.438628	2410.919224
1015.731699	2416.802251
1016.024736	2412.164389
1016.317737	2413.207908
1016.610703	2415.337795
1016.903635	2413.117167
1017.196531	2408.738925
1017.489393	2412.073648
1017.782219	2409.767320
1018.075011	2418.649833
1018.367768	2414.947106
1018.660490	2416.280491
1018.953177	2416.280491
1019.245829	2416.280491
