Dividing Wavelength (nm)	Counts (n)	Blue Motor Position (mm): 24.800000	Red Motor Position (mm): 0.000000	
326.493990	1970.660135
326.888308	1970.660135
327.282561	1970.660135
327.676750	1949.613318
328.070874	1948.915118
328.464933	1953.719338
328.858929	1967.063272
329.252859	1975.401340
329.646726	1990.413897
330.040528	2003.989724
330.434265	2024.406397
330.827938	2045.664943
331.221547	2062.310833
331.615091	2084.280181
332.008571	2102.488829
332.401986	2125.587396
332.795338	2145.631023
333.188625	2168.051555
333.581847	2184.911694
333.975006	2203.291741
334.368100	2221.031562
334.761129	2237.377503
335.154095	2250.602970
335.546996	2289.228291
335.939833	2357.616584
336.332606	2376.268853
336.725315	2385.100955
337.117960	2394.543036
337.510540	2399.768192
337.903056	2413.558268
338.295508	2415.705800
338.687896	2426.352717
339.080220	2431.580393
339.472480	2437.539037
339.864676	2439.535334
340.256807	2439.908379
340.648875	2445.897270
341.040879	2446.093875
341.432818	2447.333999
341.824694	2449.766356
342.216506	2448.876592
342.608253	2449.456325
342.999937	2448.944648
343.391557	2446.217383
343.783113	2447.429781
344.174605	2441.889553
344.566033	2443.197732
344.957397	2441.254367
345.348697	2436.097267
345.739934	2439.046342
346.131106	2434.763882
346.522215	2434.670620
346.913260	2431.444282
347.304241	2431.048551
347.695159	2427.129054
348.086012	2426.619898
348.476802	2424.149732
348.867528	2424.855494
349.258191	2422.113106
349.648789	2421.966913
350.039324	2420.550348
350.429796	2420.346182
350.820203	2421.785431
351.210548	2420.263003
351.600828	2417.918866
351.991045	2416.136818
352.381198	2415.494071
352.771288	2415.486509
353.161314	2414.521128
353.551276	2415.332754
353.941175	2413.709503
354.331010	2415.642785
354.720782	2418.314597
355.110490	2419.199319
355.500135	2417.157652
355.889717	2416.456932
356.279235	2418.211253
356.668689	2416.991294
357.058080	2417.644123
357.447408	2417.288722
357.836672	2417.127405
358.225873	2415.831828
358.615010	2414.269071
359.004084	2419.932807
359.393095	2422.743250
359.782043	2422.788621
360.170927	2420.628486
360.559748	2422.836512
360.948505	2424.527819
361.337199	2425.155442
361.725830	2426.914805
362.114398	2427.320618
362.502903	2426.607295
362.891344	2426.521595
363.279722	2423.466656
363.668037	2429.160639
364.056289	2425.936821
364.444478	2427.938159
364.832603	2428.671647
365.220665	2431.408994
365.608665	2429.616864
365.996601	2428.122162
366.384474	2428.817841
366.772284	2427.625608
367.160031	2432.487801
367.547715	2430.998140
367.935336	2430.113417
368.322893	2428.767429
368.710388	2429.755495
369.097820	2432.137441
369.485189	2435.552822
369.872495	2433.128027
370.259738	2432.205496
370.646918	2438.194387
371.034035	2434.494180
371.421090	2434.811773
371.808081	2434.103491
372.195010	2434.375713
372.581875	2434.181628
372.968678	2435.189859
373.355418	2434.862184
373.742096	2435.610796
374.128710	2439.479881
374.515262	2435.240271
374.901751	2439.177412
375.288177	2439.495005
375.674540	2437.392843
376.060841	2437.546599
376.447079	2439.835282
376.833254	2436.591300
377.219367	2434.405960
377.605417	2440.132711
377.991404	2434.045517
378.377329	2440.649429
378.763191	2435.671289
379.148991	2441.803853
379.534727	2440.074737
379.920402	2440.578853
380.306013	2440.248657
380.691563	2444.236210
381.077049	2443.467434
381.462474	2441.670263
381.847835	2441.957608
382.233134	2442.260078
382.618371	2444.279060
383.003545	2445.660336
383.388657	2443.737136
383.773706	2445.877105
384.158693	2444.868875
384.543618	2444.427774
384.928480	2445.743515
385.313280	2446.093875
385.698017	2446.547579
386.082692	2447.828032
386.467305	2447.656633
386.851856	2451.243414
387.236344	2447.661674
387.620770	2452.259206
388.005133	2448.528752
388.389435	2449.514298
388.773674	2447.543207
389.157851	2449.786520
389.541965	2450.474638
389.926018	2451.392128
390.310008	2449.037909
390.693936	2451.313990
391.077802	2452.634772
391.461606	2452.695266
391.845348	2452.486058
392.229027	2452.218877
392.612645	2450.212498
392.996200	2454.870524
393.379694	2454.323559
393.763125	2452.813733
394.146494	2456.587037
394.529801	2457.857408
394.913047	2454.487396
395.296230	2457.065946
395.679351	2453.464042
396.062410	2457.174331
396.445408	2455.810699
396.828343	2457.726338
397.211217	2453.118723
397.594028	2452.987653
397.976778	2453.390945
398.359466	2459.752881
398.742092	2452.286932
399.124656	2460.710701
399.507158	2456.541666
399.889598	2460.962758
400.271977	2459.757922
400.654294	2461.255145
401.036549	2457.197016
401.418742	2459.957048
401.800874	2455.931687
402.182944	2462.341514
402.564952	2461.119034
402.946898	2462.351596
403.328783	2463.808490
403.710606	2462.376802
404.092367	2461.618108
404.474067	2465.492235
404.855705	2462.099538
405.237282	2464.320167
405.618797	2465.393933
406.000250	2464.342852
406.381642	2465.618264
406.762972	2465.083902
407.144240	2462.341514
407.525447	2465.441823
407.906593	2465.557770
408.287677	2466.576083
408.668700	2468.975672
409.049661	2469.575570
409.430560	2467.594396
409.811399	2469.653708
410.192176	2468.209417
410.572891	2470.878708
410.953545	2467.687657
411.334138	2472.587659
411.714669	2472.534727
412.095139	2471.312247
412.475547	2470.117494
412.855894	2471.808801
413.236180	2469.489870
413.616405	2473.104377
413.996568	2471.680251
414.376670	2472.494398
414.756711	2473.878194
415.136691	2472.537247
415.516609	2475.443473
415.896466	2474.157978
416.276262	2473.290900
416.655997	2471.466002
417.035670	2471.556743
417.415283	2474.334419
417.794834	2469.782257
418.174324	2478.435398
418.553753	2474.899028
418.933121	2477.502784
419.312428	2477.449852
419.691674	2478.097640
420.070859	2476.192084
420.449983	2480.832466
420.829045	2477.449852
421.208047	2482.077631
421.586988	2479.620069
421.965867	2481.626448
422.344686	2481.016468
422.723444	2481.089565
423.102141	2481.273567
423.480777	2483.579895
423.859352	2481.442446
424.237866	2483.027889
424.616319	2485.926552
424.994712	2484.734319
425.373044	2482.788434
425.751314	2486.307159
426.129524	2485.440081
426.507673	2488.810092
426.885762	2485.964361
427.263789	2487.872438
427.641756	2489.052068
428.019662	2489.339413
428.397508	2487.879999
428.775292	2489.291522
429.153016	2487.660709
429.530679	2493.977275
429.908282	2490.730772
430.285824	2489.606594
430.663305	2491.970896
431.040726	2492.127171
431.418086	2492.084322
431.795385	2492.101966
432.172624	2494.872080
432.549802	2494.715804
432.926920	2495.287975
433.303977	2495.436689
433.680974	2494.677995
434.057910	2497.798469
434.434786	2499.353665
434.811601	2499.315857
435.188355	2500.210662
435.565050	2499.946001
435.941683	2498.607575
436.318257	2501.463388
436.694770	2497.364930
437.071222	2502.229644
437.447614	2498.955414
437.823946	2500.626557
438.200218	2504.331805
438.576429	2504.697288
438.952580	2504.848523
439.328670	2506.607886
439.704700	2506.907834
440.080670	2506.335663
440.456580	2507.381703
440.832429	2512.264060
441.208218	2508.508401
441.583947	2512.627023
441.959616	2514.489730
442.335224	2513.776407
442.710773	2517.622807
443.086261	2516.377642
443.461689	2517.443846
443.837057	2519.742612
444.212365	2520.997859
444.587612	2521.300329
444.962800	2525.028262
445.337927	2524.274609
445.712995	2522.646317
446.088002	2530.432379
446.462949	2531.606968
446.837837	2531.758202
447.212664	2533.499921
447.587431	2545.195398
447.962139	2552.182437
448.336786	2560.523026
448.711374	2562.995712
449.085901	2553.462890
449.460369	2553.394835
449.834776	2559.718962
450.209124	2571.706826
450.583412	2572.914182
450.957640	2577.158834
451.331808	2574.308061
451.705917	2578.139338
452.079965	2581.562282
452.453954	2588.282140
452.827883	2592.660382
453.201752	2598.243460
453.575562	2603.206476
453.949311	2613.666870
454.323001	2623.245062
454.696632	2629.987606
455.070202	2648.806233
455.443713	2658.954076
455.817164	2671.138544
456.190556	2688.434743
456.563888	2696.213244
456.937160	2709.277394
457.310373	2715.679659
457.683526	2734.261352
458.056619	2753.382449
458.429653	2768.778133
458.802628	2794.064560
459.175542	2821.864003
459.548398	2861.918491
459.921194	2915.155596
460.293930	2961.877010
460.666607	3031.760005
461.039224	3100.105449
461.411782	3147.525062
461.784280	3155.905981
462.156719	3182.152748
462.529099	3208.439845
462.901419	3220.175651
463.273680	3239.110225
463.645882	3284.112605
464.018024	3338.428517
464.390106	3421.481527
464.762130	3577.727049
465.134094	3824.020182
465.505999	4134.792193
465.877845	4425.515536
466.249631	4555.947830
466.621358	4551.254515
466.993026	4541.459553
467.364634	4530.185013
467.736184	4534.669119
468.107674	4578.242332
468.479105	4636.969254
468.850477	4698.350343
469.221790	4716.226275
469.593043	4713.824165
469.964238	4758.080455
470.335373	4855.601576
470.706449	5099.603504
471.077467	5436.743271
471.448425	5958.006140
471.819324	6340.269275
472.190164	6319.547612
472.560945	6125.876563
472.931667	5969.152131
473.302330	5993.732798
473.672934	6053.460388
474.043479	6235.859417
474.413965	6293.570546
474.784393	6388.082098
475.154761	6630.949767
475.525070	6777.838908
475.895321	6873.159565
476.265513	7094.080571
476.635645	7381.678398
477.005719	7528.383537
477.375734	7763.203003
477.745691	8044.534676
478.115588	8422.621214
478.485427	8943.916851
478.855207	9733.646369
479.224928	10434.696949
479.594591	10965.507764
479.964194	10995.142187
480.333739	11237.218394
480.703226	11494.798671
481.072653	11900.891339
481.442022	12275.844801
481.811333	12604.699431
482.180584	12570.641395
482.549777	12711.652551
482.918912	12874.254968
483.287988	13065.113053
483.657005	13128.984472
484.025964	13229.563053
484.394864	13494.362262
484.763706	13651.348833
485.132489	13677.371270
485.501213	13911.185026
485.869879	14220.545514
486.238487	14380.544176
486.607036	14718.545979
486.975527	14839.279093
487.343959	15179.705692
487.712333	15497.053888
488.080648	15760.141625
488.448905	16190.341092
488.817104	16431.015858
489.185244	17078.773881
489.553326	18041.455304
489.921350	19444.274829
490.289315	21025.374760
490.657222	21678.060510
491.025070	22154.263026
491.392861	22109.684102
491.760593	21873.238863
492.128267	21463.471194
492.495883	21121.915377
492.863440	20847.777430
493.230939	20579.111657
493.598380	20419.536452
493.965763	20586.081052
494.333088	20531.543329
494.700354	20619.801330
495.067563	20783.056577
495.434713	21040.140299
495.801805	21377.161599
496.168839	21483.724029
496.535815	21621.130760
496.902733	21933.624325
497.269593	22020.180936
497.636395	22269.909616
498.003139	22779.981123
498.369825	22777.947018
498.736453	23235.063725
499.103023	23263.226131
499.469535	23485.911541
499.835989	23832.342153
500.202385	23921.900772
500.568723	24208.140008
500.935003	24592.074285
501.301226	24766.125163
501.667390	25414.220942
502.033497	25851.218405
502.399546	25776.024554
502.765537	25611.965243
503.131470	26128.489428
503.497345	26622.797248
503.863163	26029.627360
504.228923	26693.542280
504.594625	27226.472900
504.960269	27004.074837
505.325856	27722.154434
505.691385	27537.058389
506.056856	27888.381441
506.422270	28437.032900
506.787625	28397.419513
507.152924	28770.661502
507.518164	29093.139073
507.883347	28768.294681
508.248472	29176.673513
508.613540	29767.012792
508.978550	30218.183459
509.343503	30256.256773
509.708398	30629.057662
510.073236	31263.189445
510.438016	31488.856697
510.802738	31273.276794
511.167403	31970.445686
511.532010	32364.469832
511.896561	32802.024342
512.261053	33698.691856
512.625488	33545.221489
512.989866	33639.178514
513.354186	33709.984041
513.718449	33899.405397
514.082655	34651.492618
514.446803	34566.241666
514.810894	35193.038570
515.174927	35307.104758
515.538904	35406.513792
515.902822	36133.445656
516.266684	35842.752560
516.630488	36366.750256
516.994235	36410.875475
517.357925	37046.471714
517.721558	37369.692854
518.085133	37783.246431
518.448651	38067.393588
518.812112	38001.180553
519.175516	38242.482943
519.538863	38687.911735
519.902152	38789.306983
520.265385	39341.207465
520.628560	39503.184779
520.991678	39453.017737
521.354739	39779.790370
521.717743	40197.543228
522.080690	40214.937729
522.443580	40833.872954
522.806413	41003.981650
523.169189	41056.714640
523.531908	41334.575478
523.894569	41308.676550
524.257174	41552.169322
524.619722	41923.462906
524.982213	42030.665563
525.344647	42045.423541
525.707025	42160.167764
526.069345	42634.063952
526.431608	42631.482881
526.793815	43008.662012
527.155964	42658.453054
527.518057	42888.773291
527.880093	42748.936724
528.242072	43332.225951
528.603995	43100.945374
528.965860	43168.859799
529.327669	43334.749048
529.689421	43298.717401
530.051117	43306.127897
530.412755	43502.992517
530.774337	43621.719252
531.135862	43508.147097
531.497331	43742.611162
531.858743	43683.662429
532.220098	44052.319490
532.581396	43826.253987
532.942638	43544.050194
533.303824	43865.022980
533.664953	43865.254873
534.026025	43642.234227
534.387040	44115.858193
534.747999	44093.911529
535.108902	44296.386953
535.469748	43861.118607
535.830537	44005.991286
536.191270	44228.737189
536.551947	43911.565433
536.912567	44213.016351
537.273131	44372.636926
537.633638	43898.849123
537.994089	44258.318680
538.354483	43900.963887
538.714821	44467.549250
539.075103	44828.687429
539.435328	44629.246780
539.795497	44516.597156
540.155609	44534.369744
540.515665	44985.225338
540.875665	44477.760107
541.235609	44803.937884
541.595496	44787.266788
541.955328	45454.488706
542.315102	44866.841402
542.674821	44671.534499
543.034483	44731.577162
543.394090	44697.481318
543.753640	44666.596689
544.113134	45660.828174
544.472571	44706.051279
544.831953	45935.810513
545.191278	45171.133010
545.550548	44915.236479
545.909761	45372.212034
546.268918	45573.777529
546.628019	45880.950156
546.987064	45471.139637
547.346053	44771.029232
547.704986	45633.268186
548.063863	45224.675105
548.422684	45406.875008
548.781449	45276.780471
549.140158	45660.928997
549.498811	45519.862389
549.857408	44976.589842
550.215949	45801.806562
550.574434	45745.116266
550.932864	45536.203289
551.291237	46232.656337
551.649555	45854.030395
552.007817	46103.595237
552.366022	45766.362209
552.724173	45940.576924
553.082267	46322.928279
553.440305	46620.754607
553.798288	45971.413662
554.156215	46274.598737
554.514086	46481.868298
554.871902	46244.485404
555.229661	46260.097858
555.587365	46102.324866
555.945014	46185.319902
556.302606	46123.265819
556.660143	46352.363576
557.017625	46443.255580
557.375050	46235.517192
557.732421	46609.086856
558.089735	46588.904597
558.446994	46499.960999
558.804197	46949.561346
559.161345	46908.624656
559.518437	46179.394026
559.875474	46485.729822
560.232455	46651.767785
560.589381	46816.948753
560.946251	46541.129582
561.303065	47188.539764
561.659825	47001.414654
562.016528	46690.985442
562.373177	46428.419464
562.729770	46899.938748
563.086307	46433.183354
563.442789	46873.268523
563.799216	46930.286494
564.155587	46720.234216
564.511904	46761.170906
564.868164	46838.081270
565.224370	47094.852441
565.580520	46838.280395
565.936615	47044.299750
566.292654	46784.922302
566.648638	47016.719597
567.004567	46990.339239
567.360441	47020.485339
567.716260	46878.617188
568.072023	47183.722942
568.427732	47188.043211
568.783385	46732.174189
569.138982	47133.639078
569.494525	47095.633820
569.850013	46847.636777
570.205445	46830.791761
570.560823	46773.804038
570.916145	46666.195567
571.271412	46713.360603
571.626625	46463.533621
571.981782	46527.639454
572.336884	46226.576705
572.691931	46545.177628
573.046923	46141.419014
573.401860	46012.733480
573.756743	45986.005282
574.111570	46117.009747
574.466342	45954.369521
574.821059	46083.339880
575.175722	45607.838085
575.530330	45631.753319
575.884882	45358.845414
576.239380	45318.793447
576.593823	45307.095449
576.948211	45219.412140
577.302544	44768.803562
577.656823	44807.373430
578.011047	45012.215676
578.365216	44758.728816
578.719330	44558.607612
579.073389	44416.132001
579.427394	44486.622455
579.781344	44488.429709
580.135239	44143.725691
580.489080	44224.986571
580.842866	43726.930653
581.196597	44171.116801
581.550273	44127.162980
581.903895	43979.888191
582.257463	44417.604018
582.610975	43811.841328
582.964434	44090.914563
583.317837	43740.844238
583.671186	43589.874283
584.024481	43814.538345
584.377721	43360.393398
584.730906	43630.364830
585.084037	43664.367413
585.437113	43381.198240
585.790135	43421.277933
586.143103	43035.092781
586.496016	43147.971778
586.848874	43189.039538
587.201679	43198.126217
587.554428	42692.448075
587.907124	42883.278433
588.259765	42636.708037
588.612352	42907.309614
588.964884	42315.926815
589.317362	42584.184255
589.669786	42546.322669
590.022155	42318.051661
590.374470	42718.659554
590.726731	42271.410906
591.078937	41778.007973
591.431090	41886.307081
591.783188	41557.785167
592.135232	41243.988464
592.487222	41465.406023
592.839157	41559.211814
593.191038	41249.861408
593.542866	41010.814934
593.894639	40424.742991
594.246358	40695.851203
594.598022	40673.856649
594.949633	40301.280092
595.301190	40260.812229
595.652692	40090.103637
596.004141	40415.978945
596.355535	39444.697312
596.706876	39399.168132
597.058162	39237.684850
597.409395	39680.938385
597.760573	39769.171180
598.111698	39342.543371
598.462768	39366.781239
598.813785	39409.941077
599.164748	38868.720280
599.515657	39270.316239
599.866511	38748.314841
600.217312	39345.187456
600.568060	38331.043413
600.918753	39067.772760
601.269392	39033.346720
601.619978	38684.299749
601.970510	38901.190352
602.320988	39086.372097
602.671412	39362.498778
603.021783	39114.093402
603.372100	38759.997715
603.722363	38886.414730
604.072572	38947.533679
604.422728	38974.531578
604.772830	38774.770816
605.122878	38874.668841
605.472872	38813.060900
605.822813	39094.432902
606.172701	38927.333776
606.522534	39146.341663
606.872314	39410.697250
607.222041	39185.324906
607.571714	39562.783821
607.921333	39004.009726
608.270899	39298.239190
608.620411	39640.967076
608.969870	39436.346641
609.319276	39427.017986
609.668627	39491.267492
610.017926	39958.285025
610.367171	40115.770671
610.716362	40204.048837
611.065500	40160.029482
611.414585	40338.599754
611.763616	40635.904322
612.112594	40559.603938
612.461518	40777.240632
612.810389	41060.571122
613.159207	40924.810329
613.507971	41019.720132
613.856682	41471.163021
614.205340	41363.494057
614.553945	42047.198027
614.902496	41506.753567
615.250994	41965.778351
615.599439	42030.355532
615.947830	42253.759306
616.296169	42290.163998
616.644454	42430.174484
616.992686	42600.686472
617.340864	43123.761636
617.688990	42830.089219
618.037063	43429.041310
618.385082	43397.592072
618.733048	43705.299062
619.080961	43700.411663
619.428821	43720.631731
619.776628	43804.130883
620.124382	43638.269360
620.472083	43756.197072
620.819731	43887.433430
621.167326	43570.854009
621.514868	43547.216039
621.862357	43110.427784
622.209793	43128.578459
622.557176	42802.133500
622.904506	42553.435737
623.251783	42205.467572
623.599007	41973.234218
623.946179	41769.727878
624.293297	41700.928731
624.640363	41126.726184
624.987376	41111.665737
625.334336	40873.655220
625.681243	40532.648889
626.028097	40476.886165
626.374899	40344.606288
626.721647	40315.982617
627.068343	40205.069671
627.414987	39968.571500
627.761577	39744.623281
628.108115	40078.695505
628.454600	39538.654338
628.801032	39710.146830
629.147412	39684.694044
629.493739	39690.579591
629.840014	39349.386737
630.186236	39685.813180
630.532405	39311.351232
630.878521	39528.322493
631.224585	39383.553158
631.570597	39111.227506
631.916556	39268.687947
632.262462	39215.652487
632.608316	39239.514789
632.954117	39118.824525
633.299866	39110.725911
633.645562	39037.845950
633.991206	38539.152327
634.336797	38122.987432
634.682336	38113.439487
635.027823	37865.316415
635.373257	37684.091976
635.718639	37448.435678
636.063968	37311.951478
636.409245	36744.819150
636.754470	36792.594165
637.099642	36559.823927
637.444762	36093.345797
637.789829	36224.632567
638.134845	35892.367596
638.479808	35824.087688
638.824719	35724.713943
639.169577	35348.782498
639.514383	35416.888486
639.859137	35117.771623
640.203839	35345.566242
640.548489	34987.513248
640.893086	35060.912448
641.237632	34817.568391
641.582125	34913.680509
641.926566	34849.733473
642.270955	34815.463709
642.615292	34840.432544
642.959576	34796.052746
643.303809	34804.685722
643.647990	34948.628308
643.992118	34931.934527
644.336195	34913.461219
644.680219	35015.988206
645.024192	35306.824974
645.368112	35802.577085
645.711981	35822.587945
646.055797	36688.781684
646.399562	36626.460419
646.743274	37543.320275
647.086935	37985.638675
647.430544	37889.697956
647.774101	37991.093204
648.117606	38255.849563
648.461059	38537.387923
648.804460	38150.315527
649.147810	37536.648308
649.491108	37283.945348
649.834354	36923.500328
650.177548	36114.332121
650.520690	35661.013923
650.863781	35678.615112
651.206820	35516.030338
651.549807	35094.781441
651.892742	34625.797857
652.235626	34423.261940
652.578458	34296.250068
652.921238	33695.483162
653.263967	34028.645458
653.606644	33716.688775
653.949269	33660.547966
654.291843	33286.900163
654.634365	33676.223433
654.976836	33274.287196
655.319255	33261.747326
655.661622	33263.216822
656.003938	33035.868346
656.346203	32916.776127
656.688416	33135.574807
657.030577	32927.758281
657.372687	32772.158026
657.714746	33035.734755
658.056753	33153.851510
658.398708	32609.114508
658.740612	32661.033351
659.082465	32924.960440
659.424266	32757.329472
659.766016	32867.897099
660.107715	32767.028652
660.449362	32888.764956
660.790958	32866.301574
661.132503	32890.262178
661.473996	32918.200253
661.815438	33028.515823
662.156829	33211.146744
662.498168	32997.237984
662.839456	33025.791079
663.180693	33159.041378
663.521879	33323.561954
663.863013	33285.236582
664.204097	33264.714045
664.545129	33736.225767
664.886110	33712.154257
665.227040	33761.555045
665.567918	33886.482399
665.908746	33944.344762
666.249522	34106.372488
666.590248	34096.582567
666.930922	34210.883169
667.271545	34177.939229
667.612118	34257.208853
667.952639	34063.678956
668.293109	34101.422075
668.633528	34006.683671
668.973896	33905.958897
669.314213	33964.426199
669.654480	33690.666339
669.994695	33729.289139
670.334859	33616.503404
670.674973	33513.449617
671.015035	33673.571787
671.355047	33619.301245
671.695008	33579.277004
672.034918	33474.778926
672.374777	33547.379103
672.714585	33393.389497
673.054342	33616.258908
673.394049	33384.471696
673.733705	33655.264836
674.073310	33320.711182
674.412864	33397.344282
674.752368	32999.435927
675.091820	33293.967861
675.431223	32872.933212
675.770574	32604.103601
676.109875	32465.308033
676.449125	32187.164890
676.788324	32100.855295
677.127473	31575.556982
677.466571	31515.814268
677.805619	31170.303665
678.144616	31157.728507
678.483562	31083.696642
678.822458	30758.907703
679.161303	30703.656657
679.500098	30603.317530
679.838842	30491.096405
680.177535	30660.806849
680.516179	30924.050862
680.854771	31156.067447
681.193314	32015.947141
681.531805	33134.914416
681.870247	33917.414919
682.208638	34649.065303
682.546978	34864.125967
682.885268	34949.729800
683.223508	34420.806898
683.561697	34096.983339
683.899836	33897.893050
684.237925	33391.373035
684.575963	33245.721498
684.913951	32795.039823
685.251889	32955.792137
685.589776	32938.730352
685.927614	32936.308078
686.265401	33081.021961
686.603137	33178.964018
686.940824	33682.411450
687.278460	34065.496292
687.616046	34204.758167
687.953582	34809.268131
688.291068	34692.305800
688.628504	34957.122652
688.965889	34889.452724
689.303224	34495.794061
689.640510	34155.256557
689.977745	33419.996707
690.314930	32633.155771
690.652065	32108.979114
690.989150	31368.650384
691.326185	30476.391359
691.663170	29766.002041
692.000105	29033.998776
692.336990	28342.581841
692.673825	27912.944463
693.010610	27386.668167
693.347345	26810.272718
693.684030	26167.321436
694.020665	25900.674644
694.357251	25234.808797
694.693786	25183.484810
695.030272	24952.325221
695.366707	24410.660802
695.703093	24135.020592
696.039429	24116.489311
696.375716	23851.004505
696.711952	23825.695392
697.048139	23667.950127
697.384276	23509.249562
697.720363	23621.195945
698.056400	23419.055758
698.392388	23204.758829
698.728326	23162.783661
699.064214	22951.708029
699.400053	22913.549015
699.735842	22551.647101
700.071581	22276.929422
700.407270	21996.149756
700.742910	21803.605405
701.078501	21528.890247
701.414042	21255.674832
701.749533	20965.032148
702.084974	20616.050712
702.420366	20811.987759
702.755709	20384.066894
703.091002	20090.676781
703.426246	20107.264698
703.761440	20007.207876
704.096584	19743.361446
704.431679	19691.944197
704.766725	19599.854919
705.101721	19548.157887
705.436668	19642.843359
705.771565	19318.397218
706.106413	19664.598458
706.441212	19642.369490
706.775961	19780.986097
707.110661	19848.587971
707.445311	20196.026814
707.779913	20033.878101
708.114465	20288.179107
708.448967	20565.903834
708.783421	21250.424470
709.117825	21528.799506
709.452180	21749.143300
709.786485	22154.167244
710.120742	22956.650881
710.454949	22968.938693
710.789107	23426.922479
711.123216	24134.002279
711.457275	24249.774898
711.791286	24788.195334
712.125247	24851.701270
712.459159	24550.489807
712.793023	25209.333327
713.126837	24096.866619
713.460602	24355.044272
713.794318	23971.089831
714.127985	23601.041412
714.461602	22699.239483
714.795171	22657.287001
715.128691	21656.769197
715.462162	21116.120570
715.795584	20695.320335
716.128957	20437.528330
716.462281	20034.072185
716.795556	19799.857657
717.128782	19316.048040
717.461960	18772.924207
717.795088	18686.269293
718.128167	18293.318912
718.461198	17831.957553
718.794180	17689.081171
719.127113	17337.218715
719.459997	17137.089948
719.792833	16796.086138
720.125619	16771.339113
720.458357	16448.364989
720.791046	16283.486491
721.123686	16130.295908
721.456278	15892.880247
721.788821	15848.508011
722.121315	15599.061636
722.453761	15676.466033
722.786158	15592.818167
723.118506	15597.945021
723.450805	15471.893489
723.783056	15623.498630
724.115259	15537.872111
724.447412	15471.588500
724.779518	15708.343769
725.111574	15738.767133
725.443582	15926.416523
725.775542	15900.827626
726.107453	16372.883793
726.439315	16254.197387
726.771129	16652.458623
727.102895	17019.313471
727.434612	17223.792753
727.766281	17343.729365
728.097901	17607.863142
728.429473	17642.727762
728.760996	17630.553375
729.092471	17703.108182
729.423897	17584.187363
729.755276	17453.480326
730.086606	17565.146924
730.417887	18089.890711
730.749120	18605.701572
731.080305	18776.508467
731.411442	19110.184961
731.742530	19172.397841
732.073570	19263.068034
732.404562	19565.252439
732.735506	19372.579539
733.066401	19091.290716
733.397249	18568.928875
733.728048	17928.914065
734.058798	17101.418744
734.389501	16434.874862
734.720156	15975.093905
735.050762	15451.940603
735.381320	15107.052583
735.711831	14866.292116
736.042293	14522.049364
736.372707	14526.788049
736.703073	14328.660620
737.033391	14513.418909
737.363661	14477.483043
737.693883	14587.032358
738.024056	14754.055867
738.354182	14942.713488
738.684260	15222.353853
739.014290	15450.803822
739.344272	15634.758047
739.674207	15907.297947
740.004093	16019.327509
740.333931	16007.039697
740.663722	16051.961418
740.993464	16038.693102
741.323159	15863.495361
741.652806	15596.616677
741.982405	15381.664397
742.311956	15043.294589
742.641460	14920.522329
742.970915	14626.635662
743.300323	14293.480928
743.629683	14081.946551
743.958996	13805.061176
744.288260	13537.232234
744.617477	13235.738466
744.946647	13160.146364
745.275768	12892.662741
745.604842	12701.850027
745.933869	12542.617621
746.262847	12494.671207
746.591778	12422.154209
746.920662	12318.525730
747.249498	12326.707523
747.578286	12441.565172
747.907027	12584.013056
748.235720	12796.275880
748.564365	12829.113956
748.892963	12734.204153
749.221514	12794.816466
749.550017	12647.211481
749.878473	12602.193977
750.206881	12384.769012
750.535242	12298.779530
750.863555	12213.697456
751.191821	12120.504166
751.520039	12140.509985
751.848210	12039.676825
752.176334	12071.163872
752.504411	11983.783032
752.832440	11822.589617
753.160421	11896.802964
753.488356	11765.470824
753.816243	11677.880776
754.144082	11533.149249
754.471875	11477.288223
754.799620	11424.981211
755.127318	11399.253682
755.454969	11355.047804
755.782572	11312.455095
756.110129	11326.393885
756.437638	11249.251629
756.765100	11232.459545
757.092515	11237.591440
757.419882	11254.764130
757.747203	11263.714699
758.074477	11336.042654
758.401703	11288.043308
758.728882	11447.303440
759.056014	11489.253402
759.383099	11607.844025
759.710138	11708.344468
760.037129	11793.053497
760.364073	11810.316928
760.690970	11792.327571
761.017820	11789.693568
761.344623	11978.411683
761.671379	12295.475054
761.998088	12926.390581
762.324751	14473.119925
762.651366	17319.002506
762.977935	20965.722786
763.304456	23177.390405
763.630931	23652.602334
763.957359	22461.528914
764.283740	20566.160932
764.610074	18696.245736
764.936362	16574.255204
765.262602	15070.163939
765.588796	13610.598666
765.914943	12585.054054
766.241044	11735.705331
766.567097	11112.200300
766.893104	10569.807434
767.219064	10206.189007
767.544978	9828.329320
767.870845	9517.751394
768.196665	9331.374895
768.522438	9131.175552
768.848165	8966.584400
769.173846	8806.162281
769.499479	8683.324486
769.825066	8527.744396
770.150607	8343.812856
770.476101	8285.012838
770.801548	8174.331785
771.126949	8037.454375
771.452303	7947.210160
771.777611	7785.386601
772.102872	7762.073785
772.428087	7643.886453
772.753256	7515.024479
773.078378	7436.120339
773.403453	7295.373844
773.728482	7191.107659
774.053465	7126.079295
774.378401	7045.652727
774.703291	6947.279650
775.028135	6859.218254
775.352932	6820.391288
775.677683	6734.938689
776.002388	6651.386605
776.327046	6650.597664
776.651658	6556.146606
776.976224	6486.530792
777.300743	6468.450693
777.625216	6403.969295
777.949643	6362.805753
778.274024	6363.647626
778.598359	6299.677904
778.922647	6298.755373
779.246889	6262.643067
779.571086	6268.571464
779.895236	6277.960613
780.219339	6278.855418
780.543397	6272.150683
780.867409	6323.262942
781.191374	6322.690771
781.515294	6288.463857
781.839167	6338.512432
782.162995	6306.395241
782.486776	6264.951916
782.810511	6217.726386
783.134201	6146.063864
783.457844	6138.726464
783.781441	6087.019349
784.104993	6045.613832
784.428498	6012.402711
784.751958	5998.332850
785.075372	5975.955168
785.398739	5936.465290
785.722061	5958.306089
786.045337	5959.463034
786.368568	6065.269291
786.691752	6088.198979
787.014891	6334.880281
787.337983	6615.702797
787.661030	7050.109107
787.984031	7475.469065
788.306987	7739.302893
788.629897	7825.856984
788.952760	7738.060248
789.275579	7564.914258
789.598351	7260.990654
789.921078	7001.824935
790.243759	6720.848664
790.566395	6516.573548
790.888984	6324.445093
791.211529	6188.480132
791.534027	6023.495770
791.856480	5886.341097
792.178888	5827.210883
792.501249	5763.382314
792.823566	5659.350542
793.145836	5652.053472
793.468062	5631.682169
793.790241	5593.666828
794.112375	5634.792561
794.434464	5731.076079
794.756507	5765.257623
795.078505	5882.887907
795.400457	6103.579540
795.722364	6342.537794
796.044226	6531.548296
796.366042	6686.909095
796.687812	6635.590149
797.009538	6670.001065
797.331218	6570.493730
797.652852	6507.171796
797.974442	6382.488938
798.295986	6310.352547
798.617484	6184.177508
798.938938	6076.553914
799.260346	6003.600856
799.581709	5873.811309
799.903026	5821.632846
800.224299	5747.018728
800.545526	5628.665039
800.866708	5565.481737
801.187845	5515.360065
801.508936	5444.146205
801.829983	5412.313839
802.150984	5311.042100
802.471940	5278.715701
802.792851	5262.558802
803.113717	5241.625411
803.434538	5216.321339
803.755314	5183.823541
804.076045	5171.233259
804.396731	5137.933918
804.717372	5154.993182
805.037967	5158.774048
805.358518	5186.674314
805.679024	5241.990895
805.999485	5253.550261
806.319901	5270.181027
806.640272	5288.848420
806.960598	5334.498588
807.280879	5326.783102
807.601115	5359.790057
807.921306	5328.277805
808.241453	5326.606662
808.561554	5333.593701
808.881611	5297.988032
809.201623	5293.100633
809.521590	5249.035907
809.841513	5231.994287
810.161390	5250.981793
810.481223	5160.528369
810.801011	5145.639321
811.120755	5118.381803
811.440453	5065.696704
811.760107	5038.335841
812.079716	5012.613354
812.399281	4958.486485
812.718801	4956.722081
813.038276	4922.457358
813.357707	4884.973859
813.677093	4907.754833
813.996434	4848.034804
814.315731	4868.912743
814.634983	4863.732957
814.954191	4872.204616
815.273354	4929.396507
815.592473	4971.033917
815.911547	5047.593920
816.230577	5097.082928
816.549562	5182.666596
816.868502	5242.437037
817.187399	5294.466786
817.506250	5374.812696
817.825058	5397.311365
818.143821	5553.388009
818.462539	5718.788267
818.781213	5951.175377
819.099843	6316.101983
819.418429	6939.843948
819.736970	7557.806231
820.055466	8265.869056
820.373919	9185.867030
820.692327	10625.439087
821.010691	13322.524450
821.329011	19551.338855
821.647286	29136.198088
821.965517	39507.615954
822.283704	44995.378222
822.601847	46473.005949
822.919945	41873.157231
823.237999	36741.776814
823.556010	31527.663500
823.873976	26817.378224
824.191897	22603.704576
824.509775	19517.580768
824.827609	16755.605672
825.145398	15189.377146
825.463144	14442.147076
825.780845	14732.109204
826.098502	15987.744680
826.416116	18443.144525
826.733685	20727.964327
827.051210	21273.487749
827.368692	19831.019549
827.686129	17269.526101
828.003522	14794.410303
828.320872	12565.456569
828.638177	10917.742831
828.955439	9674.858953
829.272656	8611.510728
829.589830	7767.064527
829.906960	7038.640482
830.224046	6502.687690
830.541088	6094.996975
830.858086	5834.112223
831.175041	5636.604856
831.491952	5577.933387
831.808819	5608.704590
832.125642	5855.481674
832.442421	6405.224542
832.759157	7509.254878
833.075849	9282.049725
833.392497	11130.721499
833.709101	12249.179617
834.025662	11997.716781
834.342179	10940.997674
834.658653	9634.436461
834.975083	8534.063482
835.291469	7626.751572
835.607811	6891.786629
835.924110	6372.278081
836.240366	5886.714143
836.556578	5432.153300
836.872746	5076.323456
837.188871	4802.966889
837.504952	4585.335236
837.820990	4415.682765
838.136984	4299.935352
838.452935	4252.795523
838.768842	4283.188639
839.084706	4565.006783
839.400526	5305.035565
839.716303	6208.180962
840.032037	6774.398320
840.347727	6626.521113
840.663373	6030.248395
840.978977	5452.756496
841.294537	5011.930277
841.610054	4676.645656
841.925527	4436.908543
842.240957	4235.779108
842.556344	4051.514852
842.871687	3890.865882
843.186987	3738.098756
843.502244	3621.476703
843.817458	3539.026111
844.132629	3467.532467
844.447756	3416.460538
844.762840	3372.831872
845.077881	3334.395594
845.392879	3300.776139
845.707833	3274.216820
846.022745	3245.119280
846.337613	3233.098649
846.652438	3210.713405
846.967221	3201.974565
847.281960	3182.180474
847.596656	3172.998013
847.911309	3161.380674
848.225919	3150.403561
848.540485	3138.720687
848.855009	3130.435551
849.169490	3116.733695
849.483928	3119.266874
849.798323	3106.772375
850.112675	3097.262238
850.426984	3100.574276
850.741251	3091.273347
851.055474	3084.346802
851.369654	3089.065322
851.683792	3083.883016
851.997887	3090.176896
852.311938	3087.888212
852.625947	3089.198912
852.939914	3084.034250
853.253837	3089.219077
853.567718	3087.747060
853.881555	3082.426122
854.195350	3085.506267
854.509103	3081.160792
854.822812	3081.770772
855.136479	3077.687437
855.450103	3079.134249
855.763685	3073.447827
856.077224	3076.424628
856.390720	3082.302614
856.704173	3095.273503
857.017584	3100.680140
857.330953	3103.304061
857.644278	3116.373252
857.957561	3115.140690
858.270802	3114.828138
858.584000	3114.480299
858.897155	3107.823455
859.210268	3096.571600
859.523339	3082.587439
859.836367	3082.547110
860.149352	3076.263312
860.462295	3072.437076
860.775195	3061.094480
861.088054	3060.275292
861.400869	3060.542473
861.713642	3058.286557
862.026373	3068.837692
862.339062	3070.385326
862.651708	3078.274732
862.964312	3095.719645
863.276873	3104.466047
863.589392	3135.675830
863.901869	3158.769356
864.214303	3183.791123
864.526696	3198.448278
864.839045	3219.863099
865.151353	3230.562948
865.463619	3231.714852
865.775842	3232.511354
866.088023	3237.527303
866.400162	3231.009091
866.712258	3231.198134
867.024313	3230.741909
867.336325	3227.339131
867.648296	3230.852815
867.960224	3227.172772
868.272110	3233.091087
868.583954	3232.720562
868.895755	3236.856829
869.207515	3235.173084
869.519233	3255.864500
869.830909	3259.965478
870.142542	3274.579783
870.454134	3279.681431
870.765684	3295.261117
871.077191	3311.097902
871.388657	3323.239521
871.700081	3340.082016
872.011463	3360.629759
872.322803	3380.779251
872.634101	3398.095614
872.945357	3418.177051
873.256571	3443.949950
873.567744	3457.603915
873.878874	3467.839978
874.189963	3482.116525
874.501010	3484.251454
874.812015	3485.615086
875.122979	3498.510358
875.433900	3494.873165
875.744780	3496.574555
876.055618	3504.963035
876.366415	3503.380112
876.677169	3510.251205
876.987882	3525.803165
877.298554	3547.044066
877.609183	3585.810539
877.919771	3632.252169
878.230317	3703.592058
878.540822	3804.452943
878.851285	3957.807364
879.161707	4182.665511
879.472087	4555.852048
879.782425	5183.992420
880.092722	6378.420727
880.402977	8324.701842
880.713191	10715.479136
881.023363	13116.205147
881.333494	14478.859278
881.643583	14934.332570
881.953631	14529.225447
882.263637	13682.064584
882.573602	12632.556847
882.883526	11674.727534
883.193408	10707.327590
883.503248	9781.204614
883.813048	8946.692007
884.122806	8176.209614
884.432522	7405.916266
884.742197	6741.318269
885.051831	6165.532800
885.361424	5670.720865
885.670975	5270.135657
885.980485	4943.393270
886.289954	4677.167415
886.599382	4458.270433
886.908768	4275.765540
887.218113	4112.167495
887.527417	3981.861230
887.836680	3855.368597
888.145901	3754.679111
888.455082	3680.891742
888.764221	3609.813993
889.073319	3553.514387
889.382376	3514.581556
889.691392	3493.907784
890.000366	3485.093327
890.309300	3476.485557
890.618193	3484.334633
890.927044	3478.864981
891.235855	3485.395796
891.544625	3499.775687
891.853353	3527.428937
892.162041	3589.437650
892.470687	3682.212524
892.779293	3800.291471
893.087858	3972.991319
893.396381	4254.338116
893.704864	4666.699459
894.013306	5236.838836
894.321707	5819.760058
894.630068	6178.629718
894.938387	6220.657817
895.246665	6043.574686
895.554903	5721.220623
895.863100	5378.671699
896.171256	5112.438282
896.479371	4866.321590
896.787446	4641.528978
897.095480	4440.938946
897.403473	4294.473262
897.711425	4146.553205
898.019336	4024.058208
898.327207	3902.468098
898.635038	3795.008342
898.942827	3689.744008
899.250576	3602.763940
899.558284	3516.653470
899.865952	3463.345789
900.173579	3401.135430
900.481165	3356.415354
900.788711	3314.745177
901.096216	3276.253446
901.403681	3250.760331
901.711105	3242.225658
902.018489	3236.761047
902.325832	3271.209772
902.633135	3327.174141
902.940397	3500.244515
903.247619	3909.127462
903.554800	4664.378008
903.861941	5639.869003
904.169041	6352.206727
904.476101	6568.240334
904.783121	6290.349249
905.090100	5877.098142
905.397039	5461.439883
905.703938	5103.734730
906.010796	4772.689719
906.317614	4517.884598
906.624391	4275.397536
906.931129	4081.547526
907.237826	3901.540525
907.544483	3729.039802
907.851099	3554.046229
908.157675	3393.082187
908.464211	3250.866196
908.770707	3149.697800
909.077163	3070.917168
909.383578	3007.073475
909.689954	2965.995633
909.996289	2937.026642
910.302584	2915.085020
910.608839	2901.297464
910.915054	2889.735578
911.221229	2883.731564
911.527363	2887.235166
911.833458	2895.059037
912.139513	2905.030439
912.445527	2918.462593
912.751502	2955.620938
913.057436	3001.878566
913.363331	3058.518450
913.669186	3147.041112
913.975000	3263.217023
914.280775	3454.448153
914.586510	3723.003021
914.892205	4099.317594
915.197859	4602.200416
915.503475	5194.170509
915.809050	5693.922775
916.114585	5985.283824
916.420081	6053.656993
916.725536	5989.830944
917.030952	5743.404221
917.336328	5538.443508
917.641665	5325.227907
917.946961	5095.898256
918.252218	4895.739243
918.557435	4660.289632
918.862612	4461.229590
919.167750	4289.853044
919.472848	4095.002366
919.777906	3927.515071
920.082925	3767.014814
920.387904	3611.389354
920.692843	3503.052437
920.997743	3402.831778
921.302603	3306.286120
921.607423	3239.047210
921.912204	3175.637057
922.216946	3128.466980
922.521647	3075.469330
922.826310	3032.599358
923.130932	2994.868842
923.435516	2957.697894
923.740059	2930.014397
924.044564	2895.706825
924.349028	2874.155892
924.653454	2839.560974
924.957840	2814.942499
925.262186	2798.223512
925.566493	2773.196704
925.870761	2752.101996
926.174989	2738.165726
926.479178	2727.029817
926.783328	2708.299410
927.087438	2694.552183
927.391509	2683.398631
927.695541	2673.248267
927.999533	2660.491627
928.303486	2653.678508
928.607400	2646.288177
928.911275	2641.567136
929.215110	2633.430714
929.518906	2631.013480
929.822663	2632.765281
930.126381	2631.638583
930.430060	2632.951804
930.733699	2638.940695
931.037299	2640.057310
931.340861	2640.047228
931.644383	2645.078300
931.947866	2643.694503
932.251309	2637.020015
932.554714	2640.256436
932.858080	2635.946249
933.161407	2632.177987
933.464694	2629.632204
933.767943	2628.823099
934.071153	2622.413272
934.374323	2618.980246
934.677455	2616.638630
934.980548	2613.261057
935.283602	2613.697117
935.586617	2608.247630
935.889593	2614.813732
936.192530	2613.808022
936.495428	2616.263064
936.798287	2626.771349
937.101108	2640.982362
937.403890	2663.856598
937.706632	2690.972964
938.009336	2726.676936
938.312002	2750.950092
938.614628	2776.231479
938.917216	2797.293419
939.219765	2805.661735
939.522275	2815.272695
939.824747	2814.740853
940.127179	2807.809266
940.429573	2800.517237
940.731929	2800.895324
941.034246	2789.829991
941.336524	2791.977523
941.638763	2784.987963
941.940964	2776.707868
942.243126	2759.283119
942.545250	2753.679877
942.847335	2736.771847
943.149381	2723.911863
943.451389	2711.540872
943.753359	2695.532688
944.055290	2687.328210
944.357182	2677.213135
944.659036	2674.800943
944.960851	2667.987823
945.262628	2668.184428
945.564367	2666.523368
945.866067	2664.819458
946.167729	2666.682164
946.469352	2662.424910
946.770937	2662.122441
947.072484	2655.231183
947.373992	2652.990391
947.675462	2650.661377
947.976893	2645.264822
948.278286	2641.748617
948.579641	2641.257105
948.880958	2636.520941
949.182236	2634.822072
949.483476	2633.206382
949.784678	2630.002729
950.085841	2629.420476
950.386967	2635.119500
950.688054	2641.494039
950.989103	2654.033909
951.290114	2658.414672
951.591087	2672.716426
951.892021	2682.639937
952.192917	2696.704756
952.493776	2704.324460
952.794596	2708.480892
953.095378	2709.968032
953.396122	2710.225131
953.696828	2704.626929
953.997496	2699.414376
954.298126	2691.041020
954.598718	2681.273784
954.899272	2673.026457
955.199788	2661.146977
955.500266	2650.106851
955.800706	2633.745786
956.101108	2617.483023
956.401472	2607.204111
956.701798	2590.041502
957.002087	2574.620613
957.302337	2566.176680
957.602550	2556.285936
957.902724	2543.821683
958.202861	2535.733152
958.502960	2524.793848
958.803022	2519.616583
959.103045	2514.416633
959.403031	2505.196363
959.702979	2500.064468
960.002889	2495.902996
960.302762	2490.246821
960.602596	2488.920998
960.902393	2482.932107
961.202153	2482.508650
961.501875	2478.243834
961.801559	2475.614872
962.101205	2472.839717
962.400814	2471.178657
962.700385	2468.968111
962.999918	2468.504324
963.299414	2464.199179
963.598873	2465.847636
963.898293	2461.749178
964.197677	2462.195320
964.497022	2457.857407
964.796331	2457.512088
965.095601	2457.839763
965.394835	2458.084259
965.694030	2455.341872
965.993189	2458.144753
966.292309	2454.263065
966.591393	2458.502675
966.890439	2457.423868
967.189447	2457.559979
967.488419	2456.645010
967.787353	2459.125258
968.086249	2456.362705
968.385108	2457.917901
968.683930	2457.113837
968.982714	2460.161215
969.281462	2461.124075
969.580172	2463.309415
969.878844	2464.284879
970.177480	2465.915692
970.476078	2467.770837
970.774639	2472.764099
971.073162	2472.141517
971.371649	2476.030767
971.670098	2477.984214
971.968510	2479.184009
972.266885	2476.096302
972.565223	2478.652167
972.863524	2486.992756
973.161788	2484.638537
973.460014	2485.465287
973.758204	2484.003352
974.056356	2488.588281
974.354471	2490.912253
974.652550	2486.521408
974.950591	2488.527788
975.248595	2485.450163
975.546563	2486.193733
975.844493	2488.000987
976.142386	2482.455718
976.440243	2482.405306
976.738062	2478.193422
977.035845	2475.912300
977.333590	2469.444500
977.631299	2470.800570
977.928971	2471.715539
978.226606	2467.208748
978.524204	2467.422997
978.821765	2464.544498
979.119290	2463.574076
979.416777	2466.661783
979.714228	2465.711525
980.011642	2466.674386
980.309020	2471.899542
980.606360	2473.681589
980.903664	2480.618217
981.200931	2496.976761
981.498162	2514.290604
981.795356	2546.334699
982.092513	2580.969946
982.389633	2628.722276
982.686717	2673.419667
982.983764	2704.858822
983.280775	2722.689384
983.577749	2724.153839
983.874686	2712.004658
984.171587	2696.223326
984.468451	2678.448217
984.765279	2663.123110
985.062070	2644.175933
985.358824	2624.275978
985.655543	2602.465426
985.952224	2579.775193
986.248869	2552.736964
986.545478	2526.217974
986.842050	2505.917248
987.138586	2486.125678
987.435086	2472.983390
987.731549	2461.643314
988.027975	2457.862449
988.324366	2449.874740
988.620719	2447.578495
988.917037	2441.725715
989.213318	2439.119439
989.509563	2437.939809
989.805772	2434.539550
990.101944	2434.368151
990.398080	2433.216248
990.694180	2431.998809
990.990244	2434.481577
991.286271	2433.206165
991.582262	2432.187852
991.878217	2435.270518
992.174136	2434.002667
992.470019	2433.969900
992.765865	2438.718667
993.061676	2436.692123
993.357450	2444.526076
993.653188	2444.054728
993.948890	2452.097889
994.244556	2455.906481
994.540186	2467.218830
994.835780	2475.907259
995.131337	2493.742861
995.426859	2508.619306
995.722345	2530.213089
996.017795	2547.506767
996.313208	2560.465053
996.608586	2570.668348
996.903928	2578.076324
997.199234	2573.877043
997.494504	2570.486867
997.789738	2562.378171
998.084936	2556.270813
998.380099	2543.108360
998.675225	2531.622091
998.970316	2515.140039
999.265371	2503.290807
999.560390	2485.936634
999.855373	2478.231231
1000.150320	2466.417287
1000.445232	2458.404373
1000.740108	2451.732406
1001.034948	2446.673608
1001.329752	2442.207145
1001.624521	2437.748245
1001.919254	2430.927564
1002.213951	2429.238777
1002.508613	2424.946235
1002.803239	2424.132088
1003.097829	2421.432550
1003.392384	2422.032448
1003.686903	2419.433733
1003.981386	2421.729978
1004.275834	2419.436253
1004.570246	2419.806778
1004.864623	2418.054977
1005.158964	2417.686973
1005.453270	2417.752508
1005.747540	2416.187230
1006.041775	2414.911818
1006.335974	2415.426016
1006.630138	2413.918711
1006.924266	2414.211097
1007.218359	2414.306879
1007.512416	2413.681776
1007.806438	2412.711354
1008.100425	2412.388720
1008.394376	2414.891653
1008.688292	2413.253278
1008.982172	2410.536096
1009.276017	2410.967115
1009.569827	2412.844945
1009.863602	2410.831004
1010.157341	2412.086251
1010.451045	2410.997362
1010.744714	2408.476785
1011.038347	2410.049625
1011.331945	2410.271436
1011.625508	2413.906108
1011.919036	2408.827145
1012.212528	2411.045253
1012.505986	2410.208421
1012.799408	2409.225396
1013.092795	2407.110632
1013.386147	2407.322361
1013.679464	2408.834707
1013.972745	2408.007958
1014.265992	2407.899573
1014.559204	2407.375293
1014.852380	2407.221538
1015.145521	2405.973852
1015.438628	2405.005951
1015.731699	2405.540313
1016.024736	2407.276990
1016.317737	2407.914696
1016.610703	2410.236148
1016.903635	2408.565005
1017.196531	2405.018553
1017.489393	2406.803122
1017.782219	2407.095509
1018.075011	2408.708678
1018.367768	2412.345871
1018.660490	2413.671694
1018.953177	2413.671694
1019.245829	2413.671694
