Dividing Wavelength (nm)	Counts (n)	Blue Motor Position (mm): 28.600000	Red Motor Position (mm): 0.000000	
326.493990	1971.532255
326.888308	1971.532255
327.282561	1971.532255
327.676750	1947.100303
328.070874	1948.015272
328.464933	1954.195727
328.858929	1965.397171
329.252859	1976.374283
329.646726	1989.141005
330.040528	2005.514673
330.434265	2025.644000
330.827938	2045.339788
331.221547	2065.169167
331.615091	2087.473752
332.008571	2106.027719
332.401986	2126.063785
332.795338	2149.732002
333.188625	2164.958807
333.581847	2186.900429
333.975006	2202.464992
334.368100	2219.214226
334.761129	2238.383213
335.154095	2254.240163
335.546996	2292.855401
335.939833	2366.418438
336.332606	2381.821684
336.725315	2392.438354
337.117960	2399.259035
337.510540	2408.398647
337.903056	2419.358116
338.295508	2422.702921
338.687896	2433.027204
339.080220	2438.680858
339.472480	2445.110850
339.864676	2446.585388
340.256807	2449.058073
340.648875	2453.758949
341.040879	2455.286419
341.432818	2453.448918
341.824694	2458.389249
342.216506	2456.907150
342.608253	2457.489403
342.999937	2458.175000
343.391557	2458.069136
343.783113	2450.572940
344.174605	2451.064453
344.566033	2447.575974
344.957397	2446.708896
345.348697	2447.086982
345.739934	2444.407609
346.131106	2442.817125
346.522215	2444.379883
346.913260	2440.052052
347.304241	2441.821497
347.695159	2436.077102
348.086012	2433.627102
348.476802	2435.005857
348.867528	2430.483942
349.258191	2430.846905
349.648789	2430.037800
350.039324	2428.535536
350.429796	2428.517892
350.820203	2426.703077
351.210548	2426.546801
351.600828	2427.343303
351.991045	2424.217788
352.381198	2425.999836
352.771288	2424.484969
353.161314	2426.158632
353.551276	2422.332396
353.941175	2421.084711
354.331010	2423.592685
354.720782	2427.774322
355.110490	2427.507141
355.500135	2424.880700
355.889717	2422.796183
356.279235	2426.740885
356.668689	2426.420772
357.058080	2427.179466
357.447408	2425.750299
357.836672	2421.924063
358.225873	2423.149063
358.615010	2424.011101
359.004084	2427.486976
359.393095	2429.974786
359.782043	2426.985381
360.170927	2427.915474
360.559748	2430.667944
360.948505	2431.124169
361.337199	2434.282452
361.725830	2432.170208
362.114398	2434.940322
362.502903	2434.915116
362.891344	2435.305806
363.279722	2434.400919
363.668037	2437.559202
364.056289	2434.214396
364.444478	2436.795467
364.832603	2437.241609
365.220665	2437.092895
365.608665	2436.311516
365.996601	2440.823349
366.384474	2441.082968
366.772284	2442.018102
367.160031	2440.019285
367.547715	2442.139090
367.935336	2438.738832
368.322893	2439.701692
368.710388	2438.859819
369.097820	2443.888370
369.485189	2442.681014
369.872495	2444.768052
370.259738	2442.902825
370.646918	2442.509615
371.034035	2443.444749
371.421090	2443.573298
371.808081	2441.970211
372.195010	2442.441559
372.581875	2447.331478
372.968678	2447.384410
373.355418	2448.231324
373.742096	2444.989862
374.128710	2446.053546
374.515262	2445.562033
374.901751	2445.758638
375.288177	2449.980605
375.674540	2446.519853
376.060841	2450.744339
376.447079	2450.421706
376.833254	2451.432457
377.219367	2446.600511
377.605417	2450.381376
377.991404	2445.529266
378.377329	2450.393979
378.763191	2446.928186
379.148991	2452.173507
379.534727	2452.962447
379.920402	2453.852211
380.306013	2452.218877
380.691563	2454.331120
381.077049	2453.406069
381.462474	2452.793568
381.847835	2453.859772
382.233134	2456.541666
382.618371	2452.213836
383.003545	2455.972016
383.388657	2456.536625
383.773706	2457.491924
384.158693	2459.266410
384.543618	2459.498303
384.928480	2457.186934
385.313280	2457.373457
385.698017	2457.582665
386.082692	2458.711883
386.467305	2458.207768
386.851856	2461.905454
387.236344	2457.829681
387.620770	2462.477625
388.005133	2462.117183
388.389435	2461.976030
388.773674	2462.517954
389.157851	2464.935188
389.541965	2464.657924
389.926018	2463.001905
390.310008	2464.859570
390.693936	2466.475260
391.077802	2464.489045
391.461606	2463.022070
391.845348	2465.230095
392.229027	2465.956021
392.612645	2467.783439
392.996200	2466.845785
393.379694	2466.744962
393.763125	2466.714715
394.146494	2466.208079
394.529801	2468.912658
394.913047	2471.750828
395.296230	2470.747638
395.679351	2471.516414
396.062410	2470.755200
396.445408	2472.408698
396.828343	2471.710498
397.211217	2468.970631
397.594028	2470.946763
397.976778	2468.380816
398.359466	2472.479274
398.742092	2471.778554
399.124656	2472.809470
399.507158	2473.613534
399.889598	2476.504636
400.271977	2474.384830
400.654294	2476.633185
401.036549	2475.385499
401.418742	2477.739718
401.800874	2476.504636
402.182944	2477.132259
402.564952	2479.499081
402.946898	2478.453042
403.328783	2481.860862
403.710606	2480.073773
404.092367	2481.082003
404.474067	2482.135604
404.855705	2478.621920
405.237282	2483.874803
405.618797	2481.739874
406.000250	2482.748105
406.381642	2484.898157
406.762972	2485.646768
407.144240	2487.229690
407.525447	2488.084166
407.906593	2485.172900
408.287677	2486.697849
408.668700	2486.279433
409.049661	2488.374032
409.430560	2489.750267
409.811399	2488.432006
410.192176	2489.026862
410.572891	2490.125833
410.953545	2492.316215
411.334138	2491.809579
411.714669	2491.509630
412.095139	2490.985350
412.475547	2491.527274
412.855894	2491.285299
413.236180	2496.681854
413.616405	2494.831750
413.996568	2493.568941
414.376670	2495.449292
414.756711	2492.664054
415.136691	2496.646566
415.516609	2497.125475
415.896466	2499.172184
416.276262	2499.388953
416.655997	2493.856287
417.035670	2494.877121
417.415283	2502.020436
417.794834	2499.598161
418.174324	2503.689058
418.553753	2502.723677
418.933121	2505.118225
419.312428	2503.031187
419.691674	2506.375993
420.070859	2508.047135
420.449983	2507.384223
420.829045	2507.530417
421.208047	2509.836745
421.586988	2510.948319
421.965867	2512.024606
422.344686	2512.899246
422.723444	2516.107940
423.102141	2510.741632
423.480777	2519.273785
423.859352	2517.791686
424.237866	2519.528363
424.616319	2520.637417
424.994712	2524.380474
425.373044	2524.317459
425.751314	2524.428365
426.129524	2525.512213
426.507673	2531.309540
426.885762	2531.246525
427.263789	2534.253573
427.641756	2535.566794
428.019662	2534.886238
428.397508	2540.121477
428.775292	2540.018133
429.153016	2546.619524
429.530679	2545.006355
429.908282	2548.288146
430.285824	2547.978115
430.663305	2556.543035
431.040726	2557.984805
431.418086	2561.957234
431.795385	2566.942936
432.172624	2575.989286
432.549802	2577.743608
432.926920	2587.510843
433.303977	2592.262131
433.680974	2600.126331
434.057910	2610.259050
434.434786	2619.880092
434.811601	2629.354941
435.188355	2647.798002
435.565050	2659.869045
435.941683	2670.226096
436.318257	2694.874817
436.694770	2707.810418
437.071222	2735.279665
437.447614	2745.475399
437.823946	2766.081115
438.200218	2795.080353
438.576429	2820.391986
438.952580	2850.371728
439.328670	2884.399517
439.704700	2926.530960
440.080670	2949.619445
440.456580	3005.477950
440.832429	3055.148439
441.208218	3071.378433
441.583947	3130.697691
441.959616	3187.335054
442.335224	3246.591297
442.710773	3313.689055
443.086261	3397.379770
443.461689	3434.883434
443.837057	3507.828931
444.212365	3615.366824
444.587612	3695.390101
444.962800	3748.002103
445.337927	3858.320193
445.712995	3859.252806
446.088002	4075.344387
446.462949	4194.434084
446.837837	4310.297444
447.212664	4417.111932
447.587431	4812.703877
447.962139	5249.870218
448.336786	5639.037213
448.711374	5606.594867
449.085901	5327.070448
449.460369	5446.588644
449.834776	5596.540286
450.209124	6086.011119
450.583412	6201.700558
450.957640	6425.275731
451.331808	6388.119907
451.705917	6331.613613
452.079965	6495.824159
452.453954	6725.506690
452.827883	6881.830350
453.201752	7015.080649
453.575562	7215.731175
453.949311	7628.636963
454.323001	7842.921290
454.696632	7989.215574
455.070202	8537.569604
455.443713	8785.322151
455.817164	9144.539651
456.190556	9502.537191
456.563888	9583.162885
456.937160	9907.001567
457.310373	9685.034522
457.683526	10016.734884
458.056619	10244.227033
458.429653	10452.898035
458.802628	10863.310973
459.175542	11148.637760
459.548398	11820.545429
459.921194	12634.046508
460.293930	13168.307993
460.666607	14194.843191
461.039224	15157.091076
461.411782	15608.241577
461.784280	15420.362815
462.156719	15506.564025
462.529099	15576.643625
462.901419	15318.085365
463.273680	15143.240506
463.645882	15461.115503
464.018024	15737.975672
464.390106	16410.962148
464.762130	18029.774951
465.134094	20377.510873
465.505999	23449.912661
465.877845	26314.442470
466.249631	27386.741263
466.621358	26770.230833
466.993026	25974.646015
467.364634	25173.533573
467.736184	24440.943013
468.107674	24077.523712
468.479105	23970.038750
468.850477	23886.968097
469.221790	23352.658721
469.593043	22605.058126
469.964238	22359.715251
470.335373	22577.120052
470.706449	23938.423154
471.077467	25883.191923
471.448425	29269.839077
471.819324	31545.166386
472.190164	30606.687542
472.560945	28450.071844
472.931667	26601.468126
473.302330	26111.730112
473.672934	25797.028521
474.043479	26408.079382
474.413965	26114.981656
474.784393	26072.547744
475.154761	26962.281151
475.525070	27234.773160
475.895321	27124.258465
476.265513	27796.791238
476.635645	28758.784544
477.005719	28851.478760
477.375734	29448.981520
477.745691	30210.291532
478.115588	31465.601855
478.485427	33266.107924
478.855207	36191.597886
479.224928	38619.636868
479.594591	40267.519484
479.964194	39649.269856
480.333739	39998.752888
480.703226	40283.815014
481.072653	41061.140773
481.442022	41723.480332
481.811333	42194.674462
482.180584	41269.844542
482.549777	41031.029961
482.918912	40764.610021
483.287988	40711.347710
483.657005	40161.768680
484.025964	39782.920927
484.394864	39977.093570
484.763706	39752.225341
485.132489	39136.902103
485.501213	39166.506279
485.869879	39466.722114
486.238487	39249.670194
486.607036	39588.579405
486.975527	39227.111030
487.343959	39552.189836
487.712333	39775.086974
488.080648	39818.299745
488.448905	40348.823214
488.817104	40305.822171
489.185244	41295.367904
489.553326	42960.513951
489.921350	45648.646225
490.289315	48650.189555
490.657222	49399.458771
491.025070	49797.072219
491.392861	48978.169544
491.760593	47803.462231
492.128267	46249.677793
492.495883	44843.367269
492.863440	43602.179739
493.230939	42389.328535
493.598380	41428.877822
493.965763	41191.623478
494.333088	40507.438078
494.700354	40102.477149
495.067563	39896.427547
495.434713	39830.201909
495.801805	39953.488367
496.168839	39641.645111
496.535815	39377.672652
496.902733	39450.096388
497.269593	39099.617729
497.636395	39068.105476
498.003139	39500.815437
498.369825	39005.912761
498.736453	39333.542391
499.103023	38926.060884
499.469535	38834.228705
499.835989	38958.478024
500.202385	38664.258642
500.568723	38694.215698
500.935003	38904.998943
501.301226	38757.167107
501.667390	39354.382521
502.033497	39632.142536
502.399546	39100.235270
502.765537	38457.397414
503.131470	38842.899490
503.497345	39203.271414
503.863163	37916.632841
504.228923	38534.703508
504.594625	38929.004918
504.960269	38260.510109
505.325856	38938.757030
505.691385	38327.413783
506.056856	38466.761357
506.422270	38894.306656
506.787625	38493.993670
507.152924	38686.895943
507.518164	38799.459867
507.883347	38054.281547
508.248472	38315.627565
508.613540	38779.575036
508.978550	39071.288965
509.343503	38824.940379
509.708398	39020.554792
510.073236	39555.108664
510.438016	39558.324920
510.802738	39030.138026
511.167403	39633.995160
511.532010	39862.470335
511.896561	40160.921766
512.261053	40979.327887
512.625488	40550.176981
512.989866	40419.648905
513.354186	40275.653386
513.718449	40264.719123
514.082655	40944.405294
514.446803	40615.681734
514.810894	41121.135545
515.174927	41050.415718
515.538904	40962.573612
515.902822	41615.675258
516.266684	41102.077462
516.630488	41502.965140
516.994235	41377.165666
517.357925	41901.581777
517.721558	42092.775099
518.085133	42380.395611
518.448651	42499.732325
518.812112	42308.382728
519.175516	42397.774989
519.538863	42741.077566
519.902152	42698.812532
520.265385	43157.529805
520.628560	43190.950135
520.991678	42986.110410
521.354739	43222.495155
521.717743	43526.474211
522.080690	43424.723562
522.443580	43966.410666
522.806413	44027.930387
523.169189	43980.256195
523.531908	44149.054191
523.894569	44020.028379
524.257174	44181.882185
524.619722	44485.142877
524.982213	44473.374303
525.344647	44391.838681
525.707025	44441.824242
526.069345	44828.798334
526.431608	44739.683337
526.793815	45066.193831
527.155964	44601.994302
527.518057	44759.951296
527.880093	44561.448302
528.242072	45087.432212
528.603995	44785.575481
528.965860	44801.351772
529.327669	44891.303601
529.689421	44788.988342
530.051117	44745.228606
530.412755	44891.790072
530.774337	44959.119723
531.135862	44779.775634
531.497331	44971.500797
531.858743	44860.217326
532.220098	45208.987034
532.581396	44928.678715
532.942638	44592.705976
533.303824	44892.808385
533.664953	44860.502151
534.026025	44592.617756
534.387040	45047.574329
534.747999	44989.976626
535.108902	45152.326985
535.469748	44675.035580
535.830537	44788.509433
536.191270	45004.104459
536.551947	44647.513401
536.912567	44955.114526
537.273131	45060.961113
537.633638	44568.437862
537.994089	44918.082210
538.354483	44524.718455
538.714821	45086.580257
539.075103	45419.031750
539.435328	45194.624787
539.795497	45079.681438
540.155609	45079.305872
540.515665	45524.666608
540.875665	44987.773641
541.235609	45300.395756
541.595496	45282.688703
541.955328	45947.145547
542.315102	45336.470253
542.674821	45131.839736
543.034483	45173.139389
543.394090	45135.076157
543.753640	45088.566471
544.113134	46075.911740
544.472571	45108.882321
544.831953	46331.667119
545.191278	45554.963943
545.550548	45291.707327
545.909761	45744.786070
546.268918	45939.727490
546.628019	46249.181239
546.987064	45812.816442
547.346053	45096.718017
547.704986	45949.293079
548.063863	45545.315174
548.422684	45733.188896
548.781449	45597.329800
549.140158	45969.757643
549.498811	45839.456419
549.857408	45271.174708
550.215949	46104.003570
550.574434	46028.827363
550.932864	45814.981617
551.291237	46510.345776
551.649555	46127.767569
552.007817	46367.441667
552.366022	46033.800462
552.724173	46203.231122
553.082267	46585.232116
553.440305	46877.465284
553.798288	46225.697024
554.156215	46529.378652
554.514086	46735.153511
554.871902	46474.120044
555.229661	46494.554361
555.587365	46322.290573
555.945014	46414.934378
556.302606	46345.762185
556.660143	46573.188800
557.017625	46657.645771
557.375050	46461.300390
557.732421	46795.556616
558.089735	46797.187430
558.446994	46697.029785
558.804197	47161.383069
559.161345	47105.191847
559.518437	46382.721404
559.875474	46691.111470
560.232455	46847.694750
560.589381	47022.161523
560.946251	46713.612661
561.303065	47382.286430
561.659825	47194.211062
562.016528	46886.851913
562.373177	46603.803727
562.729770	47083.353569
563.086307	46591.372242
563.442789	47059.627378
563.799216	47106.817619
564.155587	46912.037517
564.511904	46932.088707
564.868164	47017.138013
565.224370	47258.851258
565.580520	47002.425406
565.936615	47225.814056
566.292654	46931.156093
566.648638	47182.351748
567.004567	47135.277453
567.360441	47171.546035
567.716260	47020.815535
568.072023	47322.500866
568.427732	47327.375662
568.783385	46862.508181
569.138982	47274.320038
569.494525	47237.532218
569.850013	46999.040271
570.205445	46970.454408
570.560823	46934.969726
570.916145	46817.490677
571.271412	46844.254163
571.626625	46599.102851
571.981782	46665.883016
572.336884	46369.523664
572.691931	46686.193825
573.046923	46286.233720
573.401860	46143.942111
573.756743	46118.932947
574.111570	46234.982829
574.466342	46078.134889
574.821059	46219.887094
575.175722	45740.584269
575.530330	45770.659792
575.884882	45500.577455
576.239380	45450.859075
576.593823	45429.340910
576.948211	45343.023753
577.302544	44894.822326
577.656823	44944.772599
578.011047	45148.503270
578.365216	44866.690167
578.719330	44676.492474
579.073389	44530.044434
579.427394	44611.383451
579.781344	44593.003404
580.135239	44243.464920
580.489080	44334.775340
580.842866	43821.903471
581.196597	44276.736535
581.550273	44222.266868
581.903895	44091.884986
582.257463	44520.607394
582.610975	43905.833641
582.964434	44178.905383
583.317837	43836.119525
583.671186	43683.491030
584.024481	43897.798042
584.377721	43443.421202
584.730906	43725.292278
585.084037	43745.955967
585.437113	43467.412053
585.790135	43510.730688
586.143103	43113.210501
586.496016	43230.192997
586.848874	43259.950928
587.201679	43275.913742
587.554428	42756.770678
587.907124	42947.777476
588.259765	42719.952610
588.612352	42971.057525
588.964884	42370.862789
589.317362	42653.938701
589.669786	42587.715583
590.022155	42372.087789
590.374470	42773.711475
590.726731	42328.275121
591.078937	41843.981553
591.431090	41938.293980
591.783188	41590.958480
592.135232	41277.010542
592.487222	41520.460464
592.839157	41607.211160
593.191038	41290.886318
593.542866	41054.521738
593.894639	40457.008896
594.246358	40742.118913
594.598022	40714.725283
594.949633	40322.692393
595.301190	40278.836875
595.652692	40122.074634
596.004141	40441.777049
596.355535	39485.691976
596.706876	39445.017426
597.058162	39270.850602
597.409395	39735.702959
597.760573	39798.770315
598.111698	39382.255060
598.462768	39396.624869
598.813785	39435.761867
599.164748	38883.591684
599.515657	39300.152308
599.866511	38770.377451
600.217312	39366.398111
600.568060	38353.663071
600.918753	39091.004918
601.269392	39043.136641
601.619978	38708.613234
601.970510	38921.677601
602.320988	39085.615924
602.671412	39399.037062
603.021783	39139.412597
603.372100	38801.683016
603.722363	38899.204137
604.072572	38967.015218
604.422728	38987.885595
604.772830	38809.960591
605.122878	38895.778673
605.472872	38840.341104
605.822813	39114.816808
606.172701	38944.783730
606.522534	39179.434318
606.872314	39432.165004
607.222041	39192.253972
607.571714	39586.222666
607.921333	39024.968323
608.270899	39318.492026
608.620411	39670.840953
608.969870	39467.311929
609.319276	39456.176020
609.668627	39503.797280
610.017926	39989.837607
610.367171	40147.131689
610.716362	40226.192105
611.065500	40195.993073
611.414585	40372.577131
611.763616	40667.623262
612.112594	40587.758782
612.461518	40804.460342
612.810389	41085.555081
613.159207	40970.016876
613.507971	41044.225181
613.856682	41497.064469
614.205340	41395.399520
614.553945	42069.706779
614.902496	41531.561085
615.250994	41988.841630
615.599439	42063.380131
615.947830	42294.068372
616.296169	42330.767972
616.644454	42465.281080
616.992686	42630.099084
617.340864	43152.937314
617.688990	42872.301321
618.037063	43474.855317
618.385082	43429.699181
618.733048	43729.249584
619.080961	43739.899021
619.428821	43762.314512
619.776628	43854.794479
620.124382	43687.826422
620.472083	43808.569619
620.819731	43919.028861
621.167326	43615.037202
621.514868	43593.196403
621.862357	43137.627330
622.209793	43170.828369
622.557176	42848.925490
622.904506	42596.819907
623.251783	42246.311001
623.599007	42031.726726
623.946179	41813.326297
624.293297	41766.509101
624.640363	41179.953207
624.987376	41162.107523
625.334336	40926.060535
625.681243	40591.879926
626.028097	40549.652701
626.374899	40395.625286
626.721647	40366.706707
627.068343	40269.059557
627.414987	40041.527078
627.761577	39795.259151
628.108115	40147.338377
628.454600	39593.192061
628.801032	39778.721646
629.147412	39753.999827
629.493739	39770.456674
629.840014	39413.240513
630.186236	39744.325853
630.532405	39362.062719
630.878521	39598.389490
631.224585	39463.919232
631.570597	39193.592398
631.916556	39334.555663
632.262462	39294.720465
632.608316	39297.102410
632.954117	39200.927277
633.299866	39184.982107
633.645562	39102.748285
633.991206	38609.153789
634.336797	38188.706435
634.682336	38183.108233
635.027823	37928.555170
635.373257	37750.057994
635.718639	37514.767180
636.063968	37389.174393
636.409245	36820.307908
636.754470	36862.940946
637.099642	36624.736345
637.444762	36170.059556
637.789829	36297.814997
638.134845	35962.900900
638.479808	35904.920069
638.824719	35822.159447
639.169577	35426.224703
639.514383	35487.293241
639.859137	35193.986307
640.203839	35433.892298
640.548489	35065.714148
640.893086	35136.592771
641.237632	34901.352368
641.582125	35014.707753
641.926566	34947.186538
642.270955	34904.810599
642.615292	34928.004948
642.959576	34907.280764
643.303809	34901.768263
643.647990	35042.257659
643.992118	35002.798027
644.336195	35026.425915
644.680219	35105.519098
645.024192	35411.232312
645.368112	35913.495072
645.711981	35923.753820
646.055797	36787.870604
646.399562	36722.181849
646.743274	37656.552152
647.086935	38099.959442
647.430544	37980.683221
647.774101	38106.384392
648.117606	38345.655198
648.461059	38641.830548
648.804460	38255.867207
649.147810	37660.348141
649.491108	37391.846205
649.834354	37042.625313
650.177548	36211.928859
650.520690	35773.676150
650.863781	35779.032376
651.206820	35636.002238
651.549807	35200.958223
651.892742	34719.601127
652.235626	34523.263308
652.578458	34408.531688
652.921238	33809.388033
653.263967	34139.369361
653.606644	33818.555371
653.949269	33770.417393
654.291843	33382.377096
654.634365	33782.518683
654.976836	33380.158989
655.319255	33372.685478
655.661622	33383.105543
656.003938	33146.574605
656.346203	33015.234903
656.688416	33228.732809
657.030577	33045.509552
657.372687	32875.796587
657.714746	33137.702174
658.056753	33257.152314
658.398708	32719.011662
658.740612	32784.125725
659.082465	33046.711867
659.424266	32880.857906
659.766016	33004.288037
660.107715	32873.316340
660.449362	33009.407329
660.790958	32965.783704
661.132503	33012.369007
661.473996	33028.498179
661.815438	33149.868999
662.156829	33334.793645
662.498168	33114.434728
662.839456	33135.350476
663.180693	33288.430153
663.521879	33437.940694
663.863013	33397.092224
664.204097	33392.615680
664.545129	33856.485013
664.886110	33823.334385
665.227040	33882.227665
665.567918	34010.446892
665.908746	34064.810695
666.249522	34237.359309
666.590248	34224.416147
666.930922	34352.191753
667.271545	34305.777849
667.612118	34397.315121
667.952639	34179.380999
668.293109	34242.002212
668.633528	34120.638954
668.973896	34047.015422
669.314213	34081.257460
669.654480	33827.727751
669.994695	33845.359186
670.334859	33751.417284
670.674973	33635.904285
671.015035	33794.569561
671.355047	33753.630351
671.695008	33703.667475
672.034918	33591.852162
672.374777	33678.640667
672.714585	33522.266595
673.054342	33754.018520
673.394049	33513.636140
673.733705	33783.809218
674.073310	33464.149653
674.412864	33516.701161
674.752368	33116.080665
675.091820	33421.370421
675.431223	32995.234125
675.770574	32709.254508
676.109875	32588.934769
676.449125	32312.566112
676.788324	32241.493405
677.127473	31699.707998
677.466571	31624.075567
677.805619	31296.423252
678.144616	31277.488678
678.483562	31204.071834
678.822458	30876.734592
679.161303	30809.016772
679.500098	30717.839943
679.838842	30603.642685
680.177535	30769.847007
680.516179	31037.020599
680.854771	31281.451025
681.193314	32143.236275
681.531805	33267.186731
681.870247	34043.985689
682.208638	34777.380312
682.546978	35004.053274
682.885268	35074.090025
683.223508	34554.952002
683.561697	34217.416505
683.899836	34030.283833
684.237925	33531.444016
684.575963	33371.957031
684.913951	32923.559000
685.251889	33079.411312
685.589776	33068.247677
685.927614	33056.600091
686.265401	33200.809858
686.603137	33304.808862
686.940824	33809.463650
687.278460	34197.708114
687.616046	34322.665715
687.953582	34943.337617
688.291068	34812.272658
688.628504	35081.503041
688.965889	35014.720356
689.303224	34618.946929
689.640510	34292.806960
689.977745	33544.102353
690.314930	32752.245468
690.652065	32228.542681
690.989150	31482.898053
691.326185	30579.624107
691.663170	29890.062317
692.000105	29126.972777
692.336990	28456.940416
692.673825	27999.906888
693.010610	27483.574267
693.347345	26907.975321
693.684030	26265.392043
694.020665	25995.108059
694.357251	25321.435985
694.693786	25279.395283
695.030272	25040.401741
695.366707	24507.677808
695.703093	24225.534509
696.039429	24200.454769
696.375716	23940.943731
696.711952	23914.949021
697.048139	23755.951029
697.384276	23588.226799
697.720363	23702.292987
698.056400	23495.817408
698.392388	23280.817237
698.728326	23252.241457
699.064214	23041.833778
699.400053	22973.216112
699.735842	22627.980253
700.071581	22350.747038
700.407270	22068.394532
700.742910	21881.576932
701.078501	21605.946804
701.414042	21318.958957
701.749533	21037.796163
702.084974	20684.728871
702.420366	20884.081300
702.755709	20449.420412
703.091002	20162.601444
703.426246	20179.885040
703.761440	20068.755324
704.096584	19805.468461
704.431679	19761.262583
704.766725	19671.940899
705.101721	19615.820253
705.436668	19704.448779
705.771565	19384.396004
706.106413	19725.971986
706.441212	19702.475168
706.775961	19839.803760
707.110661	19903.871784
707.445311	20263.512741
707.779913	20111.642940
708.114465	20348.562047
708.448967	20641.896707
708.783421	21328.897592
709.117825	21604.295826
709.452180	21824.387562
709.786485	22212.944577
710.120742	23026.919524
710.454949	23041.622049
710.789107	23507.054140
711.123216	24206.756211
711.457275	24317.495238
711.791286	24870.819846
712.125247	24930.370996
712.459159	24628.531910
712.793023	25280.882423
713.126837	24184.620505
713.460602	24428.304841
713.794318	24050.490524
714.127985	23660.101050
714.461602	22774.786214
714.795171	22720.165313
715.128691	21729.172769
715.462162	21179.389572
715.795584	20751.284705
716.128957	20495.307515
716.462281	20086.696790
716.795556	19857.052068
717.128782	19372.004848
717.461960	18821.163008
717.795088	18741.379187
718.128167	18339.334565
718.461198	17890.757572
718.794180	17740.664778
719.127113	17378.730096
719.459997	17184.973348
719.792833	16840.269331
720.125619	16810.836554
720.458357	16499.033627
720.791046	16327.362174
721.123686	16173.818710
721.456278	15934.610919
721.788821	15891.274640
722.121315	15637.674354
722.453761	15711.149172
722.786158	15635.146216
723.118506	15641.780374
723.450805	15509.132493
723.783056	15668.846329
724.115259	15572.424179
724.447412	15499.937428
724.779518	15753.497384
725.111574	15769.404745
725.443582	15966.902030
725.775542	15949.439473
726.107453	16419.769044
726.439315	16298.239428
726.771129	16697.755911
727.102895	17068.545380
727.434612	17268.046522
727.766281	17389.797950
728.097901	17657.664700
728.429473	17682.802414
728.760996	17670.529725
729.092471	17749.350686
729.423897	17626.149927
729.755276	17486.414184
730.086606	17600.394672
730.417887	18127.583418
730.749120	18649.746133
731.080305	18817.125044
731.411442	19149.977309
731.742530	19227.243074
732.073570	19325.580862
732.404562	19598.874415
732.735506	19417.569317
733.066401	19128.706160
733.397249	18614.919322
733.728048	17979.217219
734.058798	17139.814692
734.389501	16467.937269
734.720156	16007.659758
735.050762	15486.830428
735.381320	15141.599610
735.711831	14896.791097
736.042293	14553.085228
736.372707	14560.891454
736.703073	14351.343292
737.033391	14539.491756
737.363661	14507.508156
737.693883	14616.765083
738.024056	14785.774807
738.354182	14967.944463
738.684260	15250.854017
739.014290	15482.641229
739.344272	15659.694114
739.674207	15940.630056
740.004093	16054.751697
740.333931	16046.746345
740.663722	16074.860860
740.993464	16066.933645
741.323159	15897.409724
741.652806	15622.228259
741.982405	15405.289765
742.311956	15061.772939
742.641460	14946.053252
742.970915	14643.609227
743.300323	14318.764835
743.629683	14104.324233
743.958996	13827.612778
744.288260	13548.864696
744.617477	13255.898041
744.946647	13185.999922
745.275768	12911.390628
745.604842	12726.778533
745.933869	12557.123541
746.262847	12515.755833
746.591778	12438.540479
746.920662	12338.995335
747.249498	12335.406033
747.578286	12454.339456
747.907027	12604.522990
748.235720	12815.906133
748.564365	12842.099968
748.892963	12755.634098
749.221514	12808.188126
749.550017	12662.536589
749.878473	12624.460754
750.206881	12408.444791
750.535242	12311.468114
750.863555	12228.828479
751.191821	12134.395065
751.520039	12155.910710
751.848210	12056.897407
752.176334	12088.414701
752.504411	11991.856440
752.832440	11842.350940
753.160421	11907.162535
753.488356	11779.467587
753.816243	11692.311078
754.144082	11545.847915
754.471875	11496.989052
754.799620	11439.073756
755.127318	11406.018910
755.454969	11373.395083
755.782572	11324.962198
756.110129	11336.256903
756.437638	11250.781619
756.765100	11249.796073
757.092515	11241.281564
757.419882	11264.100347
757.747203	11274.759867
758.074477	11346.162770
758.401703	11300.666357
758.728882	11467.377314
759.056014	11500.164979
759.383099	11618.478339
759.710138	11723.677138
760.037129	11806.195785
760.364073	11826.720843
760.690970	11805.459777
761.017820	11805.116978
761.344623	11982.963845
761.671379	12304.733133
761.998088	12930.095829
762.324751	14473.296365
762.651366	17328.331161
762.977935	20978.066052
763.304456	23199.387479
763.630931	23662.180526
763.957359	22487.274087
764.283740	20583.691545
764.610074	18701.148258
764.936362	16588.264570
765.262602	15081.015023
765.588796	13615.705355
765.914943	12587.816607
766.241044	11745.051630
766.567097	11113.483273
766.893104	10574.851108
767.219064	10207.668586
767.544978	9832.213529
767.870845	9525.194657
768.196665	9337.124331
768.522438	9137.708888
768.848165	8975.837438
769.173846	8812.113363
769.499479	8682.674177
769.825066	8528.198099
770.150607	8348.105399
770.476101	8289.522150
770.801548	8182.359822
771.126949	8038.379427
771.452303	7951.374153
771.777611	7786.326776
772.102872	7762.119155
772.428087	7650.344172
772.753256	7523.924636
773.078378	7435.706964
773.403453	7296.853423
773.728482	7194.094543
774.053465	7128.335211
774.378401	7042.549896
774.703291	6951.241997
775.028135	6858.688933
775.352932	6816.111348
775.677683	6737.486992
776.002388	6649.097921
776.327046	6648.868548
776.651658	6561.313788
776.976224	6485.474670
777.300743	6473.154090
777.625216	6405.595067
777.949643	6361.275763
778.274024	6367.181474
778.598359	6300.673532
778.922647	6306.402803
779.246889	6257.816162
779.571086	6267.810250
779.895236	6279.931704
780.219339	6282.177538
780.543397	6272.964830
780.867409	6324.397202
781.191374	6321.201110
781.515294	6287.858919
781.839167	6337.360529
782.162995	6310.712990
782.486776	6262.983345
782.810511	6223.632098
783.134201	6147.364482
783.457844	6141.524305
783.781441	6089.033290
784.104993	6045.802876
784.428498	6014.111662
784.751958	5997.942161
785.075372	5974.664633
785.398739	5931.161996
785.722061	5958.961439
786.045337	5958.139731
786.368568	6066.390948
786.691752	6088.337611
787.014891	6333.312482
787.337983	6615.181038
787.661030	7052.677574
787.984031	7468.043446
788.306987	7736.174857
788.629897	7819.961354
788.952760	7743.234993
789.275579	7555.099131
789.598351	7265.424349
789.921078	7000.983062
790.243759	6716.399845
790.566395	6514.146232
790.888984	6319.968548
791.211529	6182.241704
791.534027	6021.751531
791.856480	5883.704574
792.178888	5826.305996
792.501249	5758.517600
792.823566	5658.753166
793.145836	5651.103215
793.468062	5634.351460
793.790241	5592.792188
794.112375	5637.340865
794.434464	5730.617334
794.756507	5761.915338
795.078505	5882.721549
795.400457	6102.682214
795.722364	6336.448080
796.044226	6529.171392
796.366042	6685.762233
796.687812	6630.180991
797.009538	6659.805332
797.331218	6568.908287
797.652852	6501.268605
797.974442	6382.045317
798.295986	6311.648124
798.617484	6184.558115
798.938938	6073.156176
799.260346	6007.946331
799.581709	5868.013982
799.903026	5818.419111
800.224299	5745.289612
800.545526	5628.909535
800.866708	5562.048711
801.187845	5515.586917
801.508936	5439.556235
801.829983	5410.909878
802.150984	5304.218898
802.471940	5279.290392
802.792851	5263.073000
803.113717	5230.270212
803.434538	5215.466864
803.755314	5182.406977
804.076045	5171.197971
804.396731	5135.751098
804.717372	5152.034025
805.037967	5156.054345
805.358518	5182.628788
805.679024	5245.738993
805.999485	5251.735445
806.319901	5268.225059
806.640272	5283.668634
806.960598	5334.163352
807.280879	5323.072813
807.601115	5362.711406
807.921306	5324.953164
808.241453	5319.785981
808.561554	5333.785265
808.881611	5295.616169
809.201623	5288.298934
809.521590	5241.471656
809.841513	5222.015323
810.161390	5240.743209
810.481223	5157.753214
810.801011	5138.667406
811.120755	5116.902224
811.440453	5061.464655
811.760107	5039.797776
812.079716	5006.843753
812.399281	4959.527483
812.718801	4952.716884
813.038276	4918.361421
813.357707	4882.889342
813.677093	4909.075615
813.996434	4845.713353
814.315731	4862.606259
814.634983	4864.625241
814.954191	4870.304101
815.273354	4923.765538
815.592473	4967.401765
815.911547	5042.194844
816.230577	5092.210652
816.549562	5176.196275
816.868502	5233.231890
817.187399	5288.440086
817.506250	5366.590574
817.825058	5393.981683
818.143821	5549.856681
818.462539	5715.274582
818.781213	5938.189364
819.099843	6305.495395
819.418429	6932.987979
819.736970	7543.380969
820.055466	8247.302487
820.373919	9163.902723
820.692327	10610.131623
821.010691	13282.538018
821.329011	19470.511514
821.647286	29007.220167
821.965517	39330.946197
822.283704	44805.709850
822.601847	46285.820345
822.919945	41711.946173
823.237999	36600.541327
823.556010	31419.470256
823.873976	26708.897635
824.191897	22523.540148
824.509775	19455.072981
824.827609	16697.987804
825.145398	15140.296472
825.463144	14392.501793
825.780845	14682.421071
826.098502	15931.603870
826.416116	18385.680412
826.733685	20666.923516
827.051210	21203.551822
827.368692	19779.241858
827.686129	17220.324440
828.003522	14742.667900
828.320872	12535.807022
828.638177	10891.475899
828.955439	9645.466506
829.272656	8592.860980
829.589830	7748.424861
829.906960	7024.507607
830.224046	6493.066648
830.541088	6086.646304
830.858086	5829.776830
831.175041	5624.251509
831.491952	5568.387962
831.808819	5600.984063
832.125642	5840.595147
832.442421	6391.313478
832.759157	7492.593865
833.075849	9252.788348
833.392497	11092.081055
833.709101	12217.919422
834.025662	11965.163530
834.342179	10915.343242
834.658653	9616.704202
834.975083	8513.979525
835.291469	7608.111905
835.607811	6878.223404
835.924110	6359.138313
836.240366	5869.549014
836.556578	5415.734262
836.872746	5068.328186
837.188871	4801.363802
837.504952	4574.708484
837.820990	4411.148247
838.136984	4295.852018
838.452935	4245.359821
838.768842	4277.671096
839.084706	4554.861461
839.400526	5293.899656
839.716303	6191.991296
840.032037	6758.410301
840.347727	6614.893692
840.663373	6023.599113
840.978977	5442.316266
841.294537	5000.900233
841.610054	4672.025438
841.925527	4435.081125
842.240957	4226.904156
842.556344	4046.211558
842.871687	3886.825397
843.186987	3736.820823
843.502244	3618.938482
843.817458	3536.810524
844.132629	3462.088021
844.447756	3414.307965
844.762840	3369.235008
845.077881	3334.687981
845.392879	3297.670788
845.707833	3272.724639
846.022745	3246.634147
846.337613	3235.588979
846.652438	3213.324723
846.967221	3202.438351
847.281960	3182.344312
847.596656	3171.205882
847.911309	3164.049965
848.225919	3148.576143
848.540485	3135.915285
848.855009	3133.417393
849.169490	3116.010289
849.483928	3114.036677
849.798323	3108.209103
850.112675	3096.551435
850.426984	3098.802310
850.741251	3091.520364
851.055474	3087.182451
851.369654	3088.180599
851.683792	3087.784869
851.997887	3088.246134
852.311938	3089.975250
852.625947	3090.265116
852.939914	3082.857141
853.253837	3087.555496
853.567718	3085.639858
853.881555	3078.456213
854.195350	3086.154055
854.509103	3081.122984
854.822812	3082.952923
855.136479	3073.967066
855.450103	3077.601738
855.763685	3071.229719
856.077224	3079.444280
856.390720	3082.776482
856.704173	3095.765015
857.017584	3099.447578
857.330953	3103.697271
857.644278	3109.965946
857.957561	3117.386524
858.270802	3109.197170
858.584000	3111.274125
858.897155	3107.689865
859.210268	3096.170828
859.523339	3084.308993
859.836367	3081.274218
860.149352	3078.395720
860.462295	3071.990934
860.775195	3063.851991
861.088054	3057.122050
861.400869	3057.968964
861.713642	3057.117009
862.026373	3067.161508
862.339062	3069.072106
862.651708	3077.258939
862.964312	3094.716455
863.276873	3105.917899
863.589392	3132.734317
863.901869	3160.253976
864.214303	3183.191226
864.526696	3200.290820
864.839045	3215.941082
865.151353	3227.487845
865.463619	3228.296950
865.775842	3229.910119
866.088023	3234.787435
866.400162	3228.591857
866.712258	3229.786611
867.024313	3225.955334
867.336325	3225.448698
867.648296	3231.813155
867.960224	3227.240828
868.272110	3229.703432
868.583954	3231.979513
868.895755	3235.848598
869.207515	3235.278948
869.519233	3253.437184
869.830909	3258.233842
870.142542	3268.961417
870.454134	3278.335443
870.765684	3290.318266
871.077191	3311.052531
871.388657	3318.697441
871.700081	3337.034638
872.011463	3356.546424
872.322803	3379.173643
872.634101	3395.015469
872.945357	3416.919283
873.256571	3443.488684
873.567744	3457.679532
873.878874	3464.916108
874.189963	3480.641988
874.501010	3481.587204
874.812015	3478.638129
875.122979	3492.879389
875.433900	3489.355622
875.744780	3493.224708
876.055618	3499.553877
876.366415	3502.697036
876.677169	3504.617716
876.987882	3523.365767
877.298554	3542.161709
877.609183	3582.372472
877.919771	3627.722692
878.230317	3695.344730
878.540822	3797.723003
878.851285	3952.483906
879.161707	4172.626053
879.472087	4545.676479
879.782425	5169.945245
880.092722	6354.066913
880.402977	8278.781972
880.713191	10653.046966
881.023363	13039.272098
881.333494	14386.336461
881.643583	14840.541902
881.953631	14444.662611
882.263637	13598.265483
882.573602	12561.060682
882.883526	11609.253028
883.193408	10650.513786
883.503248	9733.278365
883.813048	8901.001509
884.122806	8137.458265
884.432522	7374.441822
884.742197	6711.005811
885.051831	6152.342621
885.361424	5654.987424
885.670975	5258.084778
885.980485	4932.486734
886.289954	4666.200385
886.599382	4449.415646
886.908768	4268.634828
887.218113	4104.189869
887.527417	3974.264211
887.836680	3850.488760
888.145901	3752.085437
888.455082	3671.563087
888.764221	3605.274434
889.073319	3545.567008
889.382376	3510.939323
889.691392	3489.373266
890.000366	3483.883450
890.309300	3475.011019
890.618193	3481.146103
890.927044	3474.398519
891.235855	3479.837924
891.544625	3493.456601
891.853353	3522.959954
892.162041	3582.785847
892.470687	3673.050227
892.779293	3794.126140
893.087858	3966.939414
893.396381	4244.457454
893.704864	4656.914579
894.013306	5228.762907
894.321707	5796.416995
894.630068	6158.281100
894.938387	6198.461617
895.246665	6022.706829
895.554903	5705.983736
895.863100	5368.780955
896.171256	5097.597125
896.479371	4854.091750
896.787446	4630.077997
897.095480	4431.391000
897.403473	4283.912045
897.711425	4137.479128
898.019336	4015.377341
898.327207	3892.592477
898.635038	3790.393165
898.942827	3684.299562
899.250576	3600.016511
899.558284	3518.838811
899.865952	3461.304122
900.173579	3398.324987
900.481165	3351.948892
900.788711	3311.274342
901.096216	3276.543313
901.403681	3248.499374
901.711105	3236.796335
902.018489	3236.151067
902.325832	3268.769853
902.633135	3323.741116
902.940397	3496.899709
903.247619	3894.596336
903.554800	4652.553981
903.861941	5615.621053
904.169041	6321.339742
904.476101	6535.082144
904.783121	6262.365804
905.090100	5859.549885
905.397039	5443.264003
905.703938	5086.040280
906.010796	4762.370477
906.317614	4507.227598
906.624391	4267.341772
906.931129	4073.756423
907.237826	3894.903846
907.544483	3720.663925
907.851099	3550.708985
908.157675	3389.167731
908.464211	3249.190012
908.770707	3147.961122
909.077163	3069.775347
909.383578	3004.809997
909.689954	2960.538584
909.996289	2931.196548
910.302584	2909.935482
910.608839	2901.920047
910.915054	2890.872358
911.221229	2884.104609
911.527363	2888.213150
911.833458	2892.871176
912.139513	2905.060686
912.445527	2919.062491
912.751502	2954.340485
913.057436	2999.804131
913.363331	3057.328738
913.669186	3144.603714
913.975000	3260.688884
914.280775	3446.243675
914.586510	3717.067062
914.892205	4088.393413
915.197859	4587.182819
915.503475	5173.534546
915.809050	5671.968550
916.114585	5963.720288
916.420081	6029.908118
916.725536	5964.110978
917.030952	5731.696141
917.336328	5518.878790
917.641665	5309.928005
917.946961	5077.440072
918.252218	4880.199886
918.557435	4647.593486
918.862612	4449.589566
919.167750	4283.118063
919.472848	4090.475410
919.777906	3921.690017
920.082925	3761.928290
920.387904	3612.379941
920.692843	3498.969103
920.997743	3396.532857
921.302603	3299.863690
921.607423	3237.018146
921.912204	3169.580110
922.216946	3125.129736
922.521647	3072.701736
922.826310	3032.133051
923.130932	2994.049654
923.435516	2955.525156
923.740059	2927.130857
924.044564	2899.497773
924.349028	2870.334698
924.653454	2843.805625
924.957840	2814.733291
925.262186	2795.604633
925.566493	2774.172167
925.870761	2750.148549
926.174989	2742.191087
926.479178	2725.308263
926.783328	2707.150027
927.087438	2697.080322
927.391509	2685.694876
927.695541	2671.607372
927.999533	2661.149498
928.303486	2653.580206
928.607400	2646.883033
928.911275	2642.943371
929.215110	2635.399284
929.518906	2632.687143
929.822663	2633.221506
930.126381	2632.419962
930.430060	2634.885087
930.733699	2635.197638
931.037299	2639.351549
931.340861	2637.214100
931.644383	2643.497898
931.947866	2643.540748
932.251309	2640.430356
932.554714	2639.343987
932.858080	2636.324336
933.161407	2631.431896
933.464694	2626.544497
933.767943	2626.322687
934.071153	2625.125413
934.374323	2617.772890
934.677455	2616.905811
934.980548	2612.509925
935.283602	2608.996241
935.586617	2606.289141
935.889593	2614.037395
936.192530	2611.811725
936.495428	2615.857251
936.798287	2628.003912
937.101108	2638.514717
937.403890	2663.337359
937.706632	2689.158149
938.009336	2722.671740
938.312002	2752.391862
938.614628	2776.904473
938.917216	2795.753347
939.219765	2803.340283
939.522275	2814.458548
939.824747	2815.610452
940.127179	2810.171047
940.429573	2803.829275
940.731929	2800.305509
941.034246	2793.378963
941.336524	2794.709828
941.638763	2783.894032
941.940964	2778.986469
942.243126	2760.193048
942.545250	2751.663415
942.847335	2734.767988
943.149381	2722.560834
943.451389	2708.543906
943.753359	2698.519572
944.055290	2687.270237
944.357182	2677.689524
944.659036	2676.010820
944.960851	2670.720129
945.262628	2664.819458
945.564367	2664.355672
945.866067	2666.016732
946.167729	2665.376506
946.469352	2662.666885
946.770937	2660.786535
947.072484	2653.852428
947.373992	2653.885195
947.675462	2650.714310
947.976893	2644.478402
948.278286	2643.523104
948.579641	2637.148565
948.880958	2636.266363
949.182236	2637.221661
949.483476	2630.703449
949.784678	2631.562966
950.085841	2631.948614
950.386967	2637.604789
950.688054	2640.901704
950.989103	2648.745739
951.290114	2656.244455
951.591087	2672.754234
951.892021	2680.341171
952.192917	2696.719880
952.493776	2702.612988
952.794596	2706.688761
953.095378	2710.688917
953.396122	2707.994420
953.696828	2702.355890
953.997496	2701.413194
954.298126	2690.151256
954.598718	2682.546676
954.899272	2671.224244
955.199788	2660.857111
955.500266	2647.417395
955.800706	2633.856691
956.101108	2615.892539
956.401472	2605.298555
956.701798	2593.013263
957.002087	2572.969635
957.302337	2566.600137
957.602550	2556.550597
957.902724	2545.407126
958.202861	2536.322967
958.502960	2525.605474
958.803022	2521.605318
959.103045	2510.802126
959.403031	2507.527896
959.702979	2500.941629
960.002889	2497.601864
960.302762	2489.964516
960.602596	2485.999649
960.902393	2483.526963
961.202153	2480.769452
961.501875	2478.929431
961.801559	2475.539255
962.101205	2474.417598
962.400814	2473.842906
962.700385	2468.917699
962.999918	2468.915178
963.299414	2466.944087
963.598873	2468.489201
963.898293	2462.308746
964.197677	2462.517954
964.497022	2461.991154
964.796331	2457.864969
965.095601	2461.229939
965.394835	2459.011832
965.694030	2459.626852
965.993189	2460.254476
966.292309	2455.001594
966.591393	2457.101234
966.890439	2454.285750
967.189447	2455.233487
967.488419	2454.442026
967.787353	2454.618466
968.086249	2457.524691
968.385108	2456.597119
968.683930	2459.241204
968.982714	2458.469908
969.281462	2459.299178
969.580172	2463.175825
969.878844	2462.984261
970.177480	2467.453244
970.476078	2470.525827
970.774639	2474.929275
971.073162	2477.283494
971.371649	2477.628813
971.670098	2473.938688
971.968510	2479.567137
972.266885	2480.038484
972.565223	2482.947230
972.863524	2483.557210
973.161788	2485.147694
973.460014	2486.191213
973.758204	2488.187510
974.056356	2488.184989
974.354471	2486.937303
974.652550	2488.805051
974.950591	2486.864207
975.248595	2487.159114
975.546563	2486.470997
975.844493	2483.872282
976.142386	2482.145687
976.440243	2477.437249
976.738062	2479.831797
977.035845	2478.720223
977.333590	2473.011116
977.631299	2471.249233
977.928971	2470.079685
978.226606	2469.210086
978.524204	2467.644808
978.821765	2464.927626
979.119290	2465.688840
979.416777	2463.473253
979.714228	2464.007615
980.011642	2466.039200
980.309020	2470.334263
980.606360	2473.626137
980.903664	2483.786582
981.200931	2496.265959
981.498162	2517.280008
981.795356	2545.918803
982.092513	2583.959350
982.389633	2628.883593
982.686717	2671.350273
982.983764	2700.944367
983.280775	2719.901626
983.577749	2718.837942
983.874686	2713.048177
984.171587	2692.507996
984.468451	2679.413598
984.765279	2662.561021
985.062070	2644.801036
985.358824	2625.775722
985.655543	2601.031218
985.952224	2580.962384
986.248869	2550.917108
986.545478	2524.647655
986.842050	2505.675272
987.138586	2485.339258
987.435086	2472.945581
987.731549	2462.049127
988.027975	2455.180555
988.324366	2450.948506
988.620719	2444.120263
988.917037	2442.638164
989.213318	2439.018616
989.509563	2436.954263
989.805772	2439.091712
990.101944	2434.257246
990.398080	2434.045517
990.694180	2435.991403
990.990244	2432.318922
991.286271	2432.865887
991.582262	2435.232709
991.878217	2433.632143
992.174136	2436.140117
992.470019	2437.380241
992.765865	2439.169850
993.061676	2438.602720
993.357450	2443.691765
993.653188	2445.269646
993.948890	2450.237703
994.244556	2455.692232
994.540186	2469.205045
994.835780	2477.860706
995.131337	2491.325628
995.426859	2508.543689
995.722345	2527.989940
996.017795	2545.139945
996.313208	2561.372461
996.608586	2568.793039
996.903928	2574.154306
997.199234	2574.759245
997.494504	2574.424008
997.789738	2562.025290
998.084936	2554.758467
998.380099	2539.866898
998.675225	2528.615043
998.970316	2517.133815
999.265371	2501.896928
999.560390	2488.830257
999.855373	2478.760552
1000.150320	2469.187401
1000.445232	2459.069805
1000.740108	2450.719134
1001.034948	2448.211160
1001.329752	2442.885181
1001.624521	2438.101126
1001.919254	2431.441761
1002.213951	2429.200968
1002.508613	2425.208375
1002.803239	2426.410690
1003.097829	2419.774011
1003.392384	2426.304826
1003.686903	2420.825091
1003.981386	2420.298291
1004.275834	2418.564134
1004.570246	2418.823753
1004.864623	2416.507343
1005.158964	2415.758732
1005.453270	2416.610687
1005.747540	2417.480286
1006.041775	2416.497261
1006.335974	2417.460121
1006.630138	2413.540624
1006.924266	2418.672519
1007.218359	2411.110788
1007.512416	2412.076169
1007.806438	2411.004924
1008.100425	2412.348391
1008.394376	2412.814698
1008.688292	2413.404513
1008.982172	2411.095664
1009.276017	2413.810326
1009.569827	2412.665984
1009.863602	2410.309244
1010.157341	2411.234296
1010.451045	2411.163720
1010.744714	2411.327557
1011.038347	2410.735222
1011.331945	2408.945612
1011.625508	2409.991652
1011.919036	2406.515776
1012.212528	2410.488205
1012.505986	2409.084244
1012.799408	2410.813360
1013.092795	2411.498957
1013.386147	2407.531569
1013.679464	2408.459141
1013.972745	2405.580642
1014.265992	2405.648698
1014.559204	2407.576939
1014.852380	2409.084244
1015.145521	2408.789337
1015.438628	2405.111815
1015.731699	2407.899573
1016.024736	2409.119532
1016.317737	2409.313617
1016.610703	2410.488205
1016.903635	2408.617937
1017.196531	2404.796743
1017.489393	2407.231620
1017.782219	2406.062072
1018.075011	2409.454769
1018.367768	2410.906621
1018.660490	2411.541807
1018.953177	2411.541807
1019.245829	2411.541807
