Dividing Wavelength (nm)	Counts (n)	Blue Motor Position (mm): 21.000000	Red Motor Position (mm): 0.000000	
326.493990	1973.384879
326.888308	1973.384879
327.282561	1973.384879
327.676750	1950.296394
328.070874	1952.645572
328.464933	1955.650100
328.858929	1964.794753
329.252859	1979.625827
329.646726	1990.008084
330.040528	2007.422750
330.434265	2027.902437
330.827938	2046.882381
331.221547	2064.544064
331.615091	2086.624318
332.008571	2107.945878
332.401986	2128.110493
332.795338	2148.965747
333.188625	2167.789415
333.581847	2188.218691
333.975006	2206.361804
334.368100	2223.842005
334.761129	2238.370610
335.154095	2253.519278
335.546996	2290.680143
335.939833	2354.675071
336.332606	2369.922040
336.725315	2379.810264
337.117960	2389.035575
337.510540	2395.853736
337.903056	2405.351270
338.295508	2410.969636
338.687896	2421.518250
339.080220	2428.850608
339.472480	2431.353541
339.864676	2434.917637
340.256807	2440.415015
340.648875	2438.537185
341.040879	2442.764193
341.432818	2443.873247
341.824694	2443.578339
342.216506	2441.761003
342.608253	2445.430963
342.999937	2439.857968
343.391557	2442.260077
343.783113	2439.497525
344.174605	2440.193204
344.566033	2434.816814
344.957397	2436.422421
345.348697	2434.663059
345.739934	2434.030394
346.131106	2428.974117
346.522215	2428.815320
346.913260	2425.132757
347.304241	2427.053437
347.695159	2426.007397
348.086012	2423.028076
348.476802	2419.763928
348.867528	2417.928948
349.258191	2415.272260
349.648789	2417.049267
350.039324	2415.317631
350.429796	2414.863927
350.820203	2413.669173
351.210548	2415.660429
351.600828	2411.788823
351.991045	2412.555078
352.381198	2409.883267
352.771288	2414.654719
353.161314	2409.205232
353.551276	2409.600962
353.941175	2409.479975
354.331010	2409.752197
354.720782	2415.844431
355.110490	2412.928124
355.500135	2413.084400
355.889717	2410.009296
356.279235	2412.333268
356.668689	2409.900911
357.058080	2412.126580
357.447408	2411.080541
357.836672	2411.705644
358.225873	2413.036509
358.615010	2413.754873
359.004084	2414.848803
359.393095	2416.192271
359.782043	2418.871644
360.170927	2414.253947
360.559748	2417.545821
360.948505	2418.160842
361.337199	2419.121181
361.725830	2420.285688
362.114398	2420.076480
362.502903	2420.522622
362.891344	2421.354413
363.279722	2417.966757
363.668037	2421.835843
364.056289	2419.668147
364.444478	2422.463466
364.832603	2423.353230
365.220665	2419.620256
365.608665	2423.822057
365.996601	2422.881882
366.384474	2422.415575
366.772284	2425.891451
367.160031	2424.222829
367.547715	2426.012439
367.935336	2424.512695
368.322893	2427.613005
368.710388	2425.662078
369.097820	2425.316759
369.485189	2428.283478
369.872495	2425.800710
370.259738	2427.847419
370.646918	2430.466298
371.034035	2429.609302
371.421090	2427.194589
371.808081	2430.211720
372.195010	2427.822213
372.581875	2431.310691
372.968678	2429.805907
373.355418	2428.878335
373.742096	2429.450506
374.128710	2430.030238
374.515262	2428.633839
374.901751	2431.124169
375.288177	2430.478901
375.674540	2429.760537
376.060841	2433.301947
376.447079	2429.793304
376.833254	2432.752461
377.219367	2425.457912
377.605417	2431.144333
377.991404	2429.110228
378.377329	2431.628284
378.763191	2429.488314
379.148991	2435.588110
379.534727	2437.264294
379.920402	2435.101639
380.306013	2433.987544
380.691563	2436.019129
381.077049	2433.735486
381.462474	2435.756989
381.847835	2437.667586
382.233134	2437.160950
382.618371	2436.230858
383.003545	2435.661207
383.388657	2438.300251
383.773706	2438.174222
384.158693	2438.196908
384.543618	2438.043152
384.928480	2439.358893
385.313280	2440.349480
385.698017	2440.432659
386.082692	2442.116405
386.467305	2440.561209
386.851856	2441.335026
387.236344	2440.152875
387.620770	2443.134718
388.005133	2441.244285
388.389435	2443.031374
388.773674	2440.112546
389.157851	2445.020109
389.541965	2443.679162
389.926018	2439.661363
390.310008	2441.829059
390.693936	2441.695468
391.077802	2441.849223
391.461606	2443.598504
391.845348	2442.741508
392.229027	2447.603701
392.612645	2443.739656
392.996200	2443.336364
393.379694	2448.306942
393.763125	2445.171344
394.146494	2447.485233
394.529801	2447.575974
394.913047	2446.688731
395.296230	2446.587908
395.679351	2446.887857
396.062410	2448.213680
396.445408	2450.550255
396.828343	2447.651592
397.211217	2446.655964
397.594028	2446.739143
397.976778	2444.916766
398.359466	2446.812239
398.742092	2442.590273
399.124656	2448.964812
399.507158	2450.827518
399.889598	2448.296859
400.271977	2449.872220
400.654294	2453.401027
401.036549	2449.768876
401.418742	2450.217539
401.800874	2454.212653
402.182944	2451.669391
402.564952	2451.210646
402.946898	2447.833073
403.328783	2451.946655
403.710606	2450.499843
404.092367	2452.619649
404.474067	2452.775924
404.855705	2453.206943
405.237282	2454.686522
405.618797	2452.657457
406.000250	2451.462704
406.381642	2456.602160
406.762972	2458.464867
407.144240	2452.778445
407.525447	2457.668364
407.906593	2453.824484
408.287677	2456.282047
408.668700	2454.895730
409.049661	2452.665019
409.430560	2459.795731
409.811399	2456.980247
410.192176	2456.619804
410.572891	2461.197172
410.953545	2455.460339
411.334138	2457.358333
411.714669	2456.826492
412.095139	2460.672892
412.475547	2456.657613
412.855894	2456.909671
413.236180	2456.206430
413.616405	2461.963427
413.996568	2456.622325
414.376670	2462.396967
414.756711	2458.878241
415.136691	2460.496452
415.516609	2461.822275
415.896466	2460.342696
416.276262	2463.367389
416.655997	2459.221040
417.035670	2457.401183
417.415283	2461.691205
417.794834	2456.443364
418.174324	2463.523664
418.553753	2465.131793
418.933121	2463.979889
419.312428	2460.216668
419.691674	2465.242698
420.070859	2463.929477
420.449983	2466.596248
420.829045	2461.857563
421.208047	2466.008953
421.586988	2460.990485
421.965867	2466.729838
422.344686	2466.273614
422.723444	2467.886783
423.102141	2466.959211
423.480777	2464.844447
423.859352	2464.176494
424.237866	2468.126238
424.616319	2467.097843
424.994712	2471.375262
425.373044	2469.537761
425.751314	2471.972638
426.129524	2469.489870
426.507673	2467.536423
426.885762	2467.854016
427.263789	2469.434417
427.641756	2469.288224
428.019662	2471.884418
428.397508	2474.117649
428.775292	2472.436424
429.153016	2472.980869
429.530679	2473.772330
429.908282	2474.208390
430.285824	2474.281487
430.663305	2471.715539
431.040726	2473.099336
431.418086	2472.350725
431.795385	2473.661425
432.172624	2474.692341
432.549802	2475.052783
432.926920	2475.065386
433.303977	2474.793164
433.680974	2473.341312
434.057910	2477.686786
434.434786	2478.947075
434.811601	2479.471355
435.188355	2476.335757
435.565050	2480.131746
435.941683	2480.043526
436.318257	2479.005048
436.694770	2476.900366
437.071222	2477.517907
437.447614	2475.012454
437.823946	2479.085706
438.200218	2479.206694
438.576429	2480.630820
438.952580	2481.024030
439.328670	2482.617035
439.704700	2481.240800
440.080670	2482.440594
440.456580	2481.467652
440.832429	2482.531335
441.208218	2480.744246
441.583947	2483.131232
441.959616	2484.913280
442.335224	2482.864051
442.710773	2483.927735
443.086261	2486.705410
443.461689	2482.551500
443.837057	2486.806233
444.212365	2490.408138
444.587612	2486.839001
444.962800	2486.660040
445.337927	2487.643065
445.712995	2485.223311
446.088002	2490.292191
446.462949	2489.452839
446.837837	2488.447129
447.212664	2489.107520
447.587431	2494.567090
447.962139	2498.395846
448.336786	2503.068996
448.711374	2500.886176
449.085901	2497.145640
449.460369	2495.827378
449.834776	2498.466422
450.209124	2501.044973
450.583412	2499.895589
450.957640	2499.877945
451.331808	2500.283758
451.705917	2501.138234
452.079965	2500.180415
452.453954	2502.234685
452.827883	2503.041269
453.201752	2504.258708
453.575562	2501.680158
453.949311	2507.401868
454.323001	2508.107629
454.696632	2508.926817
455.070202	2511.923783
455.443713	2509.814060
455.817164	2512.271622
456.190556	2515.558454
456.563888	2516.496109
456.937160	2514.625841
457.310373	2517.486696
457.683526	2516.773373
458.056619	2521.660771
458.429653	2516.647344
458.802628	2524.705628
459.175542	2523.052130
459.548398	2529.252749
459.921194	2531.533871
460.293930	2538.543595
460.666607	2543.362938
461.039224	2550.276881
461.411782	2551.852242
461.784280	2549.629093
462.156719	2551.302756
462.529099	2551.481717
462.901419	2549.520708
463.273680	2549.311500
463.645882	2550.034906
464.018024	2550.917107
464.390106	2556.500185
464.762130	2567.260528
465.134094	2580.874164
465.505999	2596.776484
465.877845	2613.545882
466.249631	2621.498302
466.621358	2617.157869
466.993026	2615.484206
467.364634	2611.302569
467.736184	2608.124121
468.107674	2607.413319
468.479105	2606.190839
468.850477	2609.361725
469.221790	2604.295365
469.593043	2600.186825
469.964238	2598.024170
470.335373	2602.352000
470.706449	2615.469082
471.077467	2626.534415
471.448425	2647.351860
471.819324	2664.345590
472.190164	2662.838285
472.560945	2648.077786
472.931667	2638.061013
473.302330	2639.827938
473.672934	2640.936992
474.043479	2646.905718
474.413965	2646.129380
474.784393	2649.272540
475.154761	2659.170845
475.525070	2663.365085
475.895321	2671.030160
476.265513	2674.513597
476.635645	2692.833150
477.005719	2698.915302
477.375734	2709.501725
477.745691	2723.221225
478.115588	2741.510532
478.485427	2766.693616
478.855207	2807.163999
479.224928	2841.469051
479.594591	2871.453834
479.964194	2873.535830
480.333739	2887.449415
480.703226	2907.692168
481.072653	2938.730552
481.442022	2968.037300
481.811333	2996.963441
482.180584	3004.157168
482.549777	3022.958151
482.918912	3045.086296
483.287988	3065.949111
483.657005	3083.865372
484.025964	3101.786673
484.394864	3132.948566
484.763706	3158.018224
485.132489	3174.573373
485.501213	3206.554453
485.869879	3248.595156
486.238487	3280.019188
486.607036	3323.259685
486.975527	3357.370653
487.343959	3407.414187
487.712333	3457.999645
488.080648	3501.983713
488.448905	3567.075091
488.817104	3617.353039
489.185244	3704.428889
489.553326	3831.695339
489.921350	4002.492152
490.289315	4194.308056
490.657222	4306.781239
491.025070	4404.042741
491.392861	4445.891879
491.760593	4468.972802
492.128267	4476.910099
492.495883	4495.940455
492.863440	4526.273078
493.230939	4554.564033
493.598380	4596.826546
493.965763	4671.806148
494.333088	4732.393255
494.700354	4807.549298
495.067563	4896.979367
495.434713	4995.007124
495.801805	5110.308395
496.168839	5202.221232
496.535815	5294.524759
496.902733	5412.951545
497.269593	5501.489330
497.636395	5616.662052
498.003139	5772.100989
498.369825	5858.632395
498.736453	6014.744327
499.103023	6106.815961
499.469535	6232.897739
499.835989	6382.068002
500.202385	6485.341079
500.568723	6627.821731
500.935003	6804.602394
501.301226	6931.737773
501.667390	7154.453429
502.033497	7346.110537
502.399546	7431.122035
502.765537	7502.363621
503.131470	7715.319603
503.497345	7932.366482
503.863163	7916.539780
504.228923	8172.970673
504.594625	8406.852485
504.960269	8480.816294
505.325856	8764.761805
505.691385	8846.254578
506.056856	9039.340853
506.422270	9306.007809
506.787625	9419.620293
507.152924	9644.647318
507.518164	9867.655362
507.883347	9906.860415
508.248472	10157.824177
508.613540	10449.283528
508.978550	10720.295958
509.343503	10869.067970
509.708398	11126.333174
510.073236	11458.691406
510.438016	11677.139726
510.802738	11769.652461
511.167403	12136.764407
511.532010	12422.681009
511.896561	12740.891243
512.261053	13212.284498
512.625488	13325.647445
512.989866	13517.581816
513.354186	13717.806365
513.718449	13944.728864
514.082655	14389.872831
514.446803	14539.184246
514.810894	14936.656542
515.174927	15159.500747
515.538904	15386.410644
515.902822	15860.657192
516.266684	15922.749084
516.630488	16322.631051
516.994235	16528.335333
517.357925	16981.431721
517.721558	17315.519068
518.085133	17698.344291
518.448651	18026.581380
518.812112	18202.832721
519.175516	18515.399383
519.538863	18909.962933
519.902152	19161.577004
520.265385	19627.798035
520.628560	19905.520242
520.991678	20089.476987
521.354739	20464.236363
521.717743	20869.809793
522.080690	21098.479052
522.443580	21616.737394
522.806413	21917.500194
523.169189	22160.539262
523.531908	22520.699458
523.894569	22721.607082
524.257174	23067.203384
524.619722	23491.552592
524.982213	23768.256485
525.344647	23997.636547
525.707025	24269.342136
526.069345	24756.937660
526.431608	24975.955630
526.793815	25415.965182
527.155964	25424.469608
527.518057	25789.509640
527.880093	25918.732058
528.242072	26482.690979
528.603995	26577.522645
528.965860	26811.013768
529.327669	27136.309343
529.689421	27328.152973
530.051117	27544.410912
530.412755	27886.223828
530.774337	28180.859105
531.135862	28315.899014
531.497331	28673.178190
531.858743	28872.409631
532.220098	29329.738067
532.581396	29378.395284
532.942638	29390.002540
533.303824	29829.129890
533.664953	30039.479596
534.026025	30089.230743
534.387040	30623.600613
534.747999	30823.058906
535.108902	31153.027631
535.469748	31045.590560
535.830537	31349.521726
536.191270	31714.929762
536.551947	31665.367658
536.912567	32105.099946
537.273131	32387.218039
537.633638	32243.978694
537.994089	32697.241439
538.354483	32622.075314
538.714821	33227.323807
539.075103	33701.716548
539.435328	33720.308324
539.795497	33837.933567
540.155609	34016.750855
540.515665	34581.357565
540.875665	34342.807645
541.235609	34780.382319
541.595496	34951.098474
541.955328	35653.737017
542.315102	35358.083427
542.674821	35373.199326
543.034483	35579.105255
543.394090	35723.279735
543.753640	35871.459411
544.113134	36852.447785
544.472571	36221.978399
544.831953	37404.973370
545.191278	36936.448531
545.550548	36868.985290
545.909761	37395.851402
546.268918	37732.688699
546.628019	38139.824886
546.987064	37950.083417
547.346053	37495.202462
547.704986	38379.383038
548.063863	38162.469749
548.422684	38467.265473
548.781449	38503.634877
549.140158	38974.110642
549.498811	38978.904779
549.857408	38636.766709
550.215949	39500.097073
550.574434	39582.293086
550.932864	39514.038384
551.291237	40275.552563
551.649555	40044.831554
552.007817	40403.292881
552.366022	40215.499818
552.724173	40497.388538
553.082267	40961.472120
553.440305	41347.972344
553.798288	40868.031813
554.156215	41259.943716
554.514086	41562.533934
554.871902	41448.172839
555.229661	41573.667322
555.587365	41517.564321
555.945014	41719.351628
556.302606	41736.894843
556.660143	42066.001531
557.017625	42234.645771
557.375050	42150.723162
557.732421	42577.434150
558.089735	42654.500789
558.446994	42682.333000
558.804197	43210.169534
559.161345	43231.039911
559.518437	42634.905824
559.875474	43016.765667
560.232455	43267.469809
560.589381	43509.954350
560.946251	43305.943895
561.303065	44013.328685
561.659825	43924.029686
562.016528	43701.435017
562.373177	43530.050910
562.729770	44056.664964
563.086307	43676.120863
563.442789	44171.328529
563.799216	44298.282427
564.155587	44181.529304
564.511904	44253.159059
564.868164	44417.034367
565.224370	44722.016613
565.580520	44527.576789
565.936615	44797.893541
566.292654	44584.569554
566.648638	44877.228699
567.004567	44899.644190
567.360441	44970.197658
567.716260	44901.340538
568.072023	45259.753974
568.427732	45290.578109
568.783385	44920.378456
569.138982	45347.926275
569.494525	45359.520929
569.850013	45170.943966
570.205445	45192.762080
570.560823	45180.663311
570.916145	45112.663187
571.271412	45175.440676
571.626625	44992.540052
571.981782	45105.101456
572.336884	44838.000961
572.691931	45180.421336
573.046923	44829.534343
573.401860	44694.660792
573.756743	44747.484523
574.111570	44887.351336
574.466342	44756.354433
574.821059	44932.308346
575.175722	44490.617570
575.530330	44532.383529
575.884882	44301.806193
576.239380	44288.794975
576.593823	44300.679496
576.948211	44240.936781
577.302544	43825.674254
577.656823	43875.722829
578.011047	44107.008447
578.365216	43869.348290
578.719330	43684.355588
579.073389	43560.237339
579.427394	43666.315819
579.781344	43670.194987
580.135239	43361.585631
580.489080	43454.108448
580.842866	42976.141528
581.196597	43451.736585
581.550273	43405.224379
581.903895	43292.592399
582.257463	43726.993667
582.610975	43135.318482
582.964434	43436.628247
583.317837	43113.291160
583.671186	42969.277997
584.024481	43208.919328
584.377721	42763.520783
584.730906	43055.559866
585.084037	43087.215792
585.437113	42820.833661
585.790135	42864.638767
586.143103	42509.955785
586.496016	42631.661842
586.848874	42661.634022
587.201679	42708.030282
587.554428	42201.868188
587.907124	42392.630491
588.259765	42170.134125
588.612352	42444.899695
588.964884	41855.228368
589.317362	42133.590801
589.669786	42098.295162
590.022155	41886.811197
590.374470	42289.601909
590.726731	41843.351409
591.078937	41378.907385
591.431090	41477.343475
591.783188	41160.330516
592.135232	40847.592455
592.487222	41103.166352
592.839157	41204.511188
593.191038	40887.946891
593.542866	40657.039360
593.894639	40077.599054
594.246358	40364.556655
594.598022	40331.461480
594.949633	39956.339140
595.301190	39905.093290
595.652692	39765.042475
596.004141	40107.742634
596.355535	39143.357300
596.706876	39104.058985
597.058162	38935.200496
597.409395	39395.856093
597.760573	39467.571548
598.111698	39066.767050
598.462768	39084.884957
598.813785	39131.147626
599.164748	38599.371430
599.515657	38992.412551
599.866511	38489.464194
600.217312	39087.637427
600.568060	38083.673994
600.918753	38797.239239
601.269392	38778.057648
601.619978	38443.453582
601.970510	38648.386569
602.320988	38838.122997
602.671412	39128.967327
603.021783	38876.201352
603.372100	38549.864778
603.722363	38672.528654
604.072572	38745.418698
604.422728	38748.831559
604.772830	38578.624561
605.122878	38675.437400
605.472872	38616.171075
605.822813	38889.197447
606.172701	38722.637724
606.522534	38966.901792
606.872314	39220.202129
607.222041	38985.690172
607.571714	39385.214218
607.921333	38849.173206
608.270899	39129.184096
608.620411	39465.058533
608.969870	39274.719687
609.319276	39266.865569
609.668627	39333.010549
610.017926	39813.359414
610.367171	39980.995423
610.716362	40060.915356
611.065500	40009.803097
611.414585	40217.072658
611.763616	40501.003045
612.112594	40431.120050
612.461518	40660.890801
612.810389	40932.218304
613.159207	40807.356485
613.507971	40898.606411
613.856682	41358.291586
614.205340	41259.613520
614.553945	41936.554782
614.902496	41410.593557
615.250994	41865.282949
615.599439	41927.790736
615.947830	42163.603310
616.296169	42213.682132
616.644454	42338.803571
616.992686	42515.238914
617.340864	43037.832648
617.688990	42758.580452
618.037063	43362.119993
618.385082	43319.262624
618.733048	43626.447854
619.080961	43643.784382
619.428821	43641.646933
619.776628	43766.836427
620.124382	43575.738887
620.472083	43718.408582
620.819731	43840.626316
621.167326	43524.435065
621.514868	43504.966128
621.862357	43076.881426
622.209793	43093.229888
622.557176	42787.493990
622.904506	42525.757282
623.251783	42189.872763
623.599007	41968.520739
623.946179	41755.937802
624.293297	41699.529811
624.640363	41138.930818
624.987376	41123.779630
625.334336	40869.939890
625.681243	40530.002283
626.028097	40505.809786
626.374899	40365.000276
626.721647	40344.354231
627.068343	40235.402293
627.414987	40003.514258
627.761577	39783.167943
628.108115	40120.511877
628.454600	39573.171118
628.801032	39761.737998
629.147412	39726.838090
629.493739	39740.363506
629.840014	39392.851566
630.186236	39734.062064
630.532405	39366.738389
630.878521	39578.761758
631.224585	39449.340215
631.570597	39158.024537
631.916556	39325.511833
632.262462	39283.425760
632.608316	39300.172473
632.954117	39200.579437
633.299866	39184.639309
633.645562	39105.082340
633.991206	38624.073084
634.336797	38186.687453
634.682336	38199.302940
635.027823	37954.343192
635.373257	37773.214535
635.718639	37537.492701
636.063968	37402.246105
636.409245	36828.935843
636.754470	36884.297795
637.099642	36640.525239
637.444762	36181.445002
637.789829	36327.144430
638.134845	35980.902861
638.479808	35944.573786
638.824719	35837.746694
639.169577	35450.533147
639.514383	35522.241040
639.859137	35216.603444
640.203839	35466.899253
640.548489	35100.805619
640.893086	35164.916493
641.237632	34925.610400
641.582125	35046.847629
641.926566	34970.821988
642.270955	34935.024755
642.615292	34967.729240
642.959576	34941.303512
643.303809	34938.354437
643.647990	35092.459989
643.992118	35057.504628
644.336195	35046.527516
644.680219	35146.206251
645.024192	35449.424093
645.368112	35966.359132
645.711981	35967.904246
646.055797	36849.118102
646.399562	36775.678573
646.743274	37706.162147
647.086935	38145.019795
647.430544	38037.237406
647.774101	38155.220570
648.117606	38392.807630
648.461059	38683.440232
648.804460	38312.290321
649.147810	37698.386168
649.491108	37453.116389
649.834354	37091.995854
650.177548	36269.955061
650.520690	35846.351944
650.863781	35848.287747
651.206820	35694.628337
651.549807	35272.663595
651.892742	34779.333759
652.235626	34589.849389
652.578458	34463.530677
652.921238	33869.912126
653.263967	34208.418045
653.606644	33886.013571
653.949269	33848.840103
654.291843	33446.671973
654.634365	33853.462841
654.976836	33438.180149
655.319255	33443.596869
655.661622	33447.647436
656.003938	33220.913980
656.346203	33081.289142
656.688416	33304.455981
657.030577	33127.332520
657.372687	32943.736218
657.714746	33211.086250
658.056753	33333.790456
658.398708	32794.344144
658.740612	32855.649616
659.082465	33111.931795
659.424266	32944.699078
659.766016	33068.093922
660.107715	32952.064204
660.449362	33090.620317
660.790958	33047.967115
661.132503	33083.008175
661.473996	33103.452575
661.815438	33241.880139
662.156829	33421.846810
662.498168	33195.788869
662.839456	33228.775659
663.180693	33360.856411
663.521879	33531.459139
663.863013	33477.919565
664.204097	33485.211594
664.545129	33949.189311
664.886110	33900.766508
665.227040	33969.147239
665.567918	34093.578040
665.908746	34160.186806
666.249522	34318.899973
666.590248	34313.402594
666.930922	34424.938123
667.271545	34399.412241
667.612118	34480.098429
667.952639	34270.671254
668.293109	34316.991896
668.633528	34220.365580
668.973896	34142.240298
669.314213	34186.403326
669.654480	33913.412243
669.994695	33958.964109
670.334859	33843.778784
670.674973	33735.671240
671.015035	33894.162597
671.355047	33849.694578
671.695008	33797.987463
672.034918	33697.355950
672.374777	33774.727580
672.714585	33631.367247
673.054342	33870.534708
673.394049	33619.946513
673.733705	33903.400511
674.073310	33548.994793
674.412864	33629.723830
674.752368	33235.883686
675.091820	33532.293450
675.431223	33105.189252
675.770574	32839.938860
676.109875	32698.615153
676.449125	32420.172062
676.788324	32341.167099
677.127473	31806.603145
677.466571	31743.243403
677.805619	31400.129869
678.144616	31392.026214
678.483562	31306.959264
678.822458	30984.592599
679.161303	30924.935584
679.500098	30830.527375
679.838842	30719.717773
680.177535	30860.476870
680.516179	31154.814720
680.854771	31383.015152
681.193314	32255.457401
681.531805	33373.204717
681.870247	34155.947195
682.208638	34896.724588
682.546978	35129.845186
682.885268	35203.962751
683.223508	34667.654557
683.561697	34328.515974
683.899836	34141.224505
684.237925	33629.985970
684.575963	33493.405989
684.913951	33038.913202
685.251889	33193.648899
685.589776	33180.231868
685.927614	33171.253573
686.265401	33308.022598
686.603137	33413.566715
686.940824	33926.241979
687.278460	34310.080474
687.616046	34441.523519
687.953582	35059.889094
688.291068	34907.673974
688.628504	35195.226431
688.965889	35133.303418
689.303224	34749.439717
689.640510	34407.064712
689.977745	33662.844211
690.314930	32865.162273
690.652065	32335.634432
690.989150	31583.527046
691.326185	30685.964727
691.663170	29988.747944
692.000105	29224.640091
692.336990	28564.682477
692.673825	28106.338248
693.010610	27591.149969
693.347345	27002.552408
693.684030	26362.179676
694.020665	26074.425573
694.357251	25417.825367
694.693786	25373.475816
695.030272	25141.398737
695.366707	24586.052627
695.703093	24307.027282
696.039429	24296.965139
696.375716	24026.119066
696.711952	23991.025074
697.048139	23848.919988
697.384276	23668.791999
697.720363	23800.824860
698.056400	23588.148661
698.392388	23372.455332
698.728326	23334.586184
699.064214	23137.703921
699.400053	23064.045102
699.735842	22713.296740
700.071581	22446.284465
700.407270	22142.280203
700.742910	21969.981126
701.078501	21685.899504
701.414042	21412.031260
701.749533	21108.127821
702.084974	20763.506982
702.420366	20961.021910
702.755709	20531.039214
703.091002	20235.703216
703.426246	20253.380022
703.761440	20151.369753
704.096584	19884.516274
704.431679	19839.564305
704.766725	19743.532845
705.101721	19680.072280
705.436668	19776.529718
705.771565	19461.780236
706.106413	19798.216761
706.441212	19778.455438
706.775961	19904.751466
707.110661	19984.588219
707.445311	20336.816159
707.779913	20187.164466
708.114465	20421.752039
708.448967	20706.632684
708.783421	21411.471692
709.117825	21684.223321
709.452180	21900.352709
709.786485	22299.733082
710.120742	23100.338889
710.454949	23121.589873
710.789107	23579.815634
711.123216	24295.079747
711.457275	24419.601288
711.791286	24959.098011
712.125247	25029.033939
712.459159	24703.478744
712.793023	25368.064138
713.126837	24264.512711
713.460602	24506.026830
713.794318	24132.805005
714.127985	23743.799327
714.461602	22856.667156
714.795171	22808.022542
715.128691	21784.426336
715.462162	21250.409347
715.795584	20831.113896
716.128957	20572.845503
716.462281	20163.022380
716.795556	19927.787018
717.128782	19438.825342
717.461960	18883.653151
717.795088	18804.418816
718.128167	18413.008507
718.461198	17954.762582
718.794180	17810.346127
719.127113	17449.452444
719.459997	17250.689830
719.792833	16903.185451
720.125619	16866.019544
720.458357	16554.372893
720.791046	16383.291255
721.123686	16234.824233
721.456278	15988.077396
721.788821	15943.410253
722.121315	15686.989442
722.453761	15761.961482
722.786158	15691.004721
723.118506	15697.648962
723.450805	15569.447378
723.783056	15717.919441
724.115259	15619.392610
724.447412	15553.847527
724.779518	15794.277798
725.111574	15824.744012
725.443582	16017.094278
725.775542	15997.353119
726.107453	16474.452961
726.439315	16350.619537
726.771129	16748.921102
727.102895	17126.110315
727.434612	17323.148855
727.766281	17450.667362
728.097901	17705.898460
728.429473	17748.241632
728.760996	17724.034011
729.092471	17813.330490
729.423897	17689.668466
729.755276	17557.849854
730.086606	17660.195360
730.417887	18195.618830
730.749120	18707.230411
731.080305	18873.555720
731.411442	19214.536846
731.742530	19287.008473
732.073570	19383.246621
732.404562	19672.966773
732.735506	19482.683380
733.066401	19189.416776
733.397249	18677.253189
733.728048	18043.013021
734.058798	17210.738686
734.389501	16530.455139
734.720156	16060.047429
735.050762	15546.003492
735.381320	15183.204253
735.711831	14954.666064
736.042293	14601.944091
736.372707	14602.806128
736.703073	14402.626950
737.033391	14590.457822
737.363661	14549.747984
737.693883	14659.453574
738.024056	14826.071270
738.354182	15016.347102
738.684260	15297.789680
739.014290	15525.992632
739.344272	15708.623553
739.674207	15992.382542
740.004093	16096.542862
740.333931	16085.598517
740.663722	16128.435722
740.993464	16114.282683
741.323159	15941.247598
741.652806	15670.777091
741.982405	15445.220744
742.311956	15117.331495
742.641460	14988.935827
742.970915	14689.062791
743.300323	14350.156100
743.629683	14142.019461
743.958996	13867.248850
744.288260	13591.563269
744.617477	13289.242753
744.946647	13226.263618
745.275768	12942.421450
745.604842	12769.182198
745.933869	12596.043770
746.262847	12549.450905
746.591778	12469.309162
746.920662	12373.605377
747.249498	12376.161242
747.578286	12492.264056
747.907027	12636.965336
748.235720	12859.267618
748.564365	12882.701421
748.892963	12784.313222
749.221514	12847.804034
749.550017	12693.287627
749.878473	12659.108604
750.206881	12436.309769
750.535242	12348.208044
750.863555	12258.213365
751.191821	12164.450424
751.520039	12186.394567
751.848210	12092.740011
752.176334	12115.856222
752.504411	12020.044052
752.832440	11872.391176
753.160421	11933.247985
753.488356	11812.056126
753.816243	11724.660163
754.144082	11583.833009
754.471875	11525.126252
754.799620	11472.247069
755.127318	11438.983015
755.454969	11406.253324
755.782572	11353.853050
756.110129	11356.071158
756.437638	11287.894593
756.765100	11283.344952
757.092515	11278.177769
757.419882	11293.213011
757.747203	11294.949688
758.074477	11370.214115
758.401703	11328.929586
758.728882	11492.189874
759.056014	11528.602128
759.383099	11638.458953
759.710138	11754.259298
760.037129	11822.907210
760.364073	11845.655417
760.690970	11828.119763
761.017820	11824.641367
761.344623	12009.301353
761.671379	12337.213287
761.998088	12963.138072
762.324751	14517.371173
762.651366	17378.084829
762.977935	21028.656551
763.304456	23253.471498
763.630931	23726.480443
763.957359	22542.600751
764.283740	20636.333794
764.610074	18755.345703
764.936362	16638.620656
765.262602	15107.173570
765.588796	13647.991425
765.914943	12617.907254
766.241044	11771.926021
766.567097	11144.682974
766.893104	10588.837790
767.219064	10228.710362
767.544978	9851.503505
767.870845	9534.477942
768.196665	9353.840797
768.522438	9156.691352
768.848165	8991.308739
769.173846	8823.579468
769.499479	8709.344401
769.825066	8555.357316
770.150607	8364.388326
770.476101	8300.963049
770.801548	8187.302673
771.126949	8054.533805
771.452303	7964.178684
771.777611	7799.020401
772.102872	7777.444263
772.428087	7655.438258
772.753256	7533.520472
773.078378	7445.310362
773.403453	7307.681821
773.728482	7204.209618
774.053465	7140.875082
774.378401	7052.652369
774.703291	6961.709953
775.028135	6865.529779
775.352932	6827.383368
775.677683	6744.438743
776.002388	6657.388098
776.327046	6659.563356
776.651658	6571.053298
776.976224	6496.240054
777.300743	6479.271530
777.625216	6409.421302
777.949643	6370.430498
778.274024	6375.663216
778.598359	6309.215767
778.922647	6305.402134
779.246889	6273.683194
779.571086	6276.019769
779.895236	6289.245236
780.219339	6286.800276
780.543397	6281.048320
780.867409	6332.755435
781.191374	6327.752090
781.515294	6292.758920
781.839167	6348.052816
782.162995	6314.239277
782.486776	6273.352998
782.810511	6225.893056
783.134201	6151.031921
783.457844	6139.812833
783.781441	6099.649960
784.104993	6050.299585
784.428498	6020.221540
784.751958	6002.262430
785.075372	5984.613350
785.398739	5941.012411
785.722061	5963.818591
786.045337	5962.679290
786.368568	6069.365229
786.691752	6093.787098
787.014891	6342.255489
787.337983	6622.336956
787.661030	7055.969448
787.984031	7481.021896
788.306987	7745.276660
788.629897	7833.761513
788.952760	7745.942093
789.275579	7571.245947
789.598351	7269.290914
789.921078	7004.947930
790.243759	6724.868984
790.566395	6521.660072
790.888984	6327.537841
791.211529	6192.210586
791.534027	6024.435945
791.856480	5891.185646
792.178888	5828.647612
792.501249	5765.938179
792.823566	5659.869781
793.145836	5655.131097
793.468062	5638.036544
793.790241	5596.116829
794.112375	5639.818592
794.434464	5732.142283
794.756507	5766.840545
795.078505	5884.317074
795.400457	6104.623059
795.722364	6334.343398
796.044226	6532.490991
796.366042	6691.446134
796.687812	6637.503267
797.009538	6668.967629
797.331218	6574.836684
797.652852	6505.616600
797.974442	6384.399535
798.295986	6311.378422
798.617484	6180.585685
798.938938	6073.708183
799.260346	6004.906515
799.581709	5870.637903
799.903026	5814.933153
800.224299	5745.271968
800.545526	5628.894411
800.866708	5562.825049
801.187845	5518.548595
801.508936	5437.128919
801.829983	5415.978758
802.150984	5308.937418
802.471940	5278.723262
802.792851	5265.550727
803.113717	5242.943673
803.434538	5214.657759
803.755314	5181.605433
804.076045	5171.026572
804.396731	5133.837980
804.717372	5153.884128
805.037967	5156.399664
805.358518	5179.248694
805.679024	5241.088528
805.999485	5250.467595
806.319901	5268.772025
806.640272	5285.959839
806.960598	5332.212425
807.280879	5324.224717
807.601115	5361.650243
807.921306	5322.964428
808.241453	5318.591227
808.561554	5332.124205
808.881611	5292.578874
809.201623	5292.399913
809.521590	5243.407459
809.841513	5229.345160
810.161390	5243.969548
810.481223	5153.009488
810.801011	5145.001615
811.120755	5119.200990
811.440453	5064.277619
811.760107	5035.018762
812.079716	5009.185369
812.399281	4955.519766
812.718801	4950.592038
813.038276	4920.821504
813.357707	4883.519486
813.677093	4904.956993
813.996434	4842.802086
814.315731	4867.208833
814.634983	4864.090879
814.954191	4865.769583
815.273354	4924.191515
815.592473	4967.815140
815.911547	5041.549577
816.230577	5095.404223
816.549562	5181.809600
816.868502	5229.135952
817.187399	5286.214417
817.506250	5364.967322
817.825058	5394.417743
818.143821	5544.533222
818.462539	5712.048244
818.781213	5941.266989
819.099843	6302.695034
819.418429	6926.560508
819.736970	7548.197792
820.055466	8245.464986
820.373919	9163.045727
820.692327	10600.878586
821.010691	13273.169034
821.329011	19445.482186
821.647286	28954.656056
821.965517	39240.835572
822.283704	44690.496799
822.601847	46182.960642
822.919945	41619.534261
823.237999	36533.060442
823.556010	31352.798476
823.873976	26682.973501
824.191897	22481.416266
824.509775	19429.542057
824.827609	16677.137592
825.145398	15135.333456
825.463144	14379.082241
825.780845	14674.748435
826.098502	15918.953095
826.416116	18369.392444
826.733685	20638.138527
827.051210	21161.387611
827.368692	19743.071579
827.686129	17206.935135
828.003522	14729.001332
828.320872	12522.503417
828.638177	10882.167408
828.955439	9637.912337
829.272656	8589.012059
829.589830	7749.473421
829.906960	7020.925867
830.224046	6487.624722
830.541088	6079.001394
830.858086	5820.581766
831.175041	5622.340911
831.491952	5566.673970
831.808819	5594.493577
832.125642	5841.963820
832.442421	6385.498507
832.759157	7484.583471
833.075849	9246.436494
833.392497	11083.490928
833.709101	12203.965509
834.025662	11947.990840
834.342179	10906.596840
834.658653	9604.923026
834.975083	8505.167588
835.291469	7603.605114
835.607811	6870.114708
835.924110	6350.323856
836.240366	5866.279825
836.556578	5414.315177
836.872746	5063.468514
837.188871	4793.358449
837.504952	4575.225202
837.820990	4406.099532
838.136984	4295.395793
838.452935	4246.662959
838.768842	4272.551804
839.084706	4554.178385
839.400526	5285.730466
839.716303	6193.889290
840.032037	6753.623725
840.347727	6605.469255
840.663373	6012.901785
840.978977	5441.723931
841.294537	4998.183051
841.610054	4665.179551
841.925527	4428.817491
842.240957	4223.445925
842.556344	4040.830127
842.871687	3887.332033
843.186987	3733.561718
843.502244	3615.787761
843.817458	3530.778783
844.132629	3458.329841
844.447756	3411.696647
844.762840	3366.046479
845.077881	3329.029286
845.392879	3296.158442
845.707833	3266.266921
846.022745	3242.576018
846.337613	3232.075295
846.652438	3208.122252
846.967221	3200.169832
847.281960	3179.556554
847.596656	3172.302333
847.911309	3156.286588
848.225919	3147.666215
848.540485	3135.537198
848.855009	3128.139305
849.169490	3117.305866
849.483928	3110.742283
849.798323	3104.937395
850.112675	3091.200250
850.426984	3094.403904
850.741251	3086.327975
851.055474	3082.443766
851.369654	3086.471648
851.683792	3081.710278
851.997887	3085.796133
852.311938	3085.352512
852.625947	3084.692121
852.939914	3079.255236
853.253837	3086.905187
853.567718	3080.124835
853.881555	3076.263312
854.195350	3081.526276
854.509103	3079.809763
854.822812	3077.306830
855.136479	3073.495718
855.450103	3076.409505
855.763685	3068.623443
856.077224	3073.614185
856.390720	3078.680545
856.704173	3093.188986
857.017584	3097.322732
857.330953	3100.637290
857.644278	3108.125924
857.957561	3111.485853
858.270802	3108.514093
858.584000	3108.677931
858.897155	3103.969493
859.210268	3095.651589
859.523339	3078.806574
859.836367	3076.492684
860.149352	3071.640573
860.462295	3068.338618
860.775195	3059.287226
861.088054	3053.598284
861.400869	3054.760270
861.713642	3054.122564
862.026373	3062.904254
862.339062	3067.423648
862.651708	3075.827252
862.964312	3092.967175
863.276873	3097.786518
863.589392	3133.722383
863.901869	3156.533604
864.214303	3177.971111
864.526696	3192.880323
864.839045	3211.807336
865.151353	3224.894171
865.463619	3225.090776
865.775842	3227.311404
866.088023	3230.741909
866.400162	3224.163204
866.712258	3227.233266
867.024313	3222.905436
867.336325	3221.945096
867.648296	3224.417782
867.960224	3221.509036
868.272110	3222.373594
868.583954	3224.218656
868.895755	3231.606467
869.207515	3232.478587
869.519233	3248.063314
869.830909	3252.938110
870.142542	3265.770367
870.454134	3271.439144
870.765684	3288.684932
871.077191	3302.701860
871.388657	3316.680980
871.700081	3332.936180
872.011463	3351.626258
872.322803	3371.899258
872.634101	3386.316958
872.945357	3410.753952
873.256571	3440.763940
873.567744	3452.396403
873.878874	3456.676343
874.189963	3475.537820
874.501010	3474.532109
874.812015	3473.304588
875.122979	3485.347905
875.433900	3487.210611
875.744780	3488.367556
876.055618	3497.963393
876.366415	3492.864265
876.677169	3499.989936
876.987882	3512.887728
877.298554	3538.632901
877.609183	3574.712439
877.919771	3616.730457
878.230317	3687.853576
878.540822	3790.146149
878.851285	3938.603088
879.161707	4159.055267
879.472087	4533.474366
879.782425	5152.633922
880.092722	6323.020967
880.402977	8240.880057
880.713191	10589.762841
881.023363	12952.397894
881.333494	14284.895843
881.643583	14744.157561
881.953631	14342.969935
882.263637	13510.488913
882.573602	12480.621511
882.883526	11530.729495
883.193408	10588.376524
883.503248	9672.650928
883.813048	8857.168676
884.122806	8092.186183
884.432522	7335.314906
884.742197	6679.715369
885.051831	6122.685513
885.361424	5629.532117
885.670975	5234.598043
885.980485	4915.382099
886.289954	4647.853105
886.599382	4432.943676
886.908768	4255.066562
887.218113	4093.719392
887.527417	3959.546562
887.836680	3839.985516
888.145901	3738.832244
888.455082	3665.775842
888.764221	3595.527363
889.073319	3537.322201
889.382376	3503.841378
889.691392	3478.751555
890.000366	3473.992706
890.309300	3465.291674
890.618193	3471.857777
890.927044	3463.108855
891.235855	3468.762509
891.544625	3483.772544
891.853353	3515.985518
892.162041	3573.147161
892.470687	3664.979340
892.779293	3780.600724
893.087858	3956.892395
893.396381	4229.845670
893.704864	4638.794152
894.013306	5204.678795
894.321707	5772.516884
894.630068	6129.354959
894.938387	6166.843500
895.246665	5994.186501
895.554903	5676.079611
895.863100	5340.915977
896.171256	5070.783228
896.479371	4832.185416
896.787446	4613.298516
897.095480	4414.896345
897.403473	4267.908902
897.711425	4123.028661
898.019336	4001.836802
898.327207	3879.850961
898.635038	3779.418573
898.942827	3675.381761
899.250576	3591.849842
899.558284	3503.238960
899.865952	3451.912452
900.173579	3387.045405
900.481165	3342.055628
900.788711	3298.971406
901.096216	3265.394801
901.403681	3240.466295
901.711105	3229.655541
902.018489	3224.584140
902.325832	3256.716455
902.633135	3315.778613
902.940397	3484.838748
903.247619	3883.024367
903.554800	4628.018686
903.861941	5584.073512
904.169041	6283.641993
904.476101	6500.479664
904.783121	6224.113528
905.090100	5824.765923
905.397039	5414.587400
905.703938	5055.874015
906.010796	4732.846959
906.317614	4484.111387
906.624391	4251.482302
906.931129	4058.302766
907.237826	3874.527502
907.544483	3708.945763
907.851099	3541.236657
908.157675	3381.984087
908.464211	3240.085688
908.770707	3139.497025
909.077163	3059.932494
909.383578	2998.916888
909.689954	2955.351237
909.996289	2925.805034
910.302584	2907.992117
910.608839	2894.159191
910.915054	2881.417674
911.221229	2880.318703
911.527363	2883.096378
911.833458	2886.272305
912.139513	2902.315778
912.445527	2912.756007
912.751502	2947.754218
913.057436	2992.262565
913.363331	3048.310113
913.669186	3134.052579
913.975000	3251.324941
914.280775	3437.257818
914.586510	3701.552911
914.892205	4069.020259
915.197859	4565.352102
915.503475	5146.433303
915.809050	5634.409434
916.114585	5925.316778
916.420081	5988.696685
916.725536	5921.785450
917.030952	5687.603689
917.336328	5482.700950
917.641665	5270.637252
917.946961	5051.641967
918.252218	4847.187890
918.557435	4625.591370
918.862612	4427.017799
919.167750	4256.470524
919.472848	4068.140578
919.777906	3904.129158
920.082925	3743.921289
920.387904	3592.429574
920.692843	3478.867502
920.997743	3384.063563
921.302603	3292.233904
921.607423	3225.743605
921.912204	3164.584327
922.216946	3115.296966
922.521647	3066.755695
922.826310	3023.363964
923.130932	2987.475989
923.435516	2952.064404
923.740059	2920.988211
924.044564	2890.078377
924.349028	2866.876466
924.653454	2837.589883
924.957840	2811.088537
925.262186	2791.675053
925.566493	2769.262083
925.870761	2745.659401
926.174989	2736.797053
926.479178	2721.240052
926.783328	2703.001157
927.087438	2694.927749
927.391509	2679.383352
927.695541	2667.879438
927.999533	2657.025834
928.303486	2650.510143
928.607400	2643.639050
928.911275	2640.160654
929.215110	2631.447020
929.518906	2629.811165
929.822663	2627.950979
930.126381	2626.869652
930.430060	2632.934160
930.733699	2635.532875
931.037299	2640.286683
931.340861	2636.949439
931.644383	2642.320788
931.947866	2639.505304
932.251309	2636.115128
932.554714	2635.253091
932.858080	2632.213275
933.161407	2629.062554
933.464694	2623.991153
933.767943	2622.803961
934.071153	2619.711213
934.374323	2614.750718
934.677455	2613.256016
934.980548	2608.789554
935.283602	2609.283587
935.586617	2600.567432
935.889593	2608.527414
936.192530	2610.944647
936.495428	2616.736933
936.798287	2622.801441
937.101108	2638.340797
937.403890	2661.814930
937.706632	2686.141018
938.009336	2717.023127
938.312002	2746.080337
938.614628	2769.816610
938.917216	2791.259158
939.219765	2801.031435
939.522275	2807.874801
939.824747	2806.556540
940.127179	2801.691826
940.429573	2794.893830
940.731929	2794.553552
941.034246	2783.498302
941.336524	2785.469393
941.638763	2778.968825
941.940964	2771.114707
942.243126	2754.158787
942.545250	2746.022364
942.847335	2729.545353
943.149381	2716.120760
943.451389	2704.435366
943.753359	2694.882379
944.055290	2684.263188
944.357182	2676.048628
944.659036	2670.606703
944.960851	2668.219716
945.262628	2659.599343
945.564367	2664.138902
945.866067	2660.037924
946.167729	2660.572286
946.469352	2658.888541
946.770937	2659.889210
947.072484	2651.430153
947.373992	2652.579537
947.675462	2648.511325
947.976893	2639.107053
948.278286	2639.843061
948.579641	2635.996661
948.880958	2633.488687
949.182236	2631.404170
949.483476	2628.437451
949.784678	2630.002729
950.085841	2628.253449
950.386967	2633.246712
950.688054	2636.611682
950.989103	2646.948568
951.290114	2652.430822
951.591087	2667.226609
951.892021	2676.751869
952.192917	2690.433561
952.493776	2699.326156
952.794596	2703.107022
953.095378	2704.611806
953.396122	2704.470654
953.696828	2699.278265
953.997496	2693.349868
954.298126	2684.787468
954.598718	2677.934020
954.899272	2667.508914
955.199788	2656.942655
955.500266	2644.914462
955.800706	2630.574900
956.101108	2610.811056
956.401472	2599.503748
956.701798	2588.299784
957.002087	2572.369738
957.302337	2566.083419
957.602550	2551.416182
957.902724	2543.657846
958.202861	2533.658717
958.502960	2525.552542
958.803022	2520.468538
959.103045	2510.900428
959.403031	2504.107473
959.702979	2500.661845
960.002889	2494.677995
960.302762	2490.423261
960.602596	2486.372694
960.902393	2484.908239
961.202153	2480.242651
961.501875	2478.957157
961.801559	2476.207207
962.101205	2472.968266
962.400814	2472.617906
962.700385	2468.330405
962.999918	2469.101701
963.299414	2464.524333
963.598873	2462.323870
963.898293	2462.888479
964.197677	2463.347224
964.497022	2461.527367
964.796331	2462.069292
965.095601	2458.447222
965.394835	2456.907150
965.694030	2458.517799
965.993189	2455.818261
966.292309	2453.307766
966.591393	2456.972685
966.890439	2456.334979
967.189447	2455.992181
967.488419	2455.278857
967.787353	2458.744651
968.086249	2455.818261
968.385108	2457.355813
968.683930	2459.962089
968.982714	2460.972841
969.281462	2460.806482
969.580172	2462.795218
969.878844	2464.042903
970.177480	2467.198666
970.476078	2470.152782
970.774639	2472.648153
971.073162	2476.154275
971.371649	2474.422639
971.670098	2473.729480
971.968510	2477.139821
972.266885	2475.708133
972.565223	2483.935296
972.863524	2483.726088
973.161788	2484.207519
973.460014	2485.160297
973.758204	2484.862869
974.056356	2486.155925
974.354471	2487.496872
974.652550	2486.647437
974.950591	2487.300267
975.248595	2485.024186
975.546563	2484.787251
975.844493	2484.121819
976.142386	2479.748618
976.440243	2475.932465
976.738062	2476.880202
977.035845	2475.728298
977.333590	2474.727629
977.631299	2470.016671
977.928971	2470.382154
978.226606	2464.582307
978.524204	2468.337966
978.821765	2461.973510
979.119290	2463.811010
979.416777	2462.359158
979.714228	2466.571042
980.011642	2465.799745
980.309020	2471.423153
980.606360	2474.543627
980.903664	2482.362456
981.200931	2496.475167
981.498162	2513.897394
981.795356	2541.711961
982.092513	2580.264185
982.389633	2623.565176
982.686717	2664.706032
982.983764	2697.705425
983.280775	2712.097919
983.577749	2713.821994
983.874686	2705.693133
984.171587	2692.966741
984.468451	2674.621982
984.765279	2657.935763
985.062070	2640.294245
985.358824	2620.583333
985.655543	2598.729931
985.952224	2578.081365
986.248869	2551.524567
986.545478	2522.278312
986.842050	2504.173008
987.138586	2483.143835
987.435086	2472.466671
987.731549	2461.078705
988.027975	2454.827674
988.324366	2451.629062
988.620719	2445.650253
988.917037	2440.480550
989.213318	2438.164140
989.509563	2437.949891
989.805772	2435.351176
990.101944	2433.995106
990.398080	2436.674479
990.694180	2433.450661
990.990244	2434.272369
991.286271	2434.390836
991.582262	2433.765733
991.878217	2432.329004
992.174136	2434.940322
992.470019	2437.846547
992.765865	2440.104984
993.061676	2440.369645
993.357450	2442.076075
993.653188	2447.457507
993.948890	2451.679473
994.244556	2458.306070
994.540186	2465.895527
994.835780	2475.451034
995.131337	2491.708756
995.426859	2507.742145
995.722345	2524.554393
996.017795	2543.693134
996.313208	2560.661658
996.608586	2565.226423
996.903928	2571.220355
997.199234	2572.314285
997.494504	2565.523851
997.789738	2559.081256
998.084936	2548.865358
998.380099	2540.265149
998.675225	2528.138654
998.970316	2516.793537
999.265371	2502.053203
999.560390	2491.106338
999.855373	2475.261991
1000.150320	2469.416773
1000.445232	2459.147943
1000.740108	2452.407920
1001.034948	2446.474482
1001.329752	2441.826538
1001.624521	2437.634819
1001.919254	2430.985537
1002.213951	2430.378078
1002.508613	2428.167532
1002.803239	2427.297933
1003.097829	2421.014135
1003.392384	2424.837850
1003.686903	2422.145874
1003.981386	2423.731317
1004.275834	2417.389545
1004.570246	2420.976326
1004.864623	2417.815523
1005.158964	2416.361150
1005.453270	2417.475245
1005.747540	2416.522467
1006.041775	2416.613207
1006.335974	2416.398958
1006.630138	2415.660429
1006.924266	2416.015831
1007.218359	2417.109761
1007.512416	2412.630696
1007.806438	2415.569688
1008.100425	2413.459966
1008.394376	2412.895356
1008.688292	2412.615572
1008.982172	2414.218659
1009.276017	2410.647002
1009.569827	2412.718916
1009.863602	2415.244534
1010.157341	2413.074317
1010.451045	2411.894687
1010.744714	2413.021385
1011.038347	2410.125242
1011.331945	2410.828483
1011.625508	2412.948288
1011.919036	2409.537948
1012.212528	2409.749676
1012.505986	2412.308062
1012.799408	2408.600293
1013.092795	2408.980900
1013.386147	2409.164902
1013.679464	2409.117012
1013.972745	2409.006106
1014.265992	2410.999883
1014.559204	2409.888308
1014.852380	2407.773544
1015.145521	2409.006106
1015.438628	2409.321178
1015.731699	2408.517114
1016.024736	2409.442166
1016.317737	2409.815211
1016.610703	2410.470561
1016.903635	2408.161713
1017.196531	2408.128945
1017.489393	2410.392423
1017.782219	2406.079716
1018.075011	2411.297311
1018.367768	2412.703792
1018.660490	2411.239337
1018.953177	2411.239337
1019.245829	2411.239337
