Dividing Wavelength (nm)	Counts (n)	Blue Motor Position (mm): 42.600000	Red Motor Position (mm): 0.000000	
326.493990	1972.732049
326.888308	1972.732049
327.282561	1972.732049
327.676750	1945.751794
328.070874	1950.351847
328.464933	1955.405604
328.858929	1964.991358
329.252859	1978.451238
329.646726	1993.393218
330.040528	2006.785044
330.434265	2025.112158
330.827938	2045.876671
331.221547	2066.890721
331.615091	2086.450398
332.008571	2105.959663
332.401986	2128.768364
332.795338	2147.352578
333.188625	2166.438386
333.581847	2186.459328
333.975006	2204.168902
334.368100	2224.189844
334.761129	2240.646691
335.154095	2253.000039
335.546996	2296.117028
335.939833	2377.594677
336.332606	2397.401370
336.725315	2409.159861
337.117960	2415.567168
337.510540	2423.265010
337.903056	2432.276072
338.295508	2439.144644
338.687896	2448.097734
339.080220	2455.767849
339.472480	2461.247583
339.864676	2460.546863
340.256807	2468.257308
340.648875	2466.155147
341.040879	2469.215127
341.432818	2471.304685
341.824694	2468.779067
342.216506	2471.128245
342.608253	2469.794860
342.999937	2470.235961
343.391557	2467.639767
343.783113	2467.395271
344.174605	2465.900568
344.566033	2465.199848
344.957397	2461.310598
345.348697	2462.220526
345.739934	2457.680967
346.131106	2455.684670
346.522215	2455.936728
346.913260	2453.917746
347.304241	2454.295832
347.695159	2451.578650
348.086012	2454.247941
348.476802	2448.778289
348.867528	2447.230655
349.258191	2442.996086
349.648789	2445.798967
350.039324	2443.696806
350.429796	2445.491457
350.820203	2444.972218
351.210548	2442.386106
351.600828	2439.847885
351.991045	2440.851075
352.381198	2439.525252
352.771288	2443.164965
353.161314	2439.132042
353.551276	2442.186981
353.941175	2438.567432
354.331010	2439.250509
354.720782	2442.776796
355.110490	2443.802671
355.500135	2441.987855
355.889717	2439.694130
356.279235	2440.858637
356.668689	2444.180757
357.058080	2441.947526
357.447408	2440.505756
357.836672	2440.266301
358.225873	2442.192022
358.615010	2440.987186
359.004084	2447.525563
359.393095	2445.796447
359.782043	2447.086982
360.170927	2442.839810
360.559748	2447.880964
360.948505	2451.465224
361.337199	2454.568055
361.725830	2450.852724
362.114398	2451.916408
362.502903	2453.832046
362.891344	2452.100410
363.279722	2454.628548
363.668037	2452.256686
364.056289	2454.583178
364.444478	2454.026131
364.832603	2456.060236
365.220665	2454.835236
365.608665	2457.401183
365.996601	2457.093673
366.384474	2456.829012
366.772284	2457.958231
367.160031	2460.302367
367.547715	2460.289764
367.935336	2462.941411
368.322893	2461.061061
368.710388	2462.565845
369.097820	2465.782101
369.485189	2466.089612
369.872495	2467.218830
370.259738	2466.134982
370.646918	2468.222020
371.034035	2468.607668
371.421090	2465.923254
371.808081	2467.977524
372.195010	2469.688996
372.581875	2472.305354
372.968678	2470.651856
373.355418	2473.323668
373.742096	2472.887608
374.128710	2475.859368
374.515262	2473.916003
374.901751	2474.891466
375.288177	2474.533544
375.674540	2476.731488
376.060841	2483.249699
376.447079	2479.488999
376.833254	2481.586119
377.219367	2475.400623
377.605417	2481.233238
377.991404	2479.040336
378.377329	2480.308186
378.763191	2479.894812
379.148991	2487.693477
379.534727	2486.914618
379.920402	2487.033085
380.306013	2489.591471
380.691563	2491.794455
381.077049	2491.998622
381.462474	2490.458549
381.847835	2496.596154
382.233134	2498.050527
382.618371	2497.609426
383.003545	2501.952380
383.388657	2503.368944
383.773706	2506.370952
384.158693	2507.936230
384.543618	2513.030316
384.928480	2518.691532
385.313280	2521.479290
385.698017	2531.526309
386.082692	2537.752134
386.467305	2546.296890
386.851856	2561.432954
387.236344	2575.104564
387.620770	2586.880699
388.005133	2603.697988
388.389435	2626.526853
388.773674	2647.918990
389.157851	2678.803619
389.541965	2705.899821
389.926018	2730.621639
390.310008	2771.134872
390.693936	2813.616676
391.077802	2858.145187
391.461606	2907.992117
391.845348	2958.869962
392.229027	3018.456400
392.612645	3096.800972
392.996200	3165.660613
393.379694	3243.458220
393.763125	3339.414063
394.146494	3414.731422
394.529801	3505.517562
394.913047	3622.079121
395.296230	3689.683514
395.679351	3773.694343
396.062410	3911.242226
396.445408	3959.574288
396.828343	4077.418821
397.211217	4201.342986
397.594028	4247.240171
397.976778	4398.139550
398.359466	4542.913926
398.742092	4619.967963
399.124656	4775.749699
399.507158	4941.124751
399.889598	5047.067120
400.271977	5237.393362
400.654294	5346.952759
401.036549	5538.022572
401.418742	5649.301002
401.800874	5905.041257
402.182944	6059.393826
402.564952	6362.301638
402.946898	6375.259923
403.328783	6515.421644
403.710606	6736.461117
404.092367	7000.093299
404.474067	7330.137641
404.855705	7321.955848
405.237282	7401.704382
405.618797	7793.646531
406.000250	8068.722132
406.381642	8431.428110
406.762972	8516.134618
407.144240	8481.766552
407.525447	8774.564329
407.906593	8841.135286
408.287677	9144.902614
408.668700	9364.402014
409.049661	9450.565416
409.430560	9668.980968
409.811399	9744.787319
410.192176	9977.943205
410.572891	10127.904929
410.953545	10622.346339
411.334138	10277.738103
411.714669	10856.039108
412.095139	10368.206650
412.475547	10868.664678
412.855894	10813.849692
413.236180	11166.579226
413.616405	10960.287649
413.996568	11279.062492
414.376670	11322.028246
414.756711	11266.583116
415.136691	11573.163407
415.516609	11788.811366
415.896466	11905.360322
416.276262	12214.078063
416.655997	12670.962877
417.035670	12764.622475
417.415283	13430.712653
417.794834	13545.343450
418.174324	13345.854910
418.553753	13294.825831
418.933121	13792.327221
419.312428	13644.255930
419.691674	13581.178493
420.070859	14048.526222
420.449983	13742.084562
420.829045	14284.001038
421.208047	14061.083736
421.586988	14520.237069
421.965867	14785.240445
422.344686	14800.484894
422.723444	15364.519433
423.102141	14089.515843
423.480777	15266.852118
423.859352	14785.086689
424.237866	15883.881787
424.616319	15603.391987
424.994712	16247.059113
425.373044	16046.156530
425.751314	16717.950774
426.129524	15862.749271
426.507673	16938.571831
426.885762	16646.557953
427.263789	16837.103486
427.641756	17011.131678
428.019662	17073.546204
428.397508	17120.381044
428.775292	17401.906801
429.153016	17373.918315
429.530679	17456.663814
429.908282	17485.957959
430.285824	17215.971403
430.663305	17909.561076
431.040726	17515.075664
431.418086	17350.310592
431.795385	17979.018093
432.172624	18408.607580
432.549802	17967.834294
432.926920	18161.752359
433.303977	18037.790386
433.680974	18287.965207
434.057910	18570.955419
434.434786	18602.394575
434.811601	18525.706022
435.188355	19544.830725
435.565050	19206.740701
435.941683	19158.060799
436.318257	20028.940291
436.694770	19833.194807
437.071222	20426.503327
437.447614	19511.947278
437.823946	19535.900321
438.200218	19688.634680
438.576429	19453.951324
438.952580	19743.094265
439.328670	19690.182314
439.704700	20106.437949
440.080670	19687.843218
440.456580	20261.100549
440.832429	20441.578897
441.208218	19446.087124
441.583947	19879.976715
441.959616	19987.895216
442.335224	20225.207533
442.710773	20352.816781
443.086261	20884.930734
443.461689	20243.005327
443.837057	20368.517455
444.212365	21010.210969
444.587612	21001.484732
444.962800	20589.811506
445.337927	21021.170437
445.712995	19755.311501
446.088002	21579.841189
446.462949	21776.675562
446.837837	21942.133792
447.212664	21907.198596
447.587431	24672.853734
447.962139	27578.282424
448.336786	29944.378229
448.711374	28415.877698
449.085901	24775.022799
449.460369	24707.640216
449.834776	24627.858916
450.209124	27057.753043
450.583412	26624.430582
450.957640	27165.855546
451.331808	25831.898183
451.705917	24470.317817
452.079965	24497.605583
452.453954	24855.058678
452.827883	24741.587346
453.201752	24542.497058
453.575562	24713.913932
453.949311	25803.483719
454.323001	25868.179367
454.696632	25634.042976
455.070202	27162.054516
455.443713	27311.701168
455.817164	27887.300114
456.190556	28414.451051
456.563888	27860.040074
456.937160	28296.266240
457.310373	26648.103840
457.683526	27080.334891
458.056619	27050.881950
458.429653	26996.427406
458.802628	27569.185662
459.175542	27684.880143
459.548398	28977.391660
459.921194	30524.284841
460.293930	31200.273325
460.666607	33220.508167
461.039224	34967.696473
461.411782	35358.683324
461.784280	34147.195752
462.156719	33649.094464
462.529099	33069.001329
462.901419	31783.660854
463.273680	30754.834450
463.645882	30831.462509
464.018024	30809.160445
464.390106	31655.338283
464.762130	34331.283567
465.134094	38370.346769
465.505999	43658.330631
465.877845	48239.169158
466.249631	49381.718951
466.621358	47621.037997
466.993026	45455.161700
467.364634	43368.650808
467.736184	41422.694847
468.107674	40176.705618
468.479105	39408.559801
468.850477	38724.976819
469.221790	37293.959600
469.593043	35589.893324
469.964238	34707.575455
470.335373	34630.657529
470.706449	36280.181041
471.077467	38802.724014
471.448425	43378.486099
471.819324	46253.904800
472.190164	44442.560250
472.560945	40913.457650
472.931667	37802.861560
473.302330	36696.005657
473.672934	35877.402931
474.043479	36377.613942
474.413965	35609.193382
474.784393	35230.585084
475.154761	36106.558662
475.525070	36153.204458
475.895321	35700.334923
476.265513	36288.342669
476.635645	37238.703513
477.005719	37061.756492
477.375734	37545.311531
477.745691	38223.533246
478.115588	39528.922390
478.485427	41490.692451
478.855207	44837.365775
479.224928	47455.917523
479.594591	49076.252754
479.964194	48069.925021
480.333739	48187.915747
480.703226	48201.189105
481.072653	48827.524744
481.442022	49327.024952
481.811333	49602.410584
482.180584	48317.838884
482.549777	47785.334242
482.918912	47270.599667
483.287988	46978.500089
483.657005	46140.093190
484.025964	45504.171797
484.394864	45501.157187
484.763706	45081.624802
485.132489	44191.301581
485.501213	44034.683013
485.869879	44186.802351
486.238487	43794.217454
486.607036	43989.347916
486.975527	43447.764156
487.343959	43661.940097
487.712333	43747.198612
488.080648	43660.636959
488.448905	44095.091159
488.817104	43902.708126
489.185244	44842.439697
489.553326	46508.999788
489.921350	49226.280013
490.289315	52132.386738
490.657222	52788.795381
491.025070	53080.214402
491.392861	52162.502592
491.760593	50883.672766
492.128267	49181.524649
492.495883	47663.764296
492.863440	46257.085768
493.230939	44916.940389
493.598380	43840.870812
493.965763	43516.961554
494.333088	42697.239692
494.700354	42228.455234
495.067563	41958.047742
495.434713	41823.824500
495.801805	41880.451781
496.168839	41517.173632
496.535815	41186.237005
496.902733	41217.204813
497.269593	40826.742242
497.636395	40740.944324
498.003139	41133.443522
498.369825	40610.350713
498.736453	40917.044431
499.103023	40448.471702
499.469535	40325.777579
499.835989	40414.582545
500.202385	40084.354201
500.568723	40107.538467
500.935003	40290.925562
501.301226	40092.740160
501.667390	40707.937370
502.033497	40965.222738
502.399546	40382.157843
502.765537	39725.701310
503.131470	40094.310479
503.497345	40440.700763
503.863163	39109.878997
504.228923	39726.107123
504.594625	40126.896498
504.960269	39422.228890
505.325856	40108.100556
505.691385	39473.366354
506.056856	39622.549220
506.422270	40026.706086
506.787625	39621.440166
507.152924	39804.386160
507.518164	39910.275597
507.883347	39138.792535
508.248472	39383.570802
508.613540	39852.279642
508.978550	40146.672944
509.343503	39912.314743
509.708398	40091.986507
510.073236	40621.615172
510.438016	40628.070369
510.802738	40075.310371
511.167403	40686.146982
511.532010	40909.840622
511.896561	41219.543909
512.261053	42032.261088
512.625488	41594.986362
512.989866	41466.111785
513.354186	41320.230875
513.718449	41300.565333
514.082655	41978.726555
514.446803	41656.143120
514.810894	42163.641119
515.174927	42091.287958
515.538904	42004.386028
515.902822	42659.163857
516.266684	42119.026907
516.630488	42540.616083
516.994235	42388.474060
517.357925	42967.753048
517.721558	43125.770536
518.085133	43437.414667
518.448651	43574.103033
518.812112	43339.737270
519.175516	43435.645222
519.538863	43793.103359
519.902152	43759.471301
520.265385	44224.353906
520.628560	44254.512609
520.991678	44046.098706
521.354739	44302.111183
521.717743	44601.696874
522.080690	44496.530843
522.443580	45060.353654
522.806413	45091.739878
523.169189	45058.405248
523.531908	45229.615435
523.894569	45102.354027
524.257174	45270.552125
524.619722	45562.182875
524.982213	45544.707715
525.344647	45463.098996
525.707025	45529.662392
526.069345	45923.820129
526.431608	45860.470469
526.793815	46164.089083
527.155964	45712.356328
527.518057	45880.491411
527.880093	45656.412123
528.242072	46180.377051
528.603995	45881.575259
528.965860	45883.823614
529.327669	45988.503174
529.689421	45883.780764
530.051117	45852.828080
530.412755	46004.841553
530.774337	46047.439303
531.135862	45877.950670
531.497331	46085.235354
531.858743	45989.042577
532.220098	46336.320104
532.581396	46048.825621
532.942638	45693.807402
533.303824	46005.484300
533.664953	45980.288613
534.026025	45689.799685
534.387040	46162.533887
534.747999	46121.730788
535.108902	46277.310878
535.469748	45814.240567
535.830537	45922.494305
536.191270	46117.221475
536.551947	45759.470952
536.912567	46089.480006
537.273131	46186.494491
537.633638	45695.511312
537.994089	46042.816565
538.354483	45644.618343
538.714821	46207.017028
539.075103	46549.870942
539.435328	46314.943091
539.795497	46202.885803
540.155609	46200.604681
540.515665	46659.944537
540.875665	46100.464680
541.235609	46446.116435
541.595496	46400.446101
541.955328	47081.931963
542.315102	46461.726368
542.674821	46253.385561
543.034483	46266.217818
543.394090	46240.936432
543.753640	46207.357306
544.113134	47213.427941
544.472571	46224.393886
544.831953	47478.355699
545.191278	46673.772422
545.550548	46406.006494
545.909761	46861.963736
546.268918	47070.939727
546.628019	47365.174233
546.987064	46940.709080
547.346053	46223.022692
547.704986	47086.874815
548.063863	46664.907553
548.422684	46843.006477
548.781449	46708.296764
549.140158	47090.675845
549.498811	46934.982329
549.857408	46389.030408
550.215949	47222.285248
550.574434	47158.592790
550.932864	46902.723985
551.291237	47652.038573
551.649555	47252.270031
552.007817	47498.495109
552.366022	47142.317425
552.724173	47314.331676
553.082267	47713.638952
553.440305	48022.465078
553.798288	47334.382866
554.156215	47647.131009
554.514086	47845.265999
554.871902	47586.579190
555.229661	47606.322869
555.587365	47428.246630
555.945014	47519.695681
556.302606	47444.514433
556.660143	47686.898151
557.017625	47764.179040
557.375050	47571.559072
557.732421	47893.834996
558.089735	47885.164212
558.446994	47812.783325
558.804197	48277.663409
559.161345	48205.317810
559.518437	47462.657546
559.875474	47760.751055
560.232455	47926.773895
560.589381	48087.546374
560.946251	47801.907035
561.303065	48467.616606
561.659825	48284.688257
562.016528	47961.996437
562.373177	47682.623253
562.729770	48152.393256
563.086307	47670.032971
563.442789	48129.211510
563.799216	48159.299637
564.155587	47964.842169
564.511904	47976.469590
564.868164	48077.779138
565.224370	48317.339810
565.580520	48060.528310
565.936615	48255.106766
566.292654	47993.962394
566.648638	48223.178618
567.004567	48165.603600
567.360441	48199.916214
567.716260	48071.891071
568.072023	48350.709728
568.427732	48345.373667
568.783385	47891.319460
569.138982	48303.229621
569.494525	48259.663969
569.850013	48031.002272
570.205445	47979.085949
570.560823	47940.304352
570.916145	47813.292481
571.271412	47831.100357
571.626625	47579.110720
571.981782	47641.799989
572.336884	47333.687187
572.691931	47653.069488
573.046923	47256.870084
573.401860	47099.684387
573.756743	47085.758199
574.111570	47205.609111
574.466342	47064.003100
574.821059	47171.646858
575.175722	46687.751541
575.530330	46696.699589
575.884882	46428.432067
576.239380	46384.629481
576.593823	46361.508229
576.948211	46279.211393
577.302544	45793.700386
577.656823	45842.097984
578.011047	46070.915957
578.365216	45773.558456
578.719330	45586.924858
579.073389	45423.465445
579.427394	45504.388567
579.781344	45487.019271
580.135239	45128.835208
580.489080	45210.882508
580.842866	44703.059354
581.196597	45143.026056
581.550273	45103.974758
581.903895	44973.300489
582.257463	45377.588424
582.610975	44775.440241
582.964434	45054.465586
583.317837	44694.824630
583.671186	44531.745823
584.024481	44761.768632
584.377721	44296.870904
584.730906	44567.477522
585.084037	44588.995687
585.437113	44310.623172
585.790135	44329.905585
586.143103	43941.577943
586.496016	44079.970218
586.848874	44098.763640
587.201679	44105.622130
587.554428	43594.980972
587.907124	43785.294612
588.259765	43548.698138
588.612352	43776.205411
588.964884	43172.018082
589.317362	43465.972803
589.669786	43386.907347
590.022155	43154.094259
590.374470	43595.462402
590.726731	43121.634269
591.078937	42631.939105
591.431090	42732.973911
591.783188	42381.940724
592.135232	42072.950761
592.487222	42309.280053
592.839157	42391.937333
593.191038	42076.701380
593.542866	41840.964423
593.894639	41243.814544
594.246358	41517.839064
594.598022	41497.351815
594.949633	41109.621549
595.301190	41045.548484
595.652692	40881.842054
596.004141	41212.887065
596.355535	40232.077652
596.706876	40205.258714
597.058162	40023.389007
597.409395	40494.187405
597.760573	40568.708262
598.111698	40156.604017
598.462768	40166.615749
598.813785	40210.614940
599.164748	39666.079584
599.515657	40055.934696
599.866511	39514.287921
600.217312	40129.762394
600.568060	39100.625960
600.918753	39851.536072
601.269392	39811.189197
601.619978	39464.778749
601.970510	39674.823465
602.320988	39857.885405
602.671412	40163.091983
603.021783	39900.258824
603.372100	39560.984129
603.722363	39666.039254
604.072572	39725.683666
604.422728	39742.672355
604.772830	39567.081404
605.122878	39665.492289
605.472872	39595.901681
605.822813	39864.655675
606.172701	39708.868898
606.522534	39949.788160
606.872314	40215.189787
607.222041	39953.490888
607.571714	40341.044713
607.921333	39798.959358
608.270899	40113.086257
608.620411	40434.847983
608.969870	40218.186753
609.319276	40221.435777
609.668627	40274.317480
610.017926	40754.436973
610.367171	40909.202916
610.716362	41007.618842
611.065500	40940.180807
611.414585	41135.462504
611.763616	41419.738210
612.112594	41369.593853
612.461518	41582.133940
612.810389	41855.777853
613.159207	41734.802764
613.507971	41797.744090
613.856682	42279.035651
614.205340	42152.432113
614.553945	42867.378634
614.902496	42313.741475
615.250994	42791.720997
615.599439	42841.542721
615.947830	43059.859970
616.296169	43106.430149
616.644454	43231.806166
616.992686	43391.560332
617.340864	43921.567082
617.688990	43645.838652
618.037063	44232.815483
618.385082	44206.200711
618.733048	44516.642526
619.080961	44535.224219
619.428821	44520.632600
619.776628	44645.958205
620.124382	44450.283298
620.472083	44592.297643
620.819731	44713.842382
621.167326	44383.916507
621.514868	44366.884969
621.862357	43930.943628
622.209793	43954.841218
622.557176	43621.757060
622.904506	43375.090882
623.251783	43043.352712
623.599007	42794.700319
623.946179	42595.799073
624.293297	42535.443859
624.640363	41949.046761
624.987376	41930.107146
625.334336	41694.801208
625.681243	41334.646054
626.028097	41304.512557
626.374899	41149.018167
626.721647	41120.167643
627.068343	41022.520493
627.414987	40785.979472
627.761577	40556.624616
628.108115	40891.233723
628.454600	40348.160302
628.801032	40531.194516
629.147412	40497.033137
629.493739	40489.678093
629.840014	40135.723558
630.186236	40480.919088
630.532405	40097.539338
630.878521	40299.671964
631.224585	40189.111898
631.570597	39883.885156
631.916556	40058.377135
632.262462	40005.518116
632.608316	40012.361483
632.954117	39909.035473
633.299866	39898.812013
633.645562	39817.596504
633.991206	39325.973098
634.336797	38896.003004
634.682336	38900.386288
635.027823	38634.213365
635.373257	38455.643093
635.718639	38226.746982
636.063968	38089.219263
636.409245	37501.730756
636.754470	37564.533451
637.099642	37326.762388
637.444762	36850.625407
637.789829	36971.567729
638.134845	36628.844885
638.479808	36583.890396
638.824719	36488.274831
639.169577	36089.912772
639.514383	36145.158777
639.859137	35854.132965
640.203839	36094.331343
640.548489	35720.998612
640.893086	35787.952697
641.237632	35538.405500
641.582125	35647.251573
641.926566	35598.609479
642.270955	35567.122432
642.615292	35559.732101
642.959576	35543.794493
643.303809	35555.071554
643.647990	35686.625505
643.992118	35666.995252
644.336195	35659.854457
644.680219	35742.917549
645.024192	36039.944855
645.368112	36569.961688
645.711981	36576.394200
646.055797	37449.438867
646.399562	37358.914868
646.743274	38322.380191
647.086935	38763.992829
647.430544	38646.801126
647.774101	38766.329404
648.117606	39024.703662
648.461059	39317.551851
648.804460	38928.578941
649.147810	38314.059766
649.491108	38058.531239
649.834354	37705.872281
650.177548	36872.773717
650.520690	36414.812616
650.863781	36443.678263
651.206820	36282.875538
651.549807	35837.597980
651.892742	35358.711050
652.235626	35158.456255
652.578458	35031.199888
652.921238	34422.629275
653.263967	34755.950367
653.606644	34432.535142
653.949269	34384.412287
654.291843	33984.754652
654.634365	34372.242942
654.976836	33987.078624
655.319255	33980.814990
655.661622	33983.882532
656.003938	33748.453086
656.346203	33598.735858
656.688416	33832.400900
657.030577	33630.759787
657.372687	33461.787872
657.714746	33750.797222
658.056753	33866.930283
658.398708	33312.645336
658.740612	33372.672875
659.082465	33636.022752
659.424266	33457.588591
659.766016	33561.849735
660.107715	33461.097234
660.449362	33573.761982
660.790958	33558.144487
661.132503	33590.228911
661.473996	33631.735251
661.815438	33733.808534
662.156829	33935.868062
662.498168	33688.352450
662.839456	33730.645210
663.180693	33875.172570
663.521879	34040.015780
663.863013	33991.623224
664.204097	33984.333715
664.545129	34438.423210
664.886110	34408.188890
665.227040	34475.208509
665.567918	34593.116057
665.908746	34655.528062
666.249522	34822.942261
666.590248	34817.301209
666.930922	34937.061381
667.271545	34882.453082
667.612118	34990.248074
667.952639	34777.851660
668.293109	34828.358980
668.633528	34721.206735
668.973896	34633.583919
669.314213	34679.992782
669.654480	34413.298099
669.994695	34448.180363
670.334859	34330.386242
670.674973	34216.161257
671.015035	34386.554778
671.355047	34333.370605
671.695008	34283.359838
672.034918	34166.001777
672.374777	34262.227321
672.714585	34107.335349
673.054342	34310.279600
673.394049	34073.708332
673.733705	34354.979511
674.073310	34009.957900
674.412864	34090.697020
674.752368	33697.940724
675.091820	33996.936600
675.431223	33547.674010
675.770574	33293.511636
676.109875	33153.228928
676.449125	32867.662686
676.788324	32809.785198
677.127473	32264.644904
677.466571	32180.508046
677.805619	31822.634014
678.144616	31833.240602
678.483562	31741.617631
678.822458	31417.942786
679.161303	31353.103465
679.500098	31245.401734
679.838842	31132.031225
680.177535	31307.786013
680.516179	31564.700857
680.854771	31803.187763
681.193314	32672.970804
681.531805	33814.129238
681.870247	34602.737099
682.208638	35329.021175
682.546978	35571.173000
682.885268	35646.306357
683.223508	35113.957990
683.561697	34779.157319
683.899836	34585.864357
684.237925	34082.235444
684.575963	33925.710137
684.913951	33447.793629
685.251889	33610.474184
685.589776	33592.714199
685.927614	33583.009978
686.265401	33718.364959
686.603137	33827.410158
686.940824	34345.779405
687.278460	34713.009819
687.616046	34843.575703
687.953582	35457.240402
688.291068	35311.157846
688.628504	35598.722905
688.965889	35541.909102
689.303224	35156.487684
689.640510	34801.275381
689.977745	34069.292281
690.314930	33264.734210
690.652065	32740.350866
690.989150	31989.690291
691.326185	31096.594434
691.663170	30390.021270
692.000105	29627.042635
692.336990	28933.626883
692.673825	28469.709659
693.010610	27971.056364
693.347345	27375.907824
693.684030	26713.805198
694.020665	26420.611690
694.357251	25752.348775
694.693786	25702.827000
695.030272	25469.562729
695.366707	24907.975670
695.703093	24622.114521
696.039429	24608.117757
696.375716	24343.184958
696.711952	24310.815709
697.048139	24150.275124
697.384276	23964.052380
697.720363	24096.705302
698.056400	23882.456264
698.392388	23672.230066
698.728326	23628.810608
699.064214	23426.698148
699.400053	23380.064954
699.735842	23005.008149
700.071581	22717.647256
700.407270	22439.423455
700.742910	22246.967324
701.078501	21968.330148
701.414042	21686.365811
701.749533	21386.424719
702.084974	21029.516068
702.420366	21239.676730
702.755709	20793.600150
703.091002	20494.891620
703.426246	20518.683346
703.761440	20410.991697
704.096584	20134.244953
704.431679	20092.531926
704.766725	20009.385655
705.101721	19933.990158
705.436668	20028.849550
705.771565	19698.611123
706.106413	20055.933149
706.441212	20028.536998
706.775961	20161.041207
707.110661	20226.445137
707.445311	20593.534398
707.779913	20432.696384
708.114465	20664.695326
708.448967	20949.926331
708.783421	21665.271103
709.117825	21930.231628
709.452180	22153.884939
709.786485	22553.782030
710.120742	23354.586962
710.454949	23371.767215
710.789107	23844.483772
711.123216	24548.932090
711.457275	24670.789382
711.791286	25221.933691
712.125247	25285.427023
712.459159	24975.943027
712.793023	25648.858928
713.126837	24538.948085
713.460602	24801.083044
713.794318	24419.510548
714.127985	24033.685838
714.461602	23133.451708
714.795171	23088.025870
715.128691	22061.417575
715.462162	21514.548164
715.795584	21095.598033
716.128957	20825.493010
716.462281	20415.856410
716.795556	20181.518373
717.128782	19688.712818
717.461960	19132.386203
717.795088	19054.437361
718.128167	18649.804107
718.461198	18186.764043
718.794180	18045.619298
719.127113	17676.755550
719.459997	17468.170248
719.792833	17118.319212
720.125619	17087.106908
720.458357	16770.981192
720.791046	16592.612566
721.123686	16430.846980
721.456278	16191.145156
721.788821	16148.653270
722.121315	15882.331633
722.453761	15968.497555
722.786158	15889.709361
723.118506	15891.009979
723.450805	15749.764410
723.783056	15916.684576
724.115259	15812.927547
724.447412	15741.239819
724.779518	15977.037269
725.111574	16006.364182
725.443582	16209.641149
725.775542	16182.469330
726.107453	16652.758572
726.439315	16537.933690
726.771129	16942.498889
727.102895	17312.617884
727.434612	17519.642949
727.766281	17665.601997
728.097901	17919.668589
728.429473	17951.440461
728.760996	17937.773893
729.092471	18025.618520
729.423897	17905.455056
729.755276	17753.829751
730.086606	17882.379174
730.417887	18405.280419
730.749120	18924.846940
731.080305	19106.749415
731.411442	19433.920299
731.742530	19506.845631
732.073570	19600.777450
732.404562	19902.528317
732.735506	19710.319203
733.066401	19429.015257
733.397249	18910.348581
733.728048	18276.882230
734.058798	17421.143844
734.389501	16739.930204
734.720156	16265.781959
735.050762	15742.570683
735.381320	15374.243819
735.711831	15136.581141
736.042293	14770.308547
736.372707	14787.297235
736.703073	14571.424945
737.033391	14773.663435
737.363661	14723.022524
737.693883	14823.729654
738.024056	14997.107538
738.354182	15178.052193
738.684260	15469.831658
739.014290	15695.488827
739.344272	15885.643671
739.674207	16163.595250
740.004093	16282.037159
740.333931	16271.246570
740.663722	16310.854915
740.993464	16291.658202
741.323159	16135.054757
741.652806	15854.580081
741.982405	15639.214427
742.311956	15303.627336
742.641460	15179.168809
742.970915	14872.833013
743.300323	14526.987174
743.629683	14317.391121
743.958996	14037.881825
744.288260	13769.228654
744.617477	13466.308240
744.946647	13395.258218
745.275768	13119.486938
745.604842	12933.312085
745.933869	12761.002926
746.262847	12705.386397
746.591778	12639.155717
746.920662	12527.448789
747.249498	12526.995085
747.578286	12649.182572
747.907027	12794.703040
748.235720	13018.051361
748.564365	13038.697407
748.892963	12937.939865
749.221514	12999.741890
749.550017	12858.148482
749.878473	12814.318169
750.206881	12588.502203
750.535242	12493.637770
750.863555	12414.317735
751.191821	12309.615490
751.520039	12328.103922
751.848210	12227.041390
752.176334	12270.080241
752.504411	12173.532063
752.832440	12015.539781
753.160421	12078.738206
753.488356	11949.520830
753.816243	11853.199503
754.144082	11712.518544
754.471875	11654.734318
754.799620	11598.848086
755.127318	11572.687018
755.454969	11532.887109
755.782572	11482.881383
756.110129	11491.836993
756.437638	11407.430433
756.765100	11409.865311
757.092515	11406.495299
757.419882	11427.032960
757.747203	11423.476426
758.074477	11498.226655
758.401703	11452.165633
758.728882	11611.045158
759.056014	11660.206490
759.383099	11768.147676
759.710138	11875.380580
760.037129	11952.822786
760.364073	11976.420427
760.690970	11951.509565
761.017820	11953.175667
761.344623	12148.222950
761.671379	12468.426960
761.998088	13107.221811
762.324751	14666.299461
762.651366	17572.789314
762.977935	21250.908421
763.304456	23488.661490
763.630931	23984.335462
763.957359	22801.305204
764.283740	20882.823532
764.610074	18991.793463
764.936362	16837.368147
765.262602	15300.731193
765.588796	13819.872086
765.914943	12780.713838
766.241044	11917.985892
766.567097	11281.862853
766.893104	10728.611342
767.219064	10357.214414
767.544978	9969.811824
767.870845	9657.154421
768.196665	9461.308115
768.522438	9267.526161
768.848165	9098.024924
769.173846	8929.451260
769.499479	8804.667579
769.825066	8646.554309
770.150607	8464.611505
770.476101	8398.562308
770.801548	8293.237480
771.126949	8148.183320
771.452303	8057.986995
771.777611	7894.830051
772.102872	7876.092082
772.428087	7746.824294
772.753256	7624.830892
773.078378	7535.489043
773.403453	7393.431848
773.728482	7292.286137
774.053465	7224.643935
774.378401	7139.055225
774.703291	7043.490072
775.028135	6944.365863
775.352932	6908.505616
775.677683	6819.816596
776.002388	6736.055304
776.327046	6736.781230
776.651658	6647.956100
776.976224	6565.558440
777.300743	6550.087139
777.625216	6486.765205
777.949643	6443.665861
778.274024	6449.516120
778.598359	6379.514657
778.922647	6376.076590
779.246889	6341.090983
779.571086	6345.328072
779.895236	6361.225351
780.219339	6348.927456
780.543397	6349.270255
780.867409	6397.950157
781.191374	6396.500825
781.515294	6367.229365
781.839167	6419.753147
782.162995	6387.822479
782.486776	6338.240210
782.810511	6294.089785
783.134201	6218.490121
783.457844	6214.167332
783.781441	6156.385626
784.104993	6117.092353
784.428498	6089.734011
784.751958	6068.969498
785.075372	6043.907402
785.398739	6006.726372
785.722061	6033.383993
786.045337	6033.935999
786.368568	6139.757380
786.691752	6166.609086
787.014891	6407.674543
787.337983	6686.185690
787.661030	7130.510469
787.984031	7565.012560
788.306987	7824.722724
788.629897	7905.696258
788.952760	7826.769433
789.275579	7651.788462
789.598351	7352.601023
789.921078	7086.806186
790.243759	6804.665408
790.566395	6600.539007
790.888984	6409.852321
791.211529	6262.282625
791.534027	6096.940340
791.856480	5957.043280
792.178888	5897.855093
792.501249	5829.549978
792.823566	5722.536365
793.145836	5719.461261
793.468062	5701.464342
793.790241	5663.355739
794.112375	5704.420978
794.434464	5795.464217
794.756507	5826.205173
795.078505	5948.349810
795.400457	6169.653943
795.722364	6406.462145
796.044226	6598.144458
796.366042	6762.004644
796.687812	6703.560027
797.009538	6739.168217
797.331218	6645.806048
797.652852	6576.938845
797.974442	6448.596109
798.295986	6382.075563
798.617484	6254.718373
798.938938	6145.622763
799.260346	6077.441157
799.581709	5938.244817
799.903026	5887.051900
800.224299	5810.864942
800.545526	5695.823290
800.866708	5629.358197
801.187845	5583.952525
801.508936	5497.022868
801.829983	5470.639989
802.150984	5366.280543
802.471940	5338.234083
802.792851	5321.744469
803.113717	5298.973577
803.434538	5273.556080
803.755314	5241.073405
804.076045	5223.182350
804.396731	5186.460065
804.717372	5211.043251
805.037967	5206.206264
805.358518	5236.375049
805.679024	5295.127177
805.999485	5304.866686
806.319901	5320.915199
806.640272	5338.027396
806.960598	5387.748297
807.280879	5374.726996
807.601115	5411.650927
807.921306	5380.453747
808.241453	5375.009301
808.561554	5387.665118
808.881611	5350.234550
809.201623	5346.683057
809.521590	5298.839987
809.841513	5283.073778
810.161390	5298.819822
810.481223	5209.972006
810.801011	5199.488927
811.120755	5168.576571
811.440453	5119.110249
811.760107	5089.649746
812.079716	5064.728802
812.399281	5011.232078
812.718801	5003.055326
813.038276	4971.384277
813.357707	4935.536632
813.677093	4959.441783
813.996434	4897.440632
814.315731	4917.829579
814.634983	4915.510648
814.954191	4920.352677
815.273354	4985.897759
815.592473	5021.236247
815.911547	5096.029326
816.230577	5151.671062
816.549562	5238.867900
816.868502	5293.007372
817.187399	5350.405949
817.506250	5431.160193
817.825058	5461.956602
818.143821	5616.641887
818.462539	5787.814266
818.781213	6023.808321
819.099843	6384.036572
819.418429	7020.131885
819.736970	7644.186402
820.055466	8365.383954
820.373919	9293.944328
820.692327	10764.816909
821.010691	13487.254235
821.329011	19750.058619
821.647286	29380.194976
821.965517	39777.108477
822.283704	45270.264779
822.601847	46793.726678
822.919945	42232.934299
823.237999	37112.707434
823.556010	31891.206309
823.873976	27137.302450
824.191897	22890.430284
824.509775	19781.979205
824.827609	16971.185575
825.145398	15409.065589
825.463144	14630.686229
825.780845	14921.220528
826.098502	16196.808892
826.416116	18656.455909
826.733685	20958.501333
827.051210	21486.685707
827.368692	20051.139012
827.686129	17472.054457
828.003522	14970.575945
828.320872	12729.220972
828.638177	11056.041846
828.955439	9793.696593
829.272656	8715.852531
829.589830	7868.243005
829.906960	7128.481405
830.224046	6586.330514
830.541088	6169.457338
830.858086	5909.268265
831.175041	5701.330751
831.491952	5643.276823
831.808819	5676.631618
832.125642	5924.232930
832.442421	6479.495862
832.759157	7603.164013
833.075849	9379.785095
833.392497	11242.957748
833.709101	12377.424051
834.025662	12123.246553
834.342179	11068.107848
834.658653	9746.985262
834.975083	8631.750961
835.291469	7722.301602
835.607811	6970.721016
835.924110	6444.164935
836.240366	5948.939625
836.556578	5491.233103
836.872746	5128.378411
837.188871	4856.135938
837.504952	4626.980208
837.820990	4456.596770
838.136984	4342.016384
838.452935	4291.645175
838.768842	4325.090710
839.084706	4608.504379
839.400526	5355.159757
839.716303	6269.919973
840.032037	6845.062694
840.347727	6695.978131
840.663373	6093.403971
840.978977	5508.146174
841.294537	5061.567999
841.610054	4725.920414
841.925527	4483.367817
842.240957	4276.337711
842.556344	4085.643464
842.871687	3924.157662
843.186987	3770.122686
843.502244	3650.667504
843.817458	3564.312539
844.132629	3492.569358
844.447756	3442.762758
844.762840	3394.579409
845.077881	3357.249665
845.392879	3323.292453
845.707833	3298.585758
846.022745	3270.244391
846.337613	3258.543873
846.652438	3232.234091
846.967221	3224.498440
847.281960	3200.908361
847.596656	3193.545756
847.911309	3182.447656
848.225919	3166.593227
848.540485	3156.780621
848.855009	3152.593942
849.169490	3140.422077
849.483928	3133.092239
849.798323	3126.684932
850.112675	3114.553396
850.426984	3115.518777
850.741251	3110.243209
851.055474	3106.411932
851.369654	3107.097529
851.683792	3104.329936
851.997887	3108.471243
852.311938	3104.574432
852.625947	3105.920420
852.939914	3102.003443
853.253837	3104.539143
853.567718	3102.391612
853.881555	3101.027980
854.195350	3104.150975
854.509103	3098.406580
854.822812	3099.077053
855.136479	3091.679160
855.450103	3100.254163
855.763685	3090.615477
856.077224	3095.008842
856.390720	3101.211982
856.704173	3111.871502
857.017584	3118.379631
857.330953	3123.635034
857.644278	3128.895478
857.957561	3132.058802
858.270802	3129.036631
858.584000	3131.615181
858.897155	3125.190230
859.210268	3114.760083
859.523339	3104.077878
859.836367	3099.286261
860.149352	3097.799121
860.462295	3090.625559
860.775195	3081.760690
861.088054	3077.846234
861.400869	3077.022005
861.713642	3074.715677
862.026373	3087.565578
862.339062	3088.294025
862.651708	3094.373657
862.964312	3111.211111
863.276873	3119.017337
863.589392	3151.983963
863.901869	3179.617048
864.214303	3201.283927
864.526696	3218.771690
864.839045	3236.448496
865.151353	3249.132039
865.463619	3249.273191
865.775842	3247.493664
866.088023	3257.497833
866.400162	3250.094899
866.712258	3253.895929
867.024313	3249.706730
867.336325	3249.651277
867.648296	3248.975763
867.960224	3248.010382
868.272110	3251.536669
868.583954	3249.348808
868.895755	3258.188472
869.207515	3254.952051
869.519233	3275.366203
869.830909	3281.481123
870.142542	3292.344809
870.454134	3299.939308
870.765684	3316.083603
871.077191	3333.256293
871.388657	3341.566636
871.700081	3361.983309
872.011463	3380.963253
872.322803	3400.205337
872.634101	3419.313831
872.945357	3439.405349
873.256571	3470.279896
873.567744	3483.538131
873.878874	3489.549707
874.189963	3508.990917
874.501010	3509.459744
874.812015	3506.094774
875.122979	3523.469110
875.433900	3521.210673
875.744780	3520.091537
876.055618	3530.756098
876.366415	3526.766025
876.677169	3532.500337
876.987882	3552.054973
877.298554	3574.417532
877.609183	3609.188890
877.919771	3660.923732
878.230317	3730.380749
878.540822	3843.032894
878.851285	3993.055112
879.161707	4220.867375
879.472087	4601.209829
879.782425	5240.697839
880.092722	6446.554442
880.402977	8404.591528
880.713191	10796.336723
881.023363	13194.801777
881.333494	14554.406010
881.643583	15023.051836
881.953631	14618.564775
882.263637	13791.311429
882.573602	12754.333480
882.883526	11783.941611
883.193408	10819.384878
883.503248	9879.116425
883.813048	9044.071975
884.122806	8262.791432
884.432522	7490.002712
884.742197	6812.786707
885.051831	6239.113482
885.361424	5730.188836
885.670975	5330.359801
885.980485	4997.807485
886.289954	4725.897729
886.599382	4505.427906
886.908768	4317.060152
887.218113	4149.875326
887.527417	4014.583359
887.836680	3890.568454
888.145901	3787.575160
888.455082	3710.843758
888.764221	3640.726349
889.073319	3575.977769
889.382376	3543.318654
889.691392	3520.905684
890.000366	3510.997296
890.309300	3505.860360
890.618193	3506.568642
890.927044	3500.045389
891.235855	3509.837830
891.544625	3527.562527
891.853353	3557.847259
892.162041	3617.640385
892.470687	3710.531206
892.779293	3829.585616
893.087858	4006.585569
893.396381	4292.539979
893.704864	4713.378023
894.013306	5284.928923
894.321707	5868.313931
894.630068	6235.740950
894.938387	6277.343072
895.246665	6093.882880
895.554903	5775.425630
895.863100	5434.046253
896.171256	5160.838400
896.479371	4913.655504
896.787446	4685.989434
897.095480	4481.300944
897.403473	4333.461546
897.711425	4182.284904
898.019336	4057.735636
898.327207	3931.447171
898.635038	3830.757684
898.942827	3720.016137
899.250576	3629.282930
899.558284	3545.962739
899.865952	3489.148935
900.173579	3425.476641
900.481165	3380.756566
900.788711	3335.905420
901.096216	3303.916778
901.403681	3273.553908
901.711105	3263.479162
902.018489	3258.533791
902.325832	3290.756846
902.633135	3351.336392
902.940397	3523.476672
903.247619	3936.485804
903.554800	4701.349830
903.861941	5688.281724
904.169041	6406.532721
904.476101	6621.331246
904.783121	6347.062229
905.090100	5942.439057
905.397039	5515.574314
905.703938	5155.368748
906.010796	4824.270805
906.317614	4561.155342
906.624391	4314.857168
906.931129	4117.168319
907.237826	3933.292233
907.544483	3756.660284
907.851099	3580.532451
908.157675	3418.923141
908.464211	3276.876029
908.770707	3170.479956
909.077163	3090.497009
909.383578	3025.715662
909.689954	2982.240751
909.996289	2951.905608
910.302584	2931.423400
910.608839	2913.708785
910.915054	2903.258473
911.221229	2899.896024
911.527363	2903.097156
911.833458	2909.990934
912.139513	2924.383428
912.445527	2936.199893
912.751502	2972.914617
913.057436	3018.216946
913.363331	3077.049732
913.669186	3163.757578
913.975000	3288.589150
914.280775	3479.585866
914.586510	3751.898915
914.892205	4135.964262
915.197859	4641.967558
915.503475	5232.500923
915.809050	5737.765690
916.114585	6038.924221
916.420081	6101.255568
916.725536	6035.576895
917.030952	5791.955574
917.336328	5591.529379
917.641665	5369.781624
917.946961	5140.852746
918.252218	4936.363381
918.557435	4705.642373
918.862612	4501.263913
919.167750	4325.897294
919.472848	4132.148108
919.777906	3963.029999
920.082925	3799.517654
920.387904	3640.383550
920.692843	3528.817775
920.997743	3426.744492
921.302603	3332.958865
921.607423	3263.731220
921.912204	3194.864017
922.216946	3147.348622
922.521647	3095.152515
922.826310	3052.945454
923.130932	3013.543796
923.435516	2974.905872
923.740059	2943.522169
924.044564	2912.360277
924.349028	2887.925804
924.653454	2858.392204
924.957840	2830.670899
925.262186	2811.343115
925.566493	2790.709672
925.870761	2762.080960
926.174989	2752.795154
926.479178	2736.000550
926.783328	2722.407079
927.087438	2705.990562
927.391509	2692.543284
927.695541	2683.149093
927.999533	2671.645180
928.303486	2662.709735
928.607400	2656.297388
928.911275	2650.628610
929.215110	2644.894297
929.518906	2643.450007
929.822663	2638.592855
930.126381	2639.588483
930.430060	2644.790954
930.733699	2645.635347
931.037299	2649.474186
931.340861	2648.536531
931.644383	2653.413847
931.947866	2652.229176
932.251309	2649.272540
932.554714	2647.498053
932.858080	2646.394041
933.161407	2640.448000
933.464694	2637.299799
933.767943	2635.522792
934.071153	2632.558594
934.374323	2628.434930
934.677455	2623.905453
934.980548	2622.483848
935.283602	2619.028137
935.586617	2614.100409
935.889593	2618.350102
936.192530	2620.701800
936.495428	2626.146246
936.798287	2636.067237
937.101108	2650.305976
937.403890	2673.308761
937.706632	2699.971424
938.009336	2734.785632
938.312002	2766.459202
938.614628	2788.148766
938.917216	2804.051086
939.219765	2817.427788
939.522275	2827.454643
939.824747	2825.972544
940.127179	2822.778973
940.429573	2814.725729
940.731929	2815.192036
941.034246	2804.366158
941.336524	2804.739204
941.638763	2796.068419
941.940964	2791.549025
942.243126	2777.252312
942.545250	2763.938625
942.847335	2748.820205
943.149381	2735.851836
943.451389	2721.736606
943.753359	2710.323433
944.055290	2698.743903
944.357182	2688.102027
944.659036	2683.935513
944.960851	2679.942920
945.262628	2674.914369
945.564367	2675.300017
945.866067	2674.939574
946.167729	2676.015861
946.469352	2670.851199
946.770937	2675.347908
947.072484	2663.629746
947.373992	2664.998419
947.675462	2660.501710
947.976893	2653.113899
948.278286	2652.758497
948.579641	2646.981335
948.880958	2647.188022
949.182236	2647.833290
949.483476	2641.741056
949.784678	2640.866416
950.085841	2641.874646
950.386967	2645.665594
950.688054	2649.242293
950.989103	2659.329642
951.290114	2668.466733
951.591087	2679.905111
951.892021	2692.727286
952.192917	2705.562063
952.493776	2715.823332
952.794596	2716.080431
953.095378	2719.331975
953.396122	2717.761656
953.696828	2717.081100
953.997496	2711.490460
954.298126	2700.702391
954.598718	2694.758871
954.899272	2679.756397
955.199788	2671.141065
955.500266	2657.265289
955.800706	2641.060500
956.101108	2624.341513
956.401472	2614.014710
956.701798	2598.820672
957.002087	2585.595205
957.302337	2574.061045
957.602550	2563.383881
957.902724	2552.008517
958.202861	2542.659698
958.502960	2532.126207
958.803022	2527.576565
959.103045	2519.094824
959.403031	2512.281704
959.702979	2508.037053
960.002889	2501.826351
960.302762	2497.606906
960.602596	2493.337048
960.902393	2491.151708
961.202153	2485.324134
961.501875	2483.524442
961.801559	2481.119812
962.101205	2477.533031
962.400814	2476.204687
962.700385	2473.701754
962.999918	2472.199490
963.299414	2471.647484
963.598873	2468.340487
963.898293	2468.136320
964.197677	2466.699591
964.497022	2466.966773
964.796331	2462.976699
965.095601	2463.952162
965.394835	2463.145578
965.694030	2464.153809
965.993189	2462.515434
966.292309	2461.025773
966.591393	2461.739096
966.890439	2459.296657
967.189447	2462.724642
967.488419	2459.198354
967.787353	2459.888993
968.086249	2462.631380
968.385108	2461.040896
968.683930	2459.873869
968.982714	2462.845629
969.281462	2465.298151
969.580172	2464.554580
969.878844	2469.883080
970.177480	2467.344859
970.476078	2473.694192
970.774639	2477.724595
971.073162	2481.495378
971.371649	2477.563278
971.670098	2482.128043
971.968510	2482.894298
972.266885	2484.348671
972.565223	2487.854793
972.863524	2488.694146
973.161788	2493.389980
973.460014	2490.892089
973.758204	2491.212202
974.056356	2492.603560
974.354471	2496.598675
974.652550	2495.761843
974.950591	2494.093221
975.248595	2490.168683
975.546563	2491.103817
975.844493	2488.003508
976.142386	2489.107520
976.440243	2484.668784
976.738062	2483.771459
977.035845	2480.101499
977.333590	2477.780048
977.631299	2478.281642
977.928971	2477.820377
978.226606	2472.446507
978.524204	2471.206383
978.821765	2470.588842
979.119290	2470.835858
979.416777	2465.247739
979.714228	2468.766464
980.011642	2472.365848
980.309020	2475.511528
980.606360	2478.563947
980.903664	2491.726400
981.200931	2500.808038
981.498162	2523.488189
981.795356	2553.462890
982.092513	2591.626945
982.389633	2635.358955
982.686717	2678.649864
982.983764	2713.973229
983.280775	2729.999057
983.577749	2729.157184
983.874686	2723.793396
984.171587	2703.601055
984.468451	2688.520443
984.765279	2670.919254
985.062070	2652.198929
985.358824	2634.106228
985.655543	2608.829883
985.952224	2587.987232
986.248869	2557.268961
986.545478	2531.806093
986.842050	2509.854389
987.138586	2490.927377
987.435086	2479.952785
987.731549	2464.236988
988.027975	2461.436627
988.324366	2454.817592
988.620719	2451.041768
988.917037	2448.284256
989.213318	2445.267126
989.509563	2443.555654
989.805772	2439.628595
990.101944	2436.692123
990.398080	2438.164140
990.694180	2436.230858
990.990244	2437.307144
991.286271	2436.291351
991.582262	2438.615323
991.878217	2437.110539
992.174136	2438.186825
992.470019	2443.863164
992.765865	2440.573812
993.061676	2444.021961
993.357450	2447.636468
993.653188	2449.254678
993.948890	2453.968157
994.244556	2461.025773
994.540186	2472.348204
994.835780	2481.538228
995.131337	2496.976761
995.426859	2511.865809
995.722345	2533.923378
996.017795	2556.535473
996.313208	2566.446382
996.608586	2577.178998
996.903928	2581.557241
997.199234	2580.052456
997.494504	2574.376117
997.789738	2567.628532
998.084936	2560.356668
998.380099	2545.752445
998.675225	2536.007895
998.970316	2520.768487
999.265371	2508.402537
999.560390	2495.172028
999.855373	2485.407313
1000.150320	2471.445838
1000.445232	2463.848819
1000.740108	2458.197685
1001.034948	2448.876592
1001.329752	2442.862495
1001.624521	2440.687237
1001.919254	2431.590475
1002.213951	2430.020156
1002.508613	2432.369334
1002.803239	2429.584096
1003.097829	2424.419434
1003.392384	2427.212233
1003.686903	2427.713828
1003.981386	2422.914650
1004.275834	2424.840370
1004.570246	2425.092428
1004.864623	2422.365164
1005.158964	2421.132602
1005.453270	2415.947775
1005.747540	2419.239648
1006.041775	2419.892478
1006.335974	2417.608835
1006.630138	2418.488517
1006.924266	2418.269226
1007.218359	2415.980542
1007.512416	2415.141190
1007.806438	2417.253434
1008.100425	2414.064904
1008.394376	2419.209402
1008.688292	2416.837539
1008.982172	2415.615059
1009.276017	2417.717220
1009.569827	2416.351067
1009.863602	2412.998700
1010.157341	2413.986766
1010.451045	2413.918711
1010.744714	2413.525501
1011.038347	2410.125242
1011.331945	2412.509708
1011.625508	2413.097003
1011.919036	2414.899215
1012.212528	2412.061045
1012.505986	2413.109605
1012.799408	2408.459141
1013.092795	2412.328227
1013.386147	2411.370407
1013.679464	2410.825963
1013.972745	2410.800757
1014.265992	2413.833011
1014.559204	2410.256312
1014.852380	2411.057856
1015.145521	2411.982907
1015.438628	2409.679100
1015.731699	2409.167423
1016.024736	2412.708834
1016.317737	2411.597259
1016.610703	2412.156827
1016.903635	2409.724471
1017.196531	2409.225396
1017.489393	2411.950140
1017.782219	2405.620971
1018.075011	2413.039029
1018.367768	2413.331416
1018.660490	2412.978535
1018.953177	2412.978535
1019.245829	2412.978535
