Dividing Wavelength (nm)	Counts (n)	Blue Motor Position (mm): 13.200000	Red Motor Position (mm): 0.000000	
326.493990	1975.703810
326.888308	1975.703810
327.282561	1975.703810
327.676750	1952.494337
328.070874	1953.570624
328.464933	1958.326952
328.858929	1967.786677
329.252859	1979.920735
329.646726	1994.091418
330.040528	2011.596825
330.434265	2027.864628
330.827938	2048.888761
331.221547	2068.176215
331.615091	2088.343351
332.008571	2107.101485
332.401986	2130.590741
332.795338	2150.465490
333.188625	2169.072389
333.581847	2189.264731
333.975006	2207.357432
334.368100	2225.077088
334.761129	2241.551578
335.154095	2255.631521
335.546996	2288.421706
335.939833	2338.802998
336.332606	2352.802282
336.725315	2363.885259
337.117960	2372.586290
337.510540	2382.033412
337.903056	2391.432644
338.295508	2396.471277
338.687896	2403.609551
339.080220	2410.848648
339.472480	2416.582960
339.864676	2418.516243
340.256807	2424.487490
340.648875	2424.943714
341.040879	2426.105700
341.432818	2426.866914
341.824694	2427.517223
342.216506	2425.909095
342.608253	2428.679209
342.999937	2426.829106
343.391557	2424.815165
343.783113	2421.644279
344.174605	2421.036820
344.566033	2421.596388
344.957397	2421.596388
345.348697	2416.086407
345.739934	2416.066242
346.131106	2414.236303
346.522215	2412.653381
346.913260	2414.571540
347.304241	2407.735735
347.695159	2406.911507
348.086012	2408.595252
348.476802	2404.756413
348.867528	2401.335991
349.258191	2398.301216
349.648789	2401.351114
350.039324	2398.530588
350.429796	2401.855229
350.820203	2400.158881
351.210548	2395.342059
351.600828	2396.183931
351.991045	2396.856925
352.381198	2396.435989
352.771288	2396.080588
353.161314	2392.866852
353.551276	2395.866339
353.941175	2395.158057
354.331010	2396.892213
354.720782	2395.773077
355.110490	2400.405898
355.500135	2394.732079
355.889717	2397.177039
356.279235	2396.277193
356.668689	2396.612429
357.058080	2397.456823
357.447408	2393.640669
357.836672	2394.744682
358.225873	2395.110166
358.615010	2393.784342
359.004084	2396.211658
359.393095	2399.576628
359.782043	2402.248439
360.170927	2399.997564
360.559748	2398.843140
360.948505	2402.452606
361.337199	2400.221896
361.725830	2405.550395
362.114398	2403.728018
362.502903	2401.827503
362.891344	2404.587535
363.279722	2402.404715
363.668037	2404.101063
364.056289	2405.550395
364.444478	2404.446382
364.832603	2407.776065
365.220665	2405.381517
365.608665	2408.252454
365.996601	2403.334808
366.384474	2404.108625
366.772284	2406.276321
367.160031	2408.161713
367.547715	2406.828328
367.935336	2405.643657
368.322893	2408.527197
368.710388	2408.305386
369.097820	2413.162538
369.485189	2408.045766
369.872495	2410.964594
370.259738	2412.320665
370.646918	2413.754873
371.034035	2408.801939
371.421090	2410.190777
371.808081	2408.912845
372.195010	2410.805798
372.581875	2410.447876
372.968678	2411.622465
373.355418	2412.267733
373.742096	2413.575912
374.128710	2414.011972
374.515262	2411.375448
374.901751	2412.905439
375.288177	2411.304872
375.674540	2411.478792
376.060841	2414.967271
376.447079	2413.611200
376.833254	2412.970974
377.219367	2409.968967
377.605417	2411.786302
377.991404	2411.796385
378.377329	2414.306879
378.763191	2407.735735
379.148991	2414.816036
379.534727	2415.514236
379.920402	2414.780748
380.306013	2417.457601
380.691563	2419.529515
381.077049	2415.080697
381.462474	2416.267888
381.847835	2417.591191
382.233134	2417.689494
382.618371	2415.801582
383.003545	2418.937179
383.388657	2417.742426
383.773706	2419.567323
384.158693	2418.944741
384.543618	2419.189237
384.928480	2420.613363
385.313280	2419.098496
385.698017	2421.374577
386.082692	2420.061357
386.467305	2421.629155
386.851856	2422.060174
387.236344	2419.877354
387.620770	2420.721748
388.005133	2423.789290
388.389435	2422.261820
388.773674	2421.679567
389.157851	2422.120668
389.541965	2424.237952
389.926018	2422.203847
390.310008	2420.905750
390.693936	2420.275606
391.077802	2421.172931
391.461606	2424.507654
391.845348	2423.945566
392.229027	2423.580082
392.612645	2422.836512
392.996200	2422.304670
393.379694	2424.968920
393.763125	2424.227870
394.146494	2425.326842
394.529801	2425.306677
394.913047	2424.875658
395.296230	2427.008067
395.679351	2424.792479
396.062410	2426.811462
396.445408	2428.338931
396.828343	2426.503951
397.211217	2422.224012
397.594028	2422.249217
397.976778	2423.580082
398.359466	2426.004877
398.742092	2424.411872
399.124656	2429.352203
399.507158	2430.247008
399.889598	2427.429003
400.271977	2428.994281
400.654294	2429.334559
401.036549	2429.410176
401.418742	2428.462439
401.800874	2428.911102
402.182944	2429.906730
402.564952	2429.148036
402.946898	2430.057965
403.328783	2425.881369
403.710606	2426.743406
404.092367	2430.667944
404.474067	2429.785742
404.855705	2431.061154
405.237282	2432.329004
405.618797	2432.775147
406.000250	2428.893458
406.381642	2430.693150
406.762972	2434.257246
407.144240	2432.578542
407.525447	2433.213727
407.906593	2429.742892
408.287677	2433.896803
408.668700	2432.518048
409.049661	2435.210024
409.430560	2431.151895
409.811399	2437.385282
410.192176	2432.104673
410.572891	2434.884869
410.953545	2433.022163
411.334138	2433.669951
411.714669	2436.392174
412.095139	2433.722883
412.475547	2433.833789
412.855894	2434.431166
413.236180	2433.911927
413.616405	2437.440734
413.996568	2436.656835
414.376670	2436.404777
414.756711	2432.641556
415.136691	2432.855805
415.516609	2433.753130
415.896466	2435.930909
416.276262	2433.952256
416.655997	2433.735486
417.035670	2433.843871
417.415283	2436.513162
417.794834	2433.780857
418.174324	2435.998964
418.553753	2436.021650
418.933121	2438.650611
419.312428	2437.234047
419.691674	2437.072730
420.070859	2437.256732
420.449983	2442.065993
420.829045	2436.472833
421.208047	2436.359407
421.586988	2437.778492
421.965867	2436.523244
422.344686	2438.464089
422.723444	2438.595159
423.102141	2437.649942
423.480777	2439.434511
423.859352	2439.132042
424.237866	2438.827052
424.616319	2439.220262
424.994712	2441.362752
425.373044	2440.619182
425.751314	2441.108174
426.129524	2439.363935
426.507673	2439.840324
426.885762	2441.473657
427.263789	2439.676486
427.641756	2439.389140
428.019662	2439.673966
428.397508	2438.474171
428.775292	2439.810077
429.153016	2440.382248
429.530679	2443.658998
429.908282	2440.949377
430.285824	2439.182453
430.663305	2442.824687
431.040726	2439.253029
431.418086	2443.091868
431.795385	2442.088678
432.172624	2442.663370
432.549802	2441.645057
432.926920	2441.871909
433.303977	2442.360901
433.680974	2439.784871
434.057910	2442.900304
434.434786	2441.680345
434.811601	2443.298555
435.188355	2443.953905
435.565050	2443.028853
435.941683	2445.284770
436.318257	2441.168668
436.694770	2438.000302
437.071222	2443.323761
437.447614	2440.828390
437.823946	2441.619851
438.200218	2443.094388
438.576429	2442.862495
438.952580	2441.614810
439.328670	2446.267795
439.704700	2446.051025
440.080670	2444.223607
440.456580	2445.017589
440.832429	2447.470110
441.208218	2444.662187
441.583947	2444.959615
441.959616	2443.502722
442.335224	2445.831735
442.710773	2442.776796
443.086261	2446.749225
443.461689	2444.621858
443.837057	2445.022630
444.212365	2447.863320
444.587612	2446.938268
444.962800	2448.541355
445.337927	2446.653443
445.712995	2446.449276
446.088002	2450.998918
446.462949	2446.464400
446.837837	2449.272323
447.212664	2450.454473
447.587431	2448.122939
447.962139	2451.092179
448.336786	2453.895061
448.711374	2453.494289
449.085901	2452.276850
449.460369	2451.175358
449.834776	2452.891871
450.209124	2452.637293
450.583412	2455.309104
450.957640	2451.382045
451.331808	2454.356326
451.705917	2453.131326
452.079965	2454.545369
452.453954	2453.257355
452.827883	2453.824484
453.201752	2454.215174
453.575562	2454.245421
453.949311	2453.751388
454.323001	2452.982612
454.696632	2456.778601
455.070202	2458.414455
455.443713	2455.641820
455.817164	2456.297170
456.190556	2455.172993
456.563888	2458.936214
456.937160	2454.409258
457.310373	2458.686677
457.683526	2459.455453
458.056619	2460.277161
458.429653	2459.178190
458.802628	2461.166925
459.175542	2459.142902
459.548398	2461.136678
459.921194	2461.424024
460.293930	2464.683130
460.666607	2465.991309
461.039224	2464.254632
461.411782	2467.601958
461.784280	2469.051290
462.156719	2467.037349
462.529099	2464.355455
462.901419	2465.923254
463.273680	2463.632049
463.645882	2466.956690
464.018024	2467.486011
464.390106	2466.077009
464.762130	2469.421814
465.134094	2471.478605
465.505999	2481.266005
465.877845	2482.672487
466.249631	2483.695842
466.621358	2480.532517
466.993026	2482.120481
467.364634	2482.672487
467.736184	2479.675521
468.107674	2481.104688
468.479105	2479.738536
468.850477	2475.766107
469.221790	2472.703606
469.593043	2470.583800
469.964238	2473.442135
470.335373	2473.679069
470.706449	2473.850468
471.077467	2479.488999
471.448425	2484.575523
471.819324	2483.836994
472.190164	2484.845225
472.560945	2478.543782
472.931667	2479.042857
473.302330	2475.135962
473.672934	2478.211066
474.043479	2477.709471
474.413965	2473.500108
474.784393	2467.879221
475.154761	2474.417598
475.525070	2473.724439
475.895321	2476.476909
476.265513	2476.106384
476.635645	2479.370532
477.005719	2475.108236
477.375734	2481.505460
477.745691	2480.580408
478.115588	2480.666108
478.485427	2484.797334
478.855207	2482.798516
479.224928	2486.501244
479.594591	2493.992398
479.964194	2493.208499
480.333739	2491.905361
480.703226	2491.799496
481.072653	2496.661689
481.442022	2491.721358
481.811333	2494.806545
482.180584	2494.340238
482.549777	2495.509786
482.918912	2493.246308
483.287988	2494.614981
483.657005	2495.151864
484.025964	2492.374188
484.394864	2493.969713
484.763706	2498.647904
485.132489	2493.024497
485.501213	2496.051710
485.869879	2497.619508
486.238487	2500.722339
486.607036	2497.735455
486.975527	2502.010353
487.343959	2501.508759
487.712333	2502.292658
488.080648	2502.464057
488.448905	2508.604183
488.817104	2506.547392
489.185244	2510.655932
489.553326	2514.262878
489.921350	2521.728827
490.289315	2528.610002
490.657222	2532.607637
491.025070	2533.262987
491.392861	2534.064530
491.760593	2535.312216
492.128267	2536.234747
492.495883	2531.077647
492.863440	2534.276259
493.230939	2529.514889
493.598380	2530.755013
493.965763	2528.511699
494.333088	2532.781557
494.700354	2530.709642
495.067563	2533.835158
495.434713	2535.014788
495.801805	2538.830941
496.168839	2542.178267
496.535815	2542.755479
496.902733	2549.402241
497.269593	2548.394010
497.636395	2552.263096
498.003139	2553.714948
498.369825	2555.953220
498.736453	2559.958417
499.103023	2563.174673
499.469535	2561.042265
499.835989	2566.312791
500.202385	2567.205076
500.568723	2568.727504
500.935003	2574.923082
501.301226	2574.340829
501.667390	2580.359967
502.033497	2587.193251
502.399546	2587.558734
502.765537	2586.298446
503.131470	2592.524271
503.497345	2594.959148
503.863163	2593.104003
504.228923	2598.119952
504.594625	2603.481219
504.960269	2604.612958
505.325856	2606.800818
505.691385	2610.516149
506.056856	2612.217538
506.422270	2619.592746
506.787625	2620.772376
507.152924	2622.844291
507.518164	2626.907461
507.883347	2626.312604
508.248472	2630.597585
508.613540	2637.609830
508.978550	2642.073772
509.343503	2642.933289
509.708398	2646.215080
510.073236	2652.685401
510.438016	2655.316883
510.802738	2657.640855
511.167403	2662.755106
511.532010	2667.324912
511.896561	2669.149809
512.261053	2679.564833
512.625488	2677.394616
512.989866	2678.531397
513.354186	2682.665143
513.718449	2682.692869
514.082655	2693.294416
514.446803	2692.296267
514.810894	2700.659541
515.174927	2702.693647
515.538904	2704.069882
515.902822	2711.041798
516.266684	2709.685727
516.630488	2716.818960
516.994235	2715.384752
517.357925	2722.707028
517.721558	2726.911350
518.085133	2730.435117
518.448651	2736.880232
518.812112	2735.524161
519.175516	2739.143710
519.538863	2743.642940
519.902152	2745.059504
520.265385	2752.825401
520.628560	2755.310690
520.991678	2752.822881
521.354739	2761.125661
521.717743	2765.531630
522.080690	2765.030035
522.443580	2770.721497
522.806413	2774.948505
523.169189	2776.735594
523.531908	2779.301541
523.894569	2780.576953
524.257174	2787.334620
524.619722	2789.850156
524.982213	2791.733027
525.344647	2793.257976
525.707025	2800.013122
526.069345	2804.955973
526.431608	2805.581076
526.793815	2809.835810
527.155964	2811.101140
527.518057	2813.500729
527.880093	2812.865544
528.242072	2822.889878
528.603995	2819.610607
528.965860	2822.385763
529.327669	2823.870382
529.689421	2828.664520
530.051117	2829.803821
530.412755	2831.764829
530.774337	2836.748010
531.135862	2836.899245
531.497331	2842.389061
531.858743	2840.057528
532.220098	2850.336440
532.581396	2849.232428
532.942638	2847.808302
533.303824	2857.013448
533.664953	2859.448326
534.026025	2859.765918
534.387040	2869.361755
534.747999	2871.095912
535.108902	2876.926006
535.469748	2878.251830
535.830537	2883.933210
536.191270	2886.723489
536.551947	2890.809344
536.912567	2895.490055
537.273131	2902.472053
537.633638	2902.363668
537.994089	2910.744587
538.354483	2908.685275
538.714821	2919.581729
539.075103	2932.799635
539.435328	2934.851384
539.795497	2936.651076
540.155609	2942.851696
540.515665	2957.768470
540.875665	2956.215794
541.235609	2965.506641
541.595496	2974.812611
541.955328	2987.473469
542.315102	2991.292143
542.674821	2997.412104
543.034483	3003.655573
543.394090	3008.396778
543.753640	3017.269209
544.113134	3038.915923
544.472571	3036.261756
544.831953	3062.730334
545.191278	3065.525654
545.550548	3068.116807
545.909761	3088.346957
546.268918	3100.972527
546.628019	3120.592698
546.987064	3122.944396
547.346053	3125.321300
547.704986	3150.327944
548.063863	3156.599139
548.422684	3176.536903
548.781449	3186.926721
549.140158	3211.335988
549.498811	3224.044737
549.857408	3231.225860
550.215949	3256.519850
550.574434	3276.054321
550.932864	3290.109058
551.291237	3320.547545
551.649555	3339.688806
552.007817	3362.164790
552.366022	3377.696585
552.724173	3403.262797
553.082267	3432.171294
553.440305	3463.509627
553.798288	3477.803818
554.156215	3505.878004
554.514086	3536.966800
554.871902	3559.866241
555.229661	3590.334975
555.587365	3616.168368
555.945014	3645.807832
556.302606	3678.628264
556.660143	3715.637895
557.017625	3751.934203
557.375050	3782.589459
557.732421	3825.240141
558.089735	3858.418495
558.446994	3892.678177
558.804197	3947.498204
559.161345	3984.714523
559.518437	4001.945187
559.875474	4048.301117
560.232455	4099.040330
560.589381	4144.292248
560.946251	4181.944626
561.303065	4252.740070
561.659825	4295.156338
562.016528	4327.533149
562.373177	4366.100496
562.729770	4436.006177
563.086307	4468.632524
563.442789	4542.099780
563.799216	4600.158749
564.155587	4643.747086
564.511904	4707.447106
564.868164	4766.426085
565.224370	4838.799410
565.580520	4891.413933
565.936615	4959.789623
566.292654	5008.598075
566.648638	5092.775262
567.004567	5159.237834
567.360441	5235.918825
567.716260	5293.836642
568.072023	5384.035487
568.427732	5458.435356
568.783385	5505.189537
569.138982	5607.290547
569.494525	5688.188463
569.850013	5743.467235
570.205445	5826.121994
570.560823	5910.415127
570.916145	5984.401622
571.271412	6072.541156
571.626625	6139.775024
571.981782	6233.971505
572.336884	6293.066431
572.691931	6409.030613
573.046923	6468.012113
573.401860	6543.775614
573.756743	6634.949923
574.111570	6739.677373
574.466342	6818.919271
574.821059	6930.013698
575.175722	6968.376879
575.530330	7067.385141
575.884882	7135.871736
576.239380	7230.012764
576.593823	7328.322826
576.948211	7423.580469
577.302544	7480.893347
577.656823	7586.152639
578.011047	7720.597692
578.365216	7787.793752
578.719330	7876.553348
579.073389	7966.497614
579.427394	8084.642096
579.781344	8203.880508
580.135239	8263.666072
580.489080	8394.395794
580.842866	8437.974048
581.196597	8622.427347
581.550273	8733.022701
581.903895	8836.832661
582.257463	9032.913381
582.610975	9061.690808
582.964434	9227.522084
583.317837	9298.975399
583.671186	9393.562569
584.024481	9566.269979
584.377721	9599.977654
584.730906	9772.795970
585.084037	9900.561493
585.437113	9983.284307
585.790135	10109.597979
586.143103	10155.787551
586.496016	10313.101798
586.848874	10443.322363
587.201679	10587.159085
587.554428	10622.633685
587.907124	10796.994594
588.259765	10885.121525
588.612352	11080.050341
588.964884	11085.096536
589.317362	11285.512648
589.669786	11402.250648
590.022155	11499.396203
590.374470	11727.276522
590.726731	11753.183011
591.078937	11776.019438
591.431090	11933.381576
591.783188	11985.098773
592.135232	12037.836804
592.487222	12234.429201
592.839157	12405.838514
593.191038	12458.997482
593.542866	12540.633927
593.894639	12518.614167
594.246358	12731.973442
594.598022	12868.084596
594.949633	12905.565575
595.301190	13029.850182
595.652692	13121.276548
596.004141	13357.142054
596.355535	13214.061505
596.706876	13336.886698
597.058162	13430.004371
597.409395	13701.735166
597.760573	13872.824366
598.111698	13876.141445
598.462768	14017.611346
598.813785	14169.665148
599.164748	14143.720850
599.515657	14402.150561
599.866511	14381.247417
600.217312	14731.345469
600.568060	14528.307957
600.918753	14915.143418
601.269392	15053.298759
601.619978	15081.438480
601.970510	15295.246418
602.320988	15506.395146
602.671412	15756.557365
603.021783	15809.129038
603.372100	15837.455281
603.722363	16013.875501
604.072572	16186.129208
604.422728	16338.999677
604.772830	16417.094712
605.122878	16604.635717
605.472872	16728.587608
605.822813	16986.510683
606.172701	17069.530925
606.522534	17315.604768
606.872314	17568.411072
607.222041	17626.001213
607.571714	17943.563658
607.921333	17863.825207
608.270899	18148.499165
608.620411	18449.561914
608.969870	18516.027007
609.319276	18671.904525
609.668627	18845.325258
610.017926	19202.675011
610.367171	19442.674263
610.716362	19631.430186
611.065500	19766.981772
611.414585	20008.695017
611.763616	20305.785336
612.112594	20431.892320
612.461518	20677.187305
612.810389	20984.937144
613.159207	21075.927451
613.507971	21270.616812
613.856682	21665.679436
614.205340	21757.509095
614.553945	22258.493923
614.902496	22133.753091
615.250994	22530.759080
615.599439	22729.118402
615.947830	23002.011183
616.296169	23200.158776
616.644454	23415.763885
616.992686	23681.281458
617.340864	24118.409990
617.688990	24118.611636
618.037063	24610.885351
618.385082	24748.821402
618.733048	25064.390071
619.080961	25238.929941
619.428821	25389.640276
619.776628	25602.762617
620.124382	25639.399202
620.472083	25873.543154
620.819731	26092.359478
621.167326	26042.187395
621.514868	26173.549782
621.862357	26051.359774
622.209793	26207.312909
622.557176	26154.254765
622.904506	26136.666179
623.251783	26062.964510
623.599007	26069.223103
623.946179	26069.797794
624.293297	26183.808530
624.640363	25938.072444
624.987376	26066.914254
625.334336	26050.555710
625.681243	25955.822347
626.028097	26067.226806
626.374899	26098.630674
626.721647	26221.539046
627.068343	26279.023323
627.414987	26252.174137
627.761577	26222.443933
628.108115	26571.914361
628.454600	26326.190879
628.801032	26577.507522
629.147412	26667.116552
629.493739	26794.453577
629.840014	26678.207090
630.186236	27022.946396
630.532405	26876.936937
630.878521	27131.011090
631.224585	27166.397470
631.570597	27063.809989
631.916556	27295.526626
632.262462	27373.601496
632.608316	27490.863775
632.954117	27519.205142
633.299866	27629.087173
633.645562	27677.562908
633.991206	27446.171426
634.336797	27243.925375
634.682336	27359.135905
635.027823	27279.669676
635.373257	27256.130008
635.718639	27188.646602
636.063968	27199.301081
636.409245	26871.341256
636.754470	27015.412392
637.099642	26933.811234
637.444762	26693.864914
637.789829	26881.710909
638.134845	26728.021252
638.479808	26777.674097
638.824719	26794.196478
639.169577	26609.551616
639.514383	26743.071617
639.859137	26592.532681
640.203839	26852.565478
640.548489	26671.154516
640.893086	26819.064490
641.237632	26702.124845
641.582125	26879.621351
641.926566	26911.027739
642.270955	26967.105535
642.615292	27062.050626
642.959576	27126.353064
643.303809	27218.724647
643.647990	27384.306386
643.992118	27429.490248
644.336195	27512.318926
644.680219	27656.800916
645.024192	27971.913361
645.368112	28435.081973
645.711981	28510.492593
646.055797	29277.615057
646.399562	29282.167218
646.743274	30080.159187
647.086935	30502.570071
647.430544	30490.196559
647.774101	30655.080098
648.117606	30916.564748
648.461059	31233.590311
648.804460	31007.202174
649.147810	30590.412177
649.491108	30478.899333
649.834354	30243.961399
650.177548	29663.767441
650.520690	29365.036226
650.863781	29458.284969
651.206820	29406.098945
651.549807	29123.257446
651.892742	28778.704663
652.235626	28696.198619
652.578458	28636.854156
652.921238	28221.957112
653.263967	28536.124340
653.606644	28347.363376
653.949269	28356.001393
654.291843	28079.375637
654.634365	28477.462953
654.976836	28194.107258
655.319255	28249.438962
655.661622	28311.861050
656.003938	28175.684361
656.346203	28110.726573
656.688416	28347.381020
657.030577	28236.011849
657.372687	28157.500919
657.714746	28425.614686
658.056753	28591.261960
658.398708	28161.506116
658.740612	28269.747250
659.082465	28545.604230
659.424266	28441.955586
659.766016	28597.795296
660.107715	28532.756849
660.449362	28683.608337
660.790958	28722.606703
661.132503	28787.945098
661.473996	28853.452372
661.815438	28999.383693
662.156829	29199.635968
662.498168	29053.946622
662.839456	29127.681059
663.180693	29296.584918
663.521879	29481.431427
663.863013	29488.824279
664.204097	29522.055565
664.545129	29963.418667
664.886110	29974.794031
665.227040	30080.993498
665.567918	30211.781193
665.908746	30316.937142
666.249522	30486.231691
666.590248	30526.107218
666.930922	30652.473822
667.271545	30672.003252
667.612118	30772.546544
667.952639	30624.611364
668.293109	30706.028519
668.633528	30658.649235
668.973896	30629.675203
669.314213	30709.471627
669.654480	30494.116056
669.994695	30570.870144
670.334859	30504.652067
670.674973	30462.737394
671.015035	30634.981018
671.355047	30621.264038
671.695008	30613.268768
672.034918	30543.426102
672.374777	30640.725413
672.714585	30545.051874
673.054342	30793.248043
673.394049	30578.026062
673.733705	30860.537364
674.073310	30588.844378
674.412864	30696.914113
674.752368	30360.727125
675.091820	30661.550419
675.431223	30305.148404
675.770574	30080.723796
676.109875	30000.508956
676.449125	29777.049730
676.788324	29729.398223
677.127473	29274.504665
677.466571	29234.871113
677.805619	28935.862634
678.144616	28978.178080
678.483562	28914.321784
678.822458	28644.375557
679.161303	28605.243601
679.500098	28546.010043
679.838842	28467.630183
680.177535	28646.649118
680.516179	28906.911288
680.854771	29161.171964
681.193314	29986.844909
681.531805	31022.938135
681.870247	31760.335435
682.208638	32452.080045
682.546978	32686.062680
682.885268	32798.465287
683.223508	32322.403924
683.561697	32027.640097
683.899836	31866.668493
684.237925	31424.397984
684.575963	31312.686014
684.913951	30890.927960
685.251889	31050.500644
685.589776	31051.715562
685.927614	31061.994475
686.265401	31203.116536
686.603137	31311.135860
686.940824	31803.470068
687.278460	32168.633608
687.616046	32285.825312
687.953582	32873.530589
688.291068	32747.950405
688.628504	33037.544529
688.965889	32990.291274
689.303224	32656.317352
689.640510	32349.502647
689.977745	31690.954034
690.314930	30961.839351
690.652065	30485.493162
690.989150	29804.342537
691.326185	28984.093874
691.663170	28337.782663
692.000105	27648.472930
692.336990	27028.287498
692.673825	26636.524310
693.010610	26156.727451
693.347345	25634.040456
693.684030	25043.000455
694.020665	24801.007427
694.357251	24167.793133
694.693786	24136.369101
695.030272	23926.392440
695.366707	23412.661055
695.703093	23155.736128
696.039429	23161.397344
696.375716	22924.533689
696.711952	22899.617787
697.048139	22763.950254
697.384276	22602.078804
697.720363	22726.393658
698.056400	22537.302498
698.392388	22344.092715
698.728326	22320.590856
699.064214	22139.535295
699.400053	22098.956527
699.735842	21759.883478
700.071581	21516.814163
700.407270	21249.302814
700.742910	21085.019172
701.078501	20833.329483
701.414042	20570.501366
701.749533	20294.820827
702.084974	19976.262753
702.420366	20176.814977
702.755709	19764.733418
703.091002	19495.208127
703.426246	19524.419093
703.761440	19430.267983
704.096584	19182.011321
704.431679	19146.198964
704.766725	19068.222396
705.101721	19011.910187
705.436668	19114.122102
705.771565	18808.867634
706.106413	19153.768257
706.441212	19139.184198
706.775961	19275.154200
707.110661	19344.908646
707.445311	19700.549447
707.779913	19549.188802
708.114465	19789.936666
708.448967	20068.954449
708.783421	20740.274825
709.117825	21005.946153
709.452180	21221.392465
709.786485	21607.638111
710.120742	22381.664435
710.454949	22397.546590
710.789107	22863.044215
711.123216	23535.519015
711.457275	23646.585717
711.791286	24175.284288
712.125247	24240.373146
712.459159	23941.692342
712.793023	24584.215126
713.126837	23523.947046
713.460602	23772.443163
713.794318	23417.044338
714.127985	23049.229150
714.461602	22200.888658
714.795171	22166.591167
715.128691	21188.072959
715.462162	20684.433963
715.795584	20293.777308
716.128957	20036.194511
716.462281	19655.073198
716.795556	19428.385112
717.128782	18950.713100
717.461960	18427.012833
717.795088	18350.044496
718.128167	17966.069890
718.461198	17522.738218
718.794180	17387.849544
719.127113	17036.687808
719.459997	16866.097682
719.792833	16523.770569
720.125619	16488.729508
720.458357	16194.547934
720.791046	16032.686567
721.123686	15885.091664
721.456278	15648.757331
721.788821	15611.082268
722.121315	15366.777870
722.453761	15447.998420
722.786158	15368.945566
723.118506	15381.084665
723.450805	15250.659932
723.783056	15404.074847
724.115259	15318.844059
724.447412	15254.249234
724.779518	15499.461039
725.111574	15512.318502
725.443582	15712.394337
725.775542	15689.389031
726.107453	16154.135525
726.439315	16038.793925
726.771129	16429.937052
727.102895	16798.636962
727.434612	16989.555540
727.766281	17110.681864
728.097901	17358.326026
728.429473	17396.079227
728.760996	17387.479019
729.092471	17473.518912
729.423897	17356.422991
729.755276	17227.351808
730.086606	17357.368207
730.417887	17861.881843
730.749120	18373.858907
731.080305	18548.207213
731.411442	18877.641575
731.742530	18951.738975
732.073570	19045.990908
732.404562	19328.550102
732.735506	19155.204985
733.066401	18871.587149
733.397249	18364.305920
733.728048	17738.504643
734.058798	16920.458965
734.389501	16270.399656
734.720156	15816.332847
735.050762	15296.163907
735.381320	14953.932576
735.711831	14725.280961
736.042293	14384.501481
736.372707	14390.550866
736.703073	14189.917984
737.033391	14375.888670
737.363661	14342.065048
737.693883	14447.520946
738.024056	14613.470689
738.354182	14801.278876
738.684260	15080.357153
739.014290	15304.663293
739.344272	15487.775645
739.674207	15757.686583
740.004093	15872.808893
740.333931	15864.566607
740.663722	15893.822943
740.993464	15884.595111
741.323159	15721.019751
741.652806	15454.229286
741.982405	15251.315282
742.311956	14912.731225
742.641460	14794.848884
742.970915	14493.060209
743.300323	14169.559284
743.629683	13957.898878
743.958996	13683.539121
744.288260	13420.300150
744.617477	13117.833440
744.946647	13051.653172
745.275768	12782.947069
745.604842	12607.300666
745.933869	12439.132815
746.262847	12384.693395
746.591778	12316.993219
746.920662	12228.402502
747.249498	12221.286913
747.578286	12341.687311
747.907027	12477.309473
748.235720	12691.457688
748.564365	12729.089902
748.892963	12628.377730
749.221514	12686.839992
749.550017	12541.286757
749.878473	12507.700069
750.206881	12290.857357
750.535242	12198.659694
750.863555	12121.477108
751.191821	12020.880883
751.520039	12049.897765
751.848210	11952.457302
752.176334	11982.416879
752.504411	11895.217521
752.832440	11740.721279
753.160421	11805.051443
753.488356	11682.367403
753.816243	11594.046387
754.144082	11450.270159
754.471875	11399.906511
754.799620	11346.097235
755.127318	11316.457771
755.454969	11277.562749
755.782572	11231.095913
756.110129	11238.682850
756.437638	11160.504636
756.765100	11150.477781
757.092515	11158.304172
757.419882	11175.058447
757.747203	11171.443940
758.074477	11251.194993
758.401703	11209.421472
758.728882	11370.743436
759.056014	11409.779611
759.383099	11517.761127
759.710138	11622.387754
760.037129	11696.638909
760.364073	11719.016591
760.690970	11707.850435
761.017820	11702.733664
761.344623	11894.345401
761.671379	12209.735109
761.998088	12837.298269
762.324751	14367.727042
762.651366	17198.924742
762.977935	20827.630459
763.304456	23001.181913
763.630931	23458.976656
763.957359	22298.303915
764.283740	20403.009029
764.610074	18549.853149
764.936362	16451.230885
765.262602	14953.602380
765.588796	13507.577646
765.914943	12481.561686
766.241044	11649.375571
766.567097	11027.637464
766.893104	10491.563685
767.219064	10128.461976
767.544978	9751.030788
767.870845	9446.028377
768.196665	9266.936346
768.522438	9067.969565
768.848165	8911.164475
769.173846	8743.369669
769.499479	8617.630689
769.825066	8469.324984
770.150607	8289.136502
770.476101	8228.579641
770.801548	8117.727189
771.126949	7982.967064
771.452303	7890.517344
771.777611	7728.287972
772.102872	7705.852317
772.428087	7588.227074
772.753256	7467.206614
773.078378	7376.828808
773.403453	7237.955102
773.728482	7143.496482
774.053465	7077.500216
774.378401	6992.219016
774.703291	6894.544140
775.028135	6805.613145
775.352932	6768.003617
775.677683	6690.967224
776.002388	6600.324758
776.327046	6599.825683
776.651658	6511.575244
776.976224	6443.191992
777.300743	6429.043994
777.625216	6361.729467
777.949643	6318.983002
778.274024	6325.483570
778.598359	6254.063023
778.922647	6256.273569
779.246889	6213.900151
779.571086	6226.054372
779.895236	6235.151135
780.219339	6231.055197
780.543397	6226.986986
780.867409	6278.512619
781.191374	6270.514829
781.515294	6239.032823
781.839167	6297.399302
782.162995	6266.605414
782.486776	6214.966355
782.810511	6172.877761
783.134201	6101.069045
783.457844	6089.537406
783.781441	6046.498555
784.104993	6002.269992
784.428498	5971.960054
784.751958	5951.810562
785.075372	5928.311223
785.398739	5896.839300
785.722061	5914.193472
786.045337	5915.257156
786.368568	6029.610689
786.691752	6046.455705
787.014891	6291.591893
787.337983	6566.380148
787.661030	7003.175964
787.984031	7417.999911
788.306987	7681.536311
788.629897	7764.604444
788.952760	7680.875920
789.275579	7504.818663
789.598351	7212.565330
789.921078	6946.266378
790.243759	6671.745305
790.566395	6467.639068
790.888984	6277.978257
791.211529	6135.595908
791.534027	5978.195961
791.856480	5842.097410
792.178888	5786.014574
792.501249	5719.872115
792.823566	5615.305981
793.145836	5612.858501
793.468062	5593.283701
793.790241	5554.703750
794.112375	5592.119194
794.434464	5691.540830
794.756507	5721.190377
795.078505	5839.443243
795.400457	6055.819648
795.722364	6290.576101
796.044226	6481.905533
796.366042	6634.818853
796.687812	6584.470329
797.009538	6611.203568
797.331218	6521.985227
797.652852	6453.816224
797.974442	6336.057391
798.295986	6260.157778
798.617484	6136.331916
798.938938	6026.888466
799.260346	5959.896573
799.581709	5821.423638
799.903026	5772.942862
800.224299	5701.779414
800.545526	5581.071505
800.866708	5520.711250
801.187845	5471.744002
801.508936	5396.973608
801.829983	5371.074680
802.150984	5264.098875
802.471940	5240.959979
802.792851	5221.049942
803.113717	5201.263413
803.434538	5177.625442
803.755314	5147.265093
804.076045	5131.579543
804.396731	5098.963278
804.717372	5112.735710
805.037967	5120.582266
805.358518	5144.633611
805.679024	5204.777097
805.999485	5213.939394
806.319901	5230.368515
806.640272	5248.055403
806.960598	5293.708092
807.280879	5284.944046
807.601115	5321.623482
807.921306	5283.146875
808.241453	5283.882883
808.561554	5291.119460
808.881611	5253.512452
809.201623	5253.683851
809.521590	5206.342375
809.841513	5192.625396
810.161390	5203.526891
810.481223	5119.889108
810.801011	5103.137353
811.120755	5078.781018
811.440453	5024.255898
811.760107	5000.030634
812.079716	4972.682374
812.399281	4920.577008
812.718801	4915.951749
813.038276	4883.950505
813.357707	4847.054300
813.677093	4869.391652
813.996434	4810.296726
814.315731	4826.758614
814.634983	4828.354139
814.954191	4829.354808
815.273354	4889.468047
815.592473	4932.718627
815.911547	5003.166231
816.230577	5056.935178
816.549562	5141.140092
816.868502	5193.870561
817.187399	5245.670937
817.506250	5324.650694
817.825058	5357.251836
818.143821	5506.192727
818.462539	5669.238766
818.781213	5893.799484
819.099843	6256.739876
819.418429	6873.061263
819.736970	7484.432237
820.055466	8187.300153
820.373919	9082.341895
820.692327	10516.144351
821.010691	13161.628464
821.329011	19305.965732
821.647286	28736.631193
821.965517	38937.511865
822.283704	44318.373946
822.601847	45781.987265
822.919945	41232.235014
823.237999	36188.306012
823.556010	31040.022606
823.873976	26415.230259
824.191897	22270.421293
824.509775	19236.400330
824.827609	16506.055954
825.145398	14992.310880
825.463144	14250.247993
825.780845	14539.446386
826.098502	15778.040242
826.416116	18207.926807
826.733685	20456.546083
827.051210	20980.853810
827.368692	19555.084432
827.686129	17038.754681
828.003522	14596.822278
828.320872	12401.235941
828.638177	10778.710329
828.955439	9553.157938
829.272656	8510.745625
829.589830	7679.834922
829.906960	6959.912782
830.224046	6436.144459
830.541088	6030.457603
830.858086	5779.753461
831.175041	5579.115538
831.491952	5523.166292
831.808819	5551.086722
832.125642	5793.641840
832.442421	6339.616445
832.759157	7422.151302
833.075849	9177.339918
833.392497	10996.520942
833.709101	12096.117584
834.025662	11849.292609
834.342179	10802.466766
834.658653	9517.758955
834.975083	8427.140609
835.291469	7532.766820
835.607811	6810.069525
835.924110	6291.899403
836.240366	5813.987937
836.556578	5378.404518
836.872746	5026.998286
837.188871	4754.755814
837.504952	4535.740364
837.820990	4373.624418
838.136984	4264.682563
838.452935	4214.626426
838.768842	4240.679109
839.084706	4521.234444
839.400526	5248.274693
839.716303	6141.279809
840.032037	6702.929882
840.347727	6557.444703
840.663373	5961.154341
840.978977	5392.582763
841.294537	4956.275939
841.610054	4629.629334
841.925527	4396.460845
842.240957	4195.805278
842.556344	4013.323071
842.871687	3857.153166
843.186987	3705.916030
843.502244	3592.797579
843.817458	3504.645442
844.132629	3441.036163
844.447756	3388.315776
844.762840	3343.368848
845.077881	3306.334011
845.392879	3272.528034
845.707833	3247.914600
846.022745	3220.100034
846.337613	3210.453786
846.652438	3187.526618
846.967221	3181.860361
847.281960	3158.809685
847.596656	3147.217552
847.911309	3137.387302
848.225919	3126.894140
848.540485	3116.819394
848.855009	3106.681634
849.169490	3099.006477
849.483928	3090.413830
849.798323	3081.773293
850.112675	3072.991603
850.426984	3075.262642
850.741251	3068.303330
851.055474	3066.758216
851.369654	3066.712846
851.683792	3065.636559
851.997887	3066.465829
852.311938	3063.239491
852.625947	3068.368865
852.939914	3059.143553
853.253837	3067.050603
853.567718	3062.193451
853.881555	3055.072821
854.195350	3061.696898
854.509103	3060.116496
854.822812	3057.621125
855.136479	3052.247255
855.450103	3055.796227
855.763685	3050.644168
856.077224	3054.707338
856.390720	3061.250755
856.704173	3071.701067
857.017584	3076.225503
857.330953	3084.674477
857.644278	3089.965168
857.957561	3095.291147
858.270802	3088.725044
858.584000	3086.723706
858.897155	3083.744384
859.210268	3075.910431
859.523339	3059.067936
859.836367	3059.080539
860.149352	3053.366391
860.462295	3048.627706
860.775195	3039.949360
861.088054	3036.342414
861.400869	3039.750234
861.713642	3034.711601
862.026373	3044.430946
862.339062	3045.905483
862.651708	3053.255485
862.964312	3070.002198
863.276873	3078.778847
863.589392	3108.899742
863.901869	3139.280255
864.214303	3155.497647
864.526696	3176.143693
864.839045	3192.527443
865.151353	3203.151674
865.463619	3204.303578
865.775842	3208.298693
866.088023	3211.164588
866.400162	3197.805531
866.712258	3204.704350
867.024313	3204.031356
867.336325	3203.446582
867.648296	3203.098742
867.960224	3199.302753
868.272110	3204.530430
868.583954	3203.204607
868.895755	3210.179043
869.207515	3208.906152
869.519233	3230.197465
869.830909	3232.526478
870.142542	3244.637850
870.454134	3249.734457
870.765684	3262.788524
871.077191	3278.274949
871.388657	3294.499903
871.700081	3308.547078
872.011463	3328.084070
872.322803	3352.074921
872.634101	3365.270141
872.945357	3384.960888
873.256571	3411.686565
873.567744	3424.203750
873.878874	3431.594082
874.189963	3450.876495
874.501010	3452.925724
874.812015	3447.675362
875.122979	3461.573823
875.433900	3462.733289
875.744780	3464.888382
876.055618	3472.220740
876.366415	3470.327787
876.677169	3474.731235
876.987882	3489.728668
877.298554	3512.633150
877.609183	3546.134138
877.919771	3592.026282
878.230317	3661.047240
878.540822	3759.163217
878.851285	3910.596958
879.161707	4125.337509
879.472087	4494.269312
879.782425	5101.645172
880.092722	6272.153204
880.402977	8176.456631
880.713191	10503.801086
881.023363	12850.087677
881.333494	14175.883412
881.643583	14621.191216
881.953631	14219.280185
882.263637	13381.861352
882.573602	12352.377078
882.883526	11424.388875
883.193408	10486.177212
883.503248	9580.453265
883.813048	8764.575283
884.122806	8015.676591
884.432522	7265.391582
884.742197	6611.490913
885.051831	6059.918106
885.361424	5568.524073
885.670975	5189.051218
885.980485	4871.387949
886.289954	4603.808544
886.599382	4392.432963
886.908768	4217.681365
887.218113	4057.788568
887.527417	3928.934155
887.836680	3807.825475
888.145901	3710.027091
888.455082	3631.493476
888.764221	3566.737334
889.073319	3507.997809
889.382376	3475.192501
889.691392	3453.402113
890.000366	3446.006740
890.309300	3443.203859
890.618193	3447.700568
890.927044	3437.288065
891.235855	3445.318623
891.544625	3458.496199
891.853353	3487.084582
892.162041	3544.657080
892.470687	3635.153353
892.779293	3752.274481
893.087858	3920.086930
893.396381	4195.984239
893.704864	4602.260910
894.013306	5159.779758
894.321707	5720.398915
894.630068	6071.853038
894.938387	6105.328820
895.246665	5931.398930
895.554903	5625.272342
895.863100	5290.121311
896.171256	5022.763717
896.479371	4791.077327
896.787446	4565.208429
897.095480	4376.021487
897.403473	4231.005135
897.711425	4087.354936
898.019336	3966.457984
898.327207	3847.164119
898.635038	3747.407247
898.942827	3642.664673
899.250576	3559.553690
899.558284	3474.590083
899.865952	3425.877413
900.173579	3358.731764
900.481165	3318.331958
900.788711	3276.011471
901.096216	3246.467789
901.403681	3214.108622
901.711105	3206.304916
902.018489	3201.261242
902.325832	3233.542270
902.633135	3289.259623
902.940397	3456.338585
903.247619	3853.059749
903.554800	4592.087862
903.861941	5539.297984
904.169041	6230.120063
904.476101	6430.180774
904.783121	6161.595659
905.090100	5768.050422
905.397039	5356.798132
905.703938	5009.697046
906.010796	4692.323644
906.317614	4445.677630
906.624391	4210.822876
906.931129	4020.640306
907.237826	3844.336032
907.544483	3674.691123
907.851099	3508.806914
908.157675	3354.451825
908.464211	3215.905794
908.770707	3114.719754
909.077163	3037.098587
909.383578	2978.991728
909.689954	2934.697629
909.996289	2906.462127
910.302584	2883.890360
910.608839	2875.317878
910.915054	2861.132071
911.221229	2855.770804
911.527363	2865.661548
911.833458	2871.171529
912.139513	2879.900287
912.445527	2892.881258
912.751502	2924.645568
913.057436	2969.221971
913.363331	3026.318080
913.669186	3112.171450
913.975000	3221.481310
914.280775	3407.305802
914.586510	3670.080988
914.892205	4036.472049
915.197859	4526.769631
915.503475	5096.752732
915.809050	5581.447071
916.114585	5867.681266
916.420081	5932.608807
916.725536	5866.834352
917.030952	5631.553620
917.336328	5433.930307
917.641665	5223.260488
917.946961	4998.011652
918.252218	4801.867917
918.557435	4578.746448
918.862612	4385.539186
919.167750	4219.549113
919.472848	4030.465514
919.777906	3867.958879
920.082925	3712.222513
920.387904	3560.884554
920.692843	3453.830611
920.997743	3358.041126
921.302603	3266.597116
921.607423	3202.345090
921.912204	3138.088022
922.216946	3092.621856
922.521647	3044.309958
922.826310	3003.932836
923.130932	2963.964048
923.435516	2928.610436
923.740059	2899.827968
924.044564	2870.899307
924.349028	2845.277642
924.653454	2818.604897
924.957840	2793.789817
925.262186	2774.900614
925.566493	2752.049064
925.870761	2728.912688
926.174989	2716.980277
926.479178	2702.799511
926.783328	2686.597243
927.087438	2676.638443
927.391509	2665.840292
927.695541	2652.130874
927.999533	2640.011940
928.303486	2634.176804
928.607400	2626.801596
928.911275	2621.762963
929.215110	2614.322220
929.518906	2612.799792
929.822663	2613.860954
930.126381	2613.515635
930.430060	2618.077880
930.733699	2615.738784
931.037299	2622.380504
931.340861	2618.738271
931.644383	2623.451750
931.947866	2622.814044
932.251309	2621.170627
932.554714	2617.092334
932.858080	2615.327930
933.161407	2614.803650
933.464694	2608.161930
933.767943	2609.903649
934.071153	2604.060951
934.374323	2599.808738
934.677455	2595.959817
934.980548	2596.683223
935.283602	2587.959506
935.586617	2590.205340
935.889593	2594.331524
936.192530	2592.461256
936.495428	2598.298912
936.798287	2608.590428
937.101108	2622.559465
937.403890	2644.032260
937.706632	2667.458502
938.009336	2701.186342
938.312002	2730.112483
938.614628	2752.101996
938.917216	2774.023453
939.219765	2780.627365
939.522275	2791.518778
939.824747	2790.671864
940.127179	2783.762962
940.429573	2779.687190
940.731929	2775.482867
941.034246	2770.391302
941.336524	2767.170005
941.638763	2757.523757
941.940964	2754.529311
942.243126	2737.238154
942.545250	2725.804817
942.847335	2713.481716
943.149381	2702.383616
943.451389	2685.783096
943.753359	2677.248423
944.055290	2666.851043
944.357182	2660.405928
944.659036	2654.016265
944.960851	2650.883188
945.262628	2646.431849
945.564367	2645.423619
945.866067	2644.203659
946.167729	2642.774492
946.469352	2643.689462
946.770937	2641.907414
947.072484	2635.515231
947.373992	2635.111938
947.675462	2629.276803
947.976893	2625.180865
948.278286	2624.391925
948.579641	2618.680297
948.880958	2618.085441
949.182236	2617.442694
949.483476	2614.722992
949.784678	2611.292487
950.085841	2611.438680
950.386967	2616.406737
950.688054	2622.713221
950.989103	2630.791670
951.290114	2639.006230
951.591087	2648.987714
951.892021	2661.930877
952.192917	2672.958401
952.493776	2685.503312
952.794596	2688.580937
953.095378	2688.543128
953.396122	2687.391224
953.696828	2686.521625
953.997496	2678.312106
954.298126	2670.634429
954.598718	2665.227792
954.899272	2654.331337
955.199788	2642.875315
955.500266	2630.552215
955.800706	2616.164762
956.101108	2595.387646
956.401472	2586.855493
956.701798	2572.369738
957.002087	2561.969837
957.302337	2549.061963
957.602550	2542.158103
957.902724	2528.889786
958.202861	2522.548014
958.502960	2512.596777
958.803022	2504.707371
959.103045	2496.144971
959.403031	2493.876452
959.702979	2486.208857
960.002889	2485.125009
960.302762	2477.467496
960.602596	2474.064717
960.902393	2474.112608
961.202153	2469.172277
961.501875	2465.945939
961.801559	2464.511731
962.101205	2458.835391
962.400814	2454.774742
962.700385	2456.806327
962.999918	2457.007973
963.299414	2453.506892
963.598873	2453.519495
963.898293	2451.059412
964.197677	2452.627210
964.497022	2452.123095
964.796331	2449.892384
965.095601	2447.137394
965.394835	2446.174533
965.694030	2446.106478
965.993189	2445.919955
966.292309	2445.718309
966.591393	2443.084306
966.890439	2444.420212
967.189447	2444.889039
967.488419	2443.112032
967.787353	2446.131684
968.086249	2445.274688
968.385108	2449.962961
968.683930	2448.773248
968.982714	2449.017744
969.281462	2449.751232
969.580172	2450.245265
969.878844	2452.095369
970.177480	2456.700463
970.476078	2459.785649
970.774639	2461.900413
971.073162	2463.243880
971.371649	2463.251442
971.670098	2464.473922
971.968510	2468.108594
972.266885	2468.043059
972.565223	2469.124386
972.863524	2473.943729
973.161788	2471.690334
973.460014	2474.513380
973.758204	2473.081692
974.056356	2475.940026
974.354471	2475.052783
974.652550	2477.588484
974.950591	2479.925058
975.248595	2476.310551
975.546563	2473.631178
975.844493	2474.939357
976.142386	2470.538430
976.440243	2468.705971
976.738062	2467.601958
977.035845	2465.313274
977.333590	2462.719600
977.631299	2461.303036
977.928971	2458.235494
978.226606	2457.086111
978.524204	2456.216512
978.821765	2454.661316
979.119290	2454.510081
979.416777	2454.963785
979.714228	2454.263065
980.011642	2454.497478
980.309020	2458.974023
980.606360	2463.914354
980.903664	2473.018678
981.200931	2482.057467
981.498162	2504.477998
981.795356	2530.253418
982.092513	2566.330435
982.389633	2612.693927
982.686717	2653.875113
982.983764	2684.353929
983.280775	2702.968390
983.577749	2702.025694
983.874686	2693.591844
984.171587	2676.956036
984.468451	2661.053716
984.765279	2644.208701
985.062070	2627.681278
985.358824	2604.562546
985.655543	2586.474886
985.952224	2564.921433
986.248869	2538.861188
986.545478	2513.305059
986.842050	2491.703714
987.138586	2477.764924
987.435086	2461.902933
987.731549	2450.303238
988.027975	2446.358536
988.324366	2440.974583
988.620719	2435.835127
988.917037	2431.966041
989.213318	2433.085177
989.509563	2431.570311
989.805772	2426.687953
990.101944	2428.351534
990.398080	2425.745258
990.694180	2424.426996
990.990244	2423.688467
991.286271	2426.282140
991.582262	2423.895154
991.878217	2424.089238
992.174136	2429.687440
992.470019	2425.407500
992.765865	2430.415887
993.061676	2431.063675
993.357450	2432.417225
993.653188	2437.758327
993.948890	2444.311827
994.244556	2447.976746
994.540186	2456.493775
994.835780	2467.838892
995.131337	2482.511170
995.426859	2492.759836
995.722345	2517.920235
996.017795	2534.107380
996.313208	2547.123639
996.608586	2558.425906
996.903928	2562.844477
997.199234	2561.503531
997.494504	2556.888354
997.789738	2550.357539
998.084936	2539.050231
998.380099	2529.088911
998.675225	2516.667508
998.970316	2507.389265
999.265371	2493.208499
999.560390	2480.015799
999.855373	2469.774695
1000.150320	2462.137347
1000.445232	2450.298197
1000.740108	2446.126642
1001.034948	2439.789912
1001.329752	2433.213727
1001.624521	2431.063675
1001.919254	2423.373395
1002.213951	2423.002870
1002.508613	2419.537077
1002.803239	2420.015986
1003.097829	2417.248393
1003.392384	2417.407189
1003.686903	2417.709658
1003.981386	2414.253947
1004.275834	2414.747980
1004.570246	2411.415778
1004.864623	2414.316962
1005.158964	2412.872671
1005.453270	2409.185067
1005.747540	2412.754204
1006.041775	2413.228073
1006.335974	2412.280336
1006.630138	2411.660274
1006.924266	2406.465365
1007.218359	2409.948802
1007.512416	2407.851682
1007.806438	2408.844789
1008.100425	2408.915365
1008.394376	2408.983421
1008.688292	2410.399985
1008.982172	2408.207083
1009.276017	2408.275139
1009.569827	2408.454100
1009.863602	2407.702968
1010.157341	2404.758934
1010.451045	2404.826990
1010.744714	2405.610889
1011.038347	2410.465520
1011.331945	2403.922102
1011.625508	2405.880591
1011.919036	2404.627864
1012.212528	2406.646846
1012.505986	2403.780950
1012.799408	2404.832031
1013.092795	2404.388409
1013.386147	2407.219017
1013.679464	2405.711712
1013.972745	2405.031156
1014.265992	2404.781619
1014.559204	2403.617113
1014.852380	2403.841444
1015.145521	2404.224572
1015.438628	2404.854716
1015.731699	2405.389078
1016.024736	2405.351270
1016.317737	2403.057545
1016.610703	2403.927144
1016.903635	2406.130128
1017.196531	2401.469581
1017.489393	2403.818759
1017.782219	2401.522513
1018.075011	2408.731363
1018.367768	2407.765982
1018.660490	2406.210786
1018.953177	2406.210786
1019.245829	2406.210786
