Dividing Wavelength (nm)	Counts (n)	Blue Motor Position (mm): 7.000000	Red Motor Position (mm): 0.000000	
326.493990	1977.448049
326.888308	1977.448049
327.282561	1977.448049
327.676750	1952.731272
328.070874	1952.063319
328.464933	1958.631942
328.858929	1966.949846
329.252859	1980.795375
329.646726	1996.395226
330.040528	2010.071876
330.434265	2028.741789
330.827938	2050.600232
331.221547	2067.896431
331.615091	2088.648341
332.008571	2105.881525
332.401986	2131.533437
332.795338	2148.262506
333.188625	2169.899138
333.581847	2188.919412
333.975006	2207.969932
334.368100	2226.725545
334.761129	2239.877915
335.154095	2258.530184
335.546996	2274.603903
335.939833	2297.470577
336.332606	2311.888277
336.725315	2322.925884
337.117960	2331.470639
337.510540	2338.926506
337.903056	2346.730212
338.295508	2350.619462
338.687896	2359.199506
339.080220	2368.006402
339.472480	2371.981352
339.864676	2375.091744
340.256807	2378.867568
340.648875	2379.772455
341.040879	2383.666746
341.432818	2384.110368
341.824694	2384.697662
342.216506	2383.974257
342.608253	2385.584905
342.999937	2384.901829
343.391557	2379.724564
343.783113	2379.885881
344.174605	2377.259440
344.566033	2377.390510
344.957397	2375.852958
345.348697	2373.508821
345.739934	2371.699047
346.131106	2369.541433
346.522215	2365.616895
346.913260	2365.911803
347.304241	2365.649663
347.695159	2363.567666
348.086012	2365.503469
348.476802	2359.055833
348.867528	2359.307891
349.258191	2357.432582
349.648789	2359.683457
350.039324	2357.419979
350.429796	2357.490555
350.820203	2355.453929
351.210548	2356.565503
351.600828	2352.209946
351.991045	2353.160204
352.381198	2350.924452
352.771288	2350.226252
353.161314	2353.109792
353.551276	2351.501664
353.941175	2354.773373
354.331010	2352.217508
354.720782	2350.926973
355.110490	2353.122395
355.500135	2350.891685
355.889717	2351.501664
356.279235	2354.357478
356.668689	2353.276150
357.058080	2355.564834
357.447408	2354.612056
357.836672	2350.644668
358.225873	2352.835049
358.615010	2352.830008
359.004084	2355.935359
359.393095	2356.361337
359.782043	2357.367047
360.170927	2357.246059
360.559748	2357.843436
360.948505	2358.327387
361.337199	2360.003570
361.725830	2360.661441
362.114398	2359.358303
362.502903	2360.056502
362.891344	2359.431399
363.279722	2363.091277
363.668037	2361.475587
364.056289	2359.990967
364.444478	2363.348376
364.832603	2362.743437
365.220665	2360.772346
365.608665	2362.572038
365.996601	2364.525485
366.384474	2362.723273
366.772284	2368.381968
367.160031	2361.949456
367.547715	2363.194621
367.935336	2364.464991
368.322893	2366.115969
368.710388	2364.553212
369.097820	2363.665968
369.485189	2364.817872
369.872495	2368.984386
370.259738	2366.312574
370.646918	2368.301309
371.034035	2365.967255
371.421090	2366.529344
371.808081	2366.657893
372.195010	2368.215610
372.581875	2365.626977
372.968678	2366.710825
373.355418	2366.698223
373.742096	2371.525127
374.128710	2369.543954
374.515262	2368.951618
374.901751	2368.071937
375.288177	2369.017153
375.674540	2367.598068
376.060841	2372.339274
376.447079	2371.313399
376.833254	2368.840713
377.219367	2362.740917
377.605417	2370.721063
377.991404	2366.315095
378.377329	2369.574201
378.763191	2365.490866
379.148991	2372.034284
379.534727	2372.258615
379.920402	2369.286855
380.306013	2371.545292
380.691563	2373.929758
381.077049	2372.341794
381.462474	2369.843903
381.847835	2373.108050
382.233134	2372.906403
382.618371	2373.188708
383.003545	2374.756507
383.388657	2374.086033
383.773706	2375.691641
384.158693	2374.320447
384.543618	2374.118801
384.928480	2372.969418
385.313280	2374.083513
385.698017	2375.800026
386.082692	2373.579398
386.467305	2376.929244
386.851856	2377.405633
387.236344	2375.631147
387.620770	2377.763555
388.005133	2377.829090
388.389435	2376.067207
388.773674	2375.280787
389.157851	2377.723226
389.541965	2377.519059
389.926018	2380.112733
390.310008	2378.255068
390.693936	2377.599718
391.077802	2377.819008
391.461606	2378.905377
391.845348	2378.184492
392.229027	2378.010572
392.612645	2378.620551
392.996200	2379.119626
393.379694	2378.355891
393.763125	2378.814636
394.146494	2377.183823
394.529801	2381.294883
394.913047	2378.575181
395.296230	2381.136087
395.679351	2380.750439
396.062410	2377.244316
396.445408	2380.115253
396.828343	2380.566437
397.211217	2374.239789
397.594028	2379.434698
397.976778	2377.806405
398.359466	2379.301107
398.742092	2376.064686
399.124656	2382.227497
399.507158	2379.177599
399.889598	2385.020296
400.271977	2380.488299
400.654294	2384.097765
401.036549	2381.226828
401.418742	2381.136087
401.800874	2383.702034
402.182944	2382.517363
402.564952	2382.212373
402.946898	2381.657847
403.328783	2384.291849
403.710606	2381.612476
404.092367	2383.699514
404.474067	2387.460215
404.855705	2384.412837
405.237282	2382.300594
405.618797	2385.292518
406.000250	2382.116592
406.381642	2386.283105
406.762972	2386.850235
407.144240	2384.034751
407.525447	2387.924001
407.906593	2384.886706
408.287677	2385.839484
408.668700	2384.259082
409.049661	2387.203116
409.430560	2386.978784
409.811399	2386.126829
410.192176	2384.604401
410.572891	2386.699000
410.953545	2388.017262
411.334138	2386.197406
411.714669	2384.249000
412.095139	2387.813095
412.475547	2386.270502
412.855894	2388.929711
413.236180	2388.203785
413.616405	2390.603374
413.996568	2388.851573
414.376670	2388.687736
414.756711	2388.327293
415.136691	2388.861655
415.516609	2385.950389
415.896466	2390.401728
416.276262	2386.963661
416.655997	2386.043650
417.035670	2385.771428
417.415283	2386.570451
417.794834	2387.132540
418.174324	2389.343086
418.553753	2389.438868
418.933121	2387.296377
419.312428	2390.268137
419.691674	2387.283774
420.070859	2391.508261
420.449983	2392.614794
420.829045	2388.632283
421.208047	2388.445760
421.586988	2390.099259
421.965867	2390.129506
422.344686	2390.487428
422.723444	2391.820813
423.102141	2390.986502
423.480777	2390.358878
423.859352	2389.708569
424.237866	2390.527757
424.616319	2392.206461
424.994712	2393.391132
425.373044	2392.352654
425.751314	2391.341903
426.129524	2390.484907
426.507673	2391.500699
426.885762	2389.209495
427.263789	2391.999774
427.641756	2391.052037
428.019662	2392.312325
428.397508	2392.650083
428.775292	2392.342572
429.153016	2395.326935
429.530679	2393.260062
429.908282	2394.089332
430.285824	2393.207130
430.663305	2395.228633
431.040726	2391.374671
431.418086	2395.364744
431.795385	2394.248128
432.172624	2392.491286
432.549802	2394.512789
432.926920	2392.645041
433.303977	2395.266441
433.680974	2393.605381
434.057910	2396.083108
434.434786	2392.897099
434.811601	2395.011863
435.188355	2395.021945
435.565050	2396.909858
435.941683	2395.904147
436.318257	2397.343397
436.694770	2392.108158
437.071222	2392.894578
437.447614	2391.185627
437.823946	2391.518343
438.200218	2393.602861
438.576429	2392.655124
438.952580	2394.606050
439.328670	2397.444220
439.704700	2396.635115
440.080670	2396.768705
440.456580	2396.148643
440.832429	2394.331307
441.208218	2396.090670
441.583947	2394.989178
441.959616	2397.139230
442.335224	2393.302912
442.710773	2396.867008
443.086261	2394.558159
443.461689	2395.372306
443.837057	2397.865156
444.212365	2393.615463
444.587612	2395.841133
444.962800	2398.558315
445.337927	2398.454971
445.712995	2399.460681
446.088002	2395.349620
446.462949	2398.170146
446.837837	2398.331463
447.212664	2397.600496
447.587431	2399.876577
447.962139	2395.342059
448.336786	2399.236350
448.711374	2398.434807
449.085901	2399.216185
449.460369	2398.790208
449.834776	2396.584703
450.209124	2395.682337
450.583412	2397.396329
450.957640	2397.968500
451.331808	2399.841288
451.705917	2399.385064
452.079965	2397.295506
452.453954	2400.446227
452.827883	2399.538819
453.201752	2398.598644
453.575562	2396.630073
453.949311	2399.513613
454.323001	2398.628891
454.696632	2399.662328
455.070202	2397.184600
455.443713	2397.257697
455.817164	2397.716442
456.190556	2396.715773
456.563888	2396.662841
456.937160	2394.195196
457.310373	2398.644014
457.683526	2395.578993
458.056619	2398.258366
458.429653	2399.685013
458.802628	2399.889179
459.175542	2399.198541
459.548398	2401.000754
459.921194	2402.641649
460.293930	2398.951525
460.666607	2400.950342
461.039224	2399.385064
461.411782	2400.993192
461.784280	2401.540157
462.156719	2401.439334
462.529099	2402.008985
462.901419	2400.594941
463.273680	2401.474622
463.645882	2400.098387
464.018024	2400.214334
464.390106	2403.067627
464.762130	2402.165260
465.134094	2403.019736
465.505999	2400.312636
465.877845	2404.645508
466.249631	2404.489232
466.621358	2404.335477
466.993026	2405.522669
467.364634	2410.021899
467.736184	2401.293141
468.107674	2403.980076
468.479105	2405.825138
468.850477	2404.156516
469.221790	2402.966804
469.593043	2402.860940
469.964238	2403.128121
470.335373	2403.665004
470.706449	2404.869839
471.077467	2404.033008
471.448425	2405.084088
471.819324	2405.895714
472.190164	2406.704819
472.560945	2405.537792
472.931667	2405.517628
473.302330	2406.372103
473.672934	2404.491753
474.043479	2404.383368
474.413965	2403.695251
474.784393	2402.931516
475.154761	2403.440672
475.525070	2402.349263
475.895321	2404.320354
476.265513	2400.451268
476.635645	2408.393606
477.005719	2406.757752
477.375734	2407.211455
477.745691	2404.408574
478.115588	2409.248082
478.485427	2407.526527
478.855207	2408.857392
479.224928	2407.506363
479.594591	2408.277659
479.964194	2409.301014
480.333739	2411.219173
480.703226	2407.050138
481.072653	2410.846127
481.442022	2408.743966
481.811333	2408.570046
482.180584	2405.744480
482.549777	2408.829666
482.918912	2407.642474
483.287988	2408.633061
483.657005	2407.478637
484.025964	2409.089285
484.394864	2408.517114
484.763706	2408.406209
485.132489	2407.299676
485.501213	2407.529048
485.869879	2409.492577
486.238487	2408.683472
486.607036	2409.235479
486.975527	2408.620458
487.343959	2408.413771
487.712333	2409.162382
488.080648	2410.558782
488.448905	2409.598442
488.817104	2407.924779
489.185244	2410.294121
489.553326	2412.514749
489.921350	2410.576426
490.289315	2410.503329
490.657222	2411.929975
491.025070	2411.289749
491.392861	2410.936868
491.760593	2410.790675
492.128267	2411.546848
492.495883	2409.520304
492.863440	2410.513411
493.230939	2409.595921
493.598380	2409.399316
493.965763	2405.620971
494.333088	2406.044428
494.700354	2404.658111
495.067563	2406.702299
495.434713	2405.177350
495.801805	2408.116343
496.168839	2408.872516
496.535815	2412.686148
496.902733	2411.534245
497.269593	2411.745973
497.636395	2407.798750
498.003139	2408.426373
498.369825	2410.117681
498.736453	2410.831004
499.103023	2410.601631
499.469535	2409.182547
499.835989	2407.725653
500.202385	2409.918555
500.568723	2410.155489
500.935003	2408.345715
501.301226	2409.646333
501.667390	2411.642630
502.033497	2413.051632
502.399546	2410.425191
502.765537	2409.694224
503.131470	2410.309244
503.497345	2410.105078
503.863163	2409.323699
504.228923	2409.900911
504.594625	2411.055335
504.960269	2408.935530
505.325856	2410.362177
505.691385	2409.124573
506.056856	2410.571384
506.422270	2409.343863
506.787625	2411.009965
507.152924	2409.406878
507.518164	2410.031981
507.883347	2411.365366
508.248472	2408.595252
508.613540	2413.366704
508.978550	2406.898904
509.343503	2411.244378
509.708398	2410.427712
510.073236	2409.265726
510.438016	2409.875705
510.802738	2411.191446
511.167403	2410.720098
511.532010	2411.151117
511.896561	2414.866448
512.261053	2413.225552
512.625488	2410.127763
512.989866	2407.639953
513.354186	2411.231776
513.718449	2409.792526
514.082655	2416.645975
514.446803	2412.141704
514.810894	2414.117836
515.174927	2414.087589
515.538904	2416.676222
515.902822	2415.637744
516.266684	2417.762590
516.630488	2416.046078
516.994235	2418.841397
517.357925	2415.713361
517.721558	2417.797878
518.085133	2418.748136
518.448651	2416.696386
518.812112	2418.919535
519.175516	2419.131264
519.538863	2421.064546
519.902152	2420.510019
520.265385	2421.850966
520.628560	2424.482448
520.991678	2423.874989
521.354739	2426.476225
521.717743	2425.755340
522.080690	2427.615526
522.443580	2426.077974
522.806413	2429.720207
523.169189	2426.577048
523.531908	2428.134764
523.894569	2430.332708
524.257174	2429.447985
524.619722	2433.440579
524.982213	2433.180959
525.344647	2433.579211
525.707025	2435.721701
526.069345	2432.838161
526.431608	2435.981320
526.793815	2436.724891
527.155964	2439.983997
527.518057	2440.722526
527.880093	2438.655652
528.242072	2442.123966
528.603995	2443.396858
528.965860	2441.357711
529.327669	2442.607917
529.689421	2444.105140
530.051117	2446.411468
530.412755	2445.801488
530.774337	2449.151335
531.135862	2449.148814
531.497331	2442.005499
531.858743	2442.577670
532.220098	2450.744339
532.581396	2448.995059
532.942638	2447.545727
533.303824	2454.802468
533.664953	2454.444546
534.026025	2453.827005
534.387040	2454.000925
534.747999	2453.882458
535.108902	2458.805144
535.469748	2455.896399
535.830537	2459.831019
536.191270	2460.004939
536.551947	2460.977882
536.912567	2465.088943
537.273131	2462.916205
537.633638	2462.742286
537.994089	2466.190435
538.354483	2462.742286
538.714821	2465.043572
539.075103	2468.274952
539.435328	2466.283696
539.795497	2468.889973
540.155609	2467.879221
540.515665	2469.568008
540.875665	2470.566156
541.235609	2468.476598
541.595496	2473.588328
541.955328	2473.326188
542.315102	2473.931127
542.674821	2475.642598
543.034483	2475.355252
543.394090	2474.783082
543.753640	2476.290387
544.113134	2479.078145
544.472571	2477.157465
544.831953	2481.049236
545.191278	2479.932620
545.550548	2480.857672
545.909761	2482.241469
546.268918	2483.290029
546.628019	2485.351861
546.987064	2483.325317
547.346053	2480.996304
547.704986	2484.678867
548.063863	2485.442601
548.422684	2485.099803
548.781449	2483.768938
549.140158	2485.866058
549.498811	2488.442088
549.857408	2487.741368
550.215949	2487.058291
550.574434	2484.610811
550.932864	2485.180461
551.291237	2485.379587
551.649555	2490.216574
552.007817	2489.571306
552.366022	2488.696666
552.724173	2489.926708
553.082267	2493.649600
553.440305	2492.991729
553.798288	2492.641369
554.156215	2492.785042
554.514086	2492.464929
554.871902	2494.836792
555.229661	2490.173724
555.587365	2491.123982
555.945014	2493.148005
556.302606	2493.137923
556.660143	2494.466267
557.017625	2494.060454
557.375050	2493.384939
557.732421	2495.038438
558.089735	2494.758654
558.446994	2491.267655
558.804197	2495.739158
559.161345	2493.672285
559.518437	2492.341420
559.875474	2494.957779
560.232455	2495.154384
560.589381	2495.187152
560.946251	2495.804693
561.303065	2495.224960
561.659825	2493.558859
562.016528	2494.965341
562.373177	2495.605567
562.729770	2491.214722
563.086307	2496.938953
563.442789	2493.999960
563.799216	2495.527430
564.155587	2491.812099
564.511904	2493.027017
564.868164	2492.664054
565.224370	2493.495845
565.580520	2494.264621
565.936615	2493.644559
566.292654	2489.074753
566.648638	2488.515185
567.004567	2490.922336
567.360441	2489.457880
567.716260	2492.311173
568.072023	2490.047695
568.427732	2483.975626
568.783385	2487.547283
569.138982	2481.608804
569.494525	2486.801192
569.850013	2481.722230
570.205445	2487.837149
570.560823	2484.003352
570.916145	2485.866058
571.271412	2482.523773
571.626625	2486.914618
571.981782	2480.313227
572.336884	2484.346150
572.691931	2480.731643
573.046923	2480.545120
573.401860	2480.905563
573.756743	2478.773155
574.111570	2480.136787
574.466342	2477.356591
574.821059	2479.647795
575.175722	2475.080510
575.530330	2476.955819
575.884882	2474.825931
576.239380	2474.715026
576.593823	2474.969604
576.948211	2474.036991
577.302544	2471.297124
577.656823	2473.071610
578.011047	2473.757207
578.365216	2469.948615
578.719330	2470.316619
579.073389	2468.411063
579.427394	2471.821404
579.781344	2468.307719
580.135239	2468.252267
580.489080	2467.047431
580.842866	2466.903758
581.196597	2468.726135
581.550273	2465.575414
581.903895	2467.317133
582.257463	2464.206741
582.610975	2462.838068
582.964434	2465.905610
583.317837	2464.703294
583.671186	2464.254632
584.024481	2463.185907
584.377721	2460.667851
584.730906	2463.357306
585.084037	2461.953345
585.437113	2460.786318
585.790135	2457.902778
586.143103	2458.482511
586.496016	2461.345886
586.848874	2457.217181
587.201679	2456.682819
587.554428	2453.990842
587.907124	2455.563682
588.259765	2455.571244
588.612352	2458.825309
588.964884	2460.476287
589.317362	2458.177521
589.669786	2459.089970
590.022155	2458.255659
590.374470	2458.122068
590.726731	2458.676595
591.078937	2457.887654
591.431090	2455.576285
591.783188	2459.455453
592.135232	2456.975206
592.487222	2455.712397
592.839157	2456.944959
593.191038	2455.508230
593.542866	2456.539146
593.894639	2454.494958
594.246358	2456.120730
594.598022	2454.411779
594.949633	2457.406224
595.301190	2455.566203
595.652692	2455.122582
596.004141	2455.483024
596.355535	2456.791203
596.706876	2456.118209
597.058162	2454.774742
597.409395	2455.513271
597.760573	2457.534774
598.111698	2455.959413
598.462768	2455.137705
598.813785	2455.399845
599.164748	2456.029989
599.515657	2452.644854
599.866511	2455.717438
600.217312	2456.781121
600.568060	2455.551080
600.918753	2458.853035
601.269392	2456.781121
601.619978	2457.486883
601.970510	2457.529733
602.320988	2459.987295
602.671412	2461.184569
603.021783	2459.352110
603.372100	2462.331432
603.722363	2459.011832
604.072572	2461.212295
604.422728	2462.545681
604.772830	2463.110290
605.122878	2459.485700
605.472872	2462.301185
605.822813	2459.936883
606.172701	2464.486525
606.522534	2464.123562
606.872314	2467.165898
607.222041	2468.111114
607.571714	2469.399129
607.921333	2464.836885
608.270899	2471.181177
608.620411	2470.382154
608.969870	2471.793677
609.319276	2474.107567
609.668627	2474.044552
610.017926	2474.914152
610.367171	2479.473875
610.716362	2479.151241
611.065500	2479.249544
611.414585	2481.230717
611.763616	2487.396048
612.112594	2483.985708
612.461518	2488.530308
612.810389	2488.855462
613.159207	2490.856801
613.507971	2492.243118
613.856682	2497.685043
614.205340	2495.983654
614.553945	2501.778460
614.902496	2502.111177
615.250994	2503.494973
615.599439	2503.179901
615.947830	2508.997393
616.296169	2509.269615
616.644454	2514.618279
616.992686	2517.443846
617.340864	2525.817202
617.688990	2526.570855
618.037063	2531.463295
618.385082	2536.461599
618.733048	2541.311189
619.080961	2542.216076
619.428821	2549.687066
619.776628	2550.266799
620.124382	2555.043292
620.472083	2554.632438
620.819731	2559.928170
621.167326	2555.418858
621.514868	2559.451781
621.862357	2559.550083
622.209793	2563.525033
622.557176	2563.900599
622.904506	2560.366750
623.251783	2557.548745
623.599007	2562.564693
623.946179	2558.720814
624.293297	2568.830848
624.640363	2566.312791
624.987376	2571.197669
625.334336	2572.566343
625.681243	2576.947105
626.028097	2577.060531
626.374899	2580.697724
626.721647	2584.347519
627.068343	2589.592840
627.414987	2593.207347
627.761577	2593.494693
628.108115	2599.632298
628.454600	2601.822679
628.801032	2605.875767
629.147412	2613.964298
629.493739	2617.891357
629.840014	2623.517285
630.186236	2628.535753
630.532405	2631.457102
630.878521	2639.313740
631.224585	2646.822539
631.570597	2649.743887
631.916556	2660.358037
632.262462	2664.191834
632.608316	2672.925633
632.954117	2676.136848
633.299866	2680.373938
633.645562	2683.920390
633.991206	2685.432736
634.336797	2682.972653
634.682336	2686.945082
635.027823	2690.148736
635.373257	2693.062522
635.718639	2693.097811
636.063968	2693.256607
636.409245	2692.102183
636.754470	2700.294058
637.099642	2701.370344
637.444762	2702.333204
637.789829	2709.143803
638.134845	2711.203115
638.479808	2716.377859
638.824719	2718.868189
639.169577	2722.633931
639.514383	2726.555949
639.859137	2728.259859
640.203839	2739.662949
640.548489	2740.119173
640.893086	2746.148393
641.237632	2747.025554
641.582125	2752.918663
641.926566	2758.400917
642.270955	2767.840478
642.615292	2778.207611
642.959576	2780.788682
643.303809	2788.234466
643.647990	2795.589509
643.992118	2803.126034
644.336195	2809.987045
644.680219	2820.891061
645.024192	2832.314315
645.368112	2845.733867
645.711981	2856.829446
646.055797	2883.348436
646.399562	2895.855539
646.743274	2923.332348
647.086935	2946.524176
647.430544	2953.526339
647.774101	2965.705767
648.117606	2974.842858
648.461059	2991.957575
648.804460	2995.279696
649.147810	2989.419354
649.491108	2990.727534
649.834354	2990.457832
650.177548	2981.966008
650.520690	2980.899804
650.863781	2988.464056
651.206820	2996.355982
651.549807	2995.367916
651.892742	2994.828512
652.235626	2998.075015
652.578458	3007.779237
652.921238	3002.707836
653.263967	3018.441277
653.606644	3020.339271
653.949269	3033.345448
654.291843	3032.959800
654.634365	3049.015875
654.976836	3054.339333
655.319255	3062.422824
655.661622	3068.240315
656.003938	3076.210379
656.346203	3079.557706
656.688416	3090.920466
657.030577	3093.438523
657.372687	3103.351952
657.714746	3116.469034
658.056753	3128.245169
658.398708	3121.106896
658.740612	3133.281282
659.082465	3147.676297
659.424266	3157.438491
659.766016	3167.140192
660.107715	3178.029084
660.449362	3190.369829
660.790958	3205.553784
661.132503	3212.538303
661.473996	3222.928121
661.815438	3236.536716
662.156829	3252.968357
662.498168	3258.564037
662.839456	3271.424021
663.180693	3281.576905
663.521879	3297.138947
663.863013	3306.180256
664.204097	3319.488902
664.545129	3343.895649
664.886110	3353.118440
665.227040	3371.004453
665.567918	3386.770662
665.908746	3400.142323
666.249522	3422.933379
666.590248	3436.426028
666.930922	3455.716003
667.271545	3463.668423
667.612118	3475.240392
667.952639	3480.631906
668.293109	3494.900892
668.633528	3502.127386
668.973896	3511.831607
669.314213	3519.466434
669.654480	3520.041126
669.994695	3530.683002
670.334859	3537.521327
670.674973	3547.086916
671.015035	3565.915626
671.355047	3579.393151
671.695008	3588.230293
672.034918	3596.076849
672.374777	3617.148872
672.714585	3625.204636
673.054342	3649.603821
673.394049	3652.870488
673.733705	3675.953932
674.073310	3673.292203
674.412864	3687.765355
674.752368	3686.845345
675.091820	3707.050289
675.431223	3697.966130
675.770574	3700.476625
676.109875	3700.990823
676.449125	3700.766491
676.788324	3705.611040
677.127473	3692.098227
677.466571	3697.371274
677.805619	3698.671892
678.144616	3708.383675
678.483562	3712.986248
678.822458	3712.552709
679.161303	3720.021178
679.500098	3727.161973
679.838842	3736.162953
680.177535	3754.331271
680.516179	3779.342956
680.854771	3808.465702
681.193314	3869.887120
681.531805	3949.502063
681.870247	4016.539327
682.208638	4071.440013
682.546978	4093.379114
682.885268	4112.202783
683.223508	4102.909416
683.561697	4094.924228
683.899836	4101.636524
684.237925	4089.734360
684.575963	4098.321966
684.913951	4094.422633
685.251889	4122.910194
685.589776	4142.716887
685.927614	4165.008869
686.265401	4188.656922
686.603137	4221.641192
686.940824	4275.851240
687.278460	4325.932583
687.616046	4359.171430
687.953582	4420.557561
688.291068	4441.022125
688.628504	4473.426662
688.965889	4488.063652
689.303224	4478.067044
689.640510	4466.560610
689.977745	4429.366977
690.314930	4384.188156
690.652065	4358.805947
690.989150	4312.810459
691.326185	4266.540228
691.663170	4223.516501
692.000105	4181.097712
692.336990	4142.537926
692.673825	4123.603352
693.010610	4098.934466
693.347345	4073.670723
693.684030	4036.194786
694.020665	4031.592212
694.357251	3995.303466
694.693786	4002.655989
695.030272	3997.491327
695.366707	3976.522648
695.703093	3968.315649
696.039429	3980.477433
696.375716	3972.847647
696.711952	3984.429697
697.048139	3988.056808
697.384276	3988.860872
697.720363	4011.233512
698.056400	4010.263090
698.392388	4008.201258
698.728326	4017.388761
699.064214	4013.388606
699.400053	4018.694420
699.735842	4001.178931
700.071581	3987.469513
700.407270	3979.267556
700.742910	3968.744147
701.078501	3955.133032
701.414042	3941.721042
701.749533	3931.048919
702.084974	3910.372627
702.420366	3934.239970
702.755709	3910.047472
703.091002	3891.523753
703.426246	3904.076226
703.761440	3909.198038
704.096584	3897.409300
704.431679	3905.268459
704.766725	3902.410124
705.101721	3907.887338
705.436668	3925.349895
705.771565	3911.176691
706.106413	3952.995583
706.441212	3964.983447
706.775961	3986.390706
707.110661	4007.523223
707.445311	4052.349163
707.779913	4055.572981
708.114465	4090.029268
708.448967	4131.278509
708.783421	4207.639387
709.117825	4251.010954
709.452180	4299.337975
709.786485	4351.937375
710.120742	4445.541519
710.454949	4471.422803
710.789107	4536.904871
711.123216	4624.767141
711.457275	4658.048839
711.791286	4725.297831
712.125247	4752.192387
712.459159	4738.183021
712.793023	4813.356707
713.126837	4717.693251
713.460602	4752.648612
713.794318	4721.262388
714.127985	4688.812480
714.461602	4610.137713
714.795171	4606.462712
715.128691	4516.221017
715.462162	4466.429540
715.795584	4427.106020
716.128957	4402.812699
716.462281	4372.139799
716.795556	4355.251933
717.128782	4314.360614
717.461960	4262.958489
717.795088	4260.909260
718.128167	4230.029672
718.461198	4189.776058
718.794180	4178.438503
719.127113	4153.320954
719.459997	4138.257987
719.792833	4110.456023
720.125619	4118.375676
720.458357	4089.215121
720.791046	4077.927978
721.123686	4068.490938
721.456278	4049.639543
721.788821	4056.150193
722.121315	4035.506668
722.453761	4054.244637
722.786158	4057.211356
723.118506	4063.298549
723.450805	4062.330648
723.783056	4085.436777
724.115259	4085.293104
724.447412	4088.143876
724.779518	4131.674240
725.111574	4141.018018
725.443582	4178.897248
725.775542	4192.470555
726.107453	4257.125874
726.439315	4261.375566
726.771129	4325.660360
727.102895	4382.469123
727.434612	4421.515380
727.766281	4450.076037
728.097901	4492.900639
728.429473	4512.122559
728.760996	4521.766286
729.092471	4539.155746
729.423897	4538.334038
729.755276	4531.319272
730.086606	4560.260537
730.417887	4637.826250
730.749120	4722.699117
731.080305	4766.834418
731.411442	4824.601000
731.742530	4847.399619
732.073570	4871.403073
732.404562	4922.515332
732.735506	4909.567128
733.066401	4884.530237
733.397249	4814.175894
733.728048	4735.816199
734.058798	4626.914673
734.389501	4536.367988
734.720156	4476.043021
735.050762	4407.662289
735.381320	4364.131926
735.711831	4334.457174
736.042293	4294.967295
736.372707	4303.696053
736.703073	4287.498826
737.033391	4320.722550
737.363661	4330.313345
737.693883	4355.264536
738.024056	4393.852048
738.354182	4430.541566
738.684260	4485.301100
739.014290	4533.028224
739.344272	4574.660593
739.674207	4625.036843
740.004093	4650.903003
740.333931	4662.694262
740.663722	4681.200338
740.993464	4689.203170
741.323159	4672.708514
741.652806	4639.641066
741.982405	4615.002426
742.311956	4568.754881
742.641460	4563.827153
742.970915	4516.122714
743.300323	4471.755519
743.629683	4446.209472
743.958996	4408.650355
744.288260	4372.233060
744.617477	4325.456193
744.946647	4319.212724
745.275768	4284.806849
745.604842	4261.579733
745.933869	4239.252463
746.262847	4234.690218
746.591778	4234.894385
746.920662	4225.495154
747.249498	4232.071339
747.578286	4263.999487
747.907027	4296.005773
748.235720	4344.428576
748.564365	4357.666646
748.892963	4351.539123
749.221514	4368.724417
749.550017	4348.156509
749.878473	4351.932333
750.206881	4325.322603
750.535242	4316.808094
750.863555	4305.026918
751.191821	4295.789003
751.520039	4308.301147
751.848210	4298.947286
752.176334	4306.635046
752.504411	4301.084735
752.832440	4280.791570
753.160421	4297.107265
753.488356	4284.877426
753.816243	4273.101290
754.144082	4252.505656
754.471875	4247.451899
754.799620	4243.056013
755.127318	4247.323350
755.454969	4246.693206
755.782572	4241.533585
756.110129	4250.085902
756.437638	4241.931836
756.765100	4243.313112
757.092515	4251.371397
757.419882	4260.997480
757.747203	4272.632463
758.074477	4286.530924
758.401703	4286.314154
758.728882	4323.104495
759.056014	4334.363912
759.383099	4363.418603
759.710138	4397.506885
760.037129	4419.577056
760.364073	4430.377728
760.690970	4435.076084
761.017820	4443.961118
761.344623	4490.072552
761.671379	4570.199172
761.998088	4712.737797
762.324751	5051.498294
762.651366	5654.175798
762.977935	6414.681747
763.304456	6891.947946
763.630931	7027.885180
763.957359	6807.306973
764.283740	6425.873108
764.610074	6035.637389
764.936362	5598.186223
765.262602	5277.289054
765.588796	4963.424295
765.914943	4749.487808
766.241044	4564.732040
766.567097	4426.959826
766.893104	4307.938184
767.219064	4234.859097
767.544978	4153.051253
767.870845	4091.987756
768.196665	4049.518555
768.522438	4011.772916
768.848165	3979.174295
769.173846	3946.943677
769.499479	3926.426181
769.825066	3891.566602
770.150607	3854.738453
770.476101	3843.022812
770.801548	3825.777024
771.126949	3794.446253
771.452303	3781.959315
771.777611	3743.578490
772.102872	3746.716608
772.428087	3721.009244
772.753256	3697.373795
773.078378	3678.655990
773.403453	3648.444355
773.728482	3628.587250
774.053465	3614.310703
774.378401	3599.283023
774.703291	3577.532965
775.028135	3556.642423
775.352932	3552.029767
775.677683	3535.376316
776.002388	3517.079448
776.327046	3519.277391
776.651658	3502.704598
776.976224	3485.083244
777.300743	3483.757421
777.625216	3468.891058
777.949643	3465.896613
778.274024	3467.834937
778.598359	3447.624951
778.922647	3454.528811
779.246889	3443.198818
779.571086	3448.045887
779.895236	3458.077783
780.219339	3459.370839
780.543397	3456.298256
780.867409	3471.157057
781.191374	3478.991010
781.515294	3471.242757
781.839167	3489.942917
782.162995	3486.772031
782.486776	3478.822131
782.810511	3469.168322
783.134201	3451.032771
783.457844	3455.045529
783.781441	3445.926082
784.104993	3435.884103
784.428498	3429.522167
784.751958	3428.455963
785.075372	3425.358174
785.398739	3418.192174
785.722061	3430.265738
786.045337	3433.015687
786.368568	3467.214875
786.691752	3472.051862
787.014891	3544.470557
787.337983	3620.002165
787.661030	3735.883169
787.984031	3858.138711
788.306987	3936.430351
788.629897	3977.059531
788.952760	3965.167449
789.275579	3924.127415
789.598351	3845.863502
789.921078	3778.576701
790.243759	3699.498641
790.566395	3644.171977
790.888984	3593.503340
791.211529	3557.839697
791.534027	3510.049559
791.856480	3470.998261
792.178888	3457.238431
792.501249	3439.763271
792.823566	3412.311668
793.145836	3409.271852
793.468062	3409.849064
793.790241	3400.434710
794.112375	3412.720002
794.434464	3446.566308
794.756507	3458.667598
795.078505	3491.682115
795.400457	3548.836197
795.722364	3619.309007
796.044226	3683.419881
796.366042	3730.773959
796.687812	3722.791292
797.009538	3739.298551
797.331218	3719.696024
797.652852	3703.050134
797.974442	3671.696678
798.295986	3654.778565
798.617484	3619.777834
798.938938	3586.145776
799.260346	3572.025504
799.581709	3531.023279
799.903026	3517.165148
800.224299	3495.324348
800.545526	3458.791107
800.866708	3441.021039
801.187845	3427.495623
801.508936	3402.564597
801.829983	3394.493710
802.150984	3361.721169
802.471940	3356.778317
802.792851	3355.402082
803.113717	3342.947912
803.434538	3337.816017
803.755314	3331.378464
804.076045	3330.329904
804.396731	3318.795744
804.717372	3321.858245
805.037967	3324.595591
805.358518	3329.230932
805.679024	3348.805733
805.999485	3356.680015
806.319901	3360.717979
806.640272	3366.769884
806.960598	3386.679921
807.280879	3386.238820
807.601115	3399.050913
807.921306	3389.124881
808.241453	3392.792320
808.561554	3399.549987
808.881611	3389.628996
809.201623	3392.512536
809.521590	3377.066441
809.841513	3377.701626
810.161390	3385.664129
810.481223	3359.528267
810.801011	3354.713965
811.120755	3351.535517
811.440453	3337.939525
811.760107	3328.752023
812.079716	3323.166424
812.399281	3306.190338
812.718801	3309.646049
813.038276	3297.270017
813.357707	3289.620066
813.677093	3303.258908
813.996434	3282.295269
814.315731	3294.295736
814.634983	3293.121147
814.954191	3298.144657
815.273354	3321.863286
815.592473	3336.825430
815.911547	3365.146633
816.230577	3386.775703
816.549562	3417.010023
816.868502	3439.312088
817.187399	3463.350830
817.506250	3497.113958
817.825058	3513.099457
818.143821	3573.285793
818.462539	3638.026811
818.781213	3723.986046
819.099843	3853.475644
819.418429	4078.167433
819.736970	4298.531391
820.055466	4558.831370
820.373919	4903.484976
820.692327	5434.807468
821.010691	6315.988557
821.329011	8088.256603
821.647286	10530.355364
821.965517	13202.373590
822.283704	14740.457354
822.601847	15505.276010
822.919945	14548.528025
823.237999	13340.317203
823.556010	11914.807445
823.873976	10561.958357
824.191897	9288.023492
824.509775	8343.951488
824.827609	7492.475398
825.145398	7007.987746
825.463144	6781.529033
825.780845	6885.212964
826.098502	7281.258613
826.416116	8052.177065
826.733685	8791.510168
827.051210	9010.097119
827.368692	8604.785829
827.686129	7799.118704
828.003522	6964.633823
828.320872	6195.857861
828.638177	5603.373570
828.955439	5155.777082
829.272656	4767.368781
829.589830	4464.569354
829.906960	4198.802244
830.224046	4003.265969
830.541088	3852.911035
830.858086	3758.402003
831.175041	3687.062114
831.491952	3669.511337
831.808819	3689.312990
832.125642	3790.299904
832.442421	4008.183614
832.759157	4425.896143
833.075849	5062.014141
833.392497	5725.167847
833.709101	6138.819726
834.025662	6076.616928
834.342179	5722.236416
834.658653	5240.607098
834.975083	4828.291125
835.291469	4488.454341
835.607811	4203.127554
835.924110	3995.089217
836.240366	3810.363696
836.556578	3630.843167
836.872746	3492.206395
837.188871	3384.665980
837.504952	3294.998977
837.820990	3230.240315
838.136984	3187.750949
838.452935	3165.832013
838.768842	3182.510670
839.084706	3286.534880
839.400526	3572.174218
839.716303	3915.691044
840.032037	4148.070593
840.347727	4109.152885
840.663373	3883.478071
840.978977	3657.442815
841.294537	3476.588900
841.610054	3346.156606
841.925527	3244.854620
842.240957	3160.909326
842.556344	3087.066504
842.871687	3023.679036
843.186987	2961.330045
843.502244	2914.616193
843.817458	2877.120091
844.132629	2848.370390
844.447756	2826.300219
844.762840	2805.510500
845.077881	2790.155146
845.392879	2775.908845
845.707833	2764.256218
846.022745	2754.206677
846.337613	2751.577716
846.652438	2743.088413
846.967221	2738.387537
847.281960	2729.915878
847.596656	2725.746843
847.911309	2723.576627
848.225919	2714.358877
848.540485	2714.242930
848.855009	2711.666901
849.169490	2707.162630
849.483928	2705.199100
849.798323	2696.704756
850.112675	2696.074612
850.426984	2698.340611
850.741251	2694.781556
851.055474	2694.050589
851.369654	2695.439427
851.683792	2689.833663
851.997887	2692.954138
852.311938	2691.391380
852.625947	2695.668799
852.939914	2692.702080
853.253837	2694.605116
853.567718	2695.696525
853.881555	2691.673685
854.195350	2692.303829
854.509103	2694.537060
854.822812	2693.886751
855.136479	2690.655372
855.450103	2694.456402
855.763685	2693.218798
856.077224	2694.579910
856.390720	2694.738706
856.704173	2702.204655
857.017584	2703.638863
857.330953	2707.122301
857.644278	2711.785368
857.957561	2710.293186
858.270802	2711.931561
858.584000	2714.104299
858.897155	2710.015923
859.210268	2703.273380
859.523339	2700.962011
859.836367	2699.255580
860.149352	2698.224664
860.462295	2698.128882
860.775195	2691.502285
861.088054	2687.754187
861.400869	2690.473890
861.713642	2689.097655
862.026373	2694.093438
862.339062	2697.002184
862.651708	2700.508307
862.964312	2709.617672
863.276873	2708.566591
863.589392	2726.893706
863.901869	2735.839233
864.214303	2744.784761
864.526696	2753.687439
864.839045	2759.905702
865.151353	2766.812083
865.463619	2770.799635
865.775842	2773.874739
866.088023	2773.660490
866.400162	2770.134203
866.712258	2772.778288
867.024313	2773.816766
867.336325	2771.833072
867.648296	2772.992537
867.960224	2774.449431
868.272110	2776.049997
868.583954	2776.254164
868.895755	2779.911521
869.207515	2780.125770
869.519233	2787.019548
869.830909	2790.860907
870.142542	2797.795014
870.454134	2801.580921
870.765684	2807.043011
871.077191	2813.415029
871.388657	2820.505412
871.700081	2827.114365
872.011463	2837.647856
872.322803	2846.273270
872.634101	2852.607480
872.945357	2860.741382
873.256571	2874.002137
873.567744	2881.198384
873.878874	2882.965308
874.189963	2891.983933
874.501010	2897.052813
874.812015	2892.162894
875.122979	2903.500449
875.433900	2901.496590
875.744780	2904.639749
876.055618	2907.150244
876.366415	2910.714340
876.677169	2917.603077
876.987882	2927.120775
877.298554	2934.518668
877.609183	2956.278809
877.919771	2979.027016
878.230317	3017.675022
878.540822	3071.406160
878.851285	3141.369813
879.161707	3247.922162
879.472087	3427.077208
879.782425	3708.761761
880.092722	4196.783262
880.402977	4880.560329
880.713191	5605.795844
881.023363	6294.233458
881.333494	6686.636873
881.643583	6927.243584
881.953631	6936.211797
882.263637	6770.685511
882.573602	6478.412013
882.883526	6170.427760
883.193408	5830.742211
883.503248	5486.214634
883.813048	5163.973998
884.122806	4864.305128
884.432522	4564.250610
884.742197	4301.866114
885.051831	4078.739604
885.361424	3879.387175
885.670975	3712.277966
885.980485	3572.143971
886.289954	3455.844552
886.599382	3363.493134
886.908768	3281.171092
887.218113	3205.319371
887.527417	3144.472644
887.836680	3089.942483
888.145901	3043.266439
888.455082	3006.997858
888.764221	2975.654484
889.073319	2949.006944
889.382376	2935.088319
889.691392	2921.235228
890.000366	2918.334044
890.309300	2912.665266
890.618193	2915.165679
890.927044	2911.092426
891.235855	2915.039650
891.544625	2922.634148
891.853353	2936.646035
892.162041	2963.858184
892.470687	3010.914834
892.779293	3059.995508
893.087858	3143.280411
893.396381	3268.656427
893.704864	3453.510498
894.013306	3699.803631
894.321707	3949.867547
894.630068	4115.106488
894.938387	4152.287518
895.246665	4086.165223
895.554903	3952.254533
895.863100	3800.359527
896.171256	3676.415197
896.479371	3565.456881
896.787446	3462.030048
897.095480	3371.826162
897.403473	3301.991057
897.711425	3230.847774
898.019336	3175.805935
898.327207	3117.804940
898.635038	3067.647980
898.942827	3019.358767
899.250576	2978.101964
899.558284	2936.963628
899.865952	2909.262488
900.173579	2879.292828
900.481165	2859.350023
900.788711	2839.001406
901.096216	2825.002122
901.403681	2808.537713
901.711105	2806.874132
902.018489	2805.911272
902.325832	2821.410299
902.633135	2849.008096
902.940397	2931.093204
903.247619	3113.638426
903.554800	3435.216151
903.861941	3839.219261
904.169041	4148.652846
904.476101	4256.195781
904.783121	4163.625073
905.090100	4000.339579
905.397039	3820.244358
905.703938	3655.446518
906.010796	3506.256091
906.317614	3391.423647
906.624391	3282.101185
906.931129	3187.503933
907.237826	3103.288937
907.544483	3023.747091
907.851099	2944.994186
908.157675	2872.714122
908.464211	2804.187197
908.770707	2755.182141
909.077163	2718.837942
909.383578	2689.606812
909.689954	2665.207627
909.996289	2652.773621
910.302584	2644.264153
910.608839	2634.746455
910.915054	2630.101032
911.221229	2628.505506
911.527363	2629.775877
911.833458	2636.097484
912.139513	2638.834831
912.445527	2652.882006
912.751502	2665.358862
913.057436	2688.200330
913.363331	2717.668394
913.669186	2760.495517
913.975000	2816.268322
914.280775	2908.700399
914.586510	3036.407949
914.892205	3206.806511
915.197859	3431.107610
915.503475	3686.184954
915.809050	3907.705857
916.114585	4039.174108
916.420081	4084.262188
916.725536	4064.102613
917.030952	3966.447902
917.336328	3876.992627
917.641665	3781.336732
917.946961	3678.030887
918.252218	3583.831887
918.557435	3478.287769
918.862612	3388.411558
919.167750	3304.660348
919.472848	3213.627192
919.777906	3138.352683
920.082925	3061.636404
920.387904	2988.658140
920.692843	2933.686878
920.997743	2887.988818
921.302603	2839.248422
921.607423	2810.539051
921.912204	2778.862961
922.216946	2754.050402
922.521647	2729.142061
922.826310	2706.502239
923.130932	2688.853159
923.435516	2670.526044
923.740059	2656.831750
924.044564	2641.632671
924.349028	2625.974847
924.653454	2609.762496
924.957840	2596.726072
925.262186	2587.992273
925.566493	2572.606672
925.870761	2559.295505
926.174989	2553.742674
926.479178	2547.927703
926.783328	2538.861188
927.087438	2533.318439
927.391509	2526.631349
927.695541	2518.978877
927.999533	2514.093999
928.303486	2508.848679
928.607400	2506.970849
928.911275	2506.141579
929.215110	2501.145796
929.518906	2500.341732
929.822663	2499.313336
930.126381	2499.386433
930.430060	2499.066320
930.733699	2501.526403
931.037299	2504.125118
931.340861	2499.383912
931.644383	2503.563029
931.947866	2504.341887
932.251309	2504.931702
932.554714	2501.486073
932.858080	2502.726197
933.161407	2499.890548
933.464694	2498.277379
933.767943	2497.248984
934.071153	2494.642707
934.374323	2492.159939
934.677455	2489.944352
934.980548	2490.791266
935.283602	2487.068373
935.586617	2486.874289
935.889593	2491.232367
936.192530	2491.378560
936.495428	2493.528612
936.798287	2497.634632
937.101108	2507.802639
937.403890	2519.488034
937.706632	2532.766433
938.009336	2550.228990
938.312002	2567.913358
938.614628	2581.700913
938.917216	2588.559403
939.219765	2596.506782
939.522275	2600.839654
939.824747	2603.871908
940.127179	2598.268666
940.429573	2594.155084
940.731929	2595.397728
941.034246	2588.519074
941.336524	2588.496389
941.638763	2585.461614
941.940964	2582.426840
942.243126	2574.391240
942.545250	2567.240364
942.847335	2560.376833
943.149381	2550.102961
943.451389	2541.285983
943.753359	2537.711805
944.055290	2532.118645
944.357182	2526.943900
944.659036	2524.120854
944.960851	2521.494413
945.262628	2520.042561
945.564367	2523.261337
945.866067	2521.388549
946.167729	2520.760925
946.469352	2519.041892
946.770937	2516.823784
947.072484	2515.651716
947.373992	2514.310769
947.675462	2511.341529
947.976893	2510.270284
948.278286	2506.905314
948.579641	2507.326250
948.880958	2505.503873
949.182236	2504.654439
949.483476	2503.068996
949.784678	2507.328771
950.085841	2500.697133
950.386967	2507.298524
950.688054	2509.272136
950.989103	2514.557785
951.290114	2517.688342
951.591087	2524.002387
951.892021	2531.859025
952.192917	2536.484284
952.493776	2541.936292
952.794596	2544.030891
953.095378	2542.984852
953.396122	2545.225645
953.696828	2538.576363
953.997496	2539.201466
954.298126	2532.763912
954.598718	2532.597554
954.899272	2520.546676
955.199788	2518.426871
955.500266	2512.826149
955.800706	2499.068840
956.101108	2491.038282
956.401472	2486.957468
956.701798	2477.001189
957.002087	2473.583287
957.302337	2465.817389
957.602550	2462.948973
957.902724	2457.123920
958.202861	2450.923300
958.502960	2447.021447
958.803022	2442.829728
959.103045	2439.215221
959.403031	2437.919644
959.702979	2436.427463
960.002889	2433.286824
960.302762	2424.694177
960.602596	2425.281471
960.902393	2421.447674
961.202153	2427.527305
961.501875	2420.351223
961.801559	2423.413724
962.101205	2417.157652
962.400814	2417.689494
962.700385	2415.630182
962.999918	2416.645975
963.299414	2412.769327
963.598873	2414.437949
963.898293	2412.663463
964.197677	2413.868299
964.497022	2412.353432
964.796331	2409.790006
965.095601	2412.693710
965.394835	2410.863771
965.694030	2411.352763
965.993189	2412.804616
966.292309	2410.261353
966.591393	2410.357135
966.890439	2408.887639
967.189447	2412.424008
967.488419	2410.687331
967.787353	2411.340160
968.086249	2410.321847
968.385108	2411.103226
968.683930	2413.543145
968.982714	2414.853845
969.281462	2415.584812
969.580172	2413.323854
969.878844	2413.008782
970.177480	2416.887950
970.476078	2420.116809
970.774639	2422.506316
971.073162	2423.320463
971.371649	2421.654361
971.670098	2419.068249
971.968510	2420.714186
972.266885	2419.058167
972.565223	2424.870617
972.863524	2427.121493
973.161788	2428.154929
973.460014	2427.744075
973.758204	2430.617533
974.056356	2428.134764
974.354471	2428.265834
974.652550	2429.100145
974.950591	2428.185176
975.248595	2429.352203
975.546563	2427.174425
975.844493	2428.071750
976.142386	2424.399269
976.440243	2424.961358
976.738062	2424.313570
977.035845	2421.485483
977.333590	2421.931625
977.631299	2419.098496
977.928971	2418.271747
978.226606	2417.697055
978.524204	2415.166396
978.821765	2416.325862
979.119290	2414.430388
979.416777	2418.201171
979.714228	2417.044226
980.011642	2416.315779
980.309020	2421.041861
980.606360	2420.278126
980.903664	2426.385484
981.200931	2432.674323
981.498162	2446.305603
981.795356	2459.384877
982.092513	2479.083186
982.389633	2499.804849
982.686717	2522.686646
982.983764	2534.465302
983.280775	2543.904863
983.577749	2544.784544
983.874686	2537.782381
984.171587	2535.052596
984.468451	2525.474404
984.765279	2513.297497
985.062070	2507.666528
985.358824	2495.194713
985.655543	2483.781541
985.952224	2474.374748
986.248869	2457.207099
986.545478	2443.210335
986.842050	2435.893100
987.138586	2427.035793
987.435086	2419.640420
987.731549	2411.740932
988.027975	2412.862589
988.324366	2411.214132
988.620719	2409.671538
988.917037	2406.140210
989.213318	2403.803635
989.509563	2400.668038
989.805772	2402.986968
990.101944	2400.478994
990.398080	2403.707853
990.694180	2402.205590
990.990244	2401.048645
991.286271	2402.447565
991.582262	2401.961094
991.878217	2400.080743
992.174136	2401.646022
992.470019	2402.276166
992.765865	2406.407391
993.061676	2403.828841
993.357450	2407.259346
993.653188	2407.987793
993.948890	2412.799574
994.244556	2416.441808
994.540186	2418.919535
994.835780	2426.027562
995.131337	2432.873449
995.426859	2439.860488
995.722345	2453.151490
996.017795	2461.812193
996.313208	2468.302678
996.608586	2474.150417
996.903928	2476.325675
997.199234	2475.191415
997.494504	2470.735035
997.789738	2471.022381
998.084936	2461.981071
998.380099	2458.716924
998.675225	2454.280709
998.970316	2448.677466
999.265371	2439.237906
999.560390	2432.497883
999.855373	2425.538570
1000.150320	2423.043199
1000.445232	2415.894843
1000.740108	2413.701941
1001.034948	2413.369225
1001.329752	2406.445200
1001.624521	2406.644326
1001.919254	2400.894890
1002.213951	2400.594941
1002.508613	2395.553787
1002.803239	2398.984292
1003.097829	2393.875083
1003.392384	2397.875238
1003.686903	2396.516648
1003.981386	2397.706360
1004.275834	2394.023797
1004.570246	2394.822820
1004.864623	2396.458674
1005.158964	2394.356513
1005.453270	2394.996740
1005.747540	2394.769888
1006.041775	2393.267624
1006.335974	2392.587068
1006.630138	2394.984137
1006.924266	2394.974054
1007.218359	2391.820813
1007.512416	2392.919784
1007.806438	2392.292161
1008.100425	2393.353323
1008.394376	2392.529095
1008.688292	2393.769219
1008.982172	2392.546739
1009.276017	2392.335010
1009.569827	2393.786863
1009.863602	2393.723848
1010.157341	2392.392984
1010.451045	2391.775442
1010.744714	2392.355175
1011.038347	2392.481204
1011.331945	2392.786194
1011.625508	2390.580689
1011.919036	2391.636811
1012.212528	2390.253014
1012.505986	2389.562376
1012.799408	2389.446429
1013.092795	2388.818806
1013.386147	2392.095556
1013.679464	2387.954248
1013.972745	2389.811913
1014.265992	2389.093548
1014.559204	2394.038920
1014.852380	2391.062119
1015.145521	2389.522047
1015.438628	2391.059598
1015.731699	2390.789897
1016.024736	2389.786707
1016.317737	2390.552962
1016.610703	2392.251831
1016.903635	2387.374515
1017.196531	2388.087838
1017.489393	2391.939280
1017.782219	2387.770246
1018.075011	2389.758981
1018.367768	2393.260062
1018.660490	2392.977757
1018.953177	2392.977757
1019.245829	2392.977757
