Dividing Wavelength (nm)	Counts (n)	Blue Motor Position (mm): 14.800000	Red Motor Position (mm): 0.000000	
326.493990	1975.882771
326.888308	1975.882771
327.282561	1975.882771
327.676750	1951.602053
328.070874	1952.257403
328.464933	1957.285954
328.858929	1968.787347
329.252859	1981.453246
329.646726	1996.881697
330.040528	2010.875940
330.434265	2029.452592
330.827938	2049.377753
331.221547	2067.982131
331.615091	2089.336458
332.008571	2108.223141
332.401986	2131.929167
332.795338	2151.166210
333.188625	2171.766886
333.581847	2190.313291
333.975006	2207.223841
334.368100	2224.313353
334.761129	2241.662484
335.154095	2256.160842
335.546996	2289.561007
335.939833	2341.263081
336.332606	2355.869824
336.725315	2368.623943
337.117960	2375.915972
337.510540	2381.698176
337.903056	2395.100083
338.295508	2399.884138
338.687896	2410.503329
339.080220	2414.412744
339.472480	2419.776531
339.864676	2422.561769
340.256807	2425.258786
340.648875	2429.362285
341.040879	2432.563418
341.432818	2431.383788
341.824694	2434.670620
342.216506	2432.475198
342.608253	2429.649631
342.999937	2430.867070
343.391557	2426.125865
343.783113	2430.534354
344.174605	2428.429672
344.566033	2424.752150
344.957397	2424.663930
345.348697	2421.268713
345.739934	2420.197468
346.131106	2415.027764
346.522215	2415.090779
346.913260	2414.700089
347.304241	2415.030285
347.695159	2412.630696
348.086012	2409.414440
348.476802	2406.732546
348.867528	2408.877557
349.258191	2406.094840
349.648789	2405.457134
350.039324	2404.181722
350.429796	2404.408574
350.820203	2401.648542
351.210548	2399.281720
351.600828	2399.480846
351.991045	2397.731566
352.381198	2399.732904
352.771288	2400.887328
353.161314	2395.941956
353.551276	2396.803993
353.941175	2397.222409
354.331010	2396.551936
354.720782	2397.106463
355.110490	2401.688871
355.500135	2399.717780
355.889717	2398.921278
356.279235	2397.063613
356.668689	2400.116031
357.058080	2398.253325
357.447408	2397.262738
357.836672	2396.118396
358.225873	2400.078223
358.615010	2396.259549
359.004084	2402.999571
359.393095	2401.830024
359.782043	2401.237688
360.170927	2404.219531
360.559748	2401.424211
360.948505	2406.654408
361.337199	2405.169788
361.725830	2404.574932
362.114398	2406.984603
362.502903	2404.726167
362.891344	2406.162895
363.279722	2405.089130
363.668037	2409.222876
364.056289	2408.738925
364.444478	2407.836558
364.832603	2408.262536
365.220665	2410.281518
365.608665	2408.912845
365.996601	2408.454100
366.384474	2407.035015
366.772284	2412.585325
367.160031	2412.146745
367.547715	2409.449728
367.935336	2410.929306
368.322893	2410.778072
368.710388	2412.091292
369.097820	2416.338464
369.485189	2414.710172
369.872495	2412.502146
370.259738	2415.161355
370.646918	2415.773855
371.034035	2411.602300
371.421090	2415.584812
371.808081	2413.316293
372.195010	2415.075655
372.581875	2414.455593
372.968678	2416.653537
373.355418	2416.595563
373.742096	2415.962898
374.128710	2416.111612
374.515262	2416.295615
374.901751	2415.388207
375.288177	2415.582291
375.674540	2416.121695
376.060841	2416.073804
376.447079	2414.987435
376.833254	2417.477765
377.219367	2413.951478
377.605417	2416.225038
377.991404	2414.339647
378.377329	2417.150090
378.763191	2416.439287
379.148991	2421.155287
379.534727	2418.501119
379.920402	2419.884916
380.306013	2417.785276
380.691563	2418.609504
381.077049	2419.602612
381.462474	2420.570513
381.847835	2421.248548
382.233134	2419.199319
382.618371	2420.885585
383.003545	2423.023034
383.388657	2422.728127
383.773706	2423.020514
384.158693	2422.523960
384.543618	2423.822057
384.928480	2420.711665
385.313280	2421.109917
385.698017	2421.447674
386.082692	2424.656368
386.467305	2427.549991
386.851856	2424.182500
387.236344	2425.609146
387.620770	2425.410021
388.005133	2425.258786
388.389435	2426.461101
388.773674	2426.627459
389.157851	2427.368509
389.541965	2427.194589
389.926018	2426.743406
390.310008	2425.266348
390.693936	2427.749116
391.077802	2427.670978
391.461606	2429.115269
391.845348	2426.690474
392.229027	2430.851946
392.612645	2428.772470
392.996200	2428.485125
393.379694	2428.036462
393.763125	2431.159457
394.146494	2430.476380
394.529801	2432.066864
394.913047	2432.661721
395.296230	2431.577873
395.679351	2428.964034
396.062410	2429.889086
396.445408	2427.534867
396.828343	2431.030907
397.211217	2427.519744
397.594028	2428.573345
397.976778	2427.348344
398.359466	2432.729776
398.742092	2427.355906
399.124656	2430.526792
399.507158	2428.979158
399.889598	2434.370672
400.271977	2430.294899
400.654294	2432.543253
401.036549	2432.074426
401.418742	2433.117945
401.800874	2433.690116
402.182944	2433.483429
402.564952	2436.107349
402.946898	2434.264807
403.328783	2434.932760
403.710606	2435.625919
404.092367	2433.816145
404.474067	2437.292020
404.855705	2436.445107
405.237282	2436.243460
405.618797	2437.801177
406.000250	2435.537699
406.381642	2437.662545
406.762972	2436.281269
407.144240	2436.372010
407.525447	2439.472319
407.906593	2439.626075
408.287677	2438.267484
408.668700	2437.171033
409.049661	2438.012905
409.430560	2435.630960
409.811399	2440.881322
410.192176	2437.929726
410.572891	2440.062134
410.953545	2437.559202
411.334138	2438.496856
411.714669	2438.010385
412.095139	2441.181271
412.475547	2437.236568
412.855894	2439.827721
413.236180	2439.946188
413.616405	2439.426949
413.996568	2438.164140
414.376670	2439.963832
414.756711	2438.917793
415.136691	2440.621702
415.516609	2439.220262
415.896466	2439.429470
416.276262	2439.724377
416.655997	2441.274532
417.035670	2434.370672
417.415283	2439.399223
417.794834	2435.260435
418.174324	2440.725046
418.553753	2439.568101
418.933121	2441.919800
419.312428	2441.506425
419.691674	2442.537341
420.070859	2440.069696
420.449983	2442.875098
420.829045	2441.082968
421.208047	2442.996086
421.586988	2443.845520
421.965867	2443.348967
422.344686	2444.647064
422.723444	2442.038267
423.102141	2444.203442
423.480777	2444.130346
423.859352	2443.802671
424.237866	2443.888370
424.616319	2444.425253
424.994712	2445.723350
425.373044	2445.884667
425.751314	2446.257713
426.129524	2445.100768
426.507673	2445.052877
426.885762	2445.224276
427.263789	2445.912393
427.641756	2444.329471
428.019662	2446.608073
428.397508	2446.295521
428.775292	2446.202260
429.153016	2446.938268
429.530679	2445.698144
429.908282	2444.841148
430.285824	2444.226128
430.663305	2446.776951
431.040726	2444.689914
431.418086	2446.938268
431.795385	2444.226127
432.172624	2445.257043
432.549802	2448.803495
432.926920	2447.926334
433.303977	2447.444904
433.680974	2448.468258
434.057910	2448.848866
434.434786	2446.534976
434.811601	2448.513629
435.188355	2448.125460
435.565050	2451.497992
435.941683	2447.205449
436.318257	2444.851231
436.694770	2443.658998
437.071222	2447.240737
437.447614	2445.798967
437.823946	2448.092692
438.200218	2450.313321
438.576429	2449.990687
438.952580	2448.553958
439.328670	2452.349947
439.704700	2449.743670
440.080670	2448.417847
440.456580	2451.666871
440.832429	2452.531428
441.208218	2450.620831
441.583947	2449.663012
441.959616	2452.841459
442.335224	2447.828032
442.710773	2451.646706
443.086261	2450.958588
443.461689	2452.796089
443.837057	2452.150821
444.212365	2452.382714
444.587612	2450.935903
444.962800	2453.433795
445.337927	2454.714248
445.712995	2454.089145
446.088002	2454.147118
446.462949	2455.568724
446.837837	2454.303394
447.212664	2455.714917
447.587431	2455.193158
447.962139	2459.624332
448.336786	2460.990485
448.711374	2460.514096
449.085901	2455.838425
449.460369	2459.296657
449.834776	2458.432099
450.209124	2457.847325
450.583412	2461.459312
450.957640	2461.522326
451.331808	2462.656586
451.705917	2459.838581
452.079965	2460.577110
452.453954	2462.979220
452.827883	2461.111472
453.201752	2459.576441
453.575562	2462.011318
453.949311	2462.389405
454.323001	2464.461319
454.696632	2460.050309
455.070202	2464.688171
455.443713	2465.280507
455.817164	2465.494756
456.190556	2462.550722
456.563888	2468.227061
456.937160	2461.043417
457.310373	2466.016515
457.683526	2465.840075
458.056619	2466.949128
458.429653	2465.857719
458.802628	2467.377627
459.175542	2467.760754
459.548398	2466.334108
459.921194	2469.068934
460.293930	2472.703606
460.666607	2473.754686
461.039224	2472.809470
461.411782	2474.846096
461.784280	2477.056642
462.156719	2473.288379
462.529099	2476.814667
462.901419	2473.205200
463.273680	2473.129583
463.645882	2471.745786
464.018024	2475.786271
464.390106	2474.193267
464.762130	2478.621920
465.134094	2481.805409
465.505999	2485.966881
465.877845	2492.671616
466.249631	2493.790752
466.621358	2495.620691
466.993026	2493.576503
467.364634	2490.143477
467.736184	2489.747747
468.107674	2486.975112
468.479105	2485.306490
468.850477	2485.556027
469.221790	2485.556027
469.593043	2485.470328
469.964238	2483.937817
470.335373	2480.711478
470.706449	2486.102993
471.077467	2486.866727
471.448425	2494.309991
471.819324	2493.291678
472.190164	2494.075577
472.560945	2490.783704
472.931667	2488.157263
473.302330	2484.638537
473.672934	2485.498054
474.043479	2487.809423
474.413965	2486.909577
474.784393	2483.796665
475.154761	2484.988898
475.525070	2485.467807
475.895321	2486.498723
476.265513	2485.634165
476.635645	2493.558859
477.005719	2491.537356
477.375734	2490.120792
477.745691	2492.283447
478.115588	2496.838130
478.485427	2497.927019
478.855207	2506.620489
479.224928	2509.829183
479.594591	2509.720798
479.964194	2511.946468
480.333739	2514.582991
480.703226	2516.022241
481.072653	2517.958044
481.442022	2518.167252
481.811333	2520.786131
482.180584	2517.632889
482.549777	2518.855369
482.918912	2518.421830
483.287988	2521.355781
483.657005	2520.208919
484.025964	2522.956348
484.394864	2524.831657
484.763706	2524.065402
485.132489	2523.538601
485.501213	2524.856863
485.869879	2528.007584
486.238487	2532.622760
486.607036	2529.981196
486.975527	2533.845240
487.343959	2536.053265
487.712333	2539.725746
488.080648	2537.099305
488.448905	2544.396375
488.817104	2542.304296
489.185244	2547.020296
489.553326	2556.001111
489.921350	2563.598130
490.289315	2572.936867
490.657222	2582.257961
491.025070	2585.900195
491.392861	2587.374732
491.760593	2581.083372
492.128267	2580.181006
492.495883	2577.841910
492.863440	2579.255954
493.230939	2577.443659
493.598380	2577.335274
493.965763	2574.280335
494.333088	2574.976014
494.700354	2574.963411
495.067563	2580.370049
495.434713	2583.387179
495.801805	2589.292891
496.168839	2590.192737
496.535815	2592.176431
496.902733	2593.661051
497.269593	2596.350507
497.636395	2599.178594
498.003139	2603.826538
498.369825	2606.251333
498.736453	2608.229986
499.103023	2611.428598
499.469535	2614.357508
499.835989	2616.439505
500.202385	2619.078549
500.568723	2618.854217
500.935003	2626.000053
501.301226	2626.229425
501.667390	2631.782256
502.033497	2640.329533
502.399546	2636.904069
502.765537	2637.796353
503.131470	2645.032929
503.497345	2646.850265
503.863163	2644.894297
504.228923	2652.329999
504.594625	2657.230001
504.960269	2656.196564
505.325856	2664.010353
505.691385	2661.023469
506.056856	2666.863646
506.422270	2671.488905
506.787625	2672.610561
507.152924	2675.985614
507.518164	2680.714216
507.883347	2675.690706
508.248472	2681.573733
508.613540	2688.870803
508.978550	2694.544622
509.343503	2694.307687
509.708398	2698.617874
510.073236	2704.289172
510.438016	2709.602548
510.802738	2709.433670
511.167403	2713.406099
511.532010	2718.558158
511.896561	2722.717110
512.261053	2730.024262
512.625488	2729.804972
512.989866	2731.473594
513.354186	2735.158678
513.718449	2733.094325
514.082655	2745.644278
514.446803	2746.155955
514.810894	2753.233735
515.174927	2757.735485
515.538904	2755.439240
515.902822	2763.021135
516.266684	2766.239912
516.630488	2769.262083
516.994235	2774.242743
517.357925	2780.851696
517.721558	2780.662653
518.085133	2788.947789
518.448651	2794.205713
518.812112	2796.169242
519.175516	2799.173770
519.538863	2805.197949
519.902152	2806.974955
520.265385	2815.688590
520.628560	2818.791420
520.991678	2820.384425
521.354739	2826.602688
521.717743	2832.591579
522.080690	2833.935046
522.443580	2846.651357
522.806413	2849.633199
523.169189	2853.310721
523.531908	2861.477390
523.894569	2864.290354
524.257174	2869.409646
524.619722	2878.140924
524.982213	2884.815412
525.344647	2888.407234
525.707025	2894.567524
526.069345	2905.978176
526.431608	2912.037643
526.793815	2922.684560
527.155964	2922.808068
527.518057	2932.088832
527.880093	2936.207455
528.242072	2952.160186
528.603995	2958.358285
528.965860	2964.233750
529.327669	2973.600213
529.689421	2981.915597
530.051117	2991.677791
530.412755	3001.487877
530.774337	3011.159330
531.135862	3019.648633
531.497331	3030.701363
531.858743	3039.667055
532.220098	3058.576423
532.581396	3064.162022
532.942638	3072.454720
533.303824	3092.957093
533.664953	3105.010491
534.026025	3114.344188
534.387040	3137.672127
534.747999	3149.004641
535.108902	3167.374606
535.469748	3178.011440
535.830537	3196.754450
536.191270	3219.076679
536.551947	3230.084039
536.912567	3250.563726
537.273131	3272.898558
537.633638	3285.798871
537.994089	3308.594969
538.354483	3325.049295
538.714821	3358.346116
539.075103	3385.621279
539.435328	3405.657345
539.795497	3429.139040
540.155609	3452.650981
540.515665	3487.326558
540.875665	3501.172087
541.235609	3538.537119
541.595496	3566.177766
541.955328	3609.403139
542.315102	3626.485089
542.674821	3648.993841
543.034483	3683.341743
543.394090	3713.560940
543.753640	3744.921958
544.113134	3807.618788
544.472571	3818.434584
544.831953	3893.212539
545.191278	3906.075043
545.550548	3932.881379
545.909761	3990.499247
546.268918	4040.434396
546.628019	4090.382148
546.987064	4122.436325
547.346053	4138.555415
547.704986	4215.962332
548.063863	4243.081219
548.422684	4299.607677
548.781449	4346.482846
549.140158	4409.956014
549.498811	4455.081903
549.857408	4481.966376
550.215949	4570.214295
550.574434	4619.274804
550.932864	4667.498482
551.291237	4758.350157
551.649555	4801.673833
552.007817	4873.275861
552.366022	4917.905196
552.724173	4989.603007
553.082267	5077.916461
553.440305	5159.784799
553.798288	5188.378224
554.156215	5274.849136
554.514086	5356.790571
554.871902	5413.216206
555.229661	5491.187732
555.587365	5552.775509
555.945014	5634.946317
556.302606	5705.963571
556.660143	5800.638961
557.017625	5887.435028
557.375050	5957.015553
557.732421	6064.858437
558.089735	6145.806765
558.446994	6225.399022
558.804197	6353.958528
559.161345	6435.335354
559.518437	6457.511390
559.875474	6575.739050
560.232455	6683.392891
560.589381	6789.557070
560.946251	6862.699171
561.303065	7026.783688
561.659825	7104.384689
562.016528	7172.861203
562.373177	7249.156546
562.729770	7402.649598
563.086307	7449.925539
563.442789	7613.750436
563.799216	7725.679175
564.155587	7813.493554
564.511904	7932.699198
564.868164	8056.487252
565.224370	8202.262297
565.580520	8285.456459
565.936615	8428.282430
566.292654	8515.317951
566.648638	8676.097992
567.004567	8794.217267
567.360441	8926.166949
567.716260	9037.952015
568.072023	9204.448723
568.427732	9338.934105
568.783385	9408.897759
569.138982	9599.261810
569.494525	9742.440662
569.850013	9826.680863
570.205445	9972.019849
570.560823	10108.627557
570.916145	10227.964271
571.271412	10377.227795
571.626625	10475.827723
571.981782	10633.189861
572.336884	10725.442977
572.691931	10934.315624
573.046923	11007.359423
573.401860	11127.059101
573.756743	11275.296750
574.111570	11450.517175
574.466342	11569.616956
574.821059	11758.604772
575.175722	11800.277470
575.530330	11967.815177
575.884882	12065.968963
576.239380	12213.180738
576.593823	12376.509081
576.948211	12515.153415
577.302544	12563.636712
577.656823	12745.279568
578.011047	12977.144918
578.365216	13074.003128
578.719330	13191.305736
579.073389	13329.819000
579.427394	13521.264379
579.781344	13687.259493
580.135239	13770.141103
580.489080	13959.539774
580.842866	13997.328263
581.196597	14308.616993
581.550273	14460.748933
581.903895	14598.470736
582.257463	14912.297686
582.610975	14917.361525
582.964434	15179.438511
583.317837	15259.222332
583.671186	15385.087341
584.024481	15638.649818
584.377721	15670.716597
584.730906	15956.585308
585.084037	16136.894778
585.437113	16230.206536
585.790135	16419.234682
586.143103	16462.281095
586.496016	16682.841658
586.848874	16879.043365
587.201679	17081.087770
587.554428	17076.127275
587.907124	17336.500351
588.259765	17438.750074
588.612352	17737.110764
588.964884	17678.983740
589.317362	17981.868866
589.669786	18150.129978
590.022155	18253.183766
590.374470	18608.461604
590.726731	18599.155634
591.078937	18588.385209
591.431090	18808.320669
591.783188	18846.572944
592.135232	18885.916629
592.487222	19164.331994
592.839157	19396.567870
593.191038	19422.257590
593.542866	19493.211830
593.894639	19411.653523
594.246358	19713.472445
594.598022	19869.672597
594.949633	19873.987824
595.301190	20019.294043
595.652692	20135.525406
596.004141	20458.098759
596.355535	20155.190948
596.706876	20304.716612
597.058162	20392.354551
597.409395	20782.602873
597.760573	21011.446052
598.111698	20962.183896
598.462768	21134.417438
598.813785	21322.462559
599.164748	21219.197043
599.515657	21582.815470
599.866511	21484.291159
600.217312	21969.676137
600.568060	21595.289805
600.918753	22153.554744
601.269392	22297.678812
601.619978	22290.739663
601.970510	22553.424108
602.320988	22820.222134
602.671412	23146.326815
603.021783	23166.466224
603.372100	23133.660916
603.722363	23373.947514
604.072572	23573.889757
604.422728	23735.325148
604.772830	23792.222131
605.122878	23990.967100
605.472872	24127.526917
605.822813	24449.059271
606.172701	24493.819676
606.522534	24804.274094
606.872314	25121.239163
607.222041	25121.564318
607.571714	25514.365984
607.921333	25321.451109
608.270899	25661.678582
608.620411	26029.019901
608.969870	26054.684415
609.319276	26208.512704
609.668627	26397.558494
610.017926	26840.063417
610.367171	27098.977078
610.716362	27311.199573
611.065500	27425.727027
611.414585	27703.492083
611.763616	28051.795484
612.112594	28162.363112
612.461518	28444.766030
612.810389	28796.353743
613.159207	28846.147740
613.507971	29042.102431
613.856682	29516.321253
614.205340	29580.384236
614.553945	30206.132581
614.902496	29954.122779
615.250994	30430.118608
615.599439	30618.725817
615.947830	30901.763920
616.296169	31089.085636
616.644454	31302.986834
616.992686	31563.853943
617.340864	32080.027768
617.688990	31996.967196
618.037063	32576.334405
618.385082	32685.351878
618.733048	33033.015052
619.080961	33160.730165
619.428821	33297.642862
619.776628	33519.758621
620.124382	33497.980836
620.472083	33727.118923
620.819731	33961.212463
621.167326	33818.383972
621.514868	33931.935962
621.862357	33715.063003
622.209793	33849.989486
622.557176	33713.923702
622.904506	33634.379336
623.251783	33476.336642
623.599007	33421.695576
623.946179	33364.047461
624.293297	33435.165539
624.640363	33057.749474
624.987376	33159.613549
625.334336	33066.682398
625.681243	32875.612585
626.028097	32950.577064
626.374899	32934.906637
626.721647	33016.916128
627.068343	33028.871224
627.414987	32907.024015
627.761577	32826.221881
628.108115	33202.612071
628.454600	32816.515139
628.801032	33063.130906
629.147412	33115.677373
629.493739	33212.573391
629.840014	32999.410721
630.186236	33383.360121
630.532405	33125.109372
630.878521	33395.060639
631.224585	33343.514841
631.570597	33182.608772
631.916556	33387.042684
632.262462	33435.674695
632.608316	33516.433980
632.954117	33485.748477
633.299866	33555.044177
633.645562	33567.727720
633.991206	33222.146542
634.336797	32937.840588
634.682336	33006.339787
635.027823	32856.748588
635.373257	32779.465179
635.718639	32640.404950
636.063968	32587.661878
636.409245	32161.704542
636.754470	32265.345624
637.099642	32122.943110
637.444762	31759.486000
637.789829	31949.560186
638.134845	31709.371890
638.479808	31724.969220
638.824719	31689.842460
639.169577	31417.504206
639.514383	31523.255011
639.859137	31306.792906
640.203839	31572.549933
640.548489	31297.403757
640.893086	31417.569741
641.237632	31245.605901
641.582125	31411.631262
641.926566	31373.822608
642.270955	31415.311304
642.615292	31465.853912
642.959576	31510.662208
643.303809	31536.679603
643.647990	31713.339278
643.992118	31731.570611
644.336195	31764.075971
644.680219	31901.434810
645.024192	32201.080995
645.368112	32703.807542
645.711981	32764.097221
646.055797	33594.138325
646.399562	33545.145872
646.743274	34439.701142
647.086935	34878.228595
647.430544	34815.955221
647.774101	34973.755940
648.117606	35230.937965
648.461059	35533.119850
648.804460	35219.098815
649.147810	34713.556784
649.491108	34540.287285
649.834354	34237.954165
650.177548	33524.338509
650.520690	33134.962307
650.863781	33194.256358
651.206820	33089.624690
651.549807	32727.407703
651.892742	32315.137101
652.235626	32182.832018
652.578458	32073.653229
652.921238	31540.825952
653.263967	31897.835427
653.606644	31611.644082
653.949269	31601.738214
654.291843	31276.961878
654.634365	31658.136123
654.976836	31327.161688
655.319255	31355.457684
655.661622	31388.527653
656.003938	31190.213702
656.346203	31098.197521
656.688416	31341.849089
657.030577	31175.657371
657.372687	31057.263352
657.714746	31320.976192
658.056753	31459.393674
658.398708	30977.222432
658.740612	31055.287220
659.082465	31343.558041
659.424266	31180.496878
659.766016	31313.429585
660.107715	31229.501935
660.449362	31374.714892
660.790958	31388.073950
661.132503	31425.204568
661.473996	31471.994038
661.815438	31599.338625
662.156829	31785.944496
662.498168	31600.770313
662.839456	31647.411068
663.180693	31805.453762
663.521879	31988.893788
663.863013	31960.617957
664.204097	31979.287870
664.545129	32439.041101
664.886110	32425.669440
665.227040	32521.595036
665.567918	32630.733496
665.908746	32721.784296
666.249522	32891.346027
666.590248	32900.762902
666.930922	33040.024777
667.271545	32996.524660
667.612118	33109.567494
667.952639	32924.680656
668.293109	32981.325582
668.633528	32914.424429
668.973896	32852.393031
669.314213	32913.965684
669.654480	32670.256142
669.994695	32719.558627
670.334859	32641.088026
670.674973	32561.518454
671.015035	32720.133318
671.355047	32707.611092
671.695008	32673.195135
672.034918	32580.954623
672.374777	32669.656245
672.714585	32527.011756
673.054342	32770.880094
673.394049	32547.446073
673.733705	32827.265399
674.073310	32528.524102
674.412864	32599.138064
674.752368	32226.997567
675.091820	32526.124513
675.431223	32123.787504
675.770574	31877.726264
676.109875	31759.733017
676.449125	31514.906860
676.788324	31449.878496
677.127473	30943.318152
677.466571	30877.158048
677.805619	30559.656097
678.144616	30564.440152
678.483562	30503.134680
678.822458	30207.314731
679.161303	30139.677570
679.500098	30062.590766
679.838842	29960.469592
680.177535	30129.549892
680.516179	30405.865617
680.854771	30650.590951
681.193314	31504.325478
681.531805	32604.375823
681.870247	33364.871690
682.208638	34098.236066
682.546978	34336.039896
682.885268	34408.486318
683.223508	33889.716299
683.561697	33568.625046
683.899836	33397.528284
684.237925	32915.972063
684.575963	32779.830662
684.913951	32334.099401
685.251889	32495.091170
685.589776	32498.690553
685.927614	32504.467716
686.265401	32645.312513
686.603137	32739.889600
686.940824	33248.539503
687.278460	33625.630413
687.616046	33760.163686
687.953582	34370.327304
688.291068	34229.159873
688.628504	34515.719222
688.965889	34460.972291
689.303224	34099.723206
689.640510	33755.016668
689.977745	33041.998389
690.314930	32260.843874
690.652065	31754.780083
690.989150	31032.808715
691.326185	30160.250519
691.663170	29475.787855
692.000105	28716.267452
692.336990	28080.197345
692.673825	27628.693963
693.010610	27129.090411
693.347345	26575.997696
693.684030	25932.789315
694.020665	25672.736353
694.357251	25016.199161
694.693786	24976.623583
695.030272	24747.750157
695.366707	24213.402973
695.703093	23941.767959
696.039429	23930.712709
696.375716	23674.458256
696.711952	23641.872238
697.048139	23501.014837
697.384276	23316.869049
697.720363	23449.579945
698.056400	23250.938319
698.392388	23040.807903
698.728326	23005.940762
699.064214	22809.403818
699.400053	22748.988110
699.735842	22403.222929
700.071581	22136.997074
700.407270	21844.065706
700.742910	21669.046927
701.078501	21398.916698
701.414042	21124.430912
701.749533	20838.834423
702.084974	20493.777525
702.420366	20699.824606
702.755709	20259.512585
703.091002	19979.128649
703.426246	20000.014150
703.761440	19896.829292
704.096584	19638.956629
704.431679	19590.211192
704.766725	19493.728548
705.101721	19454.218505
705.436668	19541.760662
705.771565	19222.567404
706.106413	19570.714529
706.441212	19547.099244
706.775961	19678.897691
707.110661	19758.613457
707.445311	20114.196284
707.779913	19958.704415
708.114465	20191.956083
708.448967	20485.953654
708.783421	21166.685864
709.117825	21433.735948
709.452180	21664.398983
709.786485	22050.228734
710.120742	22840.674095
710.454949	22872.962686
710.789107	23341.548018
711.123216	24046.568507
711.457275	24168.415716
711.791286	24690.641446
712.125247	24761.124338
712.459159	24458.251815
712.793023	25110.677946
713.126837	24022.673437
713.460602	24261.591362
713.794318	23875.897723
714.127985	23500.351926
714.461602	22616.960290
714.795171	22575.358168
715.128691	21571.523285
715.462162	21044.906710
715.795584	20640.770009
716.128957	20371.519462
716.462281	19969.807556
716.795556	19732.170084
717.128782	19247.710158
717.461960	18720.024859
717.795088	18631.300551
718.128167	18232.086537
718.461198	17779.106097
718.794180	17638.818347
719.127113	17283.399357
719.459997	17094.686283
719.792833	16753.301865
720.125619	16713.469188
720.458357	16408.272693
720.791046	16238.121148
721.123686	16087.199084
721.456278	15851.905749
721.788821	15804.294571
722.121315	15552.587239
722.453761	15620.446211
722.786158	15554.586057
723.118506	15564.023097
723.450805	15426.291212
723.783056	15581.775520
724.115259	15492.153887
724.447412	15426.187868
724.779518	15671.177863
725.111574	15688.365677
725.443582	15884.733743
725.775542	15862.547624
726.107453	16327.813357
726.439315	16218.185905
726.771129	16612.555370
727.102895	16975.669682
727.434612	17182.155343
727.766281	17301.234959
728.097901	17556.211479
728.429473	17598.867203
728.760996	17572.741423
729.092471	17669.420671
729.423897	17536.800516
729.755276	17413.314932
730.086606	17530.733488
730.417887	18054.375782
730.749120	18573.234021
731.080305	18741.737109
731.411442	19073.465196
731.742530	19140.774682
732.073570	19227.759792
732.404562	19521.217960
732.735506	19334.506225
733.066401	19043.440084
733.397249	18521.998254
733.728048	17901.328872
734.058798	17085.231599
734.389501	16397.499747
734.720156	15950.034329
735.050762	15426.124854
735.381320	15074.257356
735.711831	14840.163816
736.042293	14489.284385
736.372707	14500.642104
736.703073	14300.362103
737.033391	14482.327592
737.363661	14454.450012
737.693883	14554.703438
738.024056	14728.658534
738.354182	14915.899591
738.684260	15195.555080
739.014290	15419.752835
739.344272	15600.838643
739.674207	15871.813265
740.004093	15994.910680
740.333931	15980.407281
740.663722	16020.098806
740.993464	16015.869277
741.323159	15831.312635
741.652806	15567.561987
741.982405	15358.102044
742.311956	15022.010838
742.641460	14896.629780
742.970915	14591.055198
743.300323	14265.011012
743.629683	14049.365574
743.958996	13781.995377
744.288260	13508.638809
744.617477	13204.974825
744.946647	13135.563178
745.275768	12866.133669
745.604842	12683.495186
745.933869	12514.926563
746.262847	12468.061476
746.591778	12392.933161
746.920662	12293.017491
747.249498	12300.680045
747.578286	12415.530133
747.907027	12548.964434
748.235720	12772.688321
748.564365	12802.219400
748.892963	12706.432436
749.221514	12766.875871
749.550017	12613.944907
749.878473	12573.524935
750.206881	12360.702543
750.535242	12272.068977
750.863555	12188.262314
751.191821	12095.890732
751.520039	12118.749844
751.848210	12022.932633
752.176334	12050.333825
752.504411	11960.061883
752.832440	11811.405818
753.160421	11866.079652
753.488356	11744.681105
753.816243	11650.494707
754.144082	11518.615602
754.471875	11454.807197
754.799620	11403.102603
755.127318	11377.397759
755.454969	11342.112203
755.782572	11289.938781
756.110129	11301.750205
756.437638	11222.137783
756.765100	11210.555732
757.092515	11219.090405
757.419882	11233.830739
757.747203	11235.935421
758.074477	11313.203706
758.401703	11267.916501
758.728882	11430.511356
759.056014	11466.069135
759.383099	11583.870818
759.710138	11691.360821
760.037129	11768.568613
760.364073	11784.397836
760.690970	11761.745411
761.017820	11764.941503
761.344623	11955.320677
761.671379	12273.815736
761.998088	12898.686920
762.324751	14441.312765
762.651366	17298.129608
762.977935	20931.919329
763.304456	23138.165187
763.630931	23602.647020
763.957359	22424.594901
764.283740	20524.987308
764.610074	18668.640378
764.936362	16550.942388
765.262602	15040.695875
765.588796	13582.267382
765.914943	12556.009446
766.241044	11719.077085
766.567097	11080.637635
766.893104	10535.446929
767.219064	10185.812663
767.544978	9809.787957
767.870845	9499.600719
768.196665	9308.467892
768.522438	9118.431515
768.848165	8953.668963
769.173846	8787.986401
769.499479	8661.466042
769.825066	8508.930809
770.150607	8328.770053
770.476101	8269.100436
770.801548	8155.251017
771.126949	8010.403544
771.452303	7930.042510
771.777611	7764.952284
772.102872	7738.138386
772.428087	7621.614636
772.753256	7502.487129
773.078378	7413.036895
773.403453	7272.970956
773.728482	7173.030081
774.053465	7111.578416
774.378401	7023.605240
774.703291	6929.106291
775.028135	6835.920562
775.352932	6801.068545
775.677683	6714.637962
776.002388	6629.087061
776.327046	6631.474047
776.651658	6544.778804
776.976224	6469.965560
777.300743	6452.245904
777.625216	6386.524382
777.949643	6344.597105
778.274024	6350.853177
778.598359	6278.217712
778.922647	6280.221571
779.246889	6246.642445
779.571086	6255.547643
779.895236	6266.514673
780.219339	6259.532675
780.543397	6257.329691
780.867409	6309.682074
781.191374	6305.356764
781.515294	6268.367297
781.839167	6325.748231
782.162995	6289.981244
782.486776	6246.090438
782.810511	6203.883378
783.134201	6136.979705
783.457844	6116.008505
783.781441	6069.360188
784.104993	6026.575915
784.428498	5995.761862
784.751958	5978.236291
785.075372	5954.600841
785.398739	5916.807310
785.722061	5940.997287
786.045337	5940.974602
786.368568	6044.650972
786.691752	6073.425878
787.014891	6314.947559
787.337983	6595.840651
787.661030	7030.592279
787.984031	7449.000487
788.306987	7714.613842
788.629897	7807.262688
788.952760	7715.591826
789.275579	7537.124897
789.598351	7241.572130
789.921078	6978.862479
790.243759	6705.644544
790.566395	6496.262739
790.888984	6302.858872
791.211529	6166.286452
791.534027	6008.339541
791.856480	5867.434250
792.178888	5807.235311
792.501249	5744.233491
792.823566	5642.074508
793.145836	5636.710720
793.468062	5614.827072
793.790241	5574.323921
794.112375	5616.208348
794.434464	5716.476898
794.756507	5743.489921
795.078505	5864.530545
795.400457	6080.801086
795.722364	6318.405790
796.044226	6512.480131
796.366042	6668.070303
796.687812	6611.238856
797.009538	6642.083155
797.331218	6550.825668
797.652852	6480.494010
797.974442	6357.313416
798.295986	6283.611747
798.617484	6161.454507
798.938938	6051.385953
799.260346	5987.892621
799.581709	5850.435479
799.903026	5796.600997
800.224299	5724.580552
800.545526	5610.562255
800.866708	5548.256114
801.187845	5498.401623
801.508936	5418.494294
801.829983	5395.879678
802.150984	5288.195590
802.471940	5260.817084
802.792851	5243.195731
803.113717	5221.606989
803.434538	5197.716961
803.755314	5167.069266
804.076045	5150.415815
804.396731	5118.971618
804.717372	5137.901150
805.037967	5136.804699
805.358518	5165.491385
805.679024	5225.029933
805.999485	5233.756170
806.319901	5251.768213
806.640272	5269.800420
806.960598	5318.926464
807.280879	5313.504703
807.601115	5343.834805
807.921306	5308.413138
808.241453	5304.012211
808.561554	5314.172656
808.881611	5278.206544
809.201623	5278.950114
809.521590	5228.583946
809.841513	5208.996543
810.161390	5226.028081
810.481223	5136.971057
810.801011	5127.292042
811.120755	5102.781952
811.440453	5049.202048
811.760107	5020.112070
812.079716	4993.217514
812.399281	4939.614925
812.718801	4935.841622
813.038276	4901.912136
813.357707	4865.683884
813.677093	4893.190940
813.996434	4825.916742
814.315731	4846.628322
814.634983	4845.667982
814.954191	4853.902707
815.273354	4909.806583
815.592473	4950.176143
815.911547	5022.935116
816.230577	5080.396708
816.549562	5166.824770
816.868502	5216.807811
817.187399	5269.442498
817.506250	5350.277400
817.825058	5376.317480
818.143821	5527.559657
818.462539	5693.980749
818.781213	5922.650008
819.099843	6286.747344
819.418429	6911.192551
819.736970	7526.253649
820.055466	8230.354127
820.373919	9134.906006
820.692327	10573.328680
821.010691	13252.623811
821.329011	19426.963507
821.647286	28932.905998
821.965517	39226.264116
822.283704	44635.875897
822.601847	46101.316635
822.919945	41538.137270
823.237999	36468.551316
823.556010	31287.518054
823.873976	26609.523890
824.191897	22443.103497
824.509775	19382.122443
824.827609	16631.994059
825.145398	15095.231077
825.463144	14344.933465
825.780845	14639.251150
826.098502	15894.062398
826.416116	18330.910797
826.733685	20602.810121
827.051210	21126.417127
827.368692	19698.480053
827.686129	17159.059297
828.003522	14686.423747
828.320872	12488.210968
828.638177	10850.758499
828.955439	9612.625909
829.272656	8557.789673
829.589830	7725.457364
829.906960	7001.729153
830.224046	6470.487320
830.541088	6062.128652
830.858086	5813.113296
831.175041	5610.874807
831.491952	5547.941042
831.808819	5581.220219
832.125642	5821.889945
832.442421	6367.282297
832.759157	7464.023125
833.075849	9226.909584
833.392497	11064.659698
833.709101	12168.266578
834.025662	11926.870926
834.342179	10875.553415
834.658653	9576.682482
834.975083	8471.371693
835.291469	7574.023623
835.607811	6851.913623
835.924110	6332.473130
836.240366	5846.669737
836.556578	5397.954112
836.872746	5048.869332
837.188871	4780.201038
837.504952	4557.621493
837.820990	4390.918097
838.136984	4279.571611
838.452935	4231.448757
838.768842	4259.573354
839.084706	4541.320922
839.400526	5277.737717
839.716303	6173.878430
840.032037	6736.904739
840.347727	6586.897644
840.663373	5996.281101
840.978977	5419.275673
841.294537	4978.872911
841.610054	4650.945853
841.925527	4415.173608
842.240957	4212.657856
842.556344	4029.283364
842.871687	3873.867111
843.186987	3722.219121
843.502244	3605.831482
843.817458	3519.950385
844.132629	3451.015127
844.447756	3400.190214
844.762840	3356.158255
845.077881	3317.303562
845.392879	3284.503295
845.707833	3257.364243
846.022745	3231.886251
846.337613	3221.476269
846.652438	3197.682022
846.967221	3190.460570
847.281960	3170.666479
847.596656	3160.921929
847.911309	3147.209990
848.225919	3134.707929
848.540485	3125.250724
848.855009	3118.351905
849.169490	3105.557457
849.483928	3097.962958
849.798323	3093.758636
850.112675	3083.038622
850.426984	3087.646237
850.741251	3075.560071
851.055474	3074.599731
851.369654	3078.534351
851.683792	3071.796849
851.997887	3074.972776
852.311938	3075.797005
852.625947	3074.395564
852.939914	3067.774008
853.253837	3076.457396
853.567718	3072.553022
853.881555	3066.264183
854.195350	3072.255594
854.509103	3065.994481
854.822812	3067.615212
855.136479	3061.064233
855.450103	3065.611353
855.763685	3057.295970
856.077224	3063.708318
856.390720	3069.382137
856.704173	3081.619538
857.017584	3087.237903
857.330953	3091.091866
857.644278	3096.795931
857.957561	3102.436982
858.270802	3096.828699
858.584000	3097.973041
858.897155	3094.663523
859.210268	3081.611976
859.523339	3069.924061
859.836367	3068.913309
860.149352	3060.686146
860.462295	3060.139181
860.775195	3049.199877
861.088054	3047.838766
861.400869	3044.453631
861.713642	3043.016902
862.026373	3053.689025
862.339062	3052.030485
862.651708	3064.219995
862.964312	3083.515011
863.276873	3089.203953
863.589392	3120.136473
863.901869	3147.048673
864.214303	3168.176149
864.526696	3184.746422
864.839045	3203.844833
865.151353	3215.575598
865.463619	3214.842110
865.775842	3216.099878
866.088023	3222.857545
866.400162	3215.137018
866.712258	3215.247923
867.024313	3216.724981
867.336325	3213.226420
867.648296	3210.249619
867.960224	3210.910010
868.272110	3214.675752
868.583954	3215.149621
868.895755	3220.654561
869.207515	3221.231773
869.519233	3237.101325
869.830909	3245.028539
870.142542	3255.607401
870.454134	3262.957403
870.765684	3275.464506
871.077191	3292.833801
871.388657	3304.665389
871.700081	3321.396979
872.011463	3344.893797
872.322803	3363.972044
872.634101	3378.863612
872.945357	3401.601737
873.256571	3427.069646
873.567744	3441.424332
873.878874	3445.691668
874.189963	3464.396870
874.501010	3464.414514
874.812015	3465.856284
875.122979	3481.105774
875.433900	3472.850885
875.744780	3476.969507
876.055618	3488.551558
876.366415	3487.129953
876.677169	3483.845641
876.987882	3506.808097
877.298554	3527.330634
877.609183	3561.204667
877.919771	3611.409519
878.230317	3677.110877
878.540822	3776.774488
878.851285	3927.114299
879.161707	4143.699912
879.472087	4516.513404
879.782425	5135.856962
880.092722	6314.214071
880.402977	8231.367399
880.713191	10587.834600
881.023363	12952.914612
881.333494	14289.208550
881.643583	14736.462240
881.953631	14329.109283
882.263637	13500.131862
882.573602	12468.031229
882.883526	11521.179029
883.193408	10577.522920
883.503248	9667.561883
883.813048	8842.030091
884.122806	8074.927792
884.432522	7318.174983
884.742197	6662.295662
885.051831	6106.205981
885.361424	5612.366988
885.670975	5221.614551
885.980485	4904.851128
886.289954	4633.954644
886.599382	4421.102005
886.908768	4240.094335
887.218113	4079.636929
887.527417	3949.376034
887.836680	3826.613856
888.145901	3727.940831
888.455082	3648.913183
888.764221	3585.490426
889.073319	3523.242258
889.382376	3493.108761
889.691392	3466.995584
890.000366	3461.291519
890.309300	3457.291363
890.618193	3458.884368
890.927044	3452.716516
891.235855	3462.090542
891.544625	3474.897593
891.853353	3503.173425
892.162041	3566.628949
892.470687	3653.092299
892.779293	3772.212244
893.087858	3944.269345
893.396381	4220.300245
893.704864	4626.322337
894.013306	5196.534811
894.321707	5757.789153
894.630068	6116.936077
894.938387	6151.281458
895.246665	5977.371733
895.554903	5659.829452
895.863100	5325.033822
896.171256	5057.898039
896.479371	4815.368127
896.787446	4598.742185
897.095480	4402.036362
897.403473	4251.749483
897.711425	4108.172380
898.019336	3989.624607
898.327207	3870.247563
898.635038	3768.257459
898.942827	3660.805265
899.250576	3578.614292
899.558284	3492.186230
899.865952	3439.929629
900.173579	3376.829507
900.481165	3330.778566
900.788711	3285.927421
901.096216	3258.548914
901.403681	3230.099162
901.711105	3218.723799
902.018489	3216.790516
902.325832	3248.509456
902.633135	3306.540699
902.940397	3473.201245
903.247619	3877.234602
903.554800	4622.826297
903.861941	5575.075053
904.169041	6276.738133
904.476101	6485.802345
904.783121	6212.344955
905.090100	5814.197144
905.397039	5400.446963
905.703938	5047.329260
906.010796	4728.040219
906.317614	4477.590655
906.624391	4238.397987
906.931129	4047.333215
907.237826	3866.529712
907.544483	3697.973692
907.851099	3526.579502
908.157675	3365.486911
908.464211	3229.887434
908.770707	3131.400932
909.077163	3046.132335
909.383578	2990.452791
909.689954	2947.161882
909.996289	2918.502923
910.302584	2896.722617
910.608839	2882.854403
910.915054	2870.775798
911.221229	2869.467619
911.527363	2872.880480
911.833458	2880.480020
912.139513	2895.079201
912.445527	2902.963566
912.751502	2937.898762
913.057436	2979.798312
913.363331	3037.282589
913.669186	3122.344499
913.975000	3240.758682
914.280775	3422.850200
914.586510	3689.925490
914.892205	4061.322417
915.197859	4553.941450
915.503475	5136.096417
915.809050	5623.142455
916.114585	5909.260703
916.420081	5974.024407
916.725536	5913.775056
917.030952	5676.908881
917.336328	5469.921625
917.641665	5256.796764
917.946961	5032.420047
918.252218	4840.387374
918.557435	4612.877580
918.862612	4416.743928
919.167750	4243.368565
919.472848	4054.902508
919.777906	3890.956623
920.082925	3732.225812
920.387904	3583.030343
920.692843	3468.989361
920.997743	3371.145606
921.302603	3280.291411
921.607423	3219.885785
921.912204	3154.413799
922.216946	3101.348093
922.521647	3054.752708
922.826310	3013.037160
923.130932	2976.571974
923.435516	2936.734255
923.740059	2913.393713
924.044564	2879.106305
924.349028	2859.549149
924.653454	2828.407421
924.957840	2803.375572
925.262186	2782.603497
925.566493	2762.617843
925.870761	2735.894686
926.174989	2725.459498
926.479178	2710.567929
926.783328	2695.076463
927.087438	2683.391069
927.391509	2672.363545
927.695541	2660.410969
927.999533	2648.312200
928.303486	2640.949595
928.607400	2635.023718
928.911275	2632.442647
929.215110	2622.100720
929.518906	2619.880092
929.822663	2619.476800
930.126381	2618.269443
930.430060	2622.574589
930.733699	2626.476442
931.037299	2628.286216
931.340861	2627.940897
931.644383	2629.604478
931.947866	2632.241001
932.251309	2626.115999
932.554714	2626.451236
932.858080	2622.985443
933.161407	2620.911008
933.464694	2616.706686
933.767943	2613.026643
934.071153	2608.724019
934.374323	2604.479367
934.677455	2603.622371
934.980548	2601.343769
935.283602	2598.664396
935.586617	2596.138778
935.889593	2599.229005
936.192530	2599.899479
936.495428	2604.360900
936.798287	2614.962447
937.101108	2627.305712
937.403890	2647.898825
937.706632	2677.518125
938.009336	2709.809236
938.312002	2741.986921
938.614628	2763.825199
938.917216	2781.199536
939.219765	2788.078190
939.522275	2799.020015
939.824747	2799.274593
940.127179	2792.098510
940.429573	2788.617594
940.731929	2783.727674
941.034246	2774.472116
941.336524	2779.296500
941.638763	2768.067330
941.940964	2764.636825
942.243126	2745.949267
942.545250	2735.529202
942.847335	2723.594271
943.149381	2709.902497
943.451389	2698.670806
943.753359	2682.990297
944.055290	2674.017043
944.357182	2666.775426
944.659036	2664.617812
944.960851	2657.227480
945.262628	2651.407468
945.564367	2656.604898
945.866067	2653.930566
946.167729	2652.193888
946.469352	2649.330513
946.770937	2649.143990
947.072484	2641.990593
947.373992	2643.384472
947.675462	2636.692340
947.976893	2633.650004
948.278286	2632.830816
948.579641	2625.019548
948.880958	2624.601133
949.182236	2622.153652
949.483476	2618.327417
949.784678	2618.786162
950.085841	2619.290277
950.386967	2623.519805
950.688054	2630.320322
950.989103	2635.318626
951.290114	2645.857158
951.591087	2656.796462
951.892021	2667.841630
952.192917	2680.817560
952.493776	2693.513706
952.794596	2697.183666
953.095378	2695.217616
953.396122	2696.283820
953.696828	2688.880885
953.997496	2686.009948
954.298126	2676.701458
954.598718	2671.441014
954.899272	2660.436175
955.199788	2649.118784
955.500266	2633.750827
955.800706	2621.037037
956.101108	2604.292844
956.401472	2594.946545
956.701798	2577.935172
957.002087	2564.500497
957.302337	2560.094528
957.602550	2543.310006
957.902724	2537.046373
958.202861	2522.628673
958.502960	2516.486027
958.803022	2510.781961
959.103045	2504.578821
959.403031	2500.021618
959.702979	2493.992398
960.002889	2487.207005
960.302762	2481.200470
960.602596	2480.285501
960.902393	2475.420788
961.202153	2477.296097
961.501875	2471.420632
961.801559	2468.403501
962.101205	2463.800928
962.400814	2465.252780
962.700385	2461.469394
962.999918	2461.038376
963.299414	2457.930504
963.598873	2456.955041
963.898293	2453.753908
964.197677	2458.175000
964.497022	2453.332972
964.796331	2452.193671
965.095601	2450.943465
965.394835	2449.516818
965.694030	2452.312138
965.993189	2449.047991
966.292309	2450.174689
966.591393	2447.485233
966.890439	2449.327775
967.189447	2447.883485
967.488419	2451.291305
967.787353	2446.005655
968.086249	2449.221911
968.385108	2451.094700
968.683930	2450.701490
968.982714	2452.407920
969.281462	2453.436316
969.580172	2455.026800
969.878844	2456.168621
970.177480	2460.534260
970.476078	2461.570217
970.774639	2467.294447
971.073162	2469.588173
971.371649	2466.674386
971.670098	2467.284365
971.968510	2472.539768
972.266885	2468.186732
972.565223	2475.801395
972.863524	2476.418936
973.161788	2477.558237
973.460014	2477.800212
973.758204	2480.850110
974.056356	2479.854482
974.354471	2482.657364
974.652550	2481.107209
974.950591	2481.255923
975.248595	2479.287353
975.546563	2478.851293
975.844493	2476.867599
976.142386	2474.546147
976.440243	2474.823411
976.738062	2473.079172
977.035845	2470.765282
977.333590	2465.608182
977.631299	2465.673717
977.928971	2463.347224
978.226606	2459.548715
978.524204	2461.350927
978.821765	2458.878241
979.119290	2459.788169
979.416777	2458.089301
979.714228	2458.721965
980.011642	2460.418314
980.309020	2464.373099
980.606360	2470.283852
980.903664	2473.545478
981.200931	2485.172900
981.498162	2507.212824
981.795356	2536.519572
982.092513	2575.805284
982.389633	2614.833897
982.686717	2658.268479
982.983764	2692.450022
983.280775	2708.538865
983.577749	2708.526262
983.874686	2701.589634
984.171587	2684.343847
984.468451	2669.505211
984.765279	2655.382418
985.062070	2633.869294
985.358824	2614.445728
985.655543	2594.744899
985.952224	2570.635581
986.248869	2543.252033
986.545478	2514.744308
986.842050	2498.932729
987.138586	2478.218628
987.435086	2465.230095
987.731549	2456.660133
988.027975	2453.002776
988.324366	2445.735953
988.620719	2443.081786
988.917037	2434.884869
989.213318	2433.359920
989.509563	2432.460074
989.805772	2428.969075
990.101944	2427.333221
990.398080	2428.233067
990.694180	2427.474373
990.990244	2428.195258
991.286271	2427.814651
991.582262	2429.994950
991.878217	2430.496545
992.174136	2429.415218
992.470019	2430.499066
992.765865	2434.612647
993.061676	2433.523758
993.357450	2436.492997
993.653188	2439.789912
993.948890	2447.616303
994.244556	2451.984463
994.540186	2463.243880
994.835780	2473.805098
995.131337	2489.147849
995.426859	2502.247288
995.722345	2521.897705
996.017795	2541.114584
996.313208	2551.819474
996.608586	2566.161557
996.903928	2566.358162
997.199234	2565.697771
997.494504	2562.282389
997.789738	2553.878785
998.084936	2545.671787
998.380099	2533.489839
998.675225	2523.760412
998.970316	2511.270953
999.265371	2499.194869
999.560390	2483.635348
999.855373	2472.746455
1000.150320	2464.494087
1000.445232	2454.005966
1000.740108	2445.912393
1001.034948	2441.387958
1001.329752	2438.758996
1001.624521	2431.645928
1001.919254	2424.432037
1002.213951	2424.679053
1002.508613	2424.984043
1002.803239	2422.327355
1003.097829	2417.538259
1003.392384	2420.542787
1003.686903	2417.651685
1003.981386	2420.608322
1004.275834	2417.492889
1004.570246	2416.076324
1004.864623	2416.267888
1005.158964	2413.797723
1005.453270	2415.897363
1005.747540	2414.284194
1006.041775	2414.518608
1006.335974	2411.410737
1006.630138	2412.512229
1006.924266	2413.454924
1007.218359	2411.738412
1007.512416	2409.447207
1007.806438	2414.896694
1008.100425	2411.970305
1008.394376	2409.442166
1008.688292	2414.369894
1008.982172	2410.536096
1009.276017	2410.969636
1009.569827	2408.343194
1009.863602	2412.297980
1010.157341	2410.606673
1010.451045	2408.113822
1010.744714	2408.930489
1011.038347	2407.642474
1011.331945	2408.154151
1011.625508	2409.308575
1011.919036	2405.691548
1012.212528	2407.047618
1012.505986	2408.426373
1012.799408	2408.038205
1013.092795	2405.656259
1013.386147	2407.644995
1013.679464	2406.717422
1013.972745	2403.344890
1014.265992	2406.530900
1014.559204	2407.524007
1014.852380	2404.337998
1015.145521	2406.916548
1015.438628	2408.554923
1015.731699	2405.598286
1016.024736	2406.115004
1016.317737	2407.622309
1016.610703	2409.091806
1016.903635	2403.750703
1017.196531	2401.283058
1017.489393	2406.057031
1017.782219	2405.951167
1018.075011	2407.826476
1018.367768	2409.676580
1018.660490	2408.418812
1018.953177	2408.418812
1019.245829	2408.418812
