Dividing Wavelength (nm)	Counts (n)	Blue Motor Position (mm): 6.800000	Red Motor Position (mm): 0.000000	
326.493990	1974.607359
326.888308	1974.607359
327.282561	1974.607359
327.676750	1950.687084
328.070874	1954.435182
328.464933	1959.045317
328.858929	1969.180557
329.252859	1978.708337
329.646726	1996.541419
330.040528	2012.279901
330.434265	2031.524506
330.827938	2049.327341
331.221547	2068.655125
331.615091	2088.459298
332.008571	2111.197422
332.401986	2131.563684
332.795338	2149.363998
333.188625	2170.529282
333.581847	2188.710204
333.975006	2205.537575
334.368100	2226.390308
334.761129	2243.016033
335.154095	2257.332910
335.546996	2273.154572
335.939833	2298.415794
336.332606	2310.864923
336.725315	2320.357416
337.117960	2327.750268
337.510540	2332.458706
337.903056	2344.832218
338.295508	2349.288598
338.687896	2356.525174
339.080220	2366.725949
339.472480	2371.328522
339.864676	2373.949922
340.256807	2376.616693
340.648875	2381.143649
341.040879	2379.807743
341.432818	2382.976108
341.824694	2380.904194
342.216506	2381.436036
342.608253	2382.938300
342.999937	2380.538710
343.391557	2382.310676
343.783113	2377.007382
344.174605	2373.438245
344.566033	2374.668287
344.957397	2372.740045
345.348697	2371.573018
345.739934	2368.006402
346.131106	2367.711494
346.522215	2365.546319
346.913260	2361.092459
347.304241	2362.572038
347.695159	2363.000536
348.086012	2361.291585
348.476802	2362.226719
348.867528	2358.952490
349.258191	2354.894361
349.648789	2354.647344
350.039324	2354.261696
350.429796	2352.477128
350.820203	2351.854545
351.210548	2351.912518
351.600828	2352.557786
351.991045	2349.976715
352.381198	2349.109637
352.771288	2347.814060
353.161314	2347.801457
353.551276	2350.909329
353.941175	2350.382528
354.331010	2349.008814
354.720782	2350.465707
355.110490	2352.099041
355.500135	2352.033506
355.889717	2351.080728
356.279235	2352.746829
356.668689	2350.843794
357.058080	2352.961078
357.447408	2349.505367
357.836672	2348.502178
358.225873	2350.087621
358.615010	2349.543176
359.004084	2354.710359
359.393095	2352.610718
359.782043	2356.290760
360.170927	2354.748167
360.559748	2357.553569
360.948505	2356.124402
361.337199	2356.174814
361.725830	2356.343693
362.114398	2357.399814
362.502903	2357.916533
362.891344	2358.284537
363.279722	2357.268744
363.668037	2362.554394
364.056289	2358.478621
364.444478	2358.534074
364.832603	2361.011801
365.220665	2361.780577
365.608665	2359.839733
365.996601	2361.538602
366.384474	2359.827130
366.772284	2362.612367
367.160031	2362.246884
367.547715	2363.466843
367.935336	2360.341328
368.322893	2361.843591
368.710388	2363.194621
369.097820	2366.925074
369.485189	2363.262676
369.872495	2364.033973
370.259738	2364.482635
370.646918	2365.122862
371.034035	2365.130424
371.421090	2363.807121
371.808081	2367.426669
372.195010	2365.712677
372.581875	2364.364168
372.968678	2365.828623
373.355418	2368.102184
373.742096	2365.294261
374.128710	2368.772657
374.515262	2365.569004
374.901751	2366.572194
375.288177	2364.916175
375.674540	2366.178984
376.060841	2364.780063
376.447079	2365.337111
376.833254	2365.884076
377.219367	2363.786956
377.605417	2366.806607
377.991404	2368.447503
378.377329	2367.837523
378.763191	2365.316946
379.148991	2370.763913
379.534727	2367.323326
379.920402	2371.560415
380.306013	2368.596217
380.691563	2370.605117
381.077049	2370.847092
381.462474	2371.545292
381.847835	2372.220807
382.233134	2373.927237
382.618371	2371.358769
383.003545	2371.446989
383.388657	2371.184849
383.773706	2371.232740
384.158693	2369.937164
384.543618	2371.900693
384.928480	2373.720550
385.313280	2373.342463
385.698017	2374.756507
386.082692	2374.431353
386.467305	2373.589480
386.851856	2373.755838
387.236344	2373.846579
387.620770	2375.338760
388.005133	2373.017309
388.389435	2374.532176
388.773674	2374.257433
389.157851	2378.335726
389.541965	2374.784233
389.926018	2374.101157
390.310008	2376.261291
390.693936	2375.159799
391.077802	2373.692823
391.461606	2373.922196
391.845348	2378.290356
392.229027	2375.512680
392.612645	2377.002341
392.996200	2376.929244
393.379694	2377.309851
393.763125	2375.973946
394.146494	2379.502753
394.529801	2377.640047
394.913047	2378.290356
395.296230	2380.949564
395.679351	2377.267002
396.062410	2377.725747
396.445408	2379.346478
396.828343	2376.425129
397.211217	2374.643081
397.594028	2376.147865
397.976778	2378.068545
398.359466	2376.349512
398.742092	2376.432691
399.124656	2377.017464
399.507158	2379.369163
399.889598	2378.189533
400.271977	2379.081817
400.654294	2379.096940
401.036549	2379.222969
401.418742	2380.241282
401.800874	2382.320758
402.182944	2381.284801
402.564952	2378.741539
402.946898	2380.218597
403.328783	2382.582898
403.710606	2378.673483
404.092367	2380.211035
404.474067	2383.099617
404.855705	2382.751777
405.237282	2379.308669
405.618797	2384.256561
406.000250	2383.364277
406.381642	2381.325130
406.762972	2384.856459
407.144240	2383.359236
407.525447	2384.170862
407.906593	2383.104658
408.287677	2381.877137
408.668700	2383.722199
409.049661	2382.756818
409.430560	2383.442415
409.811399	2385.358053
410.192176	2386.394011
410.572891	2383.886037
410.953545	2385.990718
411.334138	2385.050543
411.714669	2383.737322
412.095139	2385.365615
412.475547	2384.725389
412.855894	2384.367467
413.236180	2385.847045
413.616405	2386.890564
413.996568	2386.464587
414.376670	2385.814278
414.756711	2388.690256
415.136691	2386.875441
415.516609	2386.366284
415.896466	2388.632283
416.276262	2387.235883
416.655997	2385.191695
417.035670	2381.758670
417.415283	2386.769577
417.794834	2382.477034
418.174324	2390.789897
418.553753	2386.051212
418.933121	2384.823691
419.312428	2387.699669
419.691674	2388.481048
420.070859	2388.274361
420.449983	2389.945503
420.829045	2389.882489
421.208047	2388.876779
421.586988	2388.894423
421.965867	2390.169835
422.344686	2388.730585
422.723444	2390.749568
423.102141	2388.508775
423.480777	2386.862838
423.859352	2388.007180
424.237866	2388.536501
424.616319	2389.459032
424.994712	2389.501882
425.373044	2389.948024
425.751314	2390.789897
426.129524	2385.668084
426.507673	2389.922818
426.885762	2387.593805
427.263789	2389.978271
427.641756	2388.891902
428.019662	2391.210833
428.397508	2391.828374
428.775292	2392.655124
429.153016	2391.583878
429.530679	2390.346275
429.908282	2390.169835
430.285824	2391.588920
430.663305	2387.273692
431.040726	2390.333672
431.418086	2389.922818
431.795385	2391.848539
432.172624	2390.449619
432.549802	2392.645041
432.926920	2391.654455
433.303977	2389.771584
433.680974	2387.283774
434.057910	2392.138405
434.434786	2394.187634
434.811601	2394.185114
435.188355	2391.654455
435.565050	2390.973899
435.941683	2396.551936
436.318257	2392.423231
436.694770	2388.896943
437.071222	2390.734444
437.447614	2388.095400
437.823946	2390.273178
438.200218	2394.195196
438.576429	2393.045813
438.952580	2393.996071
439.328670	2391.959444
439.704700	2390.880638
440.080670	2393.376009
440.456580	2390.651265
440.832429	2393.318035
441.208218	2393.885165
441.583947	2393.955741
441.959616	2390.235370
442.335224	2395.334497
442.710773	2395.571431
443.086261	2393.277706
443.461689	2395.193345
443.837057	2396.435989
444.212365	2393.169321
444.587612	2393.013046
444.962800	2394.805176
445.337927	2395.047151
445.712995	2393.577655
446.088002	2396.947666
446.462949	2393.476832
446.837837	2394.996740
447.212664	2394.626215
447.587431	2394.792573
447.962139	2395.518499
448.336786	2398.565877
448.711374	2395.957079
449.085901	2393.108828
449.460369	2396.176370
449.834776	2397.696278
450.209124	2392.534136
450.583412	2395.921791
450.957640	2394.147305
451.331808	2399.072513
451.705917	2399.075033
452.079965	2395.387429
452.453954	2394.913561
452.827883	2398.986813
453.201752	2397.005639
453.575562	2394.878272
453.949311	2398.192831
454.323001	2394.321225
454.696632	2395.155536
455.070202	2395.291647
455.443713	2394.943808
455.817164	2393.595299
456.190556	2393.970865
456.563888	2396.254507
456.937160	2394.104455
457.310373	2395.334497
457.683526	2397.819786
458.056619	2397.073695
458.429653	2397.940773
458.802628	2399.259035
459.175542	2398.046638
459.548398	2399.281720
459.921194	2397.585372
460.293930	2399.337173
460.666607	2398.333983
461.039224	2397.318191
461.411782	2397.461864
461.784280	2398.061761
462.156719	2398.795249
462.529099	2399.374982
462.901419	2397.114024
463.273680	2399.939591
463.645882	2399.511093
464.018024	2396.965310
464.390106	2399.538819
464.762130	2403.062586
465.134094	2401.086453
465.505999	2399.959756
465.877845	2401.608213
466.249631	2402.719787
466.621358	2403.944788
466.993026	2402.576114
467.364634	2403.652401
467.736184	2399.816083
468.107674	2403.294479
468.479105	2401.651063
468.850477	2402.896228
469.221790	2402.482853
469.593043	2400.017729
469.964238	2400.274828
470.335373	2401.973697
470.706449	2401.774571
471.077467	2398.777605
471.448425	2403.854047
471.819324	2403.087792
472.190164	2404.012843
472.560945	2403.549057
472.931667	2401.396484
473.302330	2404.017884
473.672934	2402.480333
474.043479	2402.969324
474.413965	2400.733573
474.784393	2402.071999
475.154761	2400.421021
475.525070	2398.212996
475.895321	2399.059910
476.265513	2397.832389
476.635645	2406.677093
477.005719	2402.755075
477.375734	2402.986968
477.745691	2406.324212
478.115588	2407.534089
478.485427	2406.717422
478.855207	2406.225910
479.224928	2407.529048
479.594591	2405.643657
479.964194	2404.264901
480.333739	2404.728687
480.703226	2404.728687
481.072653	2405.999058
481.442022	2404.937895
481.811333	2404.534603
482.180584	2406.838410
482.549777	2403.513769
482.918912	2407.261867
483.287988	2405.721794
483.657005	2406.636764
484.025964	2407.526528
484.394864	2401.386402
484.763706	2408.386044
485.132489	2404.171640
485.501213	2408.217166
485.869879	2404.423697
486.238487	2409.167423
486.607036	2405.573080
486.975527	2405.918399
487.343959	2404.302710
487.712333	2403.652401
488.080648	2405.835220
488.448905	2407.334964
488.817104	2405.293296
489.185244	2408.501991
489.553326	2404.017884
489.921350	2407.128276
490.289315	2405.525189
490.657222	2405.908317
491.025070	2406.878739
491.392861	2409.200191
491.760593	2407.012330
492.128267	2410.037022
492.495883	2407.690365
492.863440	2404.413615
493.230939	2405.525189
493.598380	2405.598286
493.965763	2404.141393
494.333088	2403.501166
494.700354	2404.239695
495.067563	2406.200704
495.434713	2403.208779
495.801805	2409.979049
496.168839	2406.321692
496.535815	2407.027453
496.902733	2409.779923
497.269593	2406.546023
497.636395	2405.568039
498.003139	2407.534089
498.369825	2407.274470
498.736453	2405.951167
499.103023	2405.636095
499.469535	2405.583163
499.835989	2405.991496
500.202385	2407.501322
500.568723	2409.371590
500.935003	2408.050808
501.301226	2405.462175
501.667390	2408.597773
502.033497	2406.475447
502.399546	2409.210273
502.765537	2408.983421
503.131470	2409.653894
503.497345	2406.520817
503.863163	2406.321692
504.228923	2406.742628
504.594625	2408.877557
504.960269	2409.996693
505.325856	2407.284552
505.691385	2409.119532
506.056856	2408.479306
506.422270	2409.694224
506.787625	2408.829666
507.152924	2407.213976
507.518164	2405.973852
507.883347	2405.860426
508.248472	2404.932854
508.613540	2408.202042
508.978550	2407.783626
509.343503	2410.984759
509.708398	2405.898235
510.073236	2412.774369
510.438016	2410.263874
510.802738	2410.657084
511.167403	2408.292783
511.532010	2407.284552
511.896561	2408.864954
512.261053	2412.360994
512.625488	2408.993503
512.989866	2403.657442
513.354186	2409.210273
513.718449	2405.149623
514.082655	2411.052815
514.446803	2409.716909
514.810894	2407.329922
515.174927	2411.783782
515.538904	2410.634399
515.902822	2412.398803
516.266684	2411.171282
516.630488	2412.116498
516.994235	2412.759245
517.357925	2412.572722
517.721558	2415.544483
518.085133	2413.346540
518.448651	2412.494585
518.812112	2413.714544
519.175516	2415.831828
519.538863	2416.905594
519.902152	2413.540624
520.265385	2416.174627
520.628560	2417.263516
520.991678	2417.560944
521.354739	2418.286870
521.717743	2419.731161
522.080690	2418.942220
522.443580	2420.331058
522.806413	2421.127561
523.169189	2420.444484
523.531908	2422.198806
523.894569	2421.747622
524.257174	2428.422110
524.619722	2427.169383
524.982213	2427.600402
525.344647	2426.267017
525.707025	2426.216605
526.069345	2428.543098
526.431608	2429.470670
526.793815	2429.029569
527.155964	2429.679878
527.518057	2431.247677
527.880093	2432.560898
528.242072	2431.167018
528.603995	2432.447472
528.965860	2433.044848
529.327669	2434.121135
529.689421	2435.918306
530.051117	2438.113728
530.412755	2438.877463
530.774337	2437.599531
531.135862	2438.915272
531.497331	2439.789912
531.858743	2436.067020
532.220098	2438.353183
532.581396	2437.458378
532.942638	2437.957453
533.303824	2443.394337
533.664953	2442.000458
534.026025	2443.578339
534.387040	2446.671087
534.747999	2446.219904
535.108902	2445.622527
535.469748	2446.141766
535.830537	2448.748042
536.191270	2448.412806
536.551947	2451.109823
536.912567	2448.493464
537.273131	2452.793568
537.633638	2452.740636
537.994089	2451.485389
538.354483	2453.345575
538.714821	2454.439505
539.075103	2456.302212
539.435328	2454.557972
539.795497	2456.110648
540.155609	2458.109465
540.515665	2458.280864
540.875665	2460.178859
541.235609	2460.113324
541.595496	2461.590382
541.955328	2460.688015
542.315102	2463.531226
542.674821	2458.853035
543.034483	2462.021401
543.394090	2464.524333
543.753640	2461.592902
544.113134	2466.008953
544.472571	2464.809159
544.831953	2466.185394
545.191278	2464.882255
545.550548	2466.755044
545.909761	2468.045579
546.268918	2469.058851
546.628019	2468.491722
546.987064	2472.073461
547.346053	2471.095477
547.704986	2471.518934
548.063863	2468.952987
548.422684	2472.194449
548.781449	2470.588842
549.140158	2471.302165
549.498811	2475.597228
549.857408	2471.965077
550.215949	2473.553040
550.574434	2469.757051
550.932864	2473.742083
551.291237	2472.353245
551.649555	2477.154944
552.007817	2474.520942
552.366022	2479.030254
552.724173	2476.068576
553.082267	2480.406489
553.440305	2475.141003
553.798288	2479.748618
554.156215	2475.113277
554.514086	2480.658546
554.871902	2476.844913
555.229661	2480.514873
555.587365	2476.373566
555.945014	2481.150059
556.302606	2477.585963
556.660143	2481.016468
557.017625	2481.694503
557.375050	2478.135449
557.732421	2481.079483
558.089735	2482.130563
558.446994	2480.028402
558.804197	2483.199288
559.161345	2478.483288
559.518437	2480.104019
559.875474	2480.265336
560.232455	2479.584781
560.589381	2481.318938
560.946251	2482.281798
561.303065	2481.268526
561.659825	2480.429174
562.016528	2478.226190
562.373177	2483.219452
562.729770	2483.685759
563.086307	2478.909266
563.442789	2481.145018
563.799216	2480.514873
564.155587	2478.609317
564.511904	2478.140490
564.868164	2478.679893
565.224370	2481.079483
565.580520	2476.156796
565.936615	2478.742908
566.292654	2477.573360
566.648638	2478.576550
567.004567	2476.192084
567.360441	2477.747280
567.716260	2477.369193
568.072023	2474.876343
568.427732	2473.179995
568.783385	2472.721250
569.138982	2470.982052
569.494525	2472.910293
569.850013	2469.361321
570.205445	2477.278453
570.560823	2472.383492
570.916145	2470.722432
571.271412	2470.238481
571.626625	2470.911475
571.981782	2471.675210
572.336884	2469.121866
572.691931	2470.921558
573.046923	2467.735548
573.401860	2471.609675
573.756743	2469.719243
574.111570	2468.060703
574.466342	2468.138841
574.821059	2462.815382
575.175722	2463.921916
575.530330	2465.257821
575.884882	2462.759930
576.239380	2461.635752
576.593823	2462.543160
576.948211	2462.142388
577.302544	2462.853191
577.656823	2463.175825
578.011047	2463.138016
578.365216	2461.073664
578.719330	2456.710545
579.073389	2456.304732
579.427394	2457.749023
579.781344	2456.846656
580.135239	2455.195678
580.489080	2455.772890
580.842866	2454.757098
581.196597	2454.147118
581.550273	2454.807509
581.903895	2454.983950
582.257463	2450.482199
582.610975	2451.298866
582.964434	2454.326079
583.317837	2451.223249
583.671186	2452.057560
584.024481	2452.750719
584.377721	2449.040429
584.730906	2450.391459
585.084037	2450.038578
585.437113	2449.887343
585.790135	2450.038578
586.143103	2446.562702
586.496016	2447.724688
586.848874	2441.065324
587.201679	2450.341047
587.554428	2441.017433
587.907124	2447.207970
588.259765	2442.081117
588.612352	2446.373659
588.964884	2444.894080
589.317362	2443.570777
589.669786	2447.097065
590.022155	2448.049843
590.374470	2445.877105
590.726731	2447.840635
591.078937	2444.500870
591.431090	2442.537341
591.783188	2444.488267
592.135232	2442.499532
592.487222	2443.147321
592.839157	2441.486260
593.191038	2442.741508
593.542866	2443.124635
593.894639	2440.445262
594.246358	2441.461055
594.598022	2440.084820
594.949633	2444.190839
595.301190	2440.016764
595.652692	2443.041456
596.004141	2439.482402
596.355535	2438.524583
596.706876	2442.423915
597.058162	2440.702361
597.409395	2442.315530
597.760573	2441.123297
598.111698	2440.465427
598.462768	2441.171188
598.813785	2440.609100
599.164748	2440.964501
599.515657	2440.921651
599.866511	2438.627926
600.217312	2441.582042
600.568060	2439.699171
600.918753	2444.818463
601.269392	2441.382917
601.619978	2439.578184
601.970510	2441.642536
602.320988	2442.665890
602.671412	2442.449121
603.021783	2442.053390
603.372100	2439.316044
603.722363	2441.768565
604.072572	2443.527928
604.422728	2445.516663
604.772830	2441.249326
605.122878	2436.319078
605.472872	2439.978955
605.822813	2437.070210
606.172701	2446.809719
606.522534	2441.561878
606.872314	2446.950871
607.222041	2443.651436
607.571714	2446.114040
607.921333	2445.476334
608.270899	2450.094031
608.620411	2448.150666
608.969870	2445.531786
609.319276	2448.175872
609.668627	2451.427416
610.017926	2450.840121
610.367171	2450.179730
610.716362	2451.409772
611.065500	2452.518826
611.414585	2452.571758
611.763616	2453.612756
612.112594	2454.527725
612.461518	2458.958900
612.810389	2456.493775
613.159207	2458.064095
613.507971	2458.933694
613.856682	2462.220526
614.205340	2460.970320
614.553945	2463.259004
614.902496	2461.930660
615.250994	2465.179683
615.599439	2466.457616
615.947830	2467.281845
616.296169	2468.768985
616.644454	2472.539768
616.992686	2471.700416
617.340864	2478.236272
617.688990	2474.878863
618.037063	2484.000831
618.385082	2484.247848
618.733048	2484.305821
619.080961	2486.758342
619.428821	2489.674650
619.776628	2489.717500
620.124382	2495.310660
620.472083	2492.429641
620.819731	2495.534991
621.167326	2495.219919
621.514868	2497.468274
621.862357	2496.215547
622.209793	2498.174035
622.557176	2495.625732
622.904506	2498.163953
623.251783	2494.118427
623.599007	2496.785197
623.946179	2497.090187
624.293297	2499.421721
624.640363	2500.838285
624.987376	2502.398522
625.334336	2507.046466
625.681243	2507.772392
626.028097	2508.672238
626.374899	2511.633916
626.721647	2511.921262
627.068343	2516.052488
627.414987	2515.724813
627.761577	2520.221522
628.108115	2523.155473
628.454600	2525.033303
628.801032	2531.924560
629.147412	2530.308871
629.493739	2534.031763
629.840014	2537.600900
630.186236	2541.192722
630.532405	2544.731612
630.878521	2553.951882
631.224585	2555.149156
631.570597	2556.787531
631.916556	2563.320867
632.262462	2565.165929
632.608316	2573.786302
632.954117	2574.035839
633.299866	2576.117836
633.645562	2578.139338
633.991206	2583.041860
634.336797	2580.163362
634.682336	2582.588157
635.027823	2583.346850
635.373257	2584.934814
635.718639	2585.648137
636.063968	2586.714341
636.409245	2585.302818
636.754470	2593.991247
637.099642	2593.643407
637.444762	2593.703901
637.789829	2601.079109
638.134845	2603.163626
638.479808	2602.155395
638.824719	2607.977928
639.169577	2606.737804
639.514383	2612.812394
639.859137	2617.972015
640.203839	2623.335803
640.548489	2623.378653
640.893086	2625.722789
641.237632	2628.162708
641.582125	2633.198821
641.926566	2635.169912
642.270955	2645.055614
642.615292	2645.781541
642.959576	2654.926194
643.303809	2659.561535
643.647990	2665.978923
643.992118	2669.638801
644.336195	2673.233144
644.680219	2682.103054
645.024192	2688.822912
645.368112	2701.604758
645.711981	2708.851416
646.055797	2726.954200
646.399562	2737.691857
646.743274	2755.630803
647.086935	2768.208482
647.430544	2778.515121
647.774101	2787.725309
648.117606	2794.049437
648.461059	2806.846406
648.804460	2813.369659
649.147810	2804.439255
649.491108	2807.156437
649.834354	2806.314564
650.177548	2802.962197
650.520690	2802.200983
650.863781	2808.777168
651.206820	2815.819660
651.549807	2811.222127
651.892742	2817.102633
652.235626	2820.901143
652.578458	2822.569765
652.921238	2822.224446
653.263967	2834.308092
653.606644	2836.430417
653.949269	2843.213290
654.291843	2848.405678
654.634365	2858.125023
654.976836	2861.036289
655.319255	2868.081302
655.661622	2876.023640
656.003938	2878.589587
656.346203	2883.948333
656.688416	2893.098028
657.030577	2894.854870
657.372687	2902.885428
657.714746	2913.610483
658.056753	2920.537028
658.398708	2917.978643
658.740612	2924.007863
659.082465	2937.916406
659.424266	2946.501491
659.766016	2949.826132
660.107715	2964.692495
660.449362	2974.084164
660.790958	2981.376193
661.132503	2993.132164
661.473996	3001.036693
661.815438	3011.416429
662.156829	3024.236083
662.498168	3028.455529
662.839456	3035.051879
663.180693	3047.359856
663.521879	3060.121537
663.863013	3068.255439
664.204097	3076.883373
664.545129	3096.591764
664.886110	3107.374792
665.227040	3118.634210
665.567918	3129.989409
665.908746	3144.923827
666.249522	3161.073163
666.590248	3172.723270
666.930922	3187.859334
667.271545	3194.138091
667.612118	3207.018239
667.952639	3208.923796
668.293109	3219.288408
668.633528	3226.714027
668.973896	3233.640573
669.314213	3240.448651
669.654480	3241.275400
669.994695	3252.219745
670.334859	3261.407248
670.674973	3264.681478
671.015035	3278.733694
671.355047	3288.750467
671.695008	3295.944193
672.034918	3308.148827
672.374777	3319.816577
672.714585	3327.953000
673.054342	3349.690455
673.394049	3350.882688
673.733705	3371.984958
674.073310	3373.555277
674.412864	3386.647154
674.752368	3380.330588
675.091820	3398.806417
675.431223	3397.765419
675.770574	3395.610325
676.109875	3392.565468
676.449125	3393.845922
676.788324	3398.451016
677.127473	3390.450704
677.466571	3395.355747
677.805619	3394.609656
678.144616	3402.768764
678.483562	3411.028694
678.822458	3409.135741
679.161303	3417.466248
679.500098	3422.298194
679.838842	3429.146601
680.177535	3445.721915
680.516179	3463.738999
680.854771	3490.285715
681.193314	3534.552087
681.531805	3602.166563
681.870247	3653.457783
682.208638	3696.852035
682.546978	3718.597052
682.885268	3729.705235
683.223508	3718.355077
683.561697	3722.146025
683.899836	3725.642065
684.237925	3718.392886
684.575963	3727.058629
684.913951	3722.839183
685.251889	3744.478336
685.589776	3763.007097
685.927614	3780.285652
686.265401	3807.212975
686.603137	3830.064526
686.940824	3879.286352
687.278460	3916.187598
687.616046	3947.374696
687.953582	3996.215915
688.291068	4009.960621
688.628504	4039.506824
688.965889	4051.633319
689.303224	4040.741907
689.640510	4034.001884
689.977745	4006.149509
690.314930	3971.889827
690.652065	3944.614664
690.989150	3915.438987
691.326185	3873.748644
691.663170	3840.368644
692.000105	3811.346721
692.336990	3782.765900
692.673825	3766.908950
693.010610	3744.362390
693.347345	3721.740212
693.684030	3693.131664
694.020665	3693.189637
694.357251	3661.397600
694.693786	3673.498890
695.030272	3665.743075
695.366707	3649.155158
695.703093	3643.209117
696.039429	3651.761435
696.375716	3649.366887
696.711952	3660.064215
697.048139	3662.312570
697.384276	3667.477232
697.720363	3682.436856
698.056400	3684.097916
698.392388	3680.556505
698.728326	3688.743339
699.064214	3688.198895
699.400053	3689.481868
699.735842	3674.607944
700.071581	3666.128723
700.407270	3659.234945
700.742910	3654.834018
701.078501	3644.945795
701.414042	3633.073877
701.749533	3619.034264
702.084974	3606.892645
702.420366	3626.840491
702.755709	3605.546657
703.091002	3593.770521
703.426246	3605.778550
703.761440	3605.433231
704.096584	3596.921242
704.431679	3600.719752
704.766725	3604.679578
705.101721	3606.270062
705.436668	3624.445942
705.771565	3611.439766
706.106413	3643.241885
706.441212	3652.081548
706.775961	3673.708098
707.110661	3689.514636
707.445311	3725.962178
707.779913	3727.897981
708.114465	3758.288577
708.448967	3794.017755
708.783421	3856.374307
709.117825	3892.816809
709.452180	3929.395421
709.786485	3977.780416
710.120742	4053.816139
710.454949	4077.370930
710.789107	4127.691728
711.123216	4199.132440
711.457275	4232.199888
711.791286	4287.700472
712.125247	4310.204183
712.459159	4301.881238
712.793023	4364.482286
713.126837	4283.377682
713.460602	4310.095798
713.794318	4290.228610
714.127985	4259.255761
714.461602	4195.454918
714.795171	4193.657747
715.128691	4116.593628
715.462162	4074.368923
715.795584	4044.316085
716.128957	4027.778579
716.462281	3999.202799
716.795556	3985.327023
717.128782	3949.008030
717.461960	3909.596289
717.795088	3913.127617
718.128167	3886.459914
718.461198	3850.609748
718.794180	3847.539685
719.127113	3821.368535
719.459997	3813.753872
719.792833	3788.540541
720.125619	3795.146973
720.458357	3770.447840
720.791046	3762.140019
721.123686	3754.341354
721.456278	3747.321547
721.788821	3747.891197
722.121315	3728.581057
722.453761	3747.313985
722.786158	3746.799788
723.118506	3755.959564
723.450805	3751.944285
723.783056	3779.189201
724.115259	3778.397740
724.447412	3778.543933
724.779518	3810.784633
725.111574	3826.760049
725.443582	3854.110829
725.775542	3863.701625
726.107453	3922.151283
726.439315	3923.580450
726.771129	3978.801249
727.102895	4023.412940
727.434612	4057.813774
727.766281	4080.786312
728.097901	4118.597487
728.429473	4128.752891
728.760996	4140.549191
729.092471	4154.251047
729.423897	4152.191736
729.755276	4149.330881
730.086606	4169.480373
730.417887	4241.455447
730.749120	4311.272907
731.080305	4343.327084
731.411442	4389.413312
731.742530	4408.219337
732.073570	4436.701856
732.404562	4477.777177
732.735506	4466.598419
733.066401	4438.035241
733.397249	4389.057911
733.728048	4320.614165
734.058798	4224.784351
734.389501	4153.452024
734.720156	4103.436216
735.050762	4045.815828
735.381320	4009.075899
735.711831	3990.380780
736.042293	3960.426243
736.372707	3963.055205
736.703073	3948.894604
737.033391	3981.800736
737.363661	3989.644771
737.693883	4012.924820
738.024056	4045.157957
738.354182	4074.489911
738.684260	4125.599649
739.014290	4161.487623
739.344272	4196.939538
739.674207	4239.769181
740.004093	4267.314046
740.333931	4271.478039
740.663722	4286.014206
740.993464	4295.811688
741.323159	4279.909368
741.652806	4256.329371
741.982405	4235.038058
742.311956	4196.747974
742.641460	4188.324206
742.970915	4154.331706
743.300323	4117.148155
743.629683	4092.388528
743.958996	4059.956264
744.288260	4030.488200
744.617477	3993.574351
744.946647	3985.145541
745.275768	3959.120585
745.604842	3939.114766
745.933869	3919.547527
746.262847	3921.690017
746.591778	3921.634565
746.920662	3908.958583
747.249498	3919.358484
747.578286	3942.046197
747.907027	3972.678768
748.235720	4012.037577
748.564365	4026.871172
748.892963	4018.820449
749.221514	4032.406359
749.550017	4019.556457
749.878473	4024.549720
750.206881	3994.980832
750.535242	3987.976149
750.863555	3982.957681
751.191821	3974.314622
751.520039	3986.315089
751.848210	3979.383502
752.176334	3989.291890
752.504411	3980.973987
752.832440	3966.490752
753.160421	3978.072802
753.488356	3966.979743
753.816243	3956.985656
754.144082	3942.270528
754.471875	3942.159622
754.799620	3934.812141
755.127318	3938.174590
755.454969	3938.560239
755.782572	3937.158798
756.110129	3941.335394
756.437638	3937.330197
756.765100	3941.567287
757.092515	3945.305302
757.419882	3954.331488
757.747203	3957.328454
758.074477	3975.774036
758.401703	3975.789160
758.728882	4007.266124
759.056014	4016.846837
759.383099	4044.477402
759.710138	4070.104107
760.037129	4090.737550
760.364073	4099.448664
760.690970	4102.314560
761.017820	4111.466774
761.344623	4152.554699
761.671379	4215.838824
761.998088	4332.118078
762.324751	4621.979383
762.651366	5126.122494
762.977935	5771.690135
763.304456	6180.343710
763.630931	6287.417818
763.957359	6107.365446
764.283740	5777.472339
764.610074	5449.711639
764.936362	5080.058951
765.262602	4812.119103
765.588796	4546.941808
765.914943	4363.698387
766.241044	4216.539544
766.567097	4102.422944
766.893104	4002.782018
767.219064	3940.440589
767.544978	3873.398284
767.870845	3817.209583
768.196665	3786.047691
768.522438	3755.858741
768.848165	3728.021489
769.173846	3702.112479
769.499479	3680.473326
769.825066	3651.330416
770.150607	3622.149697
770.476101	3614.484622
770.801548	3599.645986
771.126949	3572.252356
771.452303	3558.875654
771.777611	3528.452291
772.102872	3532.664175
772.428087	3509.734487
772.753256	3493.333093
773.078378	3476.528406
773.403453	3449.109571
773.728482	3434.008794
774.053465	3422.842638
774.378401	3408.520720
774.703291	3391.678225
775.028135	3375.977552
775.352932	3369.030842
775.677683	3355.911239
776.002388	3341.095288
776.327046	3342.083354
776.651658	3328.905778
776.976224	3312.244764
777.300743	3313.726863
777.625216	3297.998463
777.949643	3298.091725
778.274024	3302.061633
778.598359	3282.461627
778.922647	3285.670322
779.246889	3279.557923
779.571086	3283.091772
779.895236	3289.617545
780.219339	3289.299953
780.543397	3295.019142
780.867409	3306.442396
781.191374	3309.928354
781.515294	3307.947181
781.839167	3323.909994
782.162995	3316.784323
782.486776	3305.955925
782.810511	3303.276552
783.134201	3288.997483
783.457844	3291.482772
783.781441	3283.726957
784.104993	3275.156995
784.428498	3272.525513
784.751958	3268.699277
785.075372	3270.294803
785.398739	3263.965634
785.722061	3271.703805
786.045337	3274.723456
786.368568	3304.269659
786.691752	3310.898776
787.014891	3369.134185
787.337983	3433.043413
787.661030	3536.248435
787.984031	3635.133189
788.306987	3708.338304
788.629897	3739.974065
788.952760	3730.993250
789.275579	3694.092003
789.598351	3632.625215
789.921078	3573.104311
790.243759	3505.855319
790.566395	3461.130202
790.888984	3412.387285
791.211529	3378.583828
791.534027	3339.570339
791.856480	3311.604538
792.178888	3294.361271
792.501249	3282.234775
792.823566	3258.596805
793.145836	3260.000766
793.468062	3257.452463
793.790241	3249.542893
794.112375	3264.126951
794.434464	3291.598719
794.756507	3299.278917
795.078505	3329.059533
795.400457	3384.265209
795.722364	3442.843416
796.044226	3495.957013
796.366042	3537.009650
796.687812	3532.182745
797.009538	3543.573232
797.331218	3525.964482
797.652852	3514.692462
797.974442	3488.125581
798.295986	3472.631594
798.617484	3440.554733
798.938938	3415.719488
799.260346	3400.943866
799.581709	3365.083618
799.903026	3350.673480
800.224299	3335.580265
800.545526	3305.958445
800.866708	3288.813481
801.187845	3276.697068
801.508936	3259.108482
801.829983	3252.829725
802.150984	3224.047257
802.471940	3218.580126
802.792851	3213.859085
803.113717	3211.512428
803.434538	3202.103114
803.755314	3194.841332
804.076045	3195.242104
804.396731	3182.944209
804.717372	3192.933256
805.037967	3190.803368
805.358518	3195.912577
805.679024	3217.009806
805.999485	3218.494426
806.319901	3226.814851
806.640272	3230.497413
806.960598	3246.518200
807.280879	3249.744539
807.601115	3256.845004
807.921306	3250.137749
808.241453	3250.523397
808.561554	3255.781321
808.881611	3253.540528
809.201623	3253.424581
809.521590	3239.402612
809.841513	3240.562077
810.161390	3248.819487
810.481223	3224.480796
810.801011	3225.070611
811.120755	3219.515260
811.440453	3209.866491
811.760107	3199.602702
812.079716	3193.452494
812.399281	3180.290042
812.718801	3183.488654
813.038276	3170.331242
813.357707	3167.467867
813.677093	3178.873477
813.996434	3162.774553
814.315731	3170.505162
814.634983	3172.456089
814.954191	3174.434742
815.273354	3196.189841
815.592473	3207.403888
815.911547	3234.903382
816.230577	3251.914756
816.549562	3276.376955
816.868502	3299.155408
817.187399	3316.638130
817.506250	3349.619879
817.825058	3356.964840
818.143821	3414.449117
818.462539	3470.481542
818.781213	3546.723953
819.099843	3657.689832
819.418429	3849.616641
819.736970	4042.125703
820.055466	4267.293881
820.373919	4565.367226
820.692327	5024.177761
821.010691	5782.914264
821.329011	7292.278576
821.647286	9366.947797
821.965517	11602.084507
822.283704	12933.680090
822.601847	13578.864603
822.919945	12785.475208
823.237999	11747.456260
823.556010	10562.896012
823.873976	9418.339840
824.191897	8331.797266
824.509775	7512.766042
824.827609	6789.423479
825.145398	6378.236725
825.463144	6183.086098
825.780845	6281.736437
826.098502	6619.927284
826.416116	7276.260309
826.733685	7922.125378
827.051210	8115.912373
827.368692	7767.472861
827.686129	7074.336892
828.003522	6354.024063
828.320872	5687.722156
828.638177	5184.592317
828.955439	4787.840907
829.272656	4456.377479
829.589830	4189.609700
829.906960	3964.948158
830.224046	3792.626397
830.541088	3661.054802
830.858086	3583.965477
831.175041	3518.639685
831.491952	3508.199455
831.808819	3522.813760
832.125642	3611.757358
832.442421	3803.792552
832.759157	4166.385104
833.075849	4720.836410
833.392497	5290.716167
833.709101	5658.652342
834.025662	5604.520432
834.342179	5296.853772
834.658653	4884.099219
834.975083	4520.851317
835.291469	4219.866706
835.607811	3970.132985
835.924110	3794.902478
836.240366	3631.402735
836.556578	3477.398005
836.872746	3356.490972
837.188871	3262.854059
837.504952	3184.038140
837.820990	3127.050416
838.136984	3089.007348
838.452935	3070.710481
838.768842	3082.824373
839.084706	3177.310720
839.400526	3423.195519
839.716303	3728.394535
840.032037	3928.969443
840.347727	3893.913260
840.663373	3699.435627
840.978977	3501.913137
841.294537	3341.919516
841.610054	3226.530025
841.925527	3143.524907
842.240957	3068.555387
842.556344	3004.996520
842.871687	2945.836059
843.186987	2892.251114
843.502244	2848.390555
843.817458	2819.529949
844.132629	2793.721762
844.447756	2775.427415
844.762840	2755.698859
845.077881	2744.477251
845.392879	2729.464694
845.707833	2723.942110
846.022745	2710.358721
846.337613	2707.318906
846.652438	2700.218440
846.967221	2698.401104
847.281960	2693.649817
847.596656	2688.717048
847.911309	2684.822757
848.225919	2677.636592
848.540485	2674.695078
848.855009	2672.721467
849.169490	2669.132165
849.483928	2665.747030
849.798323	2664.184273
850.112675	2663.206289
850.426984	2662.311484
850.741251	2659.138078
851.055474	2656.899805
851.369654	2661.202430
851.683792	2658.336534
851.997887	2662.669406
852.311938	2659.473314
852.625947	2662.417348
852.939914	2657.726555
853.253837	2660.993222
853.567718	2661.366268
853.881555	2658.654127
854.195350	2660.799138
854.509103	2662.276196
854.822812	2660.597492
855.136479	2658.066832
855.450103	2657.744199
855.763685	2656.882161
856.077224	2658.744868
856.390720	2660.252173
856.704173	2667.125786
857.017584	2669.142247
857.330953	2668.910354
857.644278	2674.054852
857.957561	2677.281190
858.270802	2674.669873
858.584000	2673.898576
858.897155	2676.038546
859.210268	2670.505880
859.523339	2664.756444
859.836367	2664.050682
860.149352	2663.944818
860.462295	2664.630415
860.775195	2661.154539
861.088054	2654.936276
861.400869	2658.807882
861.713642	2657.512306
862.026373	2661.199910
862.339062	2661.830054
862.651708	2666.014212
862.964312	2675.292455
863.276873	2679.612724
863.589392	2687.585309
863.901869	2699.379088
864.214303	2707.525593
864.526696	2712.425594
864.839045	2720.904815
865.151353	2727.992677
865.463619	2725.625856
865.775842	2728.401011
866.088023	2732.723800
866.400162	2731.894531
866.712258	2731.014849
867.024313	2731.329921
867.336325	2731.276989
867.648296	2734.914182
867.960224	2731.196331
868.272110	2736.000550
868.583954	2735.393091
868.895755	2738.594224
869.207515	2736.391240
869.519233	2746.155955
869.830909	2749.387334
870.142542	2753.183323
870.454134	2755.030906
870.765684	2761.619694
871.077191	2770.633277
871.388657	2777.073351
871.700081	2783.342026
872.011463	2788.277316
872.322803	2798.407514
872.634101	2802.856333
872.945357	2811.338074
873.256571	2823.935918
873.567744	2825.861638
873.878874	2830.398677
874.189963	2837.869667
874.501010	2839.830676
874.812015	2839.250943
875.122979	2847.173116
875.433900	2844.450893
875.744780	2849.817201
876.055618	2852.383149
876.366415	2853.736698
876.677169	2860.028058
876.987882	2864.509644
877.298554	2875.648074
877.609183	2897.950138
877.919771	2917.338416
878.230317	2945.815894
878.540822	2994.284068
878.851285	3059.808985
879.161707	3153.629900
879.472087	3313.802481
879.782425	3562.031417
880.092722	3993.128208
880.402977	4591.046863
880.713191	5215.330753
881.023363	5804.949148
881.333494	6148.070243
881.643583	6356.748807
881.953631	6370.669953
882.263637	6229.870526
882.573602	5982.891796
882.883526	5721.147527
883.193408	5426.111477
883.503248	5124.375734
883.813048	4841.940049
884.122806	4577.864246
884.432522	4313.652332
884.742197	4087.576746
885.051831	3891.841345
885.361424	3714.848954
885.670975	3567.238929
885.980485	3443.831483
886.289954	3337.616892
886.599382	3257.888523
886.908768	3184.678366
887.218113	3119.191257
887.527417	3067.438772
887.836680	3015.028416
888.145901	2977.413846
888.455082	2942.067796
888.764221	2914.364135
889.073319	2888.306411
889.382376	2878.559340
889.691392	2865.462422
890.000366	2862.490662
890.309300	2857.157121
890.618193	2859.241638
890.927044	2857.313397
891.235855	2861.192565
891.544625	2868.345962
891.853353	2878.798795
892.162041	2904.788463
892.470687	2943.181891
892.779293	2992.612925
893.087858	3064.933318
893.396381	3176.078158
893.704864	3337.755523
894.013306	3553.088410
894.321707	3787.066004
894.630068	3931.565638
894.938387	3956.408444
895.246665	3904.658479
895.554903	3783.474182
895.863100	3650.158348
896.171256	3541.647511
896.479371	3442.944239
896.787446	3347.709282
897.095480	3267.285234
897.403473	3206.163764
897.711425	3143.466933
898.019336	3093.204109
898.327207	3040.879453
898.635038	3000.409070
898.942827	2952.795372
899.250576	2916.126018
899.558284	2881.780637
899.865952	2858.276257
900.173579	2832.770540
900.481165	2812.293373
900.788711	2790.450053
901.096216	2779.309103
901.403681	2765.851743
901.711105	2760.624066
902.018489	2762.030548
902.325832	2777.108639
902.633135	2805.155099
902.940397	2874.362579
903.247619	3038.827703
903.554800	3322.629541
903.861941	3683.235879
904.169041	3948.864357
904.476101	4046.670303
904.783121	3964.297850
905.090100	3823.029595
905.397039	3662.756191
905.703938	3519.307638
906.010796	3390.780900
906.317614	3285.113274
906.624391	3187.836649
906.931129	3105.970831
907.237826	3029.889737
907.544483	2956.901391
907.851099	2886.650392
908.157675	2821.042295
908.464211	2761.511309
908.770707	2718.777448
909.077163	2684.908456
909.383578	2658.591112
909.689954	2639.583442
909.996289	2626.458798
910.302584	2616.686521
910.608839	2611.131170
910.915054	2609.167640
911.221229	2604.118925
911.527363	2606.047166
911.833458	2610.851386
912.139513	2617.387242
912.445527	2623.948303
912.751502	2636.029428
913.057436	2658.160094
913.363331	2685.115143
913.669186	2726.014025
913.975000	2775.417332
914.280775	2857.073942
914.586510	2968.508648
914.892205	3121.792493
915.197859	3320.608038
915.503475	3548.395096
915.809050	3739.737131
916.114585	3855.529914
916.420081	3899.098086
916.725536	3881.081002
917.030952	3796.495482
917.336328	3716.993965
917.641665	3632.781490
917.946961	3539.454609
918.252218	3458.239100
918.557435	3363.543546
918.862612	3282.280146
919.167750	3208.749876
919.472848	3128.038482
919.777906	3063.327711
920.082925	2991.841629
920.387904	2926.530960
920.692843	2879.683517
920.997743	2837.121055
921.302603	2797.326187
921.607423	2766.204624
921.912204	2737.845613
922.216946	2717.174361
922.521647	2695.434385
922.826310	2677.003927
923.130932	2659.248983
923.435516	2642.522435
923.740059	2628.656741
924.044564	2616.527725
924.349028	2601.666403
924.653454	2585.146542
924.957840	2576.223700
925.262186	2563.769529
925.566493	2557.377346
925.870761	2540.265149
926.174989	2539.942516
926.479178	2528.935156
926.783328	2524.884589
927.087438	2517.680780
927.391509	2511.825480
927.695541	2505.329953
927.999533	2501.914572
928.303486	2498.751248
928.607400	2493.621873
928.911275	2496.190341
929.215110	2490.342603
929.518906	2487.789258
929.822663	2487.474186
930.126381	2487.658188
930.430060	2487.131388
930.733699	2488.628611
931.037299	2493.478201
931.340861	2490.637510
931.644383	2493.490803
931.947866	2490.181286
932.251309	2491.769249
932.554714	2491.373519
932.858080	2491.698673
933.161407	2486.236583
933.464694	2486.498723
933.767943	2485.979484
934.071153	2484.406644
934.374323	2480.943372
934.677455	2480.426653
934.980548	2478.889101
935.283602	2479.055459
935.586617	2479.418422
935.889593	2479.925058
936.192530	2477.369193
936.495428	2482.959833
936.798287	2486.208857
937.101108	2495.514827
937.403890	2505.382885
937.706632	2518.815040
938.009336	2534.109901
938.312002	2549.868547
938.614628	2560.205433
938.917216	2571.626167
939.219765	2574.103895
939.522275	2579.477765
939.824747	2581.587487
940.127179	2577.436097
940.429573	2574.141703
940.731929	2572.203380
941.034246	2566.703481
941.336524	2568.001578
941.638763	2566.590055
941.940964	2561.695094
942.243126	2555.703683
942.545250	2552.510112
942.847335	2543.965356
943.149381	2535.546629
943.451389	2528.967924
943.753359	2522.162366
944.055290	2519.568692
944.357182	2514.351098
944.659036	2509.904800
944.960851	2510.083761
945.262628	2505.430776
945.564367	2507.263236
945.866067	2509.327588
946.167729	2505.710560
946.469352	2507.762310
946.770937	2505.549243
947.072484	2500.853409
947.373992	2502.481701
947.675462	2499.641011
947.976893	2497.705208
948.278286	2494.889724
948.579641	2494.229333
948.880958	2493.730258
949.182236	2494.267141
949.483476	2490.995432
949.784678	2494.007522
950.085841	2494.186483
950.386967	2496.712101
950.688054	2498.922647
950.989103	2501.181084
951.290114	2504.286434
951.591087	2511.938906
951.892021	2518.038702
952.192917	2520.879392
952.493776	2525.844929
952.794596	2527.793335
953.095378	2526.878365
953.396122	2525.333252
953.696828	2524.924918
953.997496	2525.207223
954.298126	2517.789165
954.598718	2515.508043
954.899272	2509.753566
955.199788	2506.257526
955.500266	2497.400218
955.800706	2489.107520
956.101108	2479.998155
956.401472	2478.700058
956.701798	2464.907461
957.002087	2465.804787
957.302337	2460.294805
957.602550	2452.765842
957.902724	2450.910697
958.202861	2443.759821
958.502960	2442.207145
958.803022	2435.111721
959.103045	2431.850095
959.403031	2430.390681
959.702979	2428.238108
960.002889	2425.513364
960.302762	2423.086049
960.602596	2422.655030
960.902393	2421.722417
961.202153	2419.038002
961.501875	2417.109761
961.801559	2419.040523
962.101205	2412.358473
962.400814	2411.771179
962.700385	2411.420819
962.999918	2414.160686
963.299414	2412.376117
963.598873	2411.544327
963.898293	2410.720098
964.197677	2409.553071
964.497022	2410.762948
964.796331	2409.923596
965.095601	2408.418812
965.394835	2408.552402
965.694030	2410.561302
965.993189	2406.510735
966.292309	2405.973852
966.591393	2406.157854
966.890439	2405.830179
967.189447	2407.909655
967.488419	2404.590055
967.787353	2409.006106
968.086249	2408.885118
968.385108	2405.522669
968.683930	2408.275139
968.982714	2411.556930
969.281462	2412.245048
969.580172	2410.072310
969.878844	2411.682959
970.177480	2414.412744
970.476078	2414.720254
970.774639	2418.256623
971.073162	2415.993145
971.371649	2416.663619
971.670098	2417.732343
971.968510	2417.770152
972.266885	2414.926941
972.565223	2422.292067
972.863524	2420.250400
973.161788	2424.913467
973.460014	2422.188723
973.758204	2425.031934
974.056356	2424.240473
974.354471	2427.098807
974.652550	2422.962541
974.950591	2425.868766
975.248595	2427.456729
975.546563	2425.092428
975.844493	2421.183013
976.142386	2419.988260
976.440243	2419.592529
976.738062	2420.353743
977.035845	2418.760739
977.333590	2419.980698
977.631299	2417.482806
977.928971	2414.937024
978.226606	2415.650347
978.524204	2415.299987
978.821765	2413.051632
979.119290	2413.051632
979.416777	2413.225552
979.714228	2409.807650
980.011642	2413.459966
980.309020	2418.450708
980.606360	2418.370049
980.903664	2423.363312
981.200931	2428.381781
981.498162	2438.895107
981.795356	2452.178548
982.092513	2469.245374
982.389633	2489.858652
982.686717	2506.081085
982.983764	2519.765297
983.280775	2525.998684
983.577749	2525.701256
983.874686	2525.562624
984.171587	2515.739936
984.468451	2506.922958
984.765279	2503.532782
985.062070	2492.911071
985.358824	2482.208701
985.655543	2473.374079
985.952224	2461.124075
986.248869	2450.215018
986.545478	2435.124324
986.842050	2433.100301
987.138586	2421.203178
987.435086	2417.109761
987.731549	2410.619275
988.027975	2410.349574
988.324366	2405.447052
988.620719	2407.206414
988.917037	2405.000909
989.213318	2402.520662
989.509563	2399.869015
989.805772	2397.986144
990.101944	2397.219888
990.398080	2398.056720
990.694180	2396.841802
990.990244	2398.545712
991.286271	2397.971020
991.582262	2400.075702
991.878217	2399.405229
992.174136	2403.286917
992.470019	2398.749879
992.765865	2401.124262
993.061676	2404.471588
993.357450	2402.618964
993.653188	2405.255488
993.948890	2409.169944
994.244556	2408.459141
994.540186	2412.862589
994.835780	2422.004721
995.131337	2427.834816
995.426859	2437.014757
995.722345	2443.036415
996.017795	2452.372632
996.313208	2461.401339
996.608586	2464.582307
996.903928	2467.662452
997.199234	2464.786473
997.494504	2462.689353
997.789738	2460.773715
998.084936	2455.982098
998.380099	2450.693928
998.675225	2446.524894
998.970316	2439.177412
999.265371	2434.852102
999.560390	2429.568973
999.855373	2425.140319
1000.150320	2418.788465
1000.445232	2413.144893
1000.740108	2410.057187
1001.034948	2403.138203
1001.329752	2403.975035
1001.624521	2403.196176
1001.919254	2398.142420
1002.213951	2396.478839
1002.508613	2392.453478
1002.803239	2394.878272
1003.097829	2391.523385
1003.392384	2395.677295
1003.686903	2393.522202
1003.981386	2395.775598
1004.275834	2393.194527
1004.570246	2393.219733
1004.864623	2394.913561
1005.158964	2394.560680
1005.453270	2392.488766
1005.747540	2394.787532
1006.041775	2391.510782
1006.335974	2391.803169
1006.630138	2394.172511
1006.924266	2396.231822
1007.218359	2393.610422
1007.512416	2391.677140
1007.806438	2394.119579
1008.100425	2391.110010
1008.394376	2390.832747
1008.688292	2390.923487
1008.982172	2392.692932
1009.276017	2393.996071
1009.569827	2391.493138
1009.863602	2390.991543
1010.157341	2390.086656
1010.451045	2391.294012
1010.744714	2389.932901
1011.038347	2392.743344
1011.331945	2389.592623
1011.625508	2390.212685
1011.919036	2390.288302
1012.212528	2390.918446
1012.505986	2390.005997
1012.799408	2390.626059
1013.092795	2388.397869
1013.386147	2390.351316
1013.679464	2389.151522
1013.972745	2389.063302
1014.265992	2388.816285
1014.559204	2393.333159
1014.852380	2390.568086
1015.145521	2391.215874
1015.438628	2389.577499
1015.731699	2390.784856
1016.024736	2388.715462
1016.317737	2393.239898
1016.610703	2392.473642
1016.903635	2388.264279
1017.196531	2383.800337
1017.489393	2388.952396
1017.782219	2386.908208
1018.075011	2390.416851
1018.367768	2387.782848
1018.660490	2394.638818
1018.953177	2394.638818
1019.245829	2394.638818
