Dividing Wavelength (nm)	Counts (n)	Blue Motor Position (mm): 33.600000	Red Motor Position (mm): 0.000000	
326.493990	1972.797584
326.888308	1972.797584
327.282561	1972.797584
327.676750	1945.023347
328.070874	1949.522577
328.464933	1952.774121
328.858929	1964.003292
329.252859	1976.054170
329.646726	1992.543784
330.040528	2005.063490
330.434265	2026.279186
330.827938	2042.277287
331.221547	2064.717984
331.615091	2084.554924
332.008571	2106.688110
332.401986	2125.116048
332.795338	2143.402833
333.188625	2166.229178
333.581847	2185.088135
333.975006	2203.354756
334.368100	2220.333362
334.761129	2237.934550
335.154095	2255.447519
335.546996	2293.241049
335.939833	2373.105529
336.332606	2386.993908
336.725315	2399.072512
337.117960	2404.688358
337.510540	2414.183371
337.903056	2424.104362
338.295508	2432.502924
338.687896	2437.539037
339.080220	2446.794595
339.472480	2449.922631
339.864676	2455.104937
340.256807	2457.002932
340.648875	2460.849332
341.040879	2461.066102
341.432818	2459.677264
341.824694	2462.578448
342.216506	2463.357306
342.608253	2462.641462
342.999937	2461.401339
343.391557	2461.252625
343.783113	2459.828499
344.174605	2457.348251
344.566033	2456.718107
344.957397	2455.931687
345.348697	2452.428085
345.739934	2451.261058
346.131106	2451.939093
346.522215	2450.557817
346.913260	2443.878288
347.304241	2445.796447
347.695159	2446.008175
348.086012	2441.831579
348.476802	2442.013061
348.867528	2437.498708
349.258191	2434.789088
349.648789	2436.407298
350.039324	2436.276228
350.429796	2434.957966
350.820203	2434.713470
351.210548	2433.213727
351.600828	2429.485794
351.991045	2433.715322
352.381198	2430.829261
352.771288	2433.818665
353.161314	2431.230033
353.551276	2430.083170
353.941175	2431.146854
354.331010	2432.732297
354.720782	2433.506114
355.110490	2433.385126
355.500135	2431.971083
355.889717	2432.359251
356.279235	2432.102152
356.668689	2433.727925
357.058080	2432.581062
357.447408	2430.788932
357.836672	2430.758685
358.225873	2434.307657
358.615010	2430.680547
359.004084	2434.053079
359.393095	2435.285641
359.782043	2434.814293
360.170927	2437.390323
360.559748	2434.282452
360.948505	2439.363935
361.337199	2439.986517
361.725830	2441.203956
362.114398	2442.237392
362.502903	2442.721343
362.891344	2443.265788
363.279722	2440.951898
363.668037	2444.914245
364.056289	2441.264450
364.444478	2444.452979
364.832603	2444.831066
365.220665	2443.303596
365.608665	2441.380396
365.996601	2447.008844
366.384474	2447.454987
366.772284	2446.968515
367.160031	2445.627568
367.547715	2447.744853
367.935336	2446.870213
368.322893	2447.918773
368.710388	2447.454987
369.097820	2450.736778
369.485189	2452.271809
369.872495	2451.538321
370.259738	2451.079576
370.646918	2450.908177
371.034035	2450.391459
371.421090	2452.450770
371.808081	2448.322065
372.195010	2453.650565
372.581875	2453.690894
372.968678	2454.868003
373.355418	2453.043106
373.742096	2456.733230
374.128710	2453.522015
374.515262	2455.999742
374.901751	2457.282716
375.288177	2458.658951
375.674540	2456.932356
376.060841	2457.559979
376.447079	2458.966461
376.833254	2457.771708
377.219367	2455.558641
377.605417	2459.140381
377.991404	2459.173149
378.377329	2457.053343
378.763191	2456.448405
379.148991	2462.328911
379.534727	2467.455764
379.920402	2463.284210
380.306013	2462.144909
380.691563	2467.924592
381.077049	2462.139868
381.462474	2462.349076
381.847835	2463.937039
382.233134	2466.271093
382.618371	2466.571042
383.003545	2466.613892
383.388657	2467.559108
383.773706	2464.927626
384.158693	2469.615899
384.543618	2469.358800
384.928480	2466.419807
385.313280	2470.036835
385.698017	2469.590693
386.082692	2472.718729
386.467305	2473.623616
386.851856	2473.434573
387.236344	2474.525983
387.620770	2473.810139
388.005133	2474.891466
388.389435	2475.246868
388.773674	2475.965232
389.157851	2477.293576
389.541965	2478.715182
389.926018	2477.971611
390.310008	2475.509008
390.693936	2479.095789
391.077802	2479.615028
391.461606	2481.311376
391.845348	2480.950933
392.229027	2482.420430
392.612645	2484.131901
392.996200	2482.793475
393.379694	2486.236583
393.763125	2486.970071
394.146494	2487.839670
394.529801	2485.921511
394.913047	2490.559372
395.296230	2489.369660
395.679351	2491.315546
396.062410	2489.760350
396.445408	2490.536687
396.828343	2493.657162
397.211217	2486.193733
397.594028	2490.292191
397.976778	2489.422592
398.359466	2493.465598
398.742092	2490.808910
399.124656	2497.037255
399.507158	2495.804693
399.889598	2499.061278
400.271977	2499.777122
400.654294	2499.754437
401.036549	2501.564211
401.418742	2503.348780
401.800874	2503.900786
402.182944	2501.425580
402.564952	2505.851713
402.946898	2506.030674
403.328783	2503.169819
403.710606	2511.621313
404.092367	2508.679800
404.474067	2512.175840
404.855705	2510.285408
405.237282	2514.993845
405.618797	2516.455780
406.000250	2518.462159
406.381642	2520.450894
406.762972	2522.449712
407.144240	2521.174300
407.525447	2524.335103
407.906593	2524.851822
408.287677	2525.885258
408.668700	2532.199303
409.049661	2533.353728
409.430560	2533.010929
409.811399	2538.898997
410.192176	2542.321940
410.572891	2545.210521
410.953545	2551.194371
411.334138	2551.491799
411.714669	2562.519323
412.095139	2567.537792
412.475547	2570.557443
412.855894	2579.928948
413.236180	2592.655341
413.616405	2600.038111
413.996568	2612.885491
414.376670	2625.831174
414.756711	2639.137300
415.136691	2654.328817
415.516609	2674.266580
415.896466	2697.584437
416.276262	2729.071484
416.655997	2759.328490
417.035670	2786.578447
417.415283	2841.927796
417.794834	2873.959287
418.174324	2906.673855
418.553753	2943.433949
418.933121	3006.337467
419.312428	3052.474107
419.691674	3099.321549
420.070859	3179.851461
420.449983	3223.948955
420.829045	3320.124088
421.208047	3378.215824
421.586988	3485.627689
421.965867	3586.352463
422.344686	3672.916637
422.723444	3813.879901
423.102141	3781.792957
423.480777	3994.383456
423.859352	4046.503945
424.237866	4275.412659
424.616319	4358.911811
424.994712	4557.563519
425.373044	4652.841327
425.751314	4885.760279
426.129524	4875.980440
426.507673	5195.312331
426.885762	5284.079488
427.263789	5463.811746
427.641756	5642.553418
428.019662	5805.412934
428.397508	5973.447194
428.775292	6196.041863
429.153016	6356.592531
429.530679	6539.379728
429.908282	6718.489404
430.285824	6812.882489
430.663305	7172.730133
431.040726	7246.938438
431.418086	7368.100050
431.795385	7746.637772
432.172624	8076.588853
432.549802	8115.017568
432.926920	8365.867904
433.303977	8513.709823
433.680974	8800.022156
434.057910	9104.432231
434.434786	9307.867994
434.811601	9477.099529
435.188355	10109.053534
435.565050	10171.019397
435.941683	10350.940698
436.318257	10942.477253
436.694770	11065.942672
437.071222	11560.948692
437.447614	11327.402116
437.823946	11520.621981
438.200218	11808.174438
438.576429	11896.523180
438.952580	12243.243659
439.328670	12429.191660
439.704700	12875.091800
440.080670	12819.152636
440.456580	13366.863919
440.832429	13672.723326
441.208218	13262.227209
441.583947	13700.628633
441.959616	13961.881390
442.335224	14296.823213
442.710773	14564.906733
443.086261	15106.150216
443.461689	14857.601167
443.837057	15110.606596
444.212365	15727.490072
444.587612	15918.713640
444.962800	15787.595749
445.337927	16251.021460
445.712995	15491.135574
446.088002	17001.556007
446.462949	17328.222776
446.837837	17628.572202
447.212664	17753.857478
447.587431	20127.550301
447.962139	22625.636116
448.336786	24709.671801
448.711374	23657.875381
449.085901	20848.387410
449.460369	20945.598500
449.834776	21032.414731
450.209124	23248.049737
450.583412	23025.747456
450.957640	23618.831644
451.331808	22616.927523
451.705917	21565.466339
452.079965	21704.834078
452.453954	22134.610087
452.827883	22167.773318
453.201752	22097.880241
453.575562	22332.737516
453.949311	23439.250621
454.323001	23593.870371
454.696632	23482.231498
455.070202	24961.119514
455.443713	25196.669948
455.817164	25800.574973
456.190556	26372.806428
456.563888	25946.707941
456.937160	26435.069720
457.310373	24987.678833
457.683526	25456.899351
458.056619	25502.599931
458.429653	25507.404151
458.802628	26100.127896
459.175542	26279.149352
459.548398	27544.476447
459.921194	29079.522916
460.293930	29790.302923
460.666607	31768.061003
461.039224	33468.205261
461.411782	33898.616456
461.784280	32777.138686
462.156719	32335.536130
462.529099	31828.733810
462.901419	30618.219181
463.273680	29655.550360
463.645882	29770.574368
464.018024	29786.229671
464.390106	30612.227770
464.762130	33230.504775
465.134094	37221.309012
465.505999	42409.160435
465.877845	46944.439533
466.249631	48084.312474
466.621358	46350.115221
466.993026	44237.478550
467.364634	42177.106041
467.736184	40285.213934
468.107674	39088.494423
468.479105	38343.716874
468.850477	37689.727986
469.221790	36304.907901
469.593043	34666.835370
469.964238	33803.079029
470.335373	33713.197776
470.706449	35355.754413
471.077467	37812.359094
471.448425	42338.072604
471.819324	45191.632862
472.190164	43409.610183
472.560945	39936.003125
472.931667	36907.461897
473.302330	35823.379406
473.672934	35012.348493
474.043479	35530.657246
474.413965	34762.065287
474.784393	34395.654061
475.154761	35265.469869
475.525070	35309.867311
475.895321	34868.688211
476.265513	35456.975742
476.635645	36389.458133
477.005719	36226.318833
477.375734	36681.398914
477.745691	37360.248253
478.115588	38654.458638
478.485427	40578.629253
478.855207	43881.671391
479.224928	46501.443098
479.594591	48098.934340
479.964194	47075.970799
480.333739	47180.715894
480.703226	47198.891774
481.072653	47837.311059
481.442022	48338.681535
481.811333	48607.954768
482.180584	47347.293261
482.549777	46811.393401
482.918912	46299.630586
483.287988	46009.867584
483.657005	45194.816350
484.025964	44559.134412
484.394864	44568.989868
484.763706	44134.200431
485.132489	43277.632775
485.501213	43110.941982
485.869879	43271.217907
486.238487	42870.761248
486.607036	43080.692538
486.975527	42546.854511
487.343959	42759.092129
487.712333	42840.917618
488.080648	42741.601846
488.448905	43172.444059
488.817104	43012.914225
489.185244	43920.972226
489.553326	45573.923723
489.921350	48270.212583
490.289315	51233.455746
490.657222	51862.569061
491.025070	52154.547651
491.392861	51240.357086
491.760593	49942.655701
492.128267	48240.850383
492.495883	46703.578244
492.863440	45338.748854
493.230939	43997.285213
493.598380	42935.356073
493.965763	42631.130000
494.333088	41844.304187
494.700354	41379.996274
495.067563	41105.371857
495.434713	40966.717441
495.801805	41042.798534
496.168839	40668.558396
496.535815	40360.100275
496.902733	40376.504189
497.269593	39982.593469
497.636395	39930.818298
498.003139	40305.587758
498.369825	39788.987956
498.736453	40071.373229
499.103023	39625.939396
499.469535	39502.854584
499.835989	39603.561714
500.202385	39264.052606
500.568723	39285.018764
500.935003	39484.033436
501.301226	39279.675141
501.667390	39884.096885
502.033497	40135.116099
502.399546	39576.455430
502.765537	38902.178418
503.131470	39285.492633
503.497345	39608.610430
503.863163	38312.542379
504.228923	38920.734905
504.594625	39310.373248
504.960269	38604.213458
505.325856	39276.773957
505.691385	38650.866816
506.056856	38784.245665
506.422270	39222.536183
506.787625	38803.462543
507.152924	38982.395778
507.518164	39080.252136
507.883347	38335.482149
508.248472	38560.025224
508.613540	39017.096561
508.978550	39309.846447
509.343503	39067.555990
509.708398	39245.702806
510.073236	39778.038569
510.438016	39775.951532
510.802738	39244.432435
511.167403	39843.573569
511.532010	40071.111089
511.896561	40364.677643
512.261053	41176.830212
512.625488	40728.023847
512.989866	40616.258946
513.354186	40448.239809
513.718449	40444.443820
514.082655	41105.641558
514.446803	40777.192741
514.810894	41290.210803
515.174927	41215.911757
515.538904	41119.025822
515.902822	41763.776796
516.266684	41242.856725
516.630488	41638.287353
516.994235	41496.666218
517.357925	42051.699777
517.721558	42201.721995
518.085133	42507.765404
518.448651	42650.886282
518.812112	42418.249635
519.175516	42525.474977
519.538863	42859.970658
519.902152	42812.780417
520.265385	43258.587296
520.628560	43295.607009
520.991678	43103.581897
521.354739	43336.115201
521.717743	43638.712981
522.080690	43529.806414
522.443580	44083.914921
522.806413	44137.381399
523.169189	44076.270012
523.531908	44261.615594
523.894569	44107.036173
524.257174	44271.251760
524.619722	44570.855095
524.982213	44565.393005
525.344647	44486.277136
525.707025	44523.546387
526.069345	44916.554740
526.431608	44838.134551
526.793815	45139.933308
527.155964	44680.013720
527.518057	44863.690681
527.880093	44641.242205
528.242072	45163.835939
528.603995	44884.130039
528.965860	44872.094284
529.327669	44967.188090
529.689421	44863.269744
530.051117	44821.685266
530.412755	44961.370598
530.774337	45037.156784
531.135862	44838.908368
531.497331	45048.300255
531.858743	44959.170134
532.220098	45272.137568
532.581396	44995.221946
532.942638	44659.733158
533.303824	44948.112363
533.664953	44925.762408
534.026025	44644.594573
534.387040	45115.070338
534.747999	45043.370007
535.108902	45217.315020
535.469748	44749.296817
535.830537	44867.373243
536.191270	45059.010186
536.551947	44711.256271
536.912567	45004.071692
537.273131	45118.495802
537.633638	44626.113703
537.994089	44967.896372
538.354483	44565.705556
538.714821	45117.961439
539.075103	45475.389329
539.435328	45245.348877
539.795497	45137.503472
540.155609	45126.995187
540.515665	45572.494555
540.875665	45035.846084
541.235609	45362.016300
541.595496	45324.174879
541.955328	45991.908473
542.315102	45372.779163
542.674821	45167.405076
543.034483	45198.294747
543.394090	45161.068346
543.753640	45152.808415
544.113134	46132.070194
544.472571	45163.974571
544.831953	46371.782101
545.191278	45621.071114
545.550548	45361.524787
545.909761	45788.497915
546.268918	45994.643299
546.628019	46310.527040
546.987064	45884.602472
547.346053	45180.842272
547.704986	46039.983437
548.063863	45613.206914
548.422684	45803.031562
548.781449	45674.772005
549.140158	46057.637558
549.498811	45906.700370
549.857408	45367.337238
550.215949	46193.116047
550.574434	46119.510159
550.932864	45886.013995
551.291237	46619.902652
551.649555	46233.714979
552.007817	46490.420615
552.366022	46126.671118
552.724173	46321.340315
553.082267	46697.344857
553.440305	47018.158847
553.798288	46340.012749
554.156215	46647.084553
554.514086	46859.702778
554.871902	46595.183354
555.229661	46630.806668
555.587365	46467.627038
555.945014	46558.876964
556.302606	46494.924886
556.660143	46725.436687
557.017625	46803.365364
557.375050	46603.735671
557.732421	46960.137687
558.089735	46935.277236
558.446994	46860.118674
558.804197	47324.842482
559.161345	47265.387114
559.518437	46543.645117
559.875474	46835.840477
560.232455	47008.003442
560.589381	47181.484670
560.946251	46882.030049
561.303065	47548.747851
561.659825	47370.114564
562.016528	47050.878456
562.373177	46765.899508
562.729770	47265.528266
563.086307	46782.033721
563.442789	47234.119357
563.799216	47268.696631
564.155587	47078.072960
564.511904	47101.975591
564.868164	47185.696554
565.224370	47429.849717
565.580520	47178.475101
565.936615	47381.184938
566.292654	47111.473125
566.648638	47331.990838
567.004567	47303.848597
567.360441	47347.373919
567.716260	47211.071202
568.072023	47499.054677
568.427732	47476.117427
568.783385	47036.498564
569.138982	47430.169830
569.494525	47395.148934
569.850013	47158.350815
570.205445	47129.356618
570.560823	47075.869976
570.916145	46962.582646
571.271412	46977.179307
571.626625	46757.339629
571.981782	46810.044892
572.336884	46494.934968
572.691931	46825.259095
573.046923	46416.887825
573.401860	46268.874507
573.756743	46259.162724
574.111570	46371.933335
574.466342	46219.317444
574.821059	46337.398911
575.175722	45866.595471
575.530330	45872.465894
575.884882	45615.866123
576.239380	45562.772690
576.593823	45541.246963
576.948211	45462.468852
577.302544	45006.032701
577.656823	45047.153392
578.011047	45250.140493
578.365216	44970.265714
578.719330	44766.005722
579.073389	44639.457637
579.427394	44706.222678
579.781344	44677.611610
580.135239	44349.543400
580.489080	44407.357873
580.842866	43915.701700
581.196597	44345.865878
581.550273	44314.635930
581.903895	44160.303526
582.257463	44588.937714
582.610975	43970.821676
582.964434	44250.111681
583.317837	43905.339608
583.671186	43747.049898
584.024481	43974.048014
584.377721	43512.628682
584.730906	43798.325994
585.084037	43825.049151
585.437113	43530.590313
585.790135	43570.299482
586.143103	43172.759131
586.496016	43305.439780
586.848874	43307.047908
587.201679	43349.958209
587.554428	42819.326356
587.907124	43024.098025
588.259765	42765.151596
588.612352	43021.272458
588.964884	42405.069538
589.317362	42700.155999
589.669786	42637.817091
590.022155	42421.392794
590.374470	42827.210720
590.726731	42365.292314
591.078937	41886.092832
591.431090	41987.089829
591.783188	41639.668629
592.135232	41332.803512
592.487222	41545.467108
592.839157	41644.233394
593.191038	41329.914931
593.542866	41096.136463
593.894639	40502.873313
594.246358	40795.237551
594.598022	40753.431262
594.949633	40369.214681
595.301190	40316.184263
595.652692	40168.105410
596.004141	40495.893836
596.355535	39525.582626
596.706876	39461.159200
597.058162	39296.232811
597.409395	39765.226477
597.760573	39846.358807
598.111698	39423.993294
598.462768	39432.389335
598.813785	39479.342642
599.164748	38939.603944
599.515657	39337.514820
599.866511	38811.452772
600.217312	39404.983102
600.568060	38401.566635
600.918753	39119.242941
601.269392	39079.727856
601.619978	38752.002445
601.970510	38958.624218
602.320988	39128.763160
602.671412	39430.400600
603.021783	39177.677476
603.372100	38836.855146
603.722363	38945.403792
604.072572	39000.964869
604.422728	39044.845592
604.772830	38851.605562
605.122878	38936.841392
605.472872	38867.613747
605.822813	39154.518415
606.172701	39000.221298
606.522534	39206.243174
606.872314	39468.347886
607.222041	39227.531967
607.571714	39607.415676
607.921333	39071.523378
608.270899	39361.341834
608.620411	39687.670846
608.969870	39487.902522
609.319276	39486.294393
609.668627	39546.432838
610.017926	40021.377586
610.367171	40170.873003
610.716362	40256.648236
611.065500	40212.270959
611.414585	40401.069732
611.763616	40694.487571
612.112594	40622.673814
612.461518	40846.233864
612.810389	41124.356842
613.159207	40997.319765
613.507971	41066.519684
613.856682	41525.438604
614.205340	41416.582448
614.553945	42111.402162
614.902496	41562.357494
615.250994	42018.776001
615.599439	42086.612288
615.947830	42297.450986
616.296169	42356.127496
616.644454	42488.392250
616.992686	42650.205726
617.340864	43168.222093
617.688990	42891.089701
618.037063	43477.653157
618.385082	43463.374089
618.733048	43741.577725
619.080961	43759.501548
619.428821	43774.289773
619.776628	43875.160741
620.124382	43697.840675
620.472083	43830.453268
620.819731	43949.290908
621.167326	43624.786794
621.514868	43594.146661
621.862357	43159.521061
622.209793	43177.812888
622.557176	42860.573076
622.904506	42601.432563
623.251783	42264.098712
623.599007	42041.924980
623.946179	41813.747233
624.293297	41772.271140
624.640363	41194.625485
624.987376	41169.429798
625.334336	40936.578902
625.681243	40590.430594
626.028097	40554.829966
626.374899	40399.464125
626.721647	40369.703673
627.068343	40253.121949
627.414987	40048.476309
627.761577	39810.846399
628.108115	40155.426908
628.454600	39612.474474
628.801032	39792.118512
629.147412	39749.747614
629.493739	39760.465107
629.840014	39427.943038
630.186236	39747.063200
630.532405	39367.930622
630.878521	39592.501423
631.224585	39467.319490
631.570597	39175.981127
631.916556	39339.306950
632.262462	39289.742326
632.608316	39318.623096
632.954117	39198.313439
633.299866	39187.810195
633.645562	39114.254719
633.991206	38603.437120
634.336797	38181.185033
634.682336	38191.957979
635.027823	37931.035417
635.373257	37763.762371
635.718639	37517.489403
636.063968	37370.897690
636.409245	36815.929666
636.754470	36876.320169
637.099642	36614.240662
637.444762	36160.350294
637.789829	36304.451676
638.134845	35954.038552
638.479808	35896.191312
638.824719	35802.950130
639.169577	35418.121048
639.514383	35479.492055
639.859137	35185.688568
640.203839	35433.189057
640.548489	35061.403961
640.893086	35122.233044
641.237632	34884.109101
641.582125	34990.759752
641.926566	34934.543324
642.270955	34902.284981
642.615292	34928.070483
642.959576	34879.093153
643.303809	34886.516252
643.647990	35032.056884
643.992118	35003.801217
644.336195	34995.947099
644.680219	35085.795584
645.024192	35390.157768
645.368112	35886.774436
645.711981	35898.427063
646.055797	36766.443179
646.399562	36702.763324
646.743274	37635.674214
647.086935	38081.100485
647.430544	37975.150555
647.774101	38087.394366
648.117606	38322.160900
648.461059	38643.945312
648.804460	38220.140549
649.147810	37630.733883
649.491108	37373.524131
649.834354	37014.906529
650.177548	36191.121497
650.520690	35753.771154
650.863781	35769.829749
651.206820	35611.620698
651.549807	35181.940470
651.892742	34707.731731
652.235626	34527.452507
652.578458	34386.499325
652.921238	33788.373983
653.263967	34101.260758
653.606644	33806.375943
653.949269	33752.891822
654.291843	33355.742160
654.634365	33766.515540
654.976836	33364.644838
655.319255	33353.002293
655.661622	33358.441698
656.003938	33138.715446
656.346203	32986.661643
656.688416	33209.858729
657.030577	33013.372197
657.372687	32858.704555
657.714746	33110.686630
658.056753	33226.663416
658.398708	32709.972873
658.740612	32746.065014
659.082465	33024.112375
659.424266	32849.179295
659.766016	32967.827892
660.107715	32845.403471
660.449362	32975.061948
660.790958	32955.330872
661.132503	32977.421208
661.473996	33014.997969
661.815438	33117.928248
662.156829	33308.768688
662.498168	33091.774742
662.839456	33115.422794
663.180693	33250.445059
663.521879	33417.304731
663.863013	33370.830333
664.204097	33375.906775
664.545129	33825.602904
664.886110	33791.386072
665.227040	33861.236300
665.567918	33983.229703
665.908746	34038.195924
666.249522	34216.614961
666.590248	34199.759863
666.930922	34311.187007
667.271545	34265.123464
667.612118	34368.373857
667.952639	34136.299298
668.293109	34204.501068
668.633528	34102.145481
668.973896	34007.971686
669.314213	34042.049886
669.654480	33793.190806
669.994695	33813.736028
670.334859	33700.395766
670.674973	33598.314921
671.015035	33759.520939
671.355047	33719.252202
671.695008	33663.275230
672.034918	33554.353539
672.374777	33645.611027
672.714585	33491.200484
673.054342	33707.040007
673.394049	33475.822445
673.733705	33751.520628
674.073310	33423.366718
674.412864	33485.297293
674.752368	33077.467947
675.091820	33372.662793
675.431223	32961.962510
675.770574	32696.775132
676.109875	32563.005594
676.449125	32276.370628
676.788324	32207.679865
677.127473	31681.300225
677.466571	31591.368561
677.805619	31251.841808
678.144616	31239.264129
678.483562	31173.177123
678.822458	30849.308194
679.161303	30769.862130
679.500098	30681.190754
679.838842	30566.164227
680.177535	30721.411600
680.516179	30995.519300
680.854771	31241.399058
681.193314	32099.748762
681.531805	33228.425299
681.870247	34002.232332
682.208638	34731.296604
682.546978	34955.249864
682.885268	35032.170310
683.223508	34513.387688
683.561697	34173.016542
683.899836	33975.834330
684.237925	33467.123934
684.575963	33339.461754
684.913951	32877.261043
685.251889	33037.237019
685.589776	33024.737478
685.927614	33017.211035
686.265401	33169.141330
686.603137	33255.574433
686.940824	33759.004221
687.278460	34139.694515
687.616046	34297.313752
687.953582	34900.132408
688.291068	34769.707676
688.628504	35040.243718
688.965889	34962.577181
689.303224	34591.727219
689.640510	34232.156838
689.977745	33514.999772
690.314930	32712.102760
690.652065	32186.557431
690.989150	31451.438733
691.326185	30546.798634
691.663170	29854.764157
692.000105	29093.290307
692.336990	28400.923115
692.673825	27974.544843
693.010610	27456.024361
693.347345	26880.044808
693.684030	26232.115386
694.020665	25960.104807
694.357251	25294.884228
694.693786	25249.002166
695.030272	25019.947259
695.366707	24478.645803
695.703093	24184.265103
696.039429	24167.543596
696.375716	23914.427262
696.711952	23897.748604
697.048139	23724.340473
697.384276	23552.568197
697.720363	23673.394573
698.056400	23475.267144
698.392388	23266.891050
698.728326	23219.289955
699.064214	23008.846987
699.400053	22955.471251
699.735842	22607.061985
700.071581	22330.239624
700.407270	22040.741282
700.742910	21847.309689
701.078501	21577.116445
701.414042	21293.977519
701.749533	21003.261738
702.084974	20655.112092
702.420366	20863.518433
702.755709	20430.949625
703.091002	20134.116404
703.426246	20160.350568
703.761440	20048.283198
704.096584	19784.298136
704.431679	19743.195088
704.766725	19644.262443
705.101721	19588.207333
705.436668	19689.547128
705.771565	19358.257621
706.106413	19707.062617
706.441212	19684.120326
706.775961	19808.656991
707.110661	19894.989271
707.445311	20244.968856
707.779913	20085.829712
708.114465	20326.854839
708.448967	20612.496698
708.783421	21300.969599
709.117825	21570.489849
709.452180	21792.779527
709.786485	22182.982479
710.120742	22992.894256
710.454949	23010.621474
710.789107	23469.225321
711.123216	24174.709596
711.457275	24300.829183
711.791286	24832.859957
712.125247	24898.407560
712.459159	24602.343115
712.793023	25259.830565
713.126837	24150.186903
713.460602	24403.136880
713.794318	24024.291648
714.127985	23640.967351
714.461602	22745.461823
714.795171	22696.998690
715.128691	21702.454653
715.462162	21156.800161
715.795584	20731.591437
716.128957	20468.193669
716.462281	20071.023843
716.795556	19839.090437
717.128782	19344.512915
717.461960	18804.161717
717.795088	18728.874605
718.128167	18322.565166
718.461198	17868.977267
718.794180	17729.627172
719.127113	17365.723919
719.459997	17172.166297
719.792833	16828.175602
720.125619	16792.864840
720.458357	16479.055534
720.791046	16318.456975
721.123686	16158.402861
721.456278	15925.052891
721.788821	15871.062133
722.121315	15615.248781
722.453761	15698.901688
722.786158	15623.596932
723.118506	15632.192099
723.450805	15502.536143
723.783056	15650.118442
724.115259	15554.777620
724.447412	15487.621889
724.779518	15736.964920
725.111574	15753.048722
725.443582	15945.769513
725.775542	15927.606235
726.107453	16394.775003
726.439315	16278.652025
726.771129	16681.044486
727.102895	17046.785239
727.434612	17257.450017
727.766281	17372.080814
728.097901	17638.994787
728.429473	17675.558276
728.760996	17655.083630
729.092471	17747.787928
729.423897	17613.317670
729.755276	17478.391187
730.086606	17594.418384
730.417887	18120.336759
730.749120	18634.415984
731.080305	18799.899421
731.411442	19129.679103
731.742530	19209.651967
732.073570	19294.882756
732.404562	19582.188196
732.735506	19401.977028
733.066401	19113.570096
733.397249	18590.099201
733.728048	17966.218604
734.058798	17131.128784
734.389501	16456.879498
734.720156	15998.512585
735.050762	15477.436238
735.381320	15127.237363
735.711831	14890.630807
736.042293	14542.037539
736.372707	14550.514239
736.703073	14349.122664
737.033391	14526.946845
737.363661	14495.916023
737.693883	14597.623822
738.024056	14772.866932
738.354182	14957.844511
738.684260	15241.568211
739.014290	15463.532736
739.344272	15648.575849
739.674207	15937.184428
740.004093	16040.361723
740.333931	16032.192534
740.663722	16073.572845
740.993464	16059.278653
741.323159	15890.299176
741.652806	15605.279900
741.982405	15394.799124
742.311956	15062.531633
742.641460	14943.167192
742.970915	14633.776457
743.300323	14300.415035
743.629683	14091.658334
743.958996	13818.884020
744.288260	13549.474676
744.617477	13257.919543
744.946647	13176.827542
745.275768	12909.535483
745.604842	12724.389026
745.933869	12551.487531
746.262847	12500.768482
746.591778	12436.176178
746.920662	12328.396309
747.249498	12333.681959
747.578286	12457.517903
747.907027	12593.795415
748.235720	12812.069815
748.564365	12835.428001
748.892963	12737.765728
749.221514	12799.177064
749.550017	12655.272286
749.878473	12619.291051
750.206881	12398.980025
750.535242	12310.028865
750.863555	12222.769012
751.191821	12124.746297
751.520039	12143.131385
751.848210	12052.509083
752.176334	12080.419431
752.504411	11991.311995
752.832440	11837.980260
753.160421	11902.179354
753.488356	11774.149170
753.816243	11687.819410
754.144082	11544.529653
754.471875	11487.325160
754.799620	11433.460431
755.127318	11405.189641
755.454969	11364.618434
755.782572	11320.410036
756.110129	11335.936790
756.437638	11245.516134
756.765100	11244.636452
757.092515	11239.935576
757.419882	11263.792837
757.747203	11262.441808
758.074477	11332.251706
758.401703	11293.142435
758.728882	11455.543206
759.056014	11502.249496
759.383099	11605.845208
759.710138	11714.214892
760.037129	11796.816718
760.364073	11810.702577
760.690970	11801.608335
761.017820	11791.258846
761.344623	11987.974752
761.671379	12302.908235
761.998088	12921.135178
762.324751	14467.937619
762.651366	17319.055438
762.977935	20964.114658
763.304456	23172.432430
763.630931	23648.778618
763.957359	22475.243373
764.283740	20570.093032
764.610074	18698.287404
764.936362	16583.601503
765.262602	15071.716615
765.588796	13608.988018
765.914943	12581.318559
766.241044	11743.599778
766.567097	11120.059458
766.893104	10569.600747
767.219064	10211.041118
767.544978	9827.936110
767.870845	9522.230459
768.196665	9337.056275
768.522438	9132.448443
768.848165	8970.438362
769.173846	8805.900141
769.499479	8681.555041
769.825066	8536.183287
770.150607	8352.960030
770.476101	8289.058364
770.801548	8180.093823
771.126949	8041.036115
771.452303	7949.980274
771.777611	7785.373998
772.102872	7766.008405
772.428087	7643.841083
772.753256	7519.735437
773.078378	7436.337108
773.403453	7295.565408
773.728482	7195.571601
774.053465	7133.807384
774.378401	7045.408231
774.703291	6953.041689
775.028135	6857.925198
775.352932	6818.241235
775.677683	6735.475572
776.002388	6655.177552
776.327046	6650.607747
776.651658	6564.608182
776.976224	6487.339897
777.300743	6474.205171
777.625216	6408.856693
777.949643	6365.089396
778.274024	6370.629624
778.598359	6303.972967
778.922647	6301.863244
779.246889	6264.614158
779.571086	6269.577174
779.895236	6281.378515
780.219339	6277.945490
780.543397	6272.301918
780.867409	6324.558519
781.191374	6323.699002
781.515294	6289.157016
781.839167	6340.118040
782.162995	6311.630480
782.486776	6267.689262
782.810511	6221.071192
783.134201	6151.883876
783.457844	6135.220342
783.781441	6089.378609
784.104993	6044.814809
784.428498	6017.300192
784.751958	5996.457541
785.075372	5969.963757
785.398739	5938.418737
785.722061	5959.367252
786.045337	5960.060410
786.368568	6071.348923
786.691752	6096.121153
787.014891	6338.673749
787.337983	6613.164576
787.661030	7050.383849
787.984031	7471.350443
788.306987	7738.055207
788.629897	7819.840367
788.952760	7738.869354
789.275579	7559.184987
789.598351	7262.147599
789.921078	7003.276787
790.243759	6717.783642
790.566395	6520.145206
790.888984	6324.654301
791.211529	6181.740110
791.534027	6024.493918
791.856480	5888.024843
792.178888	5829.670966
792.501249	5761.441469
792.823566	5662.387837
793.145836	5652.300489
793.468062	5632.763497
793.790241	5597.639257
794.112375	5638.028982
794.434464	5736.175206
794.756507	5765.474393
795.078505	5881.085694
795.400457	6102.994766
795.722364	6339.039233
796.044226	6534.167175
796.366042	6683.138312
796.687812	6634.092927
797.009538	6665.290107
797.331218	6569.644295
797.652852	6504.716754
797.974442	6379.078597
798.295986	6311.123844
798.617484	6185.374782
798.938938	6073.274643
799.260346	6009.977916
799.581709	5873.251741
799.903026	5818.681251
800.224299	5748.606692
800.545526	5627.941633
800.866708	5567.470472
801.187845	5519.508935
801.508936	5437.587664
801.829983	5415.807359
802.150984	5306.275689
802.471940	5278.178818
802.792851	5263.854379
803.113717	5240.874279
803.434538	5216.018870
803.755314	5185.658521
804.076045	5175.351882
804.396731	5141.626563
804.717372	5158.053163
805.037967	5154.569725
805.358518	5183.158109
805.679024	5243.430144
805.999485	5252.521865
806.319901	5273.432571
806.640272	5291.200118
806.960598	5335.592519
807.280879	5326.757897
807.601115	5366.401531
807.921306	5329.225542
808.241453	5323.400488
808.561554	5331.604966
808.881611	5296.689935
809.201623	5295.719513
809.521590	5247.848716
809.841513	5234.313217
810.161390	5247.596658
810.481223	5159.865458
810.801011	5145.583869
811.120755	5125.711640
811.440453	5064.101178
811.760107	5040.241397
812.079716	5007.889793
812.399281	4959.414057
812.718801	4957.450528
813.038276	4918.545423
813.357707	4885.893869
813.677093	4905.914812
813.996434	4844.657231
814.315731	4868.247310
814.634983	4862.074417
814.954191	4869.820150
815.273354	4928.105971
815.592473	4969.582064
815.911547	5043.906316
816.230577	5098.446560
816.549562	5184.461247
816.868502	5236.117951
817.187399	5292.409995
817.506250	5368.697776
817.825058	5394.700048
818.143821	5550.325508
818.462539	5719.065530
818.781213	5946.073729
819.099843	6309.755170
819.418429	6938.238341
819.736970	7552.586116
820.055466	8261.947038
820.373919	9168.286006
820.692327	10616.246543
821.010691	13290.714770
821.329011	19495.061934
821.647286	29067.638396
821.965517	39406.510572
822.283704	44924.403817
822.601847	46435.393900
822.919945	41823.353152
823.237999	36694.906686
823.556010	31493.766781
823.873976	26777.114529
824.191897	22564.728895
824.509775	19511.259161
824.827609	16728.522073
825.145398	15177.769889
825.463144	14421.513633
825.780845	14705.068454
826.098502	15955.191429
826.416116	18412.078415
826.733685	20692.562824
827.051210	21237.085577
827.368692	19811.722012
827.686129	17254.483298
828.003522	14768.362662
828.320872	12557.536916
828.638177	10908.797304
828.955439	9662.004011
829.272656	8607.394626
829.589830	7768.738190
829.906960	7035.063783
830.224046	6501.939078
830.541088	6090.888435
830.858086	5834.870916
831.175041	5634.457325
831.491952	5575.049847
831.808819	5607.981185
832.125642	5850.576631
832.442421	6399.502832
832.759157	7503.359249
833.075849	9267.884083
833.392497	11117.823707
833.709101	12234.769479
834.025662	11978.663740
834.342179	10928.825808
834.658653	9631.026121
834.975083	8526.980661
835.291469	7626.565049
835.607811	6884.429065
835.924110	6368.335899
836.240366	5883.586107
836.556578	5431.591212
836.872746	5072.711469
837.188871	4801.610818
837.504952	4583.384309
837.820990	4415.783588
838.136984	4304.852998
838.452935	4249.997682
838.768842	4281.888021
839.084706	4561.452770
839.400526	5300.135563
839.716303	6205.988060
840.032037	6773.329596
840.347727	6623.902234
840.663373	6029.204877
840.978977	5454.563750
841.294537	5008.648486
841.610054	4680.981048
841.925527	4437.642031
842.240957	4237.183069
842.556344	4055.426788
842.871687	3894.349319
843.186987	3744.412801
843.502244	3624.491313
843.817458	3536.694578
844.132629	3464.076756
844.447756	3418.575302
844.762840	3371.831203
845.077881	3335.865091
845.392879	3302.827889
845.707833	3275.683796
846.022745	3251.367790
846.337613	3236.274576
846.652438	3213.228941
846.967221	3203.436500
847.281960	3186.331865
847.596656	3176.889783
847.911309	3162.426713
848.225919	3149.382728
848.540485	3143.918117
848.855009	3133.843371
849.169490	3125.830457
849.483928	3112.541975
849.798323	3109.073661
850.112675	3099.576127
850.426984	3099.329111
850.741251	3091.664037
851.055474	3088.077256
851.369654	3090.963316
851.683792	3089.080445
851.997887	3090.993563
852.311938	3091.328800
852.625947	3088.445260
852.939914	3085.218921
853.253837	3094.174531
853.567718	3086.774117
853.881555	3082.257243
854.195350	3087.308480
854.509103	3085.985177
854.822812	3083.845207
855.136479	3076.901017
855.450103	3080.495360
855.763685	3076.510328
856.077224	3079.439238
856.390720	3084.515680
856.704173	3096.470777
857.017584	3100.828854
857.330953	3108.173815
857.644278	3111.569032
857.957561	3118.649333
858.270802	3115.642285
858.584000	3116.413581
858.897155	3108.892180
859.210268	3100.564194
859.523339	3087.978953
859.836367	3083.242789
860.149352	3080.354208
860.462295	3075.333219
860.775195	3066.738051
861.088054	3059.365364
861.400869	3061.918708
861.713642	3057.444684
862.026373	3069.818196
862.339062	3072.679051
862.651708	3081.183478
862.964312	3098.885489
863.276873	3104.632405
863.589392	3137.304123
863.901869	3164.533915
864.214303	3181.573015
864.526696	3200.316025
864.839045	3220.752863
865.151353	3230.197465
865.463619	3232.806262
865.775842	3236.045203
866.088023	3239.304309
866.400162	3232.581931
866.712258	3231.621591
867.024313	3230.946076
867.336325	3228.992629
867.648296	3231.893813
867.960224	3227.470201
868.272110	3236.198958
868.583954	3232.047568
868.895755	3241.913106
869.207515	3239.362282
869.519233	3258.823657
869.830909	3265.205758
870.142542	3273.425359
870.454134	3278.869805
870.765684	3293.282464
871.077191	3312.312820
871.388657	3324.144408
871.700081	3339.900534
872.011463	3360.435674
872.322803	3382.881412
872.634101	3397.089904
872.945357	3420.924479
873.256571	3450.339612
873.567744	3462.977785
873.878874	3467.653455
874.189963	3485.942761
874.501010	3483.291114
874.812015	3482.739108
875.122979	3499.042199
875.433900	3499.163187
875.744780	3498.490193
876.055618	3507.491173
876.366415	3502.586131
876.677169	3511.766072
876.987882	3530.259545
877.298554	3549.413409
877.609183	3587.428750
877.919771	3633.134371
878.230317	3702.571224
878.540822	3810.378820
878.851285	3959.952375
879.161707	4181.206097
879.472087	4557.019075
879.782425	5184.322615
880.092722	6372.343616
880.402977	8322.839136
880.713191	10714.521317
881.023363	13103.196449
881.333494	14464.484428
881.643583	14930.186221
881.953631	14528.567576
882.263637	13686.417620
882.573602	12632.317392
882.883526	11670.114878
883.193408	10711.015194
883.503248	9776.347462
883.813048	8948.937841
884.122806	8180.860079
884.432522	7406.891729
884.742197	6744.453867
885.051831	6173.454973
885.361424	5672.966699
885.670975	5275.491883
885.980485	4949.009116
886.289954	4677.101880
886.599382	4459.530721
886.908768	4279.879122
887.218113	4115.590438
887.527417	3984.253257
887.836680	3859.310780
888.145901	3755.717589
888.455082	3678.958460
888.764221	3612.621916
889.073319	3549.481464
889.382376	3519.733615
889.691392	3495.649503
890.000366	3487.991990
890.309300	3482.696258
890.618193	3486.333451
890.927044	3481.269612
891.235855	3485.995693
891.544625	3499.823578
891.853353	3528.598484
892.162041	3593.178186
892.470687	3682.497350
892.779293	3800.742654
893.087858	3973.124910
893.396381	4254.743928
893.704864	4669.356147
894.013306	5243.972068
894.321707	5818.048586
894.630068	6178.412948
894.938387	6225.678807
895.246665	6046.150715
895.554903	5727.219597
895.863100	5387.060179
896.171256	5114.094301
896.479371	4865.336044
896.787446	4643.636180
897.095480	4448.722487
897.403473	4293.616266
897.711425	4148.473885
898.019336	4027.471069
898.327207	3900.880134
898.635038	3799.696615
898.942827	3691.331972
899.250576	3606.716204
899.558284	3519.907535
899.865952	3466.030203
900.173579	3403.605595
900.481165	3357.305118
900.788711	3313.527738
901.096216	3282.771658
901.403681	3256.512288
901.711105	3243.722881
902.018489	3241.734145
902.325832	3270.393105
902.633135	3333.399966
902.940397	3503.039834
903.247619	3909.316505
903.554800	4666.757432
903.861941	5642.704652
904.169041	6357.547829
904.476101	6568.079017
904.783121	6299.388037
905.090100	5884.170880
905.397039	5470.201409
905.703938	5108.019711
906.010796	4781.441162
906.317614	4523.684445
906.624391	4283.203763
906.931129	4085.096499
907.237826	3901.812748
907.544483	3730.723548
907.851099	3561.849935
908.157675	3394.465983
908.464211	3251.952564
908.770707	3153.783655
909.077163	3072.737024
909.383578	3014.362983
909.689954	2966.807259
909.996289	2937.855912
910.302584	2917.277922
910.608839	2904.957342
910.915054	2890.809344
911.221229	2886.408417
911.527363	2889.843963
911.833458	2896.886455
912.139513	2911.215935
912.445527	2924.103644
912.751502	2960.687298
913.057436	3001.482835
913.363331	3061.308729
913.669186	3149.334837
913.975000	3265.483021
914.280775	3455.297587
914.586510	3724.696848
914.892205	4104.653655
915.197859	4609.699132
915.503475	5199.970357
915.809050	5700.377973
916.114585	5996.815463
916.420081	6058.589762
916.725536	5993.301779
917.030952	5754.308237
917.336328	5543.066247
917.641665	5329.086910
917.946961	5098.141570
918.252218	4899.436929
918.557435	4670.152649
918.862612	4468.856856
919.167750	4293.772542
919.472848	4100.449333
919.777906	3935.331380
920.082925	3772.991102
920.387904	3615.986886
920.692843	3504.680730
920.997743	3407.706574
921.302603	3312.784168
921.607423	3242.792788
921.912204	3178.863395
922.216946	3129.397073
922.521647	3079.411512
922.826310	3037.111190
923.130932	2996.572752
923.435516	2962.371043
923.740059	2931.267124
924.044564	2899.787639
924.349028	2879.030688
924.653454	2847.334433
924.957840	2822.915084
925.262186	2800.940694
925.566493	2777.572426
925.870761	2755.504775
926.174989	2739.975500
926.479178	2727.360013
926.783328	2710.068855
927.087438	2697.619726
927.391509	2688.275947
927.695541	2675.080727
927.999533	2663.420538
928.303486	2659.697646
928.607400	2648.672642
928.911275	2645.506798
929.215110	2636.117649
929.518906	2633.967597
929.822663	2635.575725
930.126381	2635.530354
930.430060	2634.693523
930.733699	2637.093112
931.037299	2642.053607
931.340861	2643.109729
931.644383	2647.614000
931.947866	2642.847589
932.251309	2642.388844
932.554714	2642.184677
932.858080	2643.160141
933.161407	2636.752834
933.464694	2631.764612
933.767943	2628.381998
934.071153	2626.093314
934.374323	2621.397479
934.677455	2615.975718
934.980548	2616.283229
935.283602	2613.901284
935.586617	2612.504884
935.889593	2614.138218
936.192530	2615.426233
936.495428	2617.825822
936.798287	2629.039869
937.101108	2644.160810
937.403890	2666.074705
937.706632	2694.738706
938.009336	2724.337841
938.312002	2754.516708
938.614628	2779.533434
938.917216	2798.026907
939.219765	2808.220120
939.522275	2816.911070
939.824747	2816.472489
940.127179	2809.737508
940.429573	2807.844554
940.731929	2802.440437
941.034246	2796.416259
941.336524	2795.662606
941.638763	2784.889660
941.940964	2781.451593
942.243126	2763.613471
942.545250	2754.287336
942.847335	2739.325191
943.149381	2727.322204
943.451389	2714.121943
943.753359	2700.011753
944.055290	2690.418437
944.357182	2683.454083
944.659036	2676.789678
944.960851	2675.421005
945.262628	2669.253153
945.564367	2670.941939
945.866067	2668.202072
946.167729	2667.750889
946.469352	2663.145795
946.770937	2665.177380
947.072484	2656.897285
947.373992	2656.246976
947.675462	2655.546256
947.976893	2647.031747
948.278286	2646.487302
948.579641	2640.473206
948.880958	2637.211579
949.182236	2639.555716
949.483476	2633.123203
949.784678	2634.063378
950.085841	2634.151599
950.386967	2636.334418
950.688054	2645.428660
950.989103	2652.400576
951.290114	2662.588747
951.591087	2675.637774
951.892021	2686.299815
952.192917	2696.130065
952.493776	2706.600541
952.794596	2710.174719
953.095378	2712.052549
953.396122	2711.682024
953.696828	2708.032229
953.997496	2701.869418
954.298126	2692.346679
954.598718	2687.902902
954.899272	2673.586025
955.199788	2663.443223
955.500266	2648.889412
955.800706	2636.957001
956.101108	2618.148456
956.401472	2606.521034
956.701798	2594.081987
957.002087	2577.657908
957.302337	2565.380178
957.602550	2558.249466
957.902724	2545.021478
958.202861	2536.605272
958.502960	2528.287368
958.803022	2519.147756
959.103045	2514.890502
959.403031	2505.851713
959.702979	2503.449603
960.002889	2496.878459
960.302762	2493.490803
960.602596	2490.788745
960.902393	2483.088382
961.202153	2480.272898
961.501875	2480.174596
961.801559	2480.950933
962.101205	2475.347691
962.400814	2476.991107
962.700385	2471.012298
962.999918	2469.517596
963.299414	2468.063223
963.598873	2465.966103
963.898293	2463.742955
964.197677	2464.700774
964.497022	2462.049127
964.796331	2458.782459
965.095601	2459.193313
965.394835	2459.490741
965.694030	2458.215329
965.993189	2458.598457
966.292309	2458.212809
966.591393	2455.188117
966.890439	2455.777932
967.189447	2456.950000
967.488419	2456.430761
967.787353	2458.253138
968.086249	2456.556790
968.385108	2455.072170
968.683930	2455.974537
968.982714	2460.559466
969.281462	2462.465022
969.580172	2465.625826
969.878844	2467.891824
970.177480	2466.954170
970.476078	2473.520273
970.774639	2474.994810
971.073162	2476.194605
971.371649	2475.493884
971.670098	2475.506487
971.968510	2481.308855
972.266885	2477.220479
972.565223	2482.047384
972.863524	2484.242807
973.161788	2488.679022
973.460014	2487.363281
973.758204	2487.756491
974.056356	2488.865545
974.354471	2489.004177
974.652550	2491.383601
974.950591	2490.443426
975.248595	2489.120123
975.546563	2486.468476
975.844493	2487.882520
976.142386	2484.076449
976.440243	2481.591160
976.738062	2478.611838
977.035845	2475.337608
977.333590	2473.754686
977.631299	2470.755200
977.928971	2470.893831
978.226606	2468.080868
978.524204	2470.354428
978.821765	2467.274283
979.119290	2465.645990
979.416777	2463.531226
979.714228	2465.996350
980.011642	2468.791670
980.309020	2472.317957
980.606360	2472.892649
980.903664	2484.278095
981.200931	2496.160094
981.498162	2517.889988
981.795356	2546.649771
982.092513	2587.412541
982.389633	2630.791670
982.686717	2675.700789
982.983764	2707.182794
983.280775	2723.886658
983.577749	2724.126112
983.874686	2716.277036
984.171587	2699.474870
984.468451	2681.770338
984.765279	2664.585044
985.062070	2647.898825
985.358824	2628.810496
985.655543	2601.714294
985.952224	2582.263002
986.248869	2551.209494
986.545478	2529.020856
986.842050	2503.971362
987.138586	2487.028044
987.435086	2475.171250
987.731549	2461.623149
988.027975	2457.370936
988.324366	2452.619649
988.620719	2446.479523
988.917037	2442.630602
989.213318	2442.456682
989.509563	2437.324788
989.805772	2435.910744
990.101944	2436.666917
990.398080	2435.164653
990.694180	2435.908224
990.990244	2436.591300
991.286271	2435.028542
991.582262	2434.710950
991.878217	2433.120466
992.174136	2436.225816
992.470019	2434.726073
992.765865	2440.384768
993.061676	2439.711774
993.357450	2444.271498
993.653188	2447.820470
993.948890	2451.926490
994.244556	2454.510081
994.540186	2467.634725
994.835780	2475.254429
995.131337	2494.186483
995.426859	2510.227434
995.722345	2531.027235
996.017795	2549.155224
996.313208	2565.009653
996.608586	2573.708164
996.903928	2577.483988
997.199234	2576.309399
997.494504	2573.740932
997.789738	2565.150805
998.084936	2555.353323
998.380099	2540.592824
998.675225	2530.379447
998.970316	2519.230935
999.265371	2504.883811
999.560390	2490.856801
999.855373	2479.912456
1000.150320	2469.953656
1000.445232	2459.674743
1000.740108	2455.687191
1001.034948	2446.913062
1001.329752	2442.421394
1001.624521	2439.245467
1001.919254	2429.049734
1002.213951	2432.374375
1002.508613	2422.622263
1002.803239	2425.843560
1003.097829	2419.161511
1003.392384	2422.831471
1003.686903	2423.451533
1003.981386	2422.080339
1004.275834	2420.527663
1004.570246	2420.883065
1004.864623	2419.534556
1005.158964	2417.896181
1005.453270	2416.842580
1005.747540	2415.471386
1006.041775	2415.211767
1006.335974	2415.214287
1006.630138	2414.294277
1006.924266	2418.430543
1007.218359	2416.852662
1007.512416	2415.022723
1007.806438	2412.532393
1008.100425	2415.627662
1008.394376	2412.895356
1008.688292	2415.483989
1008.982172	2413.182702
1009.276017	2414.929462
1009.569827	2410.972156
1009.863602	2412.981056
1010.157341	2413.782599
1010.451045	2411.567012
1010.744714	2410.589028
1011.038347	2410.924265
1011.331945	2410.624317
1011.625508	2408.990983
1011.919036	2409.270767
1012.212528	2407.024933
1012.505986	2409.023750
1012.799408	2409.454769
1013.092795	2411.080541
1013.386147	2409.487536
1013.679464	2407.413102
1013.972745	2406.649367
1014.265992	2406.772875
1014.559204	2411.677918
1014.852380	2406.127607
1015.145521	2407.415622
1015.438628	2410.639440
1015.731699	2412.179512
1016.024736	2408.108781
1016.317737	2408.910324
1016.610703	2409.245561
1016.903635	2409.409398
1017.196531	2406.624161
1017.489393	2409.530386
1017.782219	2406.102402
1018.075011	2415.141190
1018.367768	2409.106929
1018.660490	2414.057342
1018.953177	2414.057342
1019.245829	2414.057342
