Dividing Wavelength (nm)	Counts (n)	Blue Motor Position (mm): 10.400000	Red Motor Position (mm): 0.000000	
326.493990	1976.414612
326.888308	1976.414612
327.282561	1976.414612
327.676750	1952.597681
328.070874	1954.374688
328.464933	1959.594802
328.858929	1968.668879
329.252859	1980.346712
329.646726	1996.231388
330.040528	2009.166989
330.434265	2029.374454
330.827938	2049.435726
331.221547	2070.822821
331.615091	2091.010122
332.008571	2110.292535
332.401986	2130.696605
332.795338	2150.891468
333.188625	2173.160765
333.581847	2189.902437
333.975006	2209.668801
334.368100	2229.730073
334.761129	2244.039388
335.154095	2258.381470
335.546996	2282.992383
335.939833	2329.749085
336.332606	2342.324244
336.725315	2354.186079
337.117960	2361.689836
337.510540	2367.472040
337.903056	2377.982845
338.295508	2383.686911
338.687896	2391.868704
339.080220	2396.874569
339.472480	2403.501166
339.864676	2405.424366
340.256807	2412.779410
340.648875	2412.701272
341.040879	2414.778227
341.432818	2415.249575
341.824694	2415.524318
342.216506	2415.284863
342.608253	2415.511715
342.999937	2412.481982
343.391557	2413.633885
343.783113	2412.166910
344.174605	2412.300500
344.566033	2407.115673
344.957397	2407.723132
345.348697	2403.176012
345.739934	2402.417318
346.131106	2402.742472
346.522215	2399.319529
346.913260	2398.069323
347.304241	2396.556977
347.695159	2393.905330
348.086012	2393.985988
348.476802	2393.665875
348.867528	2390.590771
349.258191	2391.140257
349.648789	2388.607077
350.039324	2385.453835
350.429796	2385.912580
350.820203	2384.775800
351.210548	2386.764535
351.600828	2382.078783
351.991045	2385.476521
352.381198	2382.219935
352.771288	2383.679349
353.161314	2382.081303
353.551276	2381.423433
353.941175	2382.005686
354.331010	2384.949720
354.720782	2381.345295
355.110490	2384.632127
355.500135	2384.100286
355.889717	2385.267313
356.279235	2380.891591
356.668689	2382.570295
357.058080	2383.944010
357.447408	2381.872096
357.836672	2383.344113
358.225873	2383.555841
358.615010	2383.649102
359.004084	2386.814947
359.393095	2384.682539
359.782043	2387.964330
360.170927	2387.185472
360.559748	2388.009700
360.948505	2390.154711
361.337199	2389.227139
361.725830	2389.887530
362.114398	2391.367109
362.502903	2392.299722
362.891344	2392.274517
363.279722	2387.709752
363.668037	2391.271327
364.056289	2391.082284
364.444478	2392.002294
364.832603	2392.874414
365.220665	2393.325597
365.608665	2393.058416
365.996601	2394.117058
366.384474	2394.611091
366.772284	2395.455485
367.160031	2393.567573
367.547715	2393.880124
367.935336	2392.478683
368.322893	2395.909188
368.710388	2395.059754
369.097820	2396.554456
369.485189	2395.488252
369.872495	2398.157543
370.259738	2397.313150
370.646918	2398.134858
371.034035	2400.302554
371.421090	2396.173849
371.808081	2399.344735
372.195010	2396.972872
372.581875	2398.482698
372.968678	2396.798952
373.355418	2400.718449
373.742096	2399.095198
374.128710	2397.797101
374.515262	2402.717267
374.901751	2399.306926
375.288177	2401.870353
375.674540	2400.174005
376.060841	2400.471433
376.447079	2401.250291
376.833254	2401.245250
377.219367	2392.773591
377.605417	2399.944632
377.991404	2395.906668
378.377329	2397.540002
378.763191	2396.057903
379.148991	2401.610733
379.534727	2402.384551
379.920402	2404.287586
380.306013	2401.948491
380.691563	2401.961094
381.077049	2401.711557
381.462474	2402.729870
381.847835	2404.237175
382.233134	2403.478481
382.618371	2403.501166
383.003545	2402.787843
383.388657	2404.998389
383.773706	2402.830693
384.158693	2406.356980
384.543618	2404.706002
384.928480	2402.689540
385.313280	2403.609551
385.698017	2404.464027
386.082692	2408.254974
386.467305	2406.485529
386.851856	2407.183729
387.236344	2407.408060
387.620770	2409.653894
388.005133	2408.169275
388.389435	2407.294634
388.773674	2410.125242
389.157851	2408.890160
389.541965	2408.592732
389.926018	2408.905283
390.310008	2408.479306
390.693936	2409.003586
391.077802	2408.945612
391.461606	2410.878895
391.845348	2410.243709
392.229027	2408.456620
392.612645	2409.989131
392.996200	2411.556930
393.379694	2411.168761
393.763125	2410.699934
394.146494	2410.452917
394.529801	2413.054153
394.913047	2410.616755
395.296230	2412.834862
395.679351	2413.119688
396.062410	2410.732701
396.445408	2411.745973
396.828343	2412.371076
397.211217	2410.747825
397.594028	2410.825963
397.976778	2409.301014
398.359466	2411.440983
398.742092	2406.901424
399.124656	2411.559451
399.507158	2411.612383
399.889598	2412.645819
400.271977	2415.796540
400.654294	2413.482651
401.036549	2411.735891
401.418742	2413.787641
401.800874	2415.433577
402.182944	2414.758063
402.564952	2416.744277
402.946898	2416.058680
403.328783	2413.989287
403.710606	2413.807805
404.092367	2414.843762
404.474067	2416.618248
404.855705	2415.307548
405.237282	2416.414082
405.618797	2415.640265
406.000250	2415.395769
406.381642	2415.826787
406.762972	2417.573547
407.144240	2416.061201
407.525447	2419.698393
407.906593	2414.425347
408.287677	2421.228384
408.668700	2416.978691
409.049661	2418.851480
409.430560	2419.695873
409.811399	2418.047416
410.192176	2418.115471
410.572891	2420.452046
410.953545	2417.513053
411.334138	2420.661254
411.714669	2417.482806
412.095139	2418.027251
412.475547	2419.426171
412.855894	2421.041861
413.236180	2418.420461
413.616405	2417.482806
413.996568	2423.186872
414.376670	2417.190419
414.756711	2417.311407
415.136691	2420.855338
415.516609	2420.968764
415.896466	2420.081521
416.276262	2419.332910
416.655997	2417.525656
417.035670	2420.028589
417.415283	2420.414237
417.794834	2416.880388
418.174324	2421.427509
418.553753	2417.949113
418.933121	2422.304670
419.312428	2422.743250
419.691674	2418.765780
420.070859	2422.410534
420.449983	2424.240473
420.829045	2421.477921
421.208047	2420.504978
421.586988	2420.923394
421.965867	2422.523960
422.344686	2423.784249
422.723444	2422.617222
423.102141	2424.371543
423.480777	2425.140319
423.859352	2424.580751
424.237866	2423.456574
424.616319	2426.317428
424.994712	2423.872469
425.373044	2423.209557
425.751314	2424.979002
426.129524	2424.099321
426.507673	2425.044537
426.885762	2423.141502
427.263789	2426.801379
427.641756	2424.512695
428.019662	2425.888930
428.397508	2424.784918
428.775292	2423.655699
429.153016	2424.820206
429.530679	2425.082346
429.908282	2425.112593
430.285824	2425.079825
430.663305	2426.148550
431.040726	2424.376584
431.418086	2423.375915
431.795385	2423.509506
432.172624	2427.353386
432.549802	2427.625608
432.926920	2427.983530
433.303977	2427.363468
433.680974	2426.655186
434.057910	2424.994126
434.434786	2426.710638
434.811601	2428.979158
435.188355	2427.408838
435.565050	2428.706935
435.941683	2426.627459
436.318257	2422.839032
436.694770	2421.568662
437.071222	2425.979671
437.447614	2419.229566
437.823946	2423.469177
438.200218	2426.382963
438.576429	2427.217274
438.952580	2428.422110
439.328670	2427.819692
439.704700	2427.270207
440.080670	2428.296081
440.456580	2428.018818
440.832429	2426.055288
441.208218	2426.627459
441.583947	2429.185845
441.959616	2426.773653
442.335224	2430.718356
442.710773	2427.343303
443.086261	2429.165680
443.461689	2426.715680
443.837057	2428.414548
444.212365	2430.912440
444.587612	2428.502769
444.962800	2429.710125
445.337927	2428.744744
445.712995	2429.236257
446.088002	2429.473191
446.462949	2430.078129
446.837837	2430.912440
447.212664	2428.805238
447.587431	2428.086873
447.962139	2431.119127
448.336786	2432.129879
448.711374	2429.601740
449.085901	2432.427307
449.460369	2430.234405
449.834776	2431.522420
450.209124	2435.625919
450.583412	2430.231884
450.957640	2432.076947
451.331808	2432.424786
451.705917	2431.333377
452.079965	2432.061823
452.453954	2428.921184
452.827883	2431.073757
453.201752	2432.684406
453.575562	2436.929057
453.949311	2433.599375
454.323001	2435.809921
454.696632	2433.362441
455.070202	2434.421083
455.443713	2436.145158
455.817164	2434.166505
456.190556	2432.875970
456.563888	2434.290013
456.937160	2431.209868
457.310373	2435.711619
457.683526	2435.003337
458.056619	2437.342432
458.429653	2437.586928
458.802628	2437.400405
459.175542	2437.160950
459.548398	2437.539037
459.921194	2442.668411
460.293930	2441.697989
460.666607	2440.079778
461.039224	2440.601538
461.411782	2442.648246
461.784280	2440.546085
462.156719	2442.040787
462.529099	2442.252516
462.901419	2443.046497
463.273680	2438.552309
463.645882	2441.120777
464.018024	2441.665221
464.390106	2442.028184
464.762130	2445.907352
465.134094	2445.879626
465.505999	2452.322221
465.877845	2452.811212
466.249631	2452.377673
466.621358	2450.691407
466.993026	2454.131995
467.364634	2454.482355
467.736184	2451.359360
468.107674	2446.925665
468.479105	2452.102930
468.850477	2448.720316
469.221790	2445.287290
469.593043	2447.528083
469.964238	2447.553289
470.335373	2446.177054
470.706449	2448.178392
471.077467	2450.696448
471.448425	2453.706017
471.819324	2454.041254
472.190164	2455.949331
472.560945	2451.414813
472.931667	2452.901953
473.302330	2447.979267
473.672934	2448.039760
474.043479	2449.811726
474.413965	2446.199739
474.784393	2447.008844
475.154761	2447.691921
475.525070	2444.140428
475.895321	2444.573967
476.265513	2443.994234
476.635645	2450.378856
477.005719	2452.670060
477.375734	2453.025462
477.745691	2449.473969
478.115588	2454.489917
478.485427	2455.805658
478.855207	2456.866821
479.224928	2457.186934
479.594591	2460.725824
479.964194	2457.945628
480.333739	2460.113324
480.703226	2460.559466
481.072653	2460.254476
481.442022	2458.232973
481.811333	2461.991154
482.180584	2460.244394
482.549777	2459.684826
482.918912	2460.645166
483.287988	2460.735906
483.657005	2459.788169
484.025964	2458.268262
484.394864	2459.571400
484.763706	2459.566359
485.132489	2452.813733
485.501213	2457.444033
485.869879	2455.659464
486.238487	2460.728345
486.607036	2458.008642
486.975527	2459.410083
487.343959	2456.604681
487.712333	2458.646348
488.080648	2456.710545
488.448905	2455.563682
488.817104	2458.832871
489.185244	2457.870010
489.553326	2459.059723
489.921350	2463.440485
490.289315	2464.751185
490.657222	2463.138016
491.025070	2465.088943
491.392861	2466.896196
491.760593	2467.506176
492.128267	2465.872842
492.495883	2462.734724
492.863440	2464.020218
493.230939	2461.902933
493.598380	2463.722790
493.965763	2458.711883
494.333088	2458.031327
494.700354	2457.738940
495.067563	2460.597275
495.434713	2457.174331
495.801805	2461.295474
496.168839	2461.653396
496.535815	2464.718418
496.902733	2461.605505
497.269593	2465.134313
497.636395	2465.504838
498.003139	2464.645321
498.369825	2466.939046
498.736453	2464.635239
499.103023	2466.137503
499.469535	2467.566670
499.835989	2470.298975
500.202385	2467.133131
500.568723	2469.457103
500.935003	2471.276959
501.301226	2471.463482
501.667390	2472.262505
502.033497	2475.750983
502.399546	2475.055304
502.765537	2475.745942
503.131470	2476.890284
503.497345	2479.592342
503.863163	2481.545789
504.228923	2481.510501
504.594625	2485.861017
504.960269	2482.659884
505.325856	2484.741881
505.691385	2487.879999
506.056856	2490.395535
506.422270	2493.228663
506.787625	2493.205978
507.152924	2496.187821
507.518164	2496.659169
507.883347	2497.919457
508.248472	2500.500528
508.613540	2501.163440
508.978550	2505.221568
509.343503	2508.473113
509.708398	2511.212980
510.073236	2511.853206
510.438016	2513.587363
510.802738	2515.268588
511.167403	2519.815709
511.532010	2523.168076
511.896561	2522.091790
512.261053	2529.955990
512.625488	2529.572862
512.989866	2528.733510
513.354186	2532.307688
513.718449	2528.025228
514.082655	2541.439738
514.446803	2539.876981
514.810894	2548.104144
515.174927	2550.163455
515.538904	2551.164124
515.902822	2554.428271
516.266684	2559.275341
516.630488	2560.268448
516.994235	2563.711556
517.357925	2564.578634
517.721558	2569.241702
518.085133	2572.054666
518.448651	2576.546334
518.812112	2577.857034
519.175516	2580.170923
519.538863	2583.387179
519.902152	2588.246852
520.265385	2589.431523
520.628560	2594.306319
520.991678	2596.660537
521.354739	2601.288317
521.717743	2601.195055
522.080690	2602.568770
522.443580	2609.903649
522.806413	2612.139400
523.169189	2614.702827
523.531908	2622.125926
523.894569	2619.577623
524.257174	2620.621142
524.619722	2625.160701
524.982213	2630.617750
525.344647	2631.719242
525.707025	2634.053296
526.069345	2637.425828
526.431608	2639.850623
526.793815	2641.534368
527.155964	2645.602580
527.518057	2645.905049
527.880093	2647.583753
528.242072	2653.189516
528.603995	2655.982315
528.965860	2653.562562
529.327669	2658.931390
529.689421	2659.453150
530.051117	2662.480363
530.412755	2662.692091
530.774337	2665.928512
531.135862	2670.657114
531.497331	2666.939263
531.858743	2669.701816
532.220098	2674.236333
532.581396	2670.687361
532.942638	2675.022753
533.303824	2681.220852
533.664953	2680.497447
534.026025	2682.415606
534.387040	2687.030782
534.747999	2687.847449
535.108902	2687.686132
535.469748	2688.911132
535.830537	2689.773170
536.191270	2692.787780
536.551947	2695.762060
536.912567	2698.650642
537.273131	2701.458564
537.633638	2698.496886
537.994089	2698.227185
538.354483	2700.929243
538.714821	2706.109029
539.075103	2710.835110
539.435328	2711.019112
539.795497	2709.476519
540.155609	2711.001468
540.515665	2713.080944
540.875665	2714.018599
541.235609	2719.866337
541.595496	2719.586553
541.955328	2722.754919
542.315102	2722.276009
542.674821	2720.428426
543.034483	2722.346585
543.394090	2723.367419
543.753640	2725.025958
544.113134	2732.461660
544.472571	2727.949828
544.831953	2732.754047
545.191278	2732.179356
545.550548	2730.966958
545.909761	2736.600448
546.268918	2736.136662
546.628019	2737.598596
546.987064	2738.450551
547.346053	2734.571383
547.704986	2738.894173
548.063863	2737.991806
548.422684	2739.544482
548.781449	2738.924420
549.140158	2744.194946
549.498811	2742.087744
549.857408	2739.020202
550.215949	2745.130080
550.574434	2740.986252
550.932864	2745.704772
551.291237	2746.352560
551.649555	2750.660226
552.007817	2752.210381
552.366022	2751.854979
552.724173	2751.164341
553.082267	2751.607963
553.440305	2760.306474
553.798288	2754.068046
554.156215	2758.388315
554.514086	2757.811102
554.871902	2757.370002
555.229661	2761.032400
555.587365	2757.919487
555.945014	2759.814961
556.302606	2763.714294
556.660143	2767.447268
557.017625	2766.789397
557.375050	2764.692277
557.732421	2769.887187
558.089735	2772.879111
558.446994	2773.237033
558.804197	2779.772889
559.161345	2781.171809
559.518437	2775.392127
559.875474	2778.651232
560.232455	2782.608538
560.589381	2784.919907
560.946251	2784.347736
561.303065	2794.188069
561.659825	2795.234108
562.016528	2792.834519
562.373177	2797.190076
562.729770	2800.295427
563.086307	2799.597227
563.442789	2807.844554
563.799216	2807.090902
564.155587	2810.629792
564.511904	2814.899649
564.868164	2816.903508
565.224370	2825.566731
565.580520	2825.143274
565.936615	2832.150478
566.292654	2834.660972
566.648638	2843.866119
567.004567	2847.727643
567.360441	2851.687469
567.716260	2858.392204
568.072023	2865.427134
568.427732	2869.152547
568.783385	2871.582383
569.138982	2878.892056
569.494525	2886.095865
569.850013	2893.937380
570.205445	2901.413411
570.560823	2911.493198
570.916145	2918.306318
571.271412	2925.172369
571.626625	2934.344748
571.981782	2944.157354
572.336884	2950.574743
572.691931	2960.520940
573.046923	2966.799697
573.401860	2977.930565
573.756743	2984.839466
574.111570	2998.695077
574.466342	3009.684793
574.821059	3022.484282
575.175722	3025.430837
575.530330	3035.220758
575.884882	3045.295503
576.239380	3056.968295
576.593823	3068.552867
576.948211	3084.142635
577.302544	3089.904674
577.656823	3102.868001
578.011047	3126.052267
578.365216	3133.303967
578.719330	3148.467758
579.073389	3164.821261
579.427394	3183.241637
579.781344	3196.222608
580.135239	3211.078889
580.489080	3229.733679
580.842866	3240.637694
581.196597	3270.224226
581.550273	3290.114099
581.903895	3312.527069
582.257463	3343.031091
582.610975	3352.334540
582.964434	3384.638254
583.317837	3400.684247
583.671186	3420.891712
584.024481	3449.369190
584.377721	3462.541725
584.730906	3487.893688
585.084037	3511.100639
585.437113	3530.108310
585.790135	3553.532031
586.143103	3571.859146
586.496016	3602.406018
586.848874	3626.301087
587.201679	3655.718740
587.554428	3672.168025
587.907124	3707.773695
588.259765	3728.994432
588.612352	3774.269035
588.964884	3785.838483
589.317362	3826.596212
589.669786	3856.243238
590.022155	3881.252402
590.374470	3925.932148
590.726731	3939.709622
591.078937	3952.972897
591.431090	3987.827435
591.783188	4002.769415
592.135232	4026.951830
592.487222	4066.567738
592.839157	4102.317080
593.191038	4121.450780
593.542866	4151.070079
593.894639	4156.711130
594.246358	4203.230898
594.598022	4239.086105
594.949633	4255.616048
595.301190	4285.195018
595.652692	4309.402639
596.004141	4360.610680
596.355535	4349.686499
596.706876	4377.039800
597.058162	4401.779263
597.409395	4458.028457
597.760573	4503.539994
598.111698	4518.335781
598.462768	4551.612437
598.813785	4592.022327
599.164748	4607.770891
599.515657	4665.497144
599.866511	4675.130789
600.217312	4751.521914
600.568060	4728.224221
600.918753	4816.759486
601.269392	4853.166699
601.619978	4875.965317
601.970510	4928.627731
602.320988	4980.077747
602.671412	5042.769536
603.021783	5069.127209
603.372100	5087.570270
603.722363	5138.596829
604.072572	5191.158420
604.422728	5235.258434
604.772830	5262.276498
605.122878	5312.234333
605.472872	5359.323751
605.822813	5424.699954
606.172701	5462.891736
606.522534	5528.487230
606.872314	5600.071614
607.222041	5627.314010
607.571714	5713.578234
607.921333	5715.879521
608.270899	5798.642664
608.620411	5876.268872
608.969870	5912.784470
609.319276	5965.262881
609.668627	6023.634402
610.017926	6117.898937
610.367171	6199.386669
610.716362	6261.060145
611.065500	6318.647766
611.414585	6395.933695
611.763616	6493.343911
612.112594	6540.773607
612.461518	6625.543130
612.810389	6721.317491
613.159207	6764.595797
613.507971	6839.729154
613.856682	6955.297606
614.205340	7010.528487
614.553945	7157.188255
614.902496	7163.358628
615.250994	7286.806403
615.599439	7362.073351
615.947830	7463.231664
616.296169	7546.498923
616.644454	7641.212121
616.992686	7742.199036
617.340864	7892.311994
617.688990	7942.549613
618.037063	8103.813604
618.385082	8182.974843
618.733048	8303.597052
619.080961	8387.504537
619.428821	8463.701577
619.776628	8555.480824
620.124382	8598.706198
620.472083	8681.343312
620.819731	8766.808514
621.167326	8777.437787
621.514868	8837.702260
621.862357	8818.777769
622.209793	8885.348726
622.557176	8891.972802
622.904506	8911.678673
623.251783	8904.016119
623.599007	8925.982947
623.946179	8953.096793
624.293297	9012.282459
624.640363	8973.626892
624.987376	9033.949338
625.334336	9062.167197
625.681243	9067.586438
626.028097	9125.889902
626.374899	9174.733642
626.721647	9238.998271
627.068343	9297.006828
627.414987	9328.627466
627.761577	9360.185089
628.108115	9491.479420
628.454600	9465.686357
628.801032	9574.141741
629.147412	9646.275611
629.493739	9728.912725
629.840014	9742.750693
630.186236	9888.659329
630.532405	9888.679494
630.878521	10018.935347
631.224585	10073.110107
631.570597	10094.245145
631.916556	10209.654800
632.262462	10282.209607
632.608316	10361.393531
632.954117	10419.205483
633.299866	10476.115069
633.645562	10532.865858
633.991206	10492.352626
634.336797	10464.394386
634.682336	10527.315548
635.027823	10527.751608
635.373257	10546.156861
635.718639	10557.859899
636.063968	10587.234703
636.409245	10520.787254
636.754470	10595.343399
637.099642	10602.083421
637.444762	10564.325179
637.789829	10654.171143
638.134845	10645.966666
638.479808	10700.131343
638.824719	10735.540408
639.169577	10718.569363
639.514383	10801.647579
639.859137	10793.148193
640.203839	10919.489591
640.548489	10893.807433
640.893086	10984.338994
641.237632	10985.443007
641.582125	11085.008316
641.926566	11131.790223
642.270955	11196.241375
642.615292	11275.614343
642.959576	11341.996257
643.303809	11414.533419
643.647990	11524.543999
643.992118	11586.978689
644.336195	11661.859989
644.680219	11757.117632
645.024192	11926.162644
645.368112	12146.017445
645.711981	12247.372364
646.055797	12593.319026
646.399562	12672.175275
646.743274	13061.559039
647.086935	13292.098566
647.430544	13357.205068
647.774101	13472.120691
648.117606	13622.546201
648.461059	13797.254949
648.804460	13744.847114
649.147810	13621.469915
649.491108	13608.667904
649.834354	13554.450295
650.177548	13359.334956
650.520690	13276.120629
650.863781	13356.653062
651.206820	13379.209705
651.549807	13312.328717
651.892742	13222.883524
652.235626	13229.676479
652.578458	13249.629366
652.921238	13121.528605
653.263967	13296.998568
653.606644	13270.277932
653.949269	13323.590654
654.291843	13260.099842
654.634365	13469.630361
654.976836	13396.515986
655.319255	13468.163385
655.661622	13538.164847
656.003938	13526.779401
656.346203	13544.224314
656.688416	13690.546325
657.030577	13694.024721
657.372687	13701.712481
657.714746	13853.357950
658.056753	13975.825221
658.398708	13838.373121
658.740612	13929.915433
659.082465	14099.625878
659.424266	14115.434936
659.766016	14223.159353
660.107715	14255.659671
660.449362	14368.611764
660.790958	14419.088838
661.132503	14506.177291
661.473996	14587.629734
661.815438	14702.668865
662.156829	14853.744684
662.498168	14831.372043
662.839456	14902.280913
663.180693	15028.798752
663.521879	15167.511141
663.863013	15225.716303
664.204097	15291.450429
664.545129	15555.765687
664.886110	15615.400016
665.227040	15715.653443
665.567918	15835.685836
665.908746	15933.075887
666.249522	16081.595841
666.590248	16146.266283
666.930922	16284.293076
667.271545	16330.807802
667.612118	16432.991991
667.952639	16409.096922
668.293109	16507.122158
668.633528	16513.194228
668.973896	16566.688432
669.314213	16647.719939
669.654480	16599.279492
669.994695	16671.032755
670.334859	16703.442333
670.674973	16727.808750
671.015035	16874.460957
671.355047	16923.460972
671.695008	16964.609390
672.034918	16984.998337
672.374777	17095.326509
672.714585	17093.579750
673.054342	17273.044827
673.394049	17221.945171
673.733705	17421.567301
674.073310	17334.234352
674.412864	17429.144155
674.752368	17311.334911
675.091820	17526.846758
675.431223	17386.682517
675.770574	17310.989592
676.109875	17304.151266
676.449125	17242.132471
676.788324	17256.237620
677.127473	17065.256027
677.466571	17084.392247
677.805619	16977.590361
678.144616	17037.794341
678.483562	17055.793781
678.822458	16965.128629
679.161303	16982.258470
679.500098	16998.755646
679.838842	17008.961462
680.177535	17142.037841
680.516179	17349.549377
680.854771	17548.659831
681.193314	18063.643943
681.531805	18728.814111
681.870247	19204.217604
682.208638	19670.932668
682.546978	19843.519090
682.885268	19957.993612
683.223508	19741.695344
683.561697	19622.199834
683.899836	19582.488144
684.237925	19368.758345
684.575963	19348.326548
684.913951	19157.319749
685.251889	19298.512386
685.589776	19351.373926
685.927614	19409.405168
686.265401	19546.186795
686.603137	19650.904164
686.940824	19991.449229
687.278460	20254.116030
687.616046	20377.624299
687.953582	20769.200965
688.291068	20739.410267
688.628504	20961.851180
688.965889	20994.056592
689.303224	20827.070891
689.640510	20692.235149
689.977745	20335.066878
690.314930	19943.795202
690.652065	19708.280056
690.989150	19328.285441
691.326185	18870.329382
691.663170	18515.706894
692.000105	18128.279097
692.336990	17788.641439
692.673825	17575.047751
693.010610	17326.206314
693.347345	17031.510543
693.684030	16695.825149
694.020665	16583.601503
694.357251	16239.051241
694.693786	16249.262098
695.030272	16145.411808
695.366707	15876.602361
695.703093	15740.138327
696.039429	15776.227947
696.375716	15656.523228
696.711952	15663.046482
697.048139	15608.697802
697.384276	15533.292223
697.720363	15642.493697
698.056400	15558.853393
698.392388	15459.986284
698.728326	15477.095960
699.064214	15386.435849
699.400053	15396.808023
699.735842	15225.612959
700.071581	15084.185909
700.407270	14944.747593
700.742910	14871.050965
701.078501	14742.168826
701.414042	14598.332104
701.749533	14449.686121
702.084974	14262.359365
702.420366	14435.412094
702.755709	14190.908571
703.091002	14031.434189
703.426246	14089.339403
703.761440	14049.753742
704.096584	13924.027366
704.431679	13918.431685
704.766725	13894.367737
705.101721	13876.159089
705.436668	13964.235609
705.771565	13786.676088
706.106413	14035.920816
706.441212	14056.708014
706.775961	14168.064582
707.110661	14242.605603
707.445311	14509.809443
707.779913	14432.808338
708.114465	14616.026554
708.448967	14829.557228
708.783421	15314.155786
709.117825	15515.411250
709.452180	15686.339133
709.786485	15961.689477
710.120742	16504.354565
710.454949	16534.021755
710.789107	16850.286103
711.123216	17341.405393
711.457275	17436.237059
711.791286	17816.438361
712.125247	17893.598262
712.459159	17702.493161
712.793023	18193.806535
713.126837	17452.809852
713.460602	17690.127211
713.794318	17467.519939
714.127985	17249.321157
714.461602	16684.406936
714.795171	16695.310952
715.128691	16041.649738
715.462162	15709.538523
715.795584	15466.640607
716.128957	15328.331510
716.462281	15077.206431
716.795556	14942.804229
717.128782	14626.749088
717.461960	14283.317962
717.795088	14251.415020
718.128167	13993.131503
718.461198	13699.635526
718.794180	13617.810037
719.127113	13386.486610
719.459997	13267.066717
719.792833	13040.202191
720.125619	13037.167416
720.458357	12824.755878
720.791046	12717.878376
721.123686	12621.998150
721.456278	12462.823717
721.788821	12448.438785
722.121315	12267.335333
722.453761	12346.579751
722.786158	12307.941827
723.118506	12322.641832
723.450805	12235.989438
723.783056	12367.523225
724.115259	12309.272692
724.447412	12268.262905
724.779518	12465.918986
725.111574	12505.081190
725.443582	12663.968277
725.775542	12655.909992
726.107453	13023.712577
726.439315	12943.689301
726.771129	13264.049586
727.102895	13539.704920
727.434612	13685.152291
727.766281	13783.396817
728.097901	13996.110824
728.429473	14026.667778
728.760996	14040.462896
729.092471	14123.921718
729.423897	14061.655907
729.755276	13984.382580
730.086606	14095.797121
730.417887	14492.898892
730.749120	14906.865843
731.080305	15054.412854
731.411442	15316.966229
731.742530	15406.991154
732.073570	15488.942672
732.404562	15722.552262
732.735506	15592.828250
733.066401	15396.278702
733.397249	15032.012487
733.728048	14583.274177
734.058798	13992.403056
734.389501	13502.710412
734.720156	13167.030060
735.050762	12761.280190
735.381320	12497.474088
735.711831	12321.036224
736.042293	12054.500338
736.372707	12074.836353
736.703073	11919.568814
737.033391	12081.964544
737.363661	12058.989486
737.693883	12148.593475
738.024056	12278.115841
738.354182	12430.638471
738.684260	12652.177018
739.014290	12832.743587
739.344272	12979.794044
739.674207	13206.179661
740.004093	13298.150472
740.333931	13296.761634
740.663722	13341.189322
740.993464	13354.709697
741.323159	13239.068148
741.652806	13037.026264
741.982405	12879.197819
742.311956	12618.302984
742.641460	12538.262064
742.970915	12310.379225
743.300323	12059.307078
743.629683	11906.718913
743.958996	11694.292252
744.288260	11504.356698
744.617477	11270.863055
744.946647	11221.366486
745.275768	11026.420026
745.604842	10890.964222
745.933869	10767.579461
746.262847	10733.720551
746.591778	10686.855464
746.920662	10600.296332
747.249498	10623.205856
747.578286	10715.794208
747.907027	10836.965903
748.235720	11012.382933
748.564365	11039.947962
748.892963	10974.541512
749.221514	11017.633295
749.550017	10918.652759
749.878473	10892.237113
750.206881	10722.262008
750.535242	10658.589715
750.863555	10597.657288
751.191821	10532.606239
751.520039	10546.255163
751.848210	10484.243930
752.176334	10507.644966
752.504411	10442.533423
752.832440	10313.381582
753.160421	10373.290654
753.488356	10267.071022
753.816243	10196.260454
754.144082	10086.091078
754.471875	10041.421414
754.799620	9999.060598
755.127318	9980.846909
755.454969	9953.486047
755.782572	9922.112426
756.110129	9928.202140
756.437638	9866.145536
756.765100	9860.204536
757.092515	9875.915292
757.419882	9890.209484
757.747203	9894.348271
758.074477	9960.941913
758.401703	9917.494729
758.728882	10056.096213
759.056014	10091.389331
759.383099	10193.039157
759.710138	10287.286049
760.037129	10354.870278
760.364073	10374.671930
760.690970	10368.055416
761.017820	10375.400377
761.344623	10541.022445
761.671379	10817.335649
761.998088	11340.085659
762.324751	12657.888645
762.651366	15035.027097
762.977935	18076.640038
763.304456	19967.314705
763.630931	20390.149046
763.957359	19439.316854
764.283740	17833.827822
764.610074	16268.441168
764.936362	14512.413198
765.262602	13250.075508
765.588796	11991.294351
765.914943	11149.351083
766.241044	10430.467421
766.567097	9900.256503
766.893104	9433.236449
767.219064	9136.395667
767.544978	8808.327457
767.870845	8548.743322
768.196665	8385.215853
768.522438	8228.829178
768.848165	8090.338600
769.173846	7949.188813
769.499479	7846.752567
769.825066	7718.203143
770.150607	7562.360913
770.476101	7514.348964
770.801548	7415.980929
771.126949	7300.485574
771.452303	7227.522434
771.777611	7088.310970
772.102872	7078.321924
772.428087	6976.793086
772.753256	6877.772221
773.078378	6803.447969
773.403453	6685.275762
773.728482	6599.634119
774.053465	6542.611108
774.378401	6474.220294
774.703291	6387.782150
775.028135	6312.242980
775.352932	6280.645027
775.677683	6208.027206
776.002388	6136.654550
776.327046	6135.863089
776.651658	6057.558846
776.976224	6001.833932
777.300743	5982.720397
777.625216	5928.775010
777.949643	5898.180247
778.274024	5900.849538
778.598359	5839.299570
778.922647	5847.501527
779.246889	5808.830836
779.571086	5817.368030
779.895236	5824.644936
780.219339	5822.063865
780.543397	5820.962373
780.867409	5869.765783
781.191374	5864.255802
781.515294	5836.055588
781.839167	5880.926898
782.162995	5859.083578
782.486776	5822.441952
782.810511	5785.150016
783.134201	5725.717333
783.457844	5713.376588
783.781441	5675.381412
784.104993	5638.107120
784.428498	5614.900168
784.751958	5598.662612
785.075372	5584.809521
785.398739	5548.674530
785.722061	5565.610287
786.045337	5570.283436
786.368568	5666.798847
786.691752	5691.339184
787.014891	5907.576958
787.337983	6146.452033
787.661030	6534.368821
787.984031	6901.175778
788.306987	7135.428115
788.629897	7219.194448
788.952760	7150.049982
789.275579	7003.029771
789.598351	6754.175732
789.921078	6522.133941
790.243759	6271.792761
790.566395	6095.591832
790.888984	5923.000368
791.211529	5798.572088
791.534027	5655.289893
791.856480	5534.443353
792.178888	5480.024097
792.501249	5421.362710
792.823566	5329.137321
793.145836	5329.354091
793.468062	5307.951872
793.790241	5274.188744
794.112375	5315.483356
794.434464	5397.515532
794.756507	5424.979738
795.078505	5538.466194
795.400457	5725.215738
795.722364	5934.784065
796.044226	6107.446105
796.366042	6245.871148
796.687812	6204.241300
797.009538	6232.822122
797.331218	6151.394884
797.652852	6091.526141
797.974442	5983.075798
798.295986	5926.110760
798.617484	5811.550539
798.938938	5716.744079
799.260346	5657.089585
799.581709	5534.493764
799.903026	5486.852340
800.224299	5425.345222
800.545526	5317.903110
800.866708	5263.009986
801.187845	5215.676072
801.508936	5152.863295
801.829983	5123.586794
802.150984	5026.854613
802.471940	5005.275954
802.792851	4990.623841
803.113717	4968.994770
803.434538	4946.601965
803.755314	4916.896966
804.076045	4905.685439
804.396731	4872.834760
804.717372	4886.617275
805.037967	4888.853027
805.358518	4913.340432
805.679024	4966.741374
805.999485	4975.828054
806.319901	4989.688707
806.640272	5010.044886
806.960598	5049.416297
807.280879	5046.636101
807.601115	5080.628601
807.921306	5044.496131
808.241453	5042.411614
808.561554	5060.524480
808.881611	5024.991907
809.201623	5021.518552
809.521590	4977.421059
809.841513	4963.845231
810.161390	4976.856449
810.481223	4901.796189
810.801011	4893.206063
811.120755	4870.876272
811.440453	4818.813756
811.760107	4797.593019
812.079716	4772.929173
812.399281	4726.822780
812.718801	4728.269592
813.038276	4695.749108
813.357707	4664.625024
813.677093	4688.303324
813.996434	4628.679077
814.315731	4649.554495
814.634983	4649.297396
814.954191	4656.629754
815.273354	4707.615984
815.592473	4746.901696
815.911547	4817.316533
816.230577	4861.303121
816.549562	4944.701450
816.868502	4993.582998
817.187399	5041.852046
817.506250	5117.368531
817.825058	5147.988499
818.143821	5287.288183
818.462539	5441.481955
818.781213	5647.798738
819.099843	5981.946580
819.418429	6556.857408
819.736970	7118.898171
820.055466	7774.830425
820.373919	8619.642110
820.692327	9956.843455
821.010691	12378.843136
821.329011	17884.438486
821.647286	26227.482566
821.965517	35283.905368
822.283704	40163.409575
822.601847	41666.046467
822.919945	37710.976449
823.237999	33236.304623
823.556010	28632.790986
823.873976	24439.163486
824.191897	20667.435193
824.509775	17900.726454
824.827609	15434.868735
825.145398	14061.101380
825.463144	13388.485428
825.780845	13666.265608
826.098502	14807.676100
826.416116	16994.521077
826.733685	19085.843750
827.051210	19578.654347
827.368692	18288.892779
827.686129	15982.602703
828.003522	13734.671545
828.320872	11705.420599
828.638177	10201.841012
828.955439	9064.468484
829.272656	8094.061492
829.589830	7321.701270
829.906960	6657.234343
830.224046	6165.038767
830.541088	5790.871726
830.858086	5558.691303
831.175041	5374.588364
831.491952	5320.451413
831.808819	5353.138255
832.125642	5580.917750
832.442421	6096.731132
832.759157	7112.881554
833.075849	8738.406653
833.392497	10427.447770
833.709101	11449.519027
834.025662	11223.796322
834.342179	10261.117419
834.658653	9068.861849
834.975083	8044.133904
835.291469	7203.019906
835.607811	6534.762031
835.924110	6049.881169
836.240366	5599.867447
836.556578	5185.393861
836.872746	4863.480899
837.188871	4608.950521
837.504952	4401.524684
837.820990	4251.638578
838.136984	4144.516579
838.452935	4101.623922
838.768842	4130.146770
839.084706	4387.356522
839.400526	5070.289195
839.716303	5900.325258
840.032037	6424.287665
840.347727	6293.142048
840.663373	5738.673098
840.978977	5205.954207
841.294537	4794.200322
841.610054	4492.688911
841.925527	4267.513171
842.240957	4079.329419
842.556344	3911.620312
842.871687	3764.842077
843.186987	3626.107003
843.502244	3515.804036
843.817458	3434.654062
844.132629	3371.173332
844.447756	3322.437977
844.762840	3278.411060
845.077881	3245.825042
845.392879	3215.104250
845.707833	3192.532484
846.022745	3166.749502
846.337613	3156.657112
846.652438	3136.522744
846.967221	3129.102166
847.281960	3107.730194
847.596656	3097.973041
847.911309	3089.362750
848.225919	3074.750965
848.540485	3064.837536
848.855009	3061.825447
849.169490	3049.504867
849.483928	3041.469268
849.798323	3039.394833
850.112675	3027.704397
850.426984	3028.367309
850.741251	3021.145856
851.055474	3017.788448
851.369654	3021.050074
851.683792	3016.649147
851.997887	3024.067205
852.311938	3018.655526
852.625947	3021.488654
852.939914	3017.458252
853.253837	3021.828932
853.567718	3019.063859
853.881555	3008.782426
854.195350	3018.554703
854.509103	3016.681914
854.822812	3013.873992
855.136479	3009.639422
855.450103	3013.264012
855.763685	3006.375275
856.077224	3007.864936
856.390720	3017.758201
856.704173	3027.028883
857.017584	3028.611805
857.330953	3034.023483
857.644278	3041.867519
857.957561	3046.651574
858.270802	3044.239382
858.584000	3042.462375
858.897155	3040.327446
859.210268	3030.076260
859.523339	3018.310207
859.836367	3012.926255
860.149352	3009.762931
860.462295	3007.335615
860.775195	2996.587875
861.088054	2994.029489
861.400869	2994.195848
861.713642	2991.904643
862.026373	3001.324039
862.339062	3002.753206
862.651708	3014.718385
862.964312	3028.115251
863.276873	3037.378371
863.589392	3066.080181
863.901869	3087.124478
864.214303	3107.279011
864.526696	3124.534880
864.839045	3144.296203
865.151353	3153.592091
865.463619	3153.715599
865.775842	3153.193840
866.088023	3160.014521
866.400162	3151.865496
866.712258	3155.064108
867.024313	3154.323058
867.336325	3150.211997
867.648296	3151.870537
867.960224	3153.297183
868.272110	3153.642502
868.583954	3156.044612
868.895755	3164.251611
869.207515	3157.700631
869.519233	3175.551357
869.830909	3179.569157
870.142542	3193.477700
870.454134	3199.658155
870.765684	3211.988817
871.077191	3227.291240
871.388657	3236.997981
871.700081	3258.768204
872.011463	3274.466357
872.322803	3290.857669
872.634101	3304.713280
872.945357	3329.732527
873.256571	3351.485106
873.567744	3365.277703
873.878874	3371.357334
874.189963	3384.827297
874.501010	3388.666136
874.812015	3391.388359
875.122979	3400.679206
875.433900	3401.105183
875.744780	3399.335738
876.055618	3409.165988
876.366415	3408.795463
876.677169	3411.346287
876.987882	3424.833894
877.298554	3445.795012
877.609183	3486.099037
877.919771	3528.442209
878.230317	3589.820777
878.540822	3686.033719
878.851285	3829.104186
879.161707	4034.989950
879.472087	4385.541706
879.782425	4972.810923
880.092722	6081.867290
880.402977	7858.261521
880.713191	10008.485035
881.023363	12126.626647
881.333494	13360.920399
881.643583	13803.074961
881.953631	13472.007265
882.263637	12706.503012
882.573602	11766.932758
882.883526	10893.910776
883.193408	10021.534062
883.503248	9175.008385
883.813048	8398.007781
884.122806	7690.887651
884.432522	6988.715414
884.742197	6381.740327
885.051831	5860.689186
885.361424	5401.432509
885.670975	5038.308115
885.980485	4735.942228
886.289954	4486.856296
886.599382	4284.653094
886.908768	4122.884988
887.218113	3968.860094
887.527417	3843.259746
887.836680	3730.834453
888.145901	3637.719301
888.455082	3567.405287
888.764221	3500.478928
889.073319	3447.282152
889.382376	3416.127822
889.691392	3394.486148
890.000366	3387.458780
890.309300	3380.648181
890.618193	3386.206053
890.927044	3380.456617
891.235855	3388.416599
891.544625	3398.128382
891.853353	3427.291457
892.162041	3485.131135
892.470687	3571.082808
892.779293	3680.611958
893.087858	3844.852750
893.396381	4101.702059
893.704864	4490.440556
894.013306	5019.580228
894.321707	5555.780037
894.630068	5892.347632
894.938387	5925.072282
895.246665	5756.238999
895.554903	5463.905008
895.863100	5146.692923
896.171256	4893.616917
896.479371	4667.788348
896.787446	4455.462510
897.095480	4272.140950
897.403473	4135.649189
897.711425	3998.209692
898.019336	3887.410171
898.327207	3770.914147
898.635038	3677.050383
898.942827	3578.931885
899.250576	3494.227897
899.558284	3416.962133
899.865952	3368.383053
900.173579	3306.535658
900.481165	3264.573093
900.788711	3226.446846
901.096216	3193.966692
901.403681	3169.910306
901.711105	3158.610560
902.018489	3154.610404
902.325832	3187.047708
902.633135	3240.710791
902.940397	3402.950245
903.247619	3779.874798
903.554800	4484.360924
903.861941	5385.336104
904.169041	6041.107041
904.476101	6235.267081
904.783121	5980.240149
905.090100	5598.914669
905.397039	5214.219178
905.703938	4878.349783
906.010796	4576.588834
906.317614	4341.350952
906.624391	4119.131849
906.931129	3936.324487
907.237826	3764.148918
907.544483	3607.784929
907.851099	3443.718057
908.157675	3296.576858
908.464211	3165.161539
908.770707	3069.891293
909.077163	2998.032166
909.383578	2941.891356
909.689954	2899.830489
909.996289	2876.348794
910.302584	2856.854652
910.608839	2841.070799
910.915054	2829.521516
911.221229	2829.193841
911.527363	2831.689212
911.833458	2837.093329
912.139513	2848.138497
912.445527	2858.324148
912.751502	2894.025600
913.057436	2930.495828
913.363331	2988.350630
913.669186	3066.622105
913.975000	3179.990093
914.280775	3353.614993
914.586510	3606.038169
914.892205	3958.278712
915.197859	4424.156945
915.503475	4974.595492
915.809050	5439.715031
916.114585	5708.201844
916.420081	5771.357419
916.725536	5702.880906
917.030952	5481.233974
917.336328	5288.825735
917.641665	5091.595632
917.946961	4878.869022
918.252218	4689.684600
918.557435	4477.018484
918.862612	4289.492602
919.167750	4130.976040
919.472848	3952.105819
919.777906	3793.327117
920.082925	3646.165754
920.387904	3501.119155
920.692843	3399.010584
920.997743	3308.269814
921.302603	3220.261351
921.607423	3159.906136
921.912204	3098.446909
922.216946	3051.143242
922.521647	3004.646159
922.826310	2963.717031
923.130932	2932.814758
923.435516	2894.421331
923.740059	2865.795138
924.044564	2839.593741
924.349028	2818.327634
924.653454	2789.968623
924.957840	2764.967020
925.262186	2749.243662
925.566493	2726.518140
925.870761	2707.006354
926.174989	2692.825588
926.479178	2681.682118
926.783328	2661.625887
927.087438	2656.355361
927.391509	2642.797177
927.695541	2630.395939
927.999533	2621.238683
928.303486	2610.382558
928.607400	2607.068000
928.911275	2602.074737
929.215110	2598.223295
929.518906	2595.337235
929.822663	2593.066195
930.126381	2594.192893
930.430060	2597.068871
930.733699	2598.745055
931.037299	2603.914758
931.340861	2602.936774
931.644383	2606.279059
931.947866	2603.100612
932.251309	2601.681527
932.554714	2599.649942
932.858080	2596.786566
933.161407	2593.915629
933.464694	2590.669126
933.767943	2588.413210
934.071153	2584.108064
934.374323	2577.804102
934.677455	2578.877867
934.980548	2575.026426
935.283602	2573.461147
935.586617	2570.007957
935.889593	2575.737228
936.192530	2574.219841
936.495428	2581.403485
936.798287	2587.793148
937.101108	2603.582042
937.403890	2624.880917
937.706632	2649.995945
938.009336	2678.294462
938.312002	2709.063145
938.614628	2732.141547
938.917216	2750.710637
939.219765	2757.823705
939.522275	2765.629932
939.824747	2767.187649
940.127179	2759.333531
940.429573	2756.069384
940.731929	2751.600401
941.034246	2745.125039
941.336524	2741.936509
941.638763	2733.795046
941.940964	2731.047617
942.243126	2715.959443
942.545250	2707.639019
942.847335	2693.601926
943.149381	2679.794206
943.451389	2667.408091
943.753359	2657.663540
944.055290	2645.322796
944.357182	2638.857516
944.659036	2635.200159
944.960851	2631.406690
945.262628	2627.645990
945.564367	2627.202368
945.866067	2624.820423
946.167729	2625.468211
946.469352	2623.928139
946.770937	2624.134826
947.072484	2618.307252
947.373992	2617.049484
947.675462	2613.845831
947.976893	2605.517845
948.278286	2606.140427
948.579641	2600.275045
948.880958	2599.425610
949.182236	2601.147164
949.483476	2591.490834
949.784678	2593.587954
950.085841	2592.834302
950.386967	2599.002153
950.688054	2604.396188
950.989103	2610.851386
951.290114	2617.901439
951.591087	2632.296454
951.892021	2642.754328
952.192917	2655.052222
952.493776	2666.052020
952.794596	2667.249294
953.095378	2671.073009
953.396122	2666.291475
953.696828	2664.408604
953.997496	2660.627739
954.298126	2650.331182
954.598718	2645.773979
954.899272	2633.952473
955.199788	2625.180865
955.500266	2610.685027
955.800706	2599.211361
956.101108	2580.705286
956.401472	2573.161199
956.701798	2557.397511
957.002087	2542.662218
957.302337	2534.626619
957.602550	2525.930628
957.902724	2516.443177
958.202861	2506.353307
958.502960	2498.080774
958.803022	2493.634476
959.103045	2485.702221
959.403031	2481.064359
959.702979	2473.684110
960.002889	2471.292083
960.302762	2464.315126
960.602596	2461.902933
960.902393	2462.759930
961.202153	2456.455967
961.501875	2453.960596
961.801559	2454.598302
962.101205	2449.726026
962.400814	2450.910698
962.700385	2446.509770
962.999918	2443.293514
963.299414	2444.079934
963.598873	2443.812753
963.898293	2439.530293
964.197677	2441.733277
964.497022	2439.852927
964.796331	2439.996599
965.095601	2435.671289
965.394835	2436.140117
965.694030	2435.293203
965.993189	2436.573656
966.292309	2435.711619
966.591393	2434.244643
966.890439	2435.520055
967.189447	2436.485436
967.488419	2434.133737
967.787353	2436.359407
968.086249	2436.029211
968.385108	2436.293872
968.683930	2437.549119
968.982714	2438.537185
969.281462	2438.307813
969.580172	2440.992227
969.878844	2442.055911
970.177480	2447.374328
970.476078	2449.705862
970.774639	2449.277364
971.073162	2454.812551
971.371649	2453.723661
971.670098	2451.485389
971.968510	2457.141564
972.266885	2457.013014
972.565223	2459.614250
972.863524	2460.743468
973.161788	2463.506020
973.460014	2464.267235
973.758204	2462.485187
974.056356	2464.357975
974.354471	2464.078191
974.652550	2467.370065
974.950591	2466.487863
975.248595	2464.090794
975.546563	2467.864098
975.844493	2463.523664
976.142386	2460.688015
976.440243	2457.930504
976.738062	2457.595268
977.035845	2452.090328
977.333590	2453.224587
977.631299	2452.125616
977.928971	2451.109823
978.226606	2446.749225
978.524204	2449.300049
978.821765	2448.047322
979.119290	2446.106478
979.416777	2444.815942
979.714228	2447.495316
980.011642	2444.894080
980.309020	2451.681994
980.606360	2451.387087
980.903664	2461.567697
981.200931	2471.571867
981.498162	2490.740854
981.795356	2518.678929
982.092513	2553.384752
982.389633	2595.554004
982.686717	2636.478091
982.983764	2667.468584
983.280775	2684.752180
983.577749	2683.333096
983.874686	2674.112825
984.171587	2661.144457
984.468451	2646.845224
984.765279	2628.631535
985.062070	2610.972373
985.358824	2590.999322
985.655543	2573.985428
985.952224	2549.616490
986.248869	2526.391894
986.545478	2499.497338
986.842050	2484.547797
987.138586	2462.175156
987.435086	2452.463373
987.731549	2443.192691
988.027975	2440.485591
988.324366	2434.468974
988.620719	2427.476894
988.917037	2425.170566
989.213318	2421.818199
989.509563	2422.004721
989.805772	2418.659916
990.101944	2417.886099
990.398080	2418.206212
990.694180	2416.840059
990.990244	2417.550862
991.286271	2417.606315
991.582262	2417.331572
991.878217	2420.535225
992.174136	2419.910122
992.470019	2421.896337
992.765865	2422.213929
993.061676	2424.860535
993.357450	2426.556883
993.653188	2428.386822
993.948890	2436.722370
994.244556	2438.837134
994.540186	2450.784669
994.835780	2459.425206
995.131337	2473.147227
995.426859	2491.116420
995.722345	2506.696106
996.017795	2525.620598
996.313208	2537.628626
996.608586	2547.889895
996.903928	2547.872251
997.199234	2550.954916
997.494504	2548.341078
997.789738	2539.324974
998.084936	2527.828623
998.380099	2520.521470
998.675225	2509.783813
998.970316	2497.375013
999.265371	2485.722385
999.560390	2470.271249
999.855373	2459.122737
1000.150320	2452.518826
1000.445232	2445.443566
1000.740108	2438.179263
1001.034948	2432.044179
1001.329752	2424.903385
1001.624521	2425.415062
1001.919254	2418.990111
1002.213951	2415.907446
1002.508613	2413.880902
1002.803239	2409.527866
1003.097829	2408.222207
1003.392384	2413.381828
1003.686903	2411.009965
1003.981386	2408.781775
1004.275834	2406.921589
1004.570246	2406.397309
1004.864623	2405.731877
1005.158964	2404.363203
1005.453270	2404.706002
1005.747540	2406.339336
1006.041775	2403.183573
1006.335974	2405.018553
1006.630138	2401.562843
1006.924266	2404.075858
1007.218359	2406.104922
1007.512416	2404.557288
1007.806438	2401.588048
1008.100425	2404.065775
1008.394376	2405.459654
1008.688292	2404.713564
1008.982172	2400.405898
1009.276017	2405.361352
1009.569827	2401.638460
1009.863602	2401.086453
1010.157341	2401.671227
1010.451045	2403.823800
1010.744714	2399.939591
1011.038347	2403.733059
1011.331945	2400.683161
1011.625508	2399.470764
1011.919036	2399.385064
1012.212528	2400.211813
1012.505986	2398.545712
1012.799408	2402.155178
1013.092795	2397.988664
1013.386147	2400.340363
1013.679464	2398.996895
1013.972745	2402.528223
1014.265992	2398.447409
1014.559204	2397.635784
1014.852380	2403.047462
1015.145521	2399.473284
1015.438628	2401.136865
1015.731699	2402.586197
1016.024736	2397.411452
1016.317737	2398.611247
1016.610703	2400.158881
1016.903635	2399.042266
1017.196531	2395.231153
1017.489393	2398.601165
1017.782219	2397.063613
1018.075011	2401.514952
1018.367768	2401.673748
1018.660490	2402.213151
1018.953177	2402.213151
1019.245829	2402.213151
