Dividing Wavelength (nm)	Counts (n)	Blue Motor Position (mm): 46.400000	Red Motor Position (mm): 0.000000	
326.493990	1972.210290
326.888308	1972.210290
327.282561	1972.210290
327.676750	1948.779007
328.070874	1951.150870
328.464933	1956.645727
328.858929	1965.392129
329.252859	1976.701958
329.646726	1994.908085
330.040528	2007.231186
330.434265	2026.221212
330.827938	2046.998328
331.221547	2065.998437
331.615091	2085.777404
332.008571	2107.134252
332.401986	2129.481687
332.795338	2150.964564
333.188625	2168.986689
333.581847	2188.294308
333.975006	2206.674355
334.368100	2225.586244
334.761129	2241.944788
335.154095	2254.257807
335.546996	2297.478139
335.939833	2382.897970
336.332606	2398.802811
336.725315	2409.001065
337.117960	2419.171593
337.510540	2423.794331
337.903056	2434.658017
338.295508	2441.531631
338.687896	2449.317693
339.080220	2457.607870
339.472480	2461.933180
339.864676	2466.084571
340.256807	2467.785960
340.648875	2470.735035
341.040879	2469.510035
341.432818	2473.079172
341.824694	2471.085395
342.216506	2473.852989
342.608253	2472.877525
342.999937	2473.832824
343.391557	2472.340642
343.783113	2471.072792
344.174605	2470.377113
344.566033	2466.336628
344.957397	2463.793366
345.348697	2461.562656
345.739934	2463.569035
346.131106	2462.429734
346.522215	2458.875721
346.913260	2456.622325
347.304241	2456.035030
347.695159	2454.731892
348.086012	2454.890688
348.476802	2450.686366
348.867528	2447.848197
349.258191	2448.750563
349.648789	2448.480861
350.039324	2446.119081
350.429796	2450.361212
350.820203	2447.155038
351.210548	2447.923814
351.600828	2445.156220
351.991045	2444.223607
352.381198	2443.311158
352.771288	2445.849379
353.161314	2444.294183
353.551276	2444.299224
353.941175	2441.055242
354.331010	2443.114553
354.720782	2445.370469
355.110490	2448.135542
355.500135	2445.766200
355.889717	2444.362239
356.279235	2443.996755
356.668689	2447.205449
357.058080	2447.490275
357.447408	2444.029522
357.836672	2443.280911
358.225873	2445.809050
358.615010	2444.374842
359.004084	2450.714093
359.393095	2452.042437
359.782043	2456.181224
360.170927	2452.846501
360.559748	2453.970678
360.948505	2452.849021
361.337199	2452.922118
361.725830	2456.271965
362.114398	2458.157356
362.502903	2457.749023
362.891344	2458.590895
363.279722	2457.988478
363.668037	2461.532409
364.056289	2459.841102
364.444478	2461.943263
364.832603	2462.739765
365.220665	2460.352779
365.608665	2465.217492
365.996601	2464.834364
366.384474	2464.395784
366.772284	2467.450723
367.160031	2464.844447
367.547715	2468.388378
367.935336	2467.082719
368.322893	2469.096660
368.710388	2468.174129
369.097820	2473.116980
369.485189	2471.960035
369.872495	2473.452217
370.259738	2475.319964
370.646918	2476.688638
371.034035	2477.457414
371.421090	2478.337095
371.808081	2477.134780
372.195010	2479.599904
372.581875	2479.829277
372.968678	2481.056798
373.355418	2480.552682
373.742096	2483.345481
374.128710	2485.538383
374.515262	2482.962354
374.901751	2487.799341
375.288177	2487.990905
375.674540	2490.647593
376.060841	2495.109014
376.447079	2499.444406
376.833254	2495.242604
377.219367	2496.190341
377.605417	2503.063955
377.991404	2503.684017
378.377329	2518.646161
378.763191	2519.845956
379.148991	2534.545960
379.534727	2546.778320
379.920402	2560.555794
380.306013	2573.748493
380.691563	2593.608119
381.077049	2613.505553
381.462474	2638.192083
381.847835	2665.999088
382.233134	2695.063861
382.618371	2723.004456
383.003545	2759.184817
383.388657	2801.003709
383.773706	2844.282014
384.158693	2888.255999
384.543618	2944.129628
384.928480	2990.059581
385.313280	3051.917059
385.698017	3120.481793
386.082692	3191.226825
386.467305	3248.264960
386.851856	3334.776201
387.236344	3430.555604
387.620770	3495.500789
388.005133	3582.932041
388.389435	3692.395655
388.773674	3768.794342
389.157851	3880.647463
389.541965	3990.574864
389.926018	4038.889282
390.310008	4183.401519
390.693936	4301.971978
391.077802	4411.851488
391.461606	4537.895458
391.845348	4653.756297
392.229027	4777.630049
392.612645	4966.592660
392.996200	5097.985294
393.379694	5267.428557
393.763125	5466.536490
394.146494	5588.968473
394.529801	5744.757771
394.913047	5972.340661
395.296230	6027.894177
395.679351	6124.553260
396.062410	6384.412138
396.445408	6363.675352
396.828343	6531.704571
397.211217	6699.040632
397.594028	6667.399830
397.976778	6882.818416
398.359466	7072.128867
398.742092	7108.059691
399.124656	7284.810106
399.507158	7494.519586
399.889598	7571.334167
400.271977	7805.639436
400.654294	7887.270841
401.036549	8112.035726
401.418742	8185.515584
401.800874	8505.787650
402.182944	8631.511506
402.564952	9002.411880
402.946898	8884.466524
403.328783	8981.924631
403.710606	9205.920740
404.092367	9481.553388
404.474067	9854.923928
404.855705	9694.688332
405.237282	9672.933232
405.618797	10117.913362
406.000250	10375.637311
406.381642	10757.603018
406.762972	10735.840356
407.144240	10565.222504
407.525447	10836.857518
407.906593	10786.599734
408.287677	11068.032230
408.668700	11227.393186
409.049661	11215.775847
409.430560	11385.952597
409.811399	11368.119516
410.192176	11540.499251
410.572891	11629.911676
410.953545	12103.475148
411.334138	11597.156779
411.714669	12191.322295
412.095139	11517.970334
412.475547	12024.197963
412.855894	11872.388656
413.236180	12200.643388
413.616405	11892.487736
413.996568	12165.753562
414.376670	12147.340748
414.756711	12023.761903
415.136691	12298.708954
415.516609	12484.772901
415.896466	12544.011500
416.276262	12837.716685
416.655997	13283.899130
417.035670	13321.150736
417.415283	13957.737561
417.794834	14055.790524
418.174324	13801.058500
418.553753	13706.299931
418.933121	14187.987222
419.312428	14010.034491
419.691674	13918.701387
420.070859	14370.255181
420.449983	14028.366647
420.829045	14576.289659
421.208047	14325.814889
421.586988	14780.320278
421.965867	15021.741136
422.344686	15018.303069
422.723444	15580.389202
423.102141	14282.080359
423.480777	15460.629031
423.859352	14961.275016
424.237866	16069.038327
424.616319	15770.607061
424.994712	16415.718477
425.373044	16215.461161
425.751314	16885.039818
426.129524	16013.003382
426.507673	17092.369873
426.885762	16799.055377
427.263789	16994.382445
427.641756	17160.153227
428.019662	17216.541054
428.397508	17256.993793
428.775292	17551.051858
429.153016	17522.939864
429.530679	17594.814115
429.908282	17619.422507
430.285824	17343.474787
430.663305	18047.169452
431.040726	17646.581724
431.418086	17476.387329
431.795385	18111.766798
432.172624	18535.823618
432.549802	18091.884487
432.926920	18282.422458
433.303977	18158.251277
433.680974	18422.838758
434.057910	18698.617599
434.434786	18722.873111
434.811601	18637.952354
435.188355	19666.758593
435.565050	19317.900664
435.941683	19267.163971
436.318257	20144.307096
436.694770	19953.413724
437.071222	20549.499919
437.447614	19629.494383
437.823946	19656.923301
438.200218	19806.574994
438.576429	19584.842363
438.952580	19853.553507
439.328670	19816.934566
439.704700	20226.014118
440.080670	19809.108174
440.456580	20379.527335
440.832429	20561.749923
441.208218	19565.199507
441.583947	19999.441979
441.959616	20108.640933
442.335224	20345.020637
442.710773	20474.054011
443.086261	20999.604381
443.461689	20367.862105
443.837057	20502.186170
444.212365	21131.065071
444.587612	21121.305397
444.962800	20716.641895
445.337927	21135.211420
445.712995	19876.100068
446.088002	21706.376671
446.462949	21896.135784
446.837837	22067.396383
447.212664	22025.940455
447.587431	24795.867970
447.962139	27699.842288
448.336786	30085.548181
448.711374	28570.457118
449.085901	24923.898155
449.460369	24865.544278
449.834776	24759.352373
450.209124	27212.970170
450.583412	26758.000994
450.957640	27299.609960
451.331808	25971.132331
451.705917	24613.025320
452.079965	24633.152127
452.453954	24993.629915
452.827883	24879.120106
453.201752	24696.320305
453.575562	24847.063408
453.949311	25949.747757
454.323001	26008.134400
454.696632	25769.831496
455.070202	27307.080950
455.443713	27451.013454
455.817164	28017.024126
456.190556	28555.999089
456.563888	28018.922120
456.937160	28449.171998
457.310373	26801.967417
457.683526	27236.164518
458.056619	27207.971866
458.429653	27147.142783
458.802628	27723.434888
459.175542	27828.636207
459.548398	29131.557706
459.921194	30662.732570
460.293930	31334.763748
460.666607	33354.912890
461.039224	35115.868587
461.411782	35503.992063
461.784280	34335.545863
462.156719	33846.586707
462.529099	33291.104485
462.901419	31992.634325
463.273680	30940.301021
463.645882	31023.875790
464.018024	30996.056182
464.390106	31808.740594
464.762130	34478.419724
465.134094	38493.580296
465.505999	43743.027057
465.877845	48327.502776
466.249631	49518.384632
466.621358	47809.383066
466.993026	45705.684361
467.364634	43646.443591
467.736184	41685.301154
468.107674	40431.528384
468.479105	39650.908231
468.850477	38970.274324
469.221790	37545.598877
469.593043	35836.350295
469.964238	34957.495698
470.335373	34853.605079
470.706449	36532.200925
471.077467	39043.272752
471.448425	43581.198457
471.819324	46448.052238
472.190164	44658.545966
472.560945	41111.078443
472.931667	38020.934314
473.302330	36906.496516
473.672934	36096.758658
474.043479	36601.151307
474.413965	35815.242984
474.784393	35427.621103
475.154761	36317.888872
475.525070	36360.204317
475.895321	35881.660186
476.265513	36486.167628
476.635645	37452.887016
477.005719	37268.118646
477.375734	37724.209478
477.745691	38422.880634
478.115588	39725.875230
478.485427	41675.191120
478.855207	44989.066697
479.224928	47607.363867
479.594591	49252.788921
479.964194	48270.421791
480.333739	48415.944779
480.703226	48431.897511
481.072653	49067.423173
481.442022	49564.987578
481.811333	49831.462971
482.180584	48534.774858
482.549777	48021.875263
482.918912	47500.388062
483.287988	47191.985393
483.657005	46380.588996
484.025964	45746.018632
484.394864	45757.116733
484.763706	45328.359036
485.132489	44452.400582
485.501213	44300.273683
485.869879	44438.819714
486.238487	44039.335998
486.607036	44241.506432
486.975527	43702.521386
487.343959	43908.139969
487.712333	43980.445239
488.080648	43905.155606
488.448905	44346.400240
488.817104	44162.756047
489.185244	45100.082987
489.553326	46741.707011
489.921350	49474.907200
490.289315	52359.581460
490.657222	52986.958097
491.025070	53291.831958
491.392861	52396.686873
491.760593	51147.246974
492.128267	49475.912911
492.495883	47937.718240
492.863440	46562.279743
493.230939	45220.745525
493.598380	44137.278055
493.965763	43805.043332
494.333088	43005.113039
494.700354	42510.837987
495.067563	42238.605597
495.434713	42110.456946
495.801805	42167.865606
496.168839	41792.602113
496.535815	41471.805768
496.902733	41505.773063
497.269593	41099.556886
497.636395	41045.596375
498.003139	41439.842332
498.369825	40912.436817
498.736453	41201.569675
499.103023	40748.528740
499.469535	40616.760541
499.835989	40709.169932
500.202385	40375.732893
500.568723	40400.132078
500.935003	40580.439027
501.301226	40400.890771
501.667390	40994.325320
502.033497	41260.772986
502.399546	40693.862468
502.765537	40013.042038
503.131470	40399.373384
503.497345	40757.933013
503.863163	39416.804608
504.228923	40024.218276
504.594625	40434.205236
504.960269	39735.526519
505.325856	40428.251634
505.691385	39786.495105
506.056856	39919.311865
506.422270	40350.779181
506.787625	39936.192168
507.152924	40130.831118
507.518164	40225.929965
507.883347	39439.265469
508.248472	39696.341630
508.613540	40169.703456
508.978550	40469.087500
509.343503	40224.594059
509.708398	40414.539695
510.073236	40940.329521
510.438016	40939.941352
510.802738	40388.234954
511.167403	41007.838132
511.532010	41240.915881
511.896561	41548.242263
512.261053	42379.495765
512.625488	41937.575616
512.989866	41810.609115
513.354186	41644.099803
513.718449	41638.007569
514.082655	42307.671925
514.446803	41991.152999
514.810894	42502.532686
515.174927	42442.958851
515.538904	42340.963705
515.902822	43004.818132
516.266684	42453.877990
516.630488	42883.545614
516.994235	42729.198087
517.357925	43306.707630
517.721558	43464.478101
518.085133	43789.055312
518.448651	43905.301799
518.812112	43692.461763
519.175516	43801.292713
519.538863	44142.367100
519.902152	44086.853914
520.265385	44555.865224
520.628560	44595.148415
520.991678	44398.182973
521.354739	44637.368079
521.717743	44954.602849
522.080690	44857.013672
522.443580	45389.898922
522.806413	45442.959587
523.169189	45384.436832
523.531908	45575.988075
523.894569	45420.770948
524.257174	45607.631398
524.619722	45893.421971
524.982213	45888.358132
525.344647	45799.434699
525.707025	45858.035592
526.069345	46243.895589
526.431608	46173.604261
526.793815	46499.161976
527.155964	46019.617175
527.518057	46189.118412
527.880093	45983.003275
528.242072	46501.047368
528.603995	46210.689509
528.965860	46215.314767
529.327669	46292.595656
529.689421	46192.889195
530.051117	46160.877868
530.412755	46296.386604
530.774337	46368.149949
531.135862	46168.174938
531.497331	46371.613222
531.858743	46294.652447
532.220098	46622.387941
532.581396	46325.847107
532.942638	46010.480084
533.303824	46289.696993
533.664953	46250.103770
534.026025	45978.418345
534.387040	46446.907896
534.747999	46401.156904
535.108902	46559.907880
535.469748	46088.504542
535.830537	46187.066662
536.191270	46400.388128
536.551947	46029.833073
536.912567	46349.059100
537.273131	46449.231868
537.633638	45953.404140
537.994089	46300.933724
538.354483	45892.159162
538.714821	46467.188458
539.075103	46809.298802
539.435328	46558.198929
539.795497	46463.868858
540.155609	46439.971268
540.515665	46893.536483
540.875665	46365.566358
541.235609	46672.076073
541.595496	46644.909295
541.955328	47328.988831
542.315102	46697.062553
542.674821	46485.704616
543.034483	46522.129473
543.394090	46484.603124
543.753640	46450.620706
544.113134	47442.306408
544.472571	46461.136553
544.831953	47698.530614
545.191278	46918.684278
545.550548	46651.180491
545.909761	47089.632326
546.268918	47298.424315
546.628019	47607.396635
546.987064	47172.229111
547.346053	46439.484797
547.704986	47310.560893
548.063863	46878.821354
548.422684	47069.833194
548.781449	46918.139834
549.140158	47324.537492
549.498811	47156.266297
549.857408	46606.841022
550.215949	47438.273485
550.574434	47376.899957
550.932864	47137.941703
551.291237	47861.082620
551.649555	47453.119683
552.007817	47720.197493
552.366022	47341.279164
552.724173	47524.930919
553.082267	47930.194318
553.440305	48229.225482
553.798288	47546.320535
554.156215	47860.099595
554.514086	48072.367460
554.871902	47811.102100
555.229661	47821.633070
555.587365	47640.942993
555.945014	47740.495699
556.302606	47660.406888
556.660143	47896.584946
557.017625	48004.364815
557.375050	47786.965055
557.732421	48120.760016
558.089735	48111.746433
558.446994	48029.656284
558.804197	48501.742697
559.161345	48437.551165
559.518437	47696.123463
559.875474	47982.208944
560.232455	48148.045261
560.589381	48316.107248
560.946251	48011.074591
561.303065	48711.936127
561.659825	48515.610912
562.016528	48188.261066
562.373177	47902.861182
562.729770	48397.526924
563.086307	47900.824556
563.442789	48364.908138
563.799216	48409.882792
564.155587	48192.316674
564.511904	48220.889934
564.868164	48322.801900
565.224370	48562.236543
565.580520	48289.747055
565.936615	48521.015028
566.292654	48220.073267
566.648638	48464.854054
567.004567	48430.284342
567.360441	48462.698961
567.716260	48321.276951
568.072023	48614.193196
568.427732	48586.875183
568.783385	48148.045261
569.138982	48539.377431
569.494525	48513.801137
569.850013	48270.600752
570.205445	48246.312473
570.560823	48208.851659
570.916145	48076.123119
571.271412	48104.015823
571.626625	47862.463896
571.981782	47913.694622
572.336884	47587.567256
572.691931	47938.837377
573.046923	47543.162252
573.401860	47370.331334
573.756743	47362.915797
574.111570	47483.117069
574.466342	47346.615226
574.821059	47461.732494
575.175722	46990.913931
575.530330	47010.266920
575.884882	46730.031699
576.239380	46701.629838
576.593823	46661.804722
576.948211	46577.937567
577.302544	46104.127078
577.656823	46132.803682
578.011047	46352.187136
578.365216	46074.215392
578.719330	45888.569860
579.073389	45733.246869
579.427394	45809.201934
579.781344	45785.526155
580.135239	45436.184276
580.489080	45524.986722
580.842866	45015.575605
581.196597	45466.582434
581.550273	45413.995637
581.903895	45269.259069
582.257463	45694.750098
582.610975	45073.657259
582.964434	45355.351895
583.317837	44995.905023
583.671186	44844.685531
584.024481	45060.189816
584.377721	44595.319814
584.730906	44886.567437
585.084037	44909.078709
585.437113	44621.881654
585.790135	44667.998129
586.143103	44265.623312
586.496016	44399.614660
586.848874	44423.744143
587.201679	44440.790805
587.554428	43930.593268
587.907124	44113.204025
588.259765	43859.364285
588.612352	44109.072800
588.964884	43495.145961
589.317362	43774.839258
589.669786	43717.786000
590.022155	43498.004295
590.374470	43925.635293
590.726731	43450.158704
591.078937	42962.371617
591.431090	43062.567070
591.783188	42726.130544
592.135232	42400.459403
592.487222	42639.636947
592.839157	42723.463774
593.191038	42416.777618
593.542866	42182.363964
593.894639	41565.122567
594.246358	41862.197763
594.598022	41834.620131
594.949633	41437.041971
595.301190	41377.838660
595.652692	41223.521379
596.004141	41548.993395
596.355535	40570.941493
596.706876	40526.619669
597.058162	40352.001661
597.409395	40820.004740
597.760573	40893.885370
598.111698	40469.440381
598.462768	40481.082926
598.813785	40530.246779
599.164748	39962.091096
599.515657	40354.151713
599.866511	39836.805820
600.217312	40442.855856
600.568060	39417.129763
600.918753	40158.229790
601.269392	40101.597467
601.619978	39764.661868
601.970510	39981.620526
602.320988	40172.208909
602.671412	40466.239248
603.021783	40209.533612
603.372100	39857.792144
603.722363	39961.884409
604.072572	40022.703410
604.422728	40059.960057
604.772830	39857.308193
605.122878	39952.031474
605.472872	39897.463504
605.822813	40169.970637
606.172701	40000.925625
606.522534	40240.970248
606.872314	40505.104024
607.222041	40250.301423
607.571714	40636.630248
607.921333	40089.342422
608.270899	40371.629394
608.620411	40711.078008
608.969870	40517.495180
609.319276	40503.337100
609.668627	40560.314741
610.017926	41029.401668
610.367171	41194.781761
610.716362	41265.864551
611.065500	41221.903169
611.414585	41409.300501
611.763616	41707.270502
612.112594	41632.527835
612.461518	41843.984074
612.810389	42135.108188
613.159207	42008.272757
613.507971	42064.673187
613.856682	42531.337839
614.205340	42429.887139
614.553945	43129.921926
614.902496	42569.423757
615.250994	43044.517218
615.599439	43110.332003
615.947830	43333.579501
616.296169	43362.432545
616.644454	43479.732633
616.992686	43648.429805
617.340864	44167.693857
617.688990	43891.272268
618.037063	44486.403165
618.385082	44438.885249
618.733048	44769.070743
619.080961	44761.209064
619.428821	44778.853102
619.776628	44895.318880
620.124382	44699.094487
620.472083	44846.664183
620.819731	44980.484133
621.167326	44638.714067
621.514868	44626.088497
621.862357	44196.604874
622.209793	44214.506012
622.557176	43894.354934
622.904506	43646.655319
623.251783	43298.112463
623.599007	43064.407091
623.946179	42866.377965
624.293297	42812.603977
624.640363	42210.962430
624.987376	42194.404760
625.334336	41946.468211
625.681243	41596.604573
626.028097	41556.199724
626.374899	41400.589388
626.721647	41369.843390
627.068343	41239.554769
627.414987	41014.270645
627.761577	40784.560388
628.108115	41113.369647
628.454600	40567.284136
628.801032	40745.229305
629.147412	40706.687163
629.493739	40707.307225
629.840014	40341.868942
630.186236	40695.566378
630.532405	40293.988063
630.878521	40494.013486
631.224585	40382.538451
631.570597	40107.019228
631.916556	40257.106981
632.262462	40202.680164
632.608316	40216.820600
632.954117	40111.069795
633.299866	40114.601124
633.645562	40035.820492
633.991206	39525.501967
634.336797	39093.649003
634.682336	39096.083880
635.027823	38857.672591
635.373257	38676.054942
635.718639	38432.053013
636.063968	38283.976681
636.409245	37710.724392
636.754470	37772.465923
637.099642	37514.840277
637.444762	37021.354165
637.789829	37166.284817
638.134845	36812.844480
638.479808	36774.065404
638.824719	36681.403955
639.169577	36276.624507
639.514383	36343.097162
639.859137	36043.140946
640.203839	36279.344210
640.548489	35909.056336
640.893086	35977.545452
641.237632	35715.644907
641.582125	35817.577038
641.926566	35764.226507
642.270955	35731.461527
642.615292	35743.320842
642.959576	35706.986725
643.303809	35703.709975
643.647990	35835.306776
643.992118	35805.838711
644.336195	35795.194315
644.680219	35891.510600
645.024192	36179.466349
645.368112	36697.545730
645.711981	36694.276542
646.055797	37562.000271
646.399562	37472.068607
646.743274	38416.559027
647.086935	38882.217969
647.430544	38774.783419
647.774101	38887.291891
648.117606	39141.976024
648.461059	39455.437491
648.804460	39069.973224
649.147810	38449.019016
649.491108	38195.595171
649.834354	37858.039510
650.177548	37008.884871
650.520690	36558.772847
650.863781	36581.072391
651.206820	36419.079953
651.549807	35987.098439
651.892742	35498.950909
652.235626	35306.835057
652.578458	35166.416237
652.921238	34550.016712
653.263967	34889.142693
653.606644	34558.120367
653.949269	34505.266389
654.291843	34101.437199
654.634365	34513.770816
654.976836	34105.850729
655.319255	34087.596711
655.661622	34083.621761
656.003938	33857.082389
656.346203	33718.685072
656.688416	33928.568472
657.030577	33735.051178
657.372687	33592.631020
657.714746	33842.296685
658.056753	33960.665498
658.398708	33423.195319
658.740612	33463.471618
659.082465	33740.460336
659.424266	33557.743715
659.766016	33668.722197
660.107715	33549.607293
660.449362	33684.170813
660.790958	33659.655681
661.132503	33684.213662
661.473996	33707.317270
661.815438	33824.272040
662.156829	34029.837691
662.498168	33789.477996
662.839456	33812.377437
663.180693	33954.306082
663.521879	34133.095645
663.863013	34060.329110
664.204097	34065.927311
664.545129	34527.190367
664.886110	34479.823686
665.227040	34549.999068
665.567918	34675.564128
665.908746	34725.063218
666.249522	34883.915016
666.590248	34905.904529
666.930922	34997.908108
667.271545	34970.423737
667.612118	35053.416253
667.952639	34847.217937
668.293109	34897.616872
668.633528	34798.351512
668.973896	34708.195517
669.314213	34738.427316
669.654480	34479.044828
669.994695	34501.067108
670.334859	34389.176178
670.674973	34296.945748
671.015035	34465.554700
671.355047	34412.925054
671.695008	34346.520455
672.034918	34243.254939
672.374777	34323.880633
672.714585	34145.660721
673.054342	34370.196234
673.394049	34125.992659
673.733705	34410.976648
674.073310	34068.647013
674.412864	34141.282479
674.752368	33741.352621
675.091820	34068.568876
675.431223	33627.601505
675.770574	33355.643857
676.109875	33223.873137
676.449125	32940.857719
676.788324	32870.712584
677.127473	32319.996773
677.466571	32250.577564
677.805619	31886.215567
678.144616	31888.410989
678.483562	31806.749338
678.822458	31490.842912
679.161303	31404.014078
679.500098	31319.917550
679.838842	31191.506758
680.177535	31346.907887
680.516179	31591.771853
680.854771	31841.084637
681.193314	32695.446788
681.531805	33796.407062
681.870247	34567.983384
682.208638	35302.552596
682.546978	35544.976644
682.885268	35636.483668
683.223508	35122.797653
683.561697	34797.986028
683.899836	34603.430257
684.237925	34099.430819
684.575963	33942.807211
684.913951	33475.822445
685.251889	33633.751712
685.589776	33596.313583
685.927614	33579.176181
686.265401	33716.658528
686.603137	33805.743279
686.940824	34308.905885
687.278460	34671.168242
687.616046	34811.148481
687.953582	35420.044248
688.291068	35285.702540
688.628504	35590.561277
688.965889	35525.704313
689.303224	35158.037839
689.640510	34833.810988
689.977745	34113.714929
690.314930	33316.615244
690.652065	32797.567962
690.989150	32072.730697
691.326185	31174.510508
691.663170	30481.586268
692.000105	29715.754340
692.336990	29029.975936
692.673825	28558.496981
693.010610	28042.562611
693.347345	27457.698024
693.684030	26783.695755
694.020665	26490.487124
694.357251	25823.081204
694.693786	25768.989624
695.030272	25509.148390
695.366707	24982.695652
695.703093	24672.710061
696.039429	24668.508260
696.375716	24395.285283
696.711952	24359.583831
697.048139	24191.789026
697.384276	24004.852959
697.720363	24123.635146
698.056400	23920.007819
698.392388	23710.953689
698.728326	23675.176621
699.064214	23458.535555
699.400053	23415.589965
699.735842	23058.094019
700.071581	22772.812603
700.407270	22485.302996
700.742910	22299.299543
701.078501	22025.217049
701.414042	21744.563412
701.749533	21434.807193
702.084974	21076.925599
702.420366	21297.723096
702.755709	20835.935760
703.091002	20546.931451
703.426246	20564.255376
703.761440	20463.828030
704.096584	20184.815288
704.431679	20138.882815
704.766725	20041.026457
705.101721	19981.377004
705.436668	20064.046886
705.771565	19736.833152
706.106413	20087.503375
706.441212	20053.765453
706.775961	20181.651964
707.110661	20248.974053
707.445311	20592.342165
707.779913	20434.980027
708.114465	20677.371307
708.448967	20945.648912
708.783421	21646.006333
709.117825	21914.425090
709.452180	22124.444601
709.786485	22524.679449
710.120742	23322.094205
710.454949	23328.168796
710.789107	23798.551299
711.123216	24500.723536
711.457275	24628.325222
711.791286	25179.575395
712.125247	25253.166159
712.459159	24964.199659
712.793023	25643.497660
713.126837	24553.711104
713.460602	24829.447096
713.794318	24455.940446
714.127985	24074.491458
714.461602	23181.803935
714.795171	23164.807685
715.128691	22141.508907
715.462162	21599.020259
715.795584	21164.324083
716.128957	20906.995865
716.462281	20487.057667
716.795556	20250.095710
717.128782	19735.940867
717.461960	19197.946408
717.795088	19120.816754
718.128167	18714.509837
718.461198	18244.805368
718.794180	18094.306761
719.127113	17738.121516
719.459997	17529.009413
719.792833	17169.713776
720.125619	17137.049619
720.458357	16813.891493
720.791046	16635.149822
721.123686	16477.331459
721.456278	16227.214611
721.788821	16185.826738
722.121315	15925.793941
722.453761	15995.190464
722.786158	15911.451858
723.118506	15917.148362
723.450805	15773.024294
723.783056	15934.815085
724.115259	15844.301168
724.447412	15762.150525
724.779518	16002.404356
725.111574	16031.837132
725.443582	16219.894856
725.775542	16191.248499
726.107453	16678.183632
726.439315	16552.621092
726.771129	16939.096111
727.102895	17319.922516
727.434612	17516.633380
727.766281	17650.294533
728.097901	17922.673117
728.429473	17955.735524
728.760996	17950.880893
729.092471	18033.291156
729.423897	17921.680010
729.755276	17776.499820
730.086606	17890.863436
730.417887	18425.921423
730.749120	18917.048275
731.080305	19104.669939
731.411442	19441.091341
731.742530	19518.899030
732.073570	19622.643455
732.404562	19933.317164
732.735506	19753.819319
733.066401	19473.233737
733.397249	18955.398853
733.728048	18332.715530
734.058798	17488.521386
734.389501	16792.456507
734.720156	16331.289232
735.050762	15788.548527
735.381320	15427.312045
735.711831	15167.211192
736.042293	14824.256455
736.372707	14813.294466
736.703073	14604.376447
737.033391	14791.988029
737.363661	14748.792902
737.693883	14837.597868
738.024056	15002.062992
738.354182	15183.952864
738.684260	15463.212622
739.014290	15676.226578
739.344272	15866.915784
739.674207	16148.290307
740.004093	16264.251969
740.333931	16267.193482
740.663722	16311.948846
740.993464	16316.115359
741.323159	16149.916079
741.652806	15871.145312
741.982405	15671.351783
742.311956	15342.797101
742.641460	15226.527929
742.970915	14927.234625
743.300323	14580.221759
743.629683	14369.879615
743.958996	14092.621194
744.288260	13815.866889
744.617477	13516.311445
744.946647	13439.002831
745.275768	13169.117098
745.604842	12981.472749
745.933869	12802.789051
746.262847	12754.351124
746.591778	12677.743229
746.920662	12566.633678
747.249498	12561.653018
747.578286	12681.919825
747.907027	12821.305209
748.235720	13043.385680
748.564365	13069.392992
748.892963	12960.675468
749.221514	13021.522195
749.550017	12873.967622
749.878473	12843.846728
750.206881	12614.577572
750.535242	12523.335208
750.863555	12440.015017
751.191821	12339.812002
751.520039	12350.171573
751.848210	12260.393664
752.176334	12289.982717
752.504411	12194.868747
752.832440	12036.962164
753.160421	12097.468613
753.488356	11979.031745
753.816243	11876.025848
754.144082	11732.698283
754.471875	11676.013028
754.799620	11622.705347
755.127318	11601.976122
755.454969	11553.644060
755.782572	11510.436330
756.110129	11523.318999
756.437638	11437.752974
756.765100	11428.366345
757.092515	11430.160996
757.419882	11442.000146
757.747203	11438.625093
758.074477	11516.405056
758.401703	11462.714247
758.728882	11627.406223
759.056014	11669.716627
759.383099	11781.587392
759.710138	11886.874411
760.037129	11969.486320
760.364073	11988.708239
760.690970	11975.588637
761.017820	11968.886422
761.344623	12163.727019
761.671379	12482.653096
761.998088	13117.820837
762.324751	14664.373740
762.651366	17528.303652
762.977935	21183.722443
763.304456	23439.081742
763.630931	23962.343429
763.957359	22828.300583
764.283740	20929.885224
764.610074	19052.115910
764.936362	16917.366217
765.262602	15386.876950
765.588796	13894.166091
765.914943	12855.617822
766.241044	11980.226498
766.567097	11337.373518
766.893104	10777.457602
767.219064	10408.094780
767.544978	10020.997179
767.870845	9699.190082
768.196665	9509.224282
768.522438	9312.679776
768.848165	9133.733938
769.173846	8970.118248
769.499479	8846.844393
769.825066	8685.600567
770.150607	8496.995878
770.476101	8438.417670
770.801548	8327.335845
771.126949	8183.947786
771.452303	8098.913602
771.777611	7927.579907
772.102872	7913.719254
772.428087	7793.323898
772.753256	7665.712129
773.078378	7576.995383
773.403453	7432.238650
773.728482	7324.625139
774.053465	7261.283041
774.378401	7174.360946
774.703291	7076.494506
775.028135	6980.687377
775.352932	6941.394103
775.677683	6859.366968
776.002388	6767.905314
776.327046	6766.070334
776.651658	6681.189906
776.976224	6597.841989
777.300743	6582.254742
777.625216	6514.947776
777.949643	6469.837011
778.274024	6476.594677
778.598359	6407.359471
778.922647	6408.564306
779.246889	6367.841866
779.571086	6370.667432
779.895236	6379.842332
780.219339	6373.026692
780.543397	6373.750098
780.867409	6417.124186
781.191374	6417.509834
781.515294	6382.027672
781.839167	6434.090189
782.162995	6412.912302
782.486776	6363.725763
782.810511	6321.107849
783.134201	6248.454740
783.457844	6236.363532
783.781441	6188.321336
784.104993	6143.941538
784.428498	6119.431448
784.751958	6099.801195
785.075372	6074.318162
785.398739	6031.738056
785.722061	6056.361572
786.045337	6051.433844
786.368568	6165.764693
786.691752	6183.113824
787.014891	6430.296721
787.337983	6705.750408
787.661030	7143.130998
787.984031	7571.124959
788.306987	7837.038263
788.629897	7936.994262
788.952760	7849.447063
789.275579	7676.694283
789.598351	7381.970785
789.921078	7111.207891
790.243759	6835.517270
790.566395	6633.172916
790.888984	6434.304438
791.211529	6292.443848
791.534027	6123.577797
791.856480	5985.702239
792.178888	5924.852992
792.501249	5858.614751
792.823566	5749.052834
793.145836	5748.067288
793.468062	5728.593311
793.790241	5684.382392
794.112375	5723.383278
794.434464	5820.266694
794.756507	5844.139078
795.078505	5965.202387
795.400457	6180.426889
795.722364	6417.013280
796.044226	6614.538291
796.366042	6776.082066
796.687812	6720.717594
797.009538	6756.761844
797.331218	6666.920920
797.652852	6600.831393
797.974442	6483.102807
798.295986	6410.038844
798.617484	6286.807838
798.938938	6170.926835
799.260346	6108.093893
799.581709	5963.669877
799.903026	5912.171969
800.224299	5842.034396
800.545526	5723.211879
800.866708	5656.771992
801.187845	5601.304176
801.508936	5527.413464
801.829983	5500.002190
802.150984	5393.349018
802.471940	5358.000448
802.792851	5345.445454
803.113717	5319.652390
803.434538	5298.376201
803.755314	5257.928503
804.076045	5253.283079
804.396731	5209.477973
804.717372	5220.928954
805.037967	5223.401640
805.358518	5253.144448
805.679024	5306.600843
805.999485	5318.621474
806.319901	5335.103527
806.640272	5355.626064
806.960598	5399.607611
807.280879	5389.822731
807.601115	5428.062404
807.921306	5391.761055
808.241453	5389.840375
808.561554	5402.967540
808.881611	5367.382035
809.201623	5367.545872
809.521590	5319.884283
809.841513	5306.691584
810.161390	5324.809491
810.481223	5233.859514
810.801011	5223.988934
811.120755	5198.510943
811.440453	5140.905678
811.760107	5115.044559
812.079716	5086.940126
812.399281	5039.187796
812.718801	5032.107496
813.038276	4996.557279
813.357707	4961.725426
813.677093	4990.470085
813.996434	4921.789405
814.315731	4944.396460
814.634983	4945.835709
814.954191	4948.126914
815.273354	5005.696891
815.592473	5049.638108
815.911547	5127.287001
816.230577	5183.347152
816.549562	5269.775214
816.868502	5324.759079
817.187399	5378.520464
817.506250	5462.490964
817.825058	5493.161344
818.143821	5652.471888
818.462539	5821.963042
818.781213	6049.994595
819.099843	6416.572179
819.418429	7051.588685
819.736970	7676.936258
820.055466	8398.335456
820.373919	9330.853135
820.692327	10815.752727
821.010691	13553.835274
821.329011	19854.783549
821.647286	29507.199285
821.965517	39939.385739
822.283704	45520.399272
822.601847	47110.167466
822.919945	42582.795417
823.237999	37478.801068
823.556010	32259.225663
823.873976	27477.197207
824.191897	23186.756868
824.509775	20050.939886
824.827609	17203.010597
825.145398	15597.677840
825.463144	14799.670747
825.780845	15079.041411
826.098502	16341.038824
826.416116	18773.239279
826.733685	21052.715458
827.051210	21545.715098
827.368692	20135.117073
827.686129	17563.362356
828.003522	15066.231839
828.320872	12837.406654
828.638177	11151.110446
828.955439	9882.546930
829.272656	8802.819996
829.589830	7950.796941
829.906960	7196.247115
830.224046	6648.162787
830.541088	6228.456482
830.858086	5963.304393
831.175041	5754.688844
831.491952	5691.646694
831.808819	5723.955449
832.125642	5970.379652
832.442421	6523.711822
832.759157	7645.303018
833.075849	9415.849510
833.392497	11279.198603
833.709101	12410.284812
834.025662	12162.486895
834.342179	11120.966866
834.658653	9805.873501
834.975083	8692.433851
835.291469	7775.027030
835.607811	7020.164653
835.924110	6490.089846
836.240366	5992.777499
836.556578	5533.848497
836.872746	5170.015821
837.188871	4895.940889
837.504952	4663.294160
837.820990	4489.512984
838.136984	4377.304461
838.452935	4325.423426
838.768842	4354.498281
839.084706	4633.591681
839.400526	5379.533736
839.716303	6294.961904
840.032037	6871.009513
840.347727	6730.373924
840.663373	6131.532738
840.978977	5549.488677
841.294537	5095.371456
841.610054	4759.514663
841.925527	4513.395450
842.240957	4302.418120
842.556344	4114.662866
842.871687	3947.168009
843.186987	3794.496665
843.502244	3672.029394
843.817458	3583.597473
844.132629	3513.001154
844.447756	3459.484265
844.762840	3413.065321
845.077881	3373.643498
845.392879	3338.824248
845.707833	3313.840289
846.022745	3284.992287
846.337613	3272.696912
846.652438	3248.632964
846.967221	3238.898496
847.281960	3213.223900
847.596656	3205.921788
847.911309	3194.334696
848.225919	3182.833304
848.540485	3170.827796
848.855009	3165.466529
849.169490	3153.755928
849.483928	3144.150010
849.798323	3137.740183
850.112675	3126.412710
850.426984	3131.726086
850.741251	3119.256792
851.055474	3116.781586
851.369654	3121.472379
851.683792	3116.128756
851.997887	3118.225876
852.311938	3114.843262
852.625947	3116.784106
852.939914	3108.630040
853.253837	3114.074486
853.567718	3114.389558
853.881555	3108.095677
854.195350	3114.634054
854.509103	3110.959053
854.822812	3107.528548
855.136479	3102.358844
855.450103	3111.760596
855.763685	3101.229626
856.077224	3102.709205
856.390720	3111.652212
856.704173	3122.198305
857.017584	3127.063019
857.330953	3131.834471
857.644278	3143.439207
857.957561	3141.558857
858.270802	3141.672283
858.584000	3141.397540
858.897155	3134.571817
859.210268	3123.791310
859.523339	3114.364352
859.836367	3111.175823
860.149352	3103.856067
860.462295	3099.069492
860.775195	3092.062288
861.088054	3090.045826
861.400869	3088.495671
861.713642	3084.225814
862.026373	3095.575972
862.339062	3097.163935
862.651708	3103.886314
862.964312	3122.452884
863.276873	3129.908750
863.589392	3158.381187
863.901869	3191.126002
864.214303	3208.828014
864.526696	3226.542628
864.839045	3246.581215
865.151353	3255.599839
865.463619	3260.945983
865.775842	3261.344234
866.088023	3266.400511
866.400162	3264.200047
866.712258	3262.533946
867.024313	3261.997063
867.336325	3263.269955
867.648296	3265.742641
867.960224	3258.387597
868.272110	3263.509409
868.583954	3260.691404
868.895755	3275.096502
869.207515	3267.814555
869.519233	3288.571506
869.830909	3296.781025
870.142542	3307.513641
870.454134	3308.821821
870.765684	3325.041733
871.077191	3343.217613
871.388657	3355.034078
871.700081	3372.826831
872.011463	3394.667630
872.322803	3419.558327
872.634101	3432.020059
872.945357	3453.293728
873.256571	3480.389930
873.567744	3497.844925
873.878874	3503.276769
874.189963	3520.124305
874.501010	3522.070190
874.812015	3519.315200
875.122979	3536.175339
875.433900	3533.274155
875.744780	3538.705998
876.055618	3546.930640
876.366415	3546.066082
876.677169	3555.397258
876.987882	3569.938467
877.298554	3591.958227
877.609183	3630.583547
877.919771	3679.177750
878.230317	3749.085951
878.540822	3859.613249
878.851285	4017.618134
879.161707	4245.984924
879.472087	4630.163697
879.782425	5279.497079
880.092722	6490.777964
880.402977	8471.792629
880.713191	10894.689635
881.023363	13322.680726
881.333494	14700.385223
881.643583	15183.085786
881.953631	14791.753615
882.263637	13954.667499
882.573602	12920.111824
882.883526	11934.757811
883.193408	10954.288676
883.503248	10017.216314
883.813048	9163.461622
884.122806	8372.582721
884.432522	7576.564364
884.742197	6896.174953
885.051831	6314.095604
885.361424	5797.926820
885.670975	5382.860898
885.980485	5047.538468
886.289954	4765.584212
886.599382	4537.928225
886.908768	4354.117674
887.218113	4181.841282
887.527417	4043.587638
887.836680	3918.791354
888.145901	3808.218685
888.455082	3732.150194
888.764221	3662.882220
889.073319	3598.451233
889.382376	3566.581058
889.691392	3534.713404
890.000366	3527.985984
890.309300	3523.315355
890.618193	3528.215357
890.927044	3520.550282
891.235855	3526.118237
891.544625	3547.371741
891.853353	3574.528437
892.162041	3630.500368
892.470687	3731.255390
892.779293	3851.675952
893.087858	4032.318138
893.396381	4320.591480
893.704864	4741.537908
894.013306	5317.703984
894.321707	5901.608232
894.630068	6262.164158
894.938387	6305.230735
895.246665	6128.646677
895.554903	5810.328059
895.863100	5466.355008
896.171256	5193.126991
896.479371	4945.797901
896.787446	4714.517324
897.095480	4513.282024
897.403473	4356.111450
897.711425	4205.098645
898.019336	4080.572063
898.327207	3957.215028
898.635038	3848.923482
898.942827	3738.418869
899.250576	3653.256137
899.558284	3565.093918
899.865952	3508.610309
900.173579	3444.454065
900.481165	3397.059657
900.788711	3351.699355
901.096216	3321.238183
901.403681	3291.119809
901.711105	3279.089095
902.018489	3275.903086
902.325832	3306.112201
902.633135	3370.114690
902.940397	3545.440979
903.247619	3959.909525
903.554800	4728.551896
903.861941	5718.750458
904.169041	6447.844977
904.476101	6674.860738
904.783121	6406.714203
905.090100	5996.336553
905.397039	5574.913736
905.703938	5200.797106
906.010796	4863.294377
906.317614	4604.330304
906.624391	4354.430225
906.931129	4150.697034
907.237826	3961.220225
907.544483	3783.290180
907.851099	3607.888273
908.157675	3437.638425
908.464211	3292.122999
908.770707	3190.062318
909.077163	3106.570728
909.383578	3041.018084
909.689954	2994.584016
909.996289	2963.477577
910.302584	2945.397478
910.608839	2928.837288
910.915054	2916.015113
911.221229	2910.666449
911.527363	2912.826583
911.833458	2923.070208
912.139513	2933.873401
912.445527	2950.594908
912.751502	2982.782675
913.057436	3031.502907
913.363331	3089.035075
913.669186	3181.089065
913.975000	3302.888383
914.280775	3500.549504
914.586510	3778.745579
914.892205	4166.798479
915.197859	4675.637425
915.503475	5276.389208
915.809050	5774.808089
916.114585	6067.321041
916.420081	6137.193954
916.725536	6079.525674
917.030952	5836.476524
917.336328	5628.428105
917.641665	5412.591103
917.946961	5180.251884
918.252218	4975.422241
918.557435	4742.412549
918.862612	4537.993760
919.167750	4360.789641
919.472848	4160.181965
919.777906	3992.682066
920.082925	3824.415913
920.387904	3663.882889
920.692843	3547.470044
920.997743	3446.813325
921.302603	3347.031246
921.607423	3279.031122
921.912204	3210.932695
922.216946	3158.003101
922.521647	3110.364197
922.826310	3068.507496
923.130932	3027.689274
923.435516	2985.023468
923.740059	2955.794858
924.044564	2926.054571
924.349028	2897.529202
924.653454	2870.838813
924.957840	2844.370235
925.262186	2820.810402
925.566493	2798.873821
925.870761	2772.564039
926.174989	2760.487955
926.479178	2746.168558
926.783328	2728.453943
927.087438	2715.954402
927.391509	2702.171887
927.695541	2689.516071
927.999533	2678.037363
928.303486	2670.140396
928.607400	2665.318532
928.911275	2656.441060
929.215110	2649.272540
929.518906	2647.621562
929.822663	2646.373876
930.126381	2646.194915
930.430060	2651.709937
930.733699	2651.415030
931.037299	2655.372336
931.340861	2651.669608
931.644383	2656.221770
931.947866	2653.852428
932.251309	2652.708086
932.554714	2652.045174
932.858080	2652.539207
933.161407	2646.883033
933.464694	2641.660397
933.767943	2642.799698
934.071153	2641.108391
934.374323	2630.161525
934.677455	2627.431741
934.980548	2627.499796
935.283602	2622.352778
935.586617	2618.743312
935.889593	2626.287399
936.192530	2626.297481
936.495428	2631.331073
936.798287	2640.135448
937.101108	2654.888385
937.403890	2675.748680
937.706632	2701.209027
938.009336	2736.282855
938.312002	2765.387957
938.614628	2786.147428
938.917216	2811.310348
939.219765	2821.208653
939.522275	2830.403718
939.824747	2832.667196
940.127179	2828.052020
940.429573	2820.817964
940.731929	2821.722851
941.034246	2812.016109
941.336524	2812.401757
941.638763	2802.450520
941.940964	2797.260652
942.243126	2781.983435
942.545250	2769.909872
942.847335	2756.233221
943.149381	2743.048083
943.451389	2727.133161
943.753359	2713.519525
944.055290	2705.234388
944.357182	2695.656196
944.659036	2690.645289
944.960851	2686.085566
945.262628	2681.656912
945.564367	2682.765966
945.866067	2681.183043
946.167729	2677.876047
946.469352	2678.488547
946.770937	2676.683814
947.072484	2669.404387
947.373992	2670.843637
947.675462	2664.562359
947.976893	2662.503048
948.278286	2657.192192
948.579641	2654.691780
948.880958	2650.739515
949.182236	2650.623569
949.483476	2646.744401
949.784678	2644.415388
950.085841	2647.137611
950.386967	2650.280770
950.688054	2656.839312
950.989103	2664.043120
951.290114	2674.319512
951.591087	2684.018692
951.892021	2696.170394
952.192917	2708.823690
952.493776	2719.790720
952.794596	2721.376163
953.095378	2724.272306
953.396122	2719.649568
953.696828	2721.262737
953.997496	2717.880123
954.298126	2706.366127
954.598718	2697.188707
954.899272	2687.751667
955.199788	2674.513597
955.500266	2663.329797
955.800706	2646.172230
956.101108	2628.939046
956.401472	2622.768673
956.701798	2605.159923
957.002087	2590.908581
957.302337	2579.666808
957.602550	2568.278841
957.902724	2553.800647
958.202861	2546.138094
958.502960	2536.426311
958.803022	2533.197452
959.103045	2524.871986
959.403031	2517.874865
959.702979	2509.751045
960.002889	2507.283400
960.302762	2500.329129
960.602596	2497.639673
960.902393	2492.442243
961.202153	2491.260093
961.501875	2485.745071
961.801559	2483.562251
962.101205	2481.177785
962.400814	2479.995635
962.700385	2475.904738
962.999918	2475.766107
963.299414	2474.407516
963.598873	2475.095633
963.898293	2470.241002
964.197677	2470.735035
964.497022	2471.350056
964.796331	2468.274952
965.095601	2466.608851
965.394835	2465.199848
965.694030	2462.933849
965.993189	2464.559622
966.292309	2463.753037
966.591393	2463.742955
966.890439	2461.502162
967.189447	2463.942080
967.488419	2460.057871
967.787353	2463.324539
968.086249	2463.286730
968.385108	2463.826134
968.683930	2463.863942
968.982714	2465.449385
969.281462	2468.642956
969.580172	2469.124386
969.878844	2470.858543
970.177480	2474.190746
970.476078	2476.486992
970.774639	2480.981180
971.073162	2482.995121
971.371649	2487.073415
971.670098	2481.137456
971.968510	2485.873620
972.266885	2484.464618
972.565223	2492.888386
972.863524	2491.529795
973.161788	2493.911740
973.460014	2491.713797
973.758204	2494.068016
974.056356	2495.829899
974.354471	2494.738489
974.652550	2497.685043
974.950591	2496.588592
975.248595	2495.265290
975.546563	2494.761174
975.844493	2493.185814
976.142386	2489.843529
976.440243	2487.587612
976.738062	2487.070894
977.035845	2485.377066
977.333590	2479.602425
977.631299	2479.257106
977.928971	2478.130408
978.226606	2474.450365
978.524204	2472.948102
978.821765	2472.945581
979.119290	2473.280818
979.416777	2469.656228
979.714228	2474.536065
980.011642	2473.023719
980.309020	2479.035295
980.606360	2481.001345
980.903664	2491.297902
981.200931	2505.894563
981.498162	2526.512882
981.795356	2556.714434
982.092513	2596.688264
982.389633	2642.905562
982.686717	2686.690504
982.983764	2720.367932
983.280775	2741.616396
983.577749	2740.376272
983.874686	2730.767833
984.171587	2712.256716
984.468451	2691.731658
984.765279	2677.891170
985.062070	2656.292346
985.358824	2638.950777
985.655543	2616.021089
985.952224	2593.451843
986.248869	2562.395815
986.545478	2535.896990
986.842050	2515.200533
987.138586	2492.323776
987.435086	2483.731130
987.731549	2469.691516
988.027975	2466.757565
988.324366	2456.153498
988.620719	2452.700307
988.917037	2448.687549
989.213318	2446.552620
989.509563	2446.461879
989.805772	2441.491302
990.101944	2438.912751
990.398080	2439.000972
990.694180	2441.269491
990.990244	2438.529624
991.286271	2438.350663
991.582262	2439.583225
991.878217	2442.802002
992.174136	2442.907866
992.470019	2442.239913
992.765865	2444.021961
993.061676	2445.252002
993.357450	2448.450614
993.653188	2453.141408
993.948890	2458.238015
994.244556	2463.871504
994.540186	2478.208546
994.835780	2484.323465
995.131337	2501.624705
995.426859	2518.068949
995.722345	2540.658359
996.017795	2557.001780
996.313208	2574.474419
996.608586	2581.567323
996.903928	2588.072932
997.199234	2585.663260
997.494504	2582.618403
997.789738	2574.295458
998.084936	2564.598799
998.380099	2553.407438
998.675225	2540.383617
998.970316	2528.491535
999.265371	2513.751201
999.560390	2498.335352
999.855373	2486.342447
1000.150320	2474.652012
1000.445232	2467.780919
1000.740108	2459.347068
1001.034948	2454.817592
1001.329752	2446.671087
1001.624521	2444.919286
1001.919254	2437.327308
1002.213951	2433.148192
1002.508613	2431.600558
1002.803239	2430.481422
1003.097829	2425.888930
1003.392384	2427.237439
1003.686903	2428.830444
1003.981386	2424.182500
1004.275834	2424.578230
1004.570246	2423.043199
1004.864623	2425.009249
1005.158964	2421.276275
1005.453270	2423.199475
1005.747540	2419.917684
1006.041775	2416.950965
1006.335974	2419.032961
1006.630138	2417.576068
1006.924266	2419.027920
1007.218359	2420.378949
1007.512416	2416.726633
1007.806438	2418.198650
1008.100425	2416.905594
1008.394376	2416.076324
1008.688292	2418.596901
1008.982172	2414.979873
1009.276017	2415.151273
1009.569827	2413.482651
1009.863602	2416.751839
1010.157341	2417.906263
1010.451045	2414.679925
1010.744714	2416.479617
1011.038347	2415.620100
1011.331945	2413.482651
1011.625508	2413.497774
1011.919036	2412.902918
1012.212528	2413.603638
1012.505986	2415.373083
1012.799408	2411.302352
1013.092795	2413.979204
1013.386147	2415.378125
1013.679464	2411.738412
1013.972745	2412.673546
1014.265992	2413.913669
1014.559204	2413.109605
1014.852380	2412.812177
1015.145521	2411.516601
1015.438628	2412.852507
1015.731699	2412.784451
1016.024736	2412.824780
1016.317737	2413.888464
1016.610703	2414.316962
1016.903635	2411.519121
1017.196531	2409.308575
1017.489393	2411.776220
1017.782219	2409.139697
1018.075011	2415.647826
1018.367768	2414.450552
1018.660490	2418.604463
1018.953177	2418.604463
1019.245829	2418.604463
