Dividing Wavelength (nm)	Counts (n)	Blue Motor Position (mm): 47.600000	Red Motor Position (mm): 0.000000	
326.493990	1973.405043
326.888308	1973.405043
327.282561	1973.405043
327.676750	1949.630962
328.070874	1951.997784
328.464933	1957.853084
328.858929	1966.889352
329.252859	1980.392083
329.646726	1991.941366
330.040528	2009.393841
330.434265	2028.197345
330.827938	2047.028575
331.221547	2064.014743
331.615091	2087.743454
332.008571	2109.105343
332.401986	2128.735596
332.795338	2150.001704
333.188625	2169.679848
333.581847	2186.408917
333.975006	2207.047401
334.368100	2224.462067
334.761129	2241.390261
335.154095	2256.153280
335.546996	2299.839920
335.939833	2384.226314
336.332606	2397.870197
336.725315	2409.764800
337.117960	2419.642941
337.510540	2426.566966
337.903056	2436.084664
338.295508	2441.934923
338.687896	2451.198043
339.080220	2457.880093
339.472480	2463.115331
339.864676	2465.361165
340.256807	2467.039869
340.648875	2469.711681
341.040879	2471.609675
341.432818	2473.679069
341.824694	2474.843575
342.216506	2474.674697
342.608253	2474.914152
342.999937	2471.118163
343.391557	2468.368213
343.783113	2468.557257
344.174605	2469.073975
344.566033	2467.831330
344.957397	2465.063737
345.348697	2465.842595
345.739934	2461.683643
346.131106	2459.621811
346.522215	2459.841102
346.913260	2459.014352
347.304241	2456.317335
347.695159	2453.098558
348.086012	2455.689711
348.476802	2449.105964
348.867528	2450.232662
349.258191	2447.008844
349.648789	2449.418516
350.039324	2446.436673
350.429796	2448.306942
350.820203	2447.394493
351.210548	2445.272167
351.600828	2444.737805
351.991045	2445.665377
352.381198	2444.344595
352.771288	2444.785696
353.161314	2446.585388
353.551276	2443.124635
353.941175	2446.154369
354.331010	2443.459872
354.720782	2444.931889
355.110490	2445.264605
355.500135	2445.914914
355.889717	2444.387444
356.279235	2446.661005
356.668689	2448.107816
357.058080	2448.188474
357.447408	2445.708227
357.836672	2446.189657
358.225873	2446.088834
358.615010	2447.379369
359.004084	2450.779627
359.393095	2454.237859
359.782043	2448.806016
360.170927	2453.403548
360.559748	2454.467232
360.948505	2456.271965
361.337199	2454.187447
361.725830	2456.506378
362.114398	2458.449743
362.502903	2455.634259
362.891344	2459.589044
363.279722	2458.527881
363.668037	2463.437965
364.056289	2462.190279
364.444478	2459.069805
364.832603	2463.390074
365.220665	2462.013839
365.608665	2464.806638
365.996601	2464.811679
366.384474	2466.039200
366.772284	2468.650518
367.160031	2468.741259
367.547715	2468.610189
367.935336	2468.781588
368.322893	2469.671352
368.710388	2472.048256
369.097820	2473.777371
369.485189	2473.270735
369.872495	2476.534882
370.259738	2474.004223
370.646918	2478.120325
371.034035	2476.224852
371.421090	2477.734677
371.808081	2480.426653
372.195010	2479.778865
372.581875	2481.472693
372.968678	2482.548979
373.355418	2485.523260
373.742096	2485.072077
374.128710	2490.849239
374.515262	2492.089363
374.901751	2494.022645
375.288177	2499.325939
375.674540	2501.055055
376.060841	2511.074348
376.447079	2512.702641
376.833254	2524.098169
377.219367	2529.066226
377.605417	2543.075593
377.991404	2554.508930
378.377329	2571.406877
378.763191	2584.665112
379.148991	2611.897425
379.534727	2634.141516
379.920402	2658.230670
380.306013	2685.863755
380.691563	2722.848180
381.077049	2752.553179
381.462474	2789.451905
381.847835	2832.803307
382.233134	2878.055225
382.618371	2920.892429
383.003545	2976.324957
383.388657	3037.539688
383.773706	3098.704008
384.158693	3157.231804
384.543618	3226.472052
384.928480	3286.945734
385.313280	3373.867829
385.698017	3451.743573
386.082692	3547.263357
386.467305	3612.175774
386.851856	3717.603945
387.236344	3839.110876
387.620770	3899.645052
388.005133	4007.800487
388.389435	4136.044920
388.773674	4220.506932
389.157851	4344.216848
389.541965	4467.730158
389.926018	4517.657746
390.310008	4678.727652
390.693936	4798.661743
391.077802	4920.440897
391.461606	5050.545516
391.845348	5174.237787
392.229027	5299.175223
392.612645	5506.159959
392.996200	5634.386748
393.379694	5810.323018
393.763125	6031.259147
394.146494	6145.642928
394.529801	6298.127749
394.913047	6541.691097
395.296230	6576.477579
395.679351	6661.007647
396.062410	6924.329797
396.445408	6870.681838
396.828343	7038.902622
397.211217	7200.191818
397.594028	7133.998948
397.976778	7345.462749
398.359466	7535.824280
398.742092	7544.893315
399.124656	7708.493881
399.507158	7915.841580
399.889598	7967.268911
400.271977	8192.903395
400.654294	8247.178978
401.036549	8458.562121
401.418742	8511.441304
401.800874	8825.608532
402.182944	8927.311291
402.564952	9298.425913
402.946898	9153.200353
403.328783	9220.199808
403.710606	9435.691491
404.092367	9695.215132
404.474067	10061.941431
404.855705	9876.500066
405.237282	9839.666875
405.618797	10273.755592
406.000250	10525.105002
406.381642	10891.662422
406.762972	10849.740186
407.144240	10665.649851
407.525447	10915.416339
407.906593	10860.752587
408.287677	11128.274019
408.668700	11277.605598
409.049661	11258.209759
409.430560	11425.444997
409.811399	11393.675645
410.192176	11558.692775
410.572891	11630.529218
410.953545	12109.416148
411.334138	11595.120153
411.714669	12186.699557
412.095139	11509.115548
412.475547	12006.445539
412.855894	11858.039011
413.236180	12177.350737
413.616405	11870.720034
413.996568	12138.775828
414.376670	12112.506375
414.756711	11997.736946
415.136691	12267.932710
415.516609	12444.509206
415.896466	12509.925738
416.276262	12803.520018
416.655997	13240.870361
417.035670	13279.036937
417.415283	13917.413372
417.794834	14002.813038
418.174324	13756.005708
418.553753	13662.746882
418.933121	14144.207322
419.312428	13959.597747
419.691674	13868.078120
420.070859	14314.487416
420.449983	13974.527124
420.829045	14515.042160
421.208047	14272.466878
421.586988	14718.863572
421.965867	14967.339524
422.344686	14951.916114
422.723444	15515.063410
423.102141	14231.000867
423.480777	15400.833385
423.859352	14902.782508
424.237866	15999.656927
424.616319	15715.822321
424.994712	16354.889394
425.373044	16146.893907
425.751314	16816.381823
426.129524	15955.728312
426.507673	17021.466044
426.885762	16730.392341
427.263789	16920.612720
427.641756	17089.602279
428.019662	17137.951986
428.397508	17179.939756
428.775292	17476.296588
429.153016	17439.985157
429.530679	17513.853184
429.908282	17548.226292
430.285824	17260.744411
430.663305	17960.489333
431.040726	17568.965598
431.418086	17393.994710
431.795385	18040.018576
432.172624	18444.450184
432.549802	18009.055809
432.926920	18198.058749
433.303977	18086.765195
433.680974	18336.657712
434.057910	18618.911916
434.434786	18651.011463
434.811601	18564.142300
435.188355	19581.941179
435.565050	19236.254136
435.941683	19183.495941
436.318257	20041.850686
436.694770	19865.246463
437.071222	20453.244128
437.447614	19540.941475
437.823946	19565.446524
438.200218	19718.082580
438.576429	19488.221088
438.952580	19773.245406
439.328670	19722.017200
439.704700	20138.676128
440.080670	19708.174192
440.456580	20298.223606
440.832429	20460.122782
441.208218	19477.440580
441.583947	19909.210366
441.959616	20016.912097
442.335224	20250.488920
442.710773	20383.356091
443.086261	20915.427194
443.461689	20269.685634
443.837057	20413.517315
444.212365	21046.865199
444.587612	21043.424611
444.962800	20623.252000
445.337927	21046.915610
445.712995	19783.196643
446.088002	21614.267229
446.462949	21798.065177
446.837837	21966.026341
447.212664	21923.264754
447.587431	24689.280334
447.962139	27574.829234
448.336786	29945.769587
448.711374	28448.907338
449.085901	24815.631814
449.460369	24745.032975
449.834776	24648.164683
450.209124	27090.865862
450.583412	26634.938867
450.957640	27177.813163
451.331808	25856.698139
451.705917	24503.894422
452.079965	24522.521485
452.453954	24878.346288
452.827883	24769.898466
453.201752	24578.763118
453.575562	24735.086778
453.949311	25829.344838
454.323001	25889.964713
454.696632	25650.830019
455.070202	27168.431575
455.443713	27323.931007
455.817164	27892.333706
456.190556	28431.275902
456.563888	27888.230207
456.937160	28317.451689
457.310373	26682.789499
457.683526	27102.407583
458.056619	27078.537720
458.429653	27016.833997
458.802628	27581.586901
459.175542	27694.337348
459.548398	28969.895464
459.921194	30527.042352
460.293930	31194.377695
460.666607	33198.432954
461.039224	34944.771826
461.411782	35346.939956
461.784280	34167.226777
462.156719	33686.333468
462.529099	33128.449136
462.901419	31836.809739
463.273680	30794.145368
463.645882	30882.088297
464.018024	30839.631699
464.390106	31642.889153
464.762130	34302.059998
465.134094	38309.696647
465.505999	43537.862178
465.877845	48122.065675
466.249631	49326.510755
466.621358	47605.649875
466.993026	45508.489546
467.364634	43437.855768
467.736184	41490.654642
468.107674	40229.935162
468.479105	39471.163370
468.850477	38781.614183
469.221790	37365.939715
469.593043	35662.652298
469.964238	34764.260709
470.335373	34680.174263
470.706449	36338.315627
471.077467	38830.956996
471.448425	43345.441336
471.819324	46221.293576
472.190164	44452.569461
472.560945	40927.308220
472.931667	37838.232816
473.302330	36738.358911
473.672934	35926.365138
474.043479	36410.046205
474.413965	35636.957537
474.784393	35268.900374
475.154761	36140.339433
475.525070	36174.430236
475.895321	35714.145164
476.265513	36315.229663
476.635645	37266.533203
477.005719	37082.964627
477.375734	37540.010758
477.745691	38217.607370
478.115588	39544.360924
478.485427	41468.667650
478.855207	44780.824194
479.224928	47382.639311
479.594591	49032.291372
479.964194	48057.942198
480.333739	48186.665541
480.703226	48205.617759
481.072653	48837.801136
481.442022	49344.356439
481.811333	49601.392271
482.180584	48315.938369
482.549777	47800.251016
482.918912	47276.457488
483.287988	46996.418871
483.657005	46168.142170
484.025964	45541.456171
484.394864	45557.040898
484.763706	45116.091171
485.132489	44254.258030
485.501213	44085.714613
485.869879	44228.180142
486.238487	43824.371116
486.607036	44031.610430
486.975527	43491.891896
487.343959	43694.034603
487.712333	43776.878405
488.080648	43679.626986
488.448905	44137.472140
488.817104	43948.864930
489.185244	44888.462911
489.553326	46535.697738
489.921350	49242.565461
490.289315	52151.157475
490.657222	52766.568933
491.025070	53080.214402
491.392861	52200.036503
491.760593	50938.465067
492.128267	49237.047918
492.495883	47707.531594
492.863440	46334.729620
493.230939	45000.777298
493.598380	43910.335392
493.965763	43580.298611
494.333088	42796.263077
494.700354	42319.768174
495.067563	42008.093796
495.434713	41895.156827
495.801805	41946.349744
496.168839	41580.694691
496.535815	41266.766917
496.902733	41307.847280
497.269593	40900.401062
497.636395	40821.784268
498.003139	41216.952756
498.369825	40681.597341
498.736453	40997.813798
499.103023	40519.851920
499.469535	40405.871431
499.835989	40498.895843
500.202385	40175.236122
500.568723	40193.996776
500.935003	40372.803983
501.301226	40173.204537
501.667390	40784.913268
502.033497	41055.479557
502.399546	40478.597637
502.765537	39808.850102
503.131470	40185.169716
503.497345	40548.289068
503.863163	39211.672497
504.228923	39834.123927
504.594625	40222.343184
504.960269	39506.453968
505.325856	40209.836082
505.691385	39576.541130
506.056856	39714.338549
506.422270	40131.317590
506.787625	39711.903672
507.152924	39925.998955
507.518164	40018.292400
507.883347	39241.259028
508.248472	39489.987039
508.613540	39955.928286
508.978550	40240.201472
509.343503	40012.505155
509.708398	40197.906191
510.073236	40729.410164
510.438016	40736.399724
510.802738	40190.044512
511.167403	40805.579478
511.532010	41041.941538
511.896561	41347.657272
512.261053	42163.817559
512.625488	41717.509086
512.989866	41603.992383
513.354186	41438.365274
513.718449	41435.713627
514.082655	42108.342182
514.446803	41778.968313
514.810894	42306.434322
515.174927	42230.660739
515.538904	42127.982517
515.902822	42794.261739
516.266684	42257.570418
516.630488	42681.110520
516.994235	42523.077909
517.357925	43097.426649
517.721558	43264.460240
518.085133	43569.402157
518.448651	43700.830079
518.812112	43492.693439
519.175516	43582.889764
519.538863	43921.705714
519.902152	43891.302515
520.265385	44368.309095
520.628560	44391.168207
520.991678	44167.023384
521.354739	44428.908805
521.717743	44743.254995
522.080690	44664.822202
522.443580	45186.516091
522.806413	45232.002422
523.169189	45184.184557
523.531908	45364.869593
523.894569	45211.305965
524.257174	45386.733077
524.619722	45689.966043
524.982213	45673.388208
525.344647	45596.092197
525.707025	45650.871895
526.069345	46038.758436
526.431608	45941.625484
526.793815	46271.637059
527.155964	45815.571432
527.518057	45982.680641
527.880093	45766.165604
528.242072	46297.349464
528.603995	45985.178533
528.965860	45987.956208
529.327669	46100.232787
529.689421	45992.415109
530.051117	45946.165043
530.412755	46085.943636
530.774337	46156.847465
531.135862	45975.718808
531.497331	46173.432861
531.858743	46070.583241
532.220098	46406.997081
532.581396	46122.567619
532.942638	45776.878056
533.303824	46075.974755
533.664953	46052.992134
534.026025	45779.743952
534.387040	46235.786893
534.747999	46184.094902
535.108902	46358.077724
535.469748	45880.040228
535.830537	45995.396952
536.191270	46183.996599
536.551947	45833.533063
536.912567	46149.378996
537.273131	46253.325067
537.633638	45753.827380
537.994089	46087.256857
538.354483	45699.287136
538.714821	46258.328413
539.075103	46600.111082
539.435328	46385.577218
539.795497	46262.169772
540.155609	46243.146978
540.515665	46704.924232
540.875665	46166.455904
541.235609	46488.174781
541.595496	46450.363607
541.955328	47118.261039
542.315102	46498.400762
542.674821	46280.764068
543.034483	46312.457802
543.394090	46304.961606
543.753640	46244.866011
544.113134	47245.199813
544.472571	46261.295132
544.831953	47507.662447
545.191278	46723.125318
545.550548	46446.121476
545.909761	46899.381700
546.268918	47104.042464
546.628019	47401.195798
546.987064	46956.480329
547.346053	46241.725372
547.704986	47120.063251
548.063863	46685.752724
548.422684	46867.808954
548.781449	46728.010196
549.140158	47110.144781
549.498811	46967.747308
549.857408	46406.417348
550.215949	47245.187210
550.574434	47168.634768
550.932864	46933.338913
551.291237	47645.114548
551.649555	47262.133049
552.007817	47499.805809
552.366022	47133.704613
552.724173	47326.672421
553.082267	47719.474088
553.440305	48020.264614
553.798288	47345.811162
554.156215	47647.446081
554.514086	47848.779684
554.871902	47608.266234
555.229661	47620.894324
555.587365	47444.993343
555.945014	47532.870737
556.302606	47464.074110
556.660143	47683.500414
557.017625	47776.776883
557.375050	47571.002024
557.732421	47901.011079
558.089735	47893.184687
558.446994	47817.267431
558.804197	48287.896951
559.161345	48221.129389
559.518437	47472.959144
559.875474	47769.724309
560.232455	47937.985422
560.589381	48099.703116
560.946251	47799.207497
561.303065	48490.382457
561.659825	48296.953384
562.016528	47974.836256
562.373177	47680.977316
562.729770	48185.342238
563.086307	47681.814148
563.442789	48160.002878
563.799216	48185.400211
564.155587	47978.097883
564.511904	48015.689767
564.868164	48106.380125
565.224370	48344.861990
565.580520	48083.367257
565.936615	48287.193710
566.292654	48008.531328
566.648638	48251.613246
567.004567	48201.549548
567.360441	48249.652238
567.716260	48090.376982
568.072023	48381.029748
568.427732	48372.081700
568.783385	47939.046584
569.138982	48335.528293
569.494525	48301.497984
569.850013	48042.226401
570.205445	48007.097120
570.560823	47978.798603
570.916145	47857.568935
571.271412	47891.818535
571.626625	47631.112743
571.981782	47700.441211
572.336884	47374.747385
572.691931	47708.310452
573.046923	47321.583376
573.401860	47156.601534
573.756743	47141.490676
574.111570	47250.331708
574.466342	47116.310112
574.821059	47227.903614
575.175722	46750.539112
575.530330	46769.738347
575.884882	46508.626742
576.239380	46466.094527
576.593823	46425.825790
576.948211	46352.663525
577.302544	45886.737401
577.656823	45925.065294
578.011047	46124.475696
578.365216	45868.546397
578.719330	45649.135217
579.073389	45512.260329
579.427394	45592.218070
579.781344	45560.834367
580.135239	45213.327467
580.489080	45312.444114
580.842866	44782.833093
581.196597	45232.100724
581.550273	45185.099526
581.903895	45043.163319
582.257463	45453.399816
582.610975	44839.583883
582.964434	45126.627183
583.317837	44776.115756
583.671186	44612.568122
584.024481	44837.990878
584.377721	44367.321029
584.730906	44657.671326
585.084037	44675.237226
585.437113	44394.979319
585.790135	44446.129387
586.143103	44042.844641
586.496016	44166.569680
586.848874	44191.609091
587.201679	44197.895410
587.554428	43694.826065
587.907124	43893.097166
588.259765	43647.464424
588.612352	43898.821396
588.964884	43283.987150
589.317362	43568.968618
589.669786	43516.011297
590.022155	43270.272691
590.374470	43723.343872
590.726731	43229.187287
591.078937	42749.150973
591.431090	42836.068028
591.783188	42493.584638
592.135232	42185.088708
592.487222	42440.697893
592.839157	42503.062007
593.191038	42190.760006
593.542866	41950.314612
593.894639	41356.491894
594.246358	41635.257620
594.598022	41601.413833
594.949633	41217.471995
595.301190	41196.594056
595.652692	41004.195899
596.004141	41328.354694
596.355535	40360.737981
596.706876	40316.519500
597.058162	40135.161470
597.409395	40619.046704
597.760573	40686.651097
598.111698	40255.902145
598.462768	40282.264859
598.813785	40322.725160
599.164748	39752.066545
599.515657	40149.430456
599.866511	39632.777721
600.217312	40252.527093
600.568060	39209.141837
600.918753	39956.069438
601.269392	39897.239173
601.619978	39554.349970
601.970510	39778.668714
602.320988	39936.008166
602.671412	40273.944435
603.021783	40001.845636
603.372100	39654.247996
603.722363	39758.231876
604.072572	39831.464718
604.422728	39834.988484
604.772830	39664.521867
605.122878	39744.547664
605.472872	39689.730157
605.822813	39954.965425
606.172701	39794.896188
606.522534	40039.858456
606.872314	40294.348505
607.222041	40052.748687
607.571714	40429.443867
607.921333	39888.880940
608.270899	40176.350217
608.620411	40510.820692
608.969870	40310.984313
609.319276	40293.821705
609.668627	40341.725269
610.017926	40820.574391
610.367171	40990.564619
610.716362	41092.385844
611.065500	41019.480677
611.414585	41213.108876
611.763616	41505.528567
612.112594	41423.544282
612.461518	41660.786023
612.810389	41945.623818
613.159207	41803.140646
613.507971	41875.143446
613.856682	42327.027436
614.205340	42221.352248
614.553945	42924.510031
614.902496	42376.521484
615.250994	42837.275384
615.599439	42910.026796
615.947830	43110.190850
616.296169	43162.412163
616.644454	43280.753249
616.992686	43449.344557
617.340864	43959.673164
617.688990	43693.485118
618.037063	44282.039829
618.385082	44251.054377
618.733048	44556.850769
619.080961	44586.749853
619.428821	44561.768415
619.776628	44709.741404
620.124382	44515.982135
620.472083	44654.447508
620.819731	44800.449406
621.167326	44460.025327
621.514868	44443.150065
621.862357	44007.304506
622.209793	44027.940470
622.557176	43696.333370
622.904506	43446.024958
623.251783	43125.256338
623.599007	42894.069023
623.946179	42674.100796
624.293297	42617.990233
624.640363	42032.243444
624.987376	42018.483614
625.334336	41764.222938
625.681243	41414.341655
626.028097	41370.367670
626.374899	41219.652294
626.721647	41181.218537
627.068343	41063.643706
627.414987	40850.478515
627.761577	40611.641249
628.108115	40941.078132
628.454600	40386.238658
628.801032	40577.870559
629.147412	40538.259693
629.493739	40537.511082
629.840014	40196.262775
630.186236	40513.928564
630.532405	40125.031271
630.878521	40343.784580
631.224585	40225.680428
631.570597	39923.541393
631.916556	40087.759500
632.262462	40029.907218
632.608316	40057.089120
632.954117	39950.667842
633.299866	39958.713523
633.645562	39879.877439
633.991206	39361.470383
634.336797	38949.547620
634.682336	38952.547107
635.027823	38700.892707
635.373257	38514.296917
635.718639	38277.889487
636.063968	38144.994590
636.409245	37551.998622
636.754470	37611.862323
637.099642	37360.104580
637.444762	36877.116671
637.789829	37012.481734
638.134845	36680.355395
638.479808	36621.051261
638.824719	36526.496859
639.169577	36126.607330
639.514383	36185.311567
639.859137	35897.209625
640.203839	36132.170244
640.548489	35772.478876
640.893086	35827.649263
641.237632	35579.758085
641.582125	35685.221544
641.926566	35622.081092
642.270955	35580.907468
642.615292	35591.811483
642.959576	35563.936423
643.303809	35558.620527
643.647990	35699.767793
643.992118	35663.383265
644.336195	35659.433521
644.680219	35746.229587
645.024192	36030.822887
645.368112	36543.084776
645.711981	36546.464870
646.055797	37409.439832
646.399562	37320.773498
646.743274	38276.455279
647.086935	38727.694001
647.430544	38613.428687
647.774101	38742.071372
648.117606	39007.830920
648.461059	39298.478645
648.804460	38927.137171
649.147810	38299.077457
649.491108	38071.877694
649.834354	37718.971719
650.177548	36873.487040
650.520690	36434.536131
650.863781	36447.229756
651.206820	36291.085057
651.549807	35842.810533
651.892742	35357.755752
652.235626	35171.144839
652.578458	35027.902973
652.921238	34413.464457
653.263967	34744.058285
653.606644	34427.967857
653.949269	34363.191550
654.291843	33972.570183
654.634365	34381.700147
654.976836	33976.603106
655.319255	33963.967454
655.661622	33957.565188
656.003938	33736.941611
656.346203	33603.973617
656.688416	33816.491019
657.030577	33605.533854
657.372687	33459.431133
657.714746	33718.702716
658.056753	33840.514637
658.398708	33286.759011
658.740612	33337.793132
659.082465	33616.546254
659.424266	33432.881896
659.766016	33554.219949
660.107715	33427.084569
660.449362	33548.412539
660.790958	33524.222563
661.132503	33563.677153
661.473996	33578.614092
661.815438	33688.125598
662.156829	33887.367121
662.498168	33656.600742
662.839456	33695.639438
663.180693	33839.030017
663.521879	33988.598532
663.863013	33927.025878
664.204097	33941.173877
664.545129	34401.045575
664.886110	34355.067731
665.227040	34415.569139
665.567918	34543.959766
665.908746	34604.040237
666.249522	34772.623983
666.590248	34771.550218
666.930922	34870.165269
667.271545	34843.381619
667.612118	34938.659427
667.952639	34721.050459
668.293109	34769.874034
668.633528	34670.275958
668.973896	34597.217035
669.314213	34618.520952
669.654480	34360.033268
669.994695	34391.658946
670.334859	34264.563896
670.674973	34174.337324
671.015035	34324.266281
671.355047	34287.168430
671.695008	34221.071341
672.034918	34110.100422
672.374777	34198.055953
672.714585	34034.188206
673.054342	34248.391874
673.394049	34006.847508
673.733705	34297.767456
674.073310	33956.282215
674.412864	34032.680901
674.752368	33643.017353
675.091820	33936.215902
675.431223	33519.592263
675.770574	33241.945674
676.109875	33113.199646
676.449125	32833.985257
676.788324	32735.405494
677.127473	32201.418752
677.466571	32123.921094
677.805619	31773.286159
678.144616	31778.581891
678.483562	31693.807327
678.822458	31354.545235
679.161303	31289.879834
679.500098	31197.828365
679.838842	31070.163665
680.177535	31230.616030
680.516179	31485.285040
680.854771	31713.699721
681.193314	32564.061716
681.531805	33673.244112
681.870247	34445.390084
682.208638	35170.683573
682.546978	35415.640801
682.885268	35530.203542
683.223508	35018.115573
683.561697	34664.866799
683.899836	34480.443748
684.237925	33979.348014
684.575963	33824.461083
684.913951	33369.804459
685.251889	33517.613610
685.589776	33493.405989
685.927614	33472.155005
686.265401	33599.202164
686.603137	33689.887481
686.940824	34186.620096
687.278460	34569.147891
687.616046	34704.966658
687.953582	35318.313764
688.291068	35186.969021
688.628504	35469.820602
688.965889	35417.531233
689.303224	35048.133123
689.640510	34723.545830
689.977745	33996.077083
690.314930	33205.246074
690.652065	32700.077088
690.989150	31966.954687
691.326185	31066.967573
691.663170	30376.573992
692.000105	29614.369175
692.336990	28926.753269
692.673825	28460.726323
693.010610	27933.358616
693.347345	27360.973405
693.684030	26692.453391
694.020665	26413.163386
694.357251	25727.143006
694.693786	25681.102148
695.030272	25429.810711
695.366707	24875.714806
695.703093	24584.293264
696.039429	24581.623973
696.375716	24294.215189
696.711952	24276.561069
697.048139	24105.968423
697.384276	23911.321911
697.720363	24044.098341
698.056400	23843.478062
698.392388	23617.082364
698.728326	23593.691410
699.064214	23397.109095
699.400053	23334.936545
699.735842	22974.007573
700.071581	22693.623638
700.407270	22404.987333
700.742910	22212.571532
701.078501	21942.426179
701.414042	21663.481493
701.749533	21351.320644
702.084974	21006.684682
702.420366	21214.556661
702.755709	20764.071591
703.091002	20468.738114
703.426246	20476.292283
703.761440	20382.123529
704.096584	20106.747980
704.431679	20060.543284
704.766725	19955.178127
705.101721	19892.740917
705.436668	19978.337188
705.771565	19660.240381
706.106413	20000.984572
706.441212	19974.483226
706.775961	20101.795046
707.110661	20172.625778
707.445311	20524.042092
707.779913	20354.387101
708.114465	20585.002245
708.448967	20879.451000
708.783421	21559.207746
709.117825	21825.967964
709.452180	22048.466851
709.786485	22430.856014
710.120742	23245.380447
710.454949	23239.643613
710.789107	23712.718093
711.123216	24419.450054
711.457275	24550.857811
711.791286	25095.246974
712.125247	25175.643295
712.459159	24888.952876
712.793023	25560.288375
713.126837	24477.473735
713.460602	24748.607153
713.794318	24390.339911
714.127985	23992.469364
714.461602	23103.920628
714.795171	23069.169434
715.128691	22066.723389
715.462162	21513.411384
715.795584	21092.452353
716.128957	20829.407466
716.462281	20408.390461
716.795556	20174.170892
717.128782	19673.211269
717.461960	19117.809706
717.795088	19050.472494
718.128167	18637.576788
718.461198	18183.809927
718.794180	18032.212349
719.127113	17655.681006
719.459997	17451.390767
719.792833	17103.863703
720.125619	17065.651757
720.458357	16750.690547
720.791046	16582.653766
721.123686	16420.220227
721.456278	16170.080694
721.788821	16120.843745
722.121315	15859.061667
722.453761	15927.591112
722.786158	15848.001375
723.118506	15851.157137
723.450805	15716.260902
723.783056	15877.028339
724.115259	15780.596107
724.447412	15698.856318
724.779518	15932.057574
725.111574	15965.288860
725.443582	16157.200546
725.775542	16134.021321
726.107453	16605.628825
726.439315	16476.693753
726.771129	16890.632978
727.102895	17248.050786
727.434612	17452.204914
727.766281	17590.687930
728.097901	17848.260645
728.429473	17889.046100
728.760996	17880.226602
729.092471	17971.360581
729.423897	17849.634359
729.755276	17709.649079
730.086606	17830.299014
730.417887	18354.241257
730.749120	18851.334314
731.080305	19020.419655
731.411442	19368.939826
731.742530	19444.690724
732.073570	19540.097082
732.404562	19851.161480
732.735506	19667.459313
733.066401	19397.397140
733.397249	18877.334065
733.728048	18252.011698
734.058798	17410.285199
734.389501	16722.986886
734.720156	16263.384890
735.050762	15715.887856
735.381320	15360.894843
735.711831	15112.587770
736.042293	14754.328089
736.372707	14753.692904
736.703073	14544.792530
737.033391	14727.856990
737.363661	14677.581563
737.693883	14767.825779
738.024056	14937.029587
738.354182	15110.949395
738.684260	15402.670885
739.014290	15616.962774
739.344272	15807.253728
739.674207	16090.848879
740.004093	16209.956221
740.333931	16208.574945
740.663722	16243.048876
740.993464	16254.557830
741.323159	16088.908035
741.652806	15815.395192
741.982405	15611.236023
742.311956	15279.767555
742.641460	15162.759853
742.970915	14853.817781
743.300323	14528.469273
743.629683	14313.075893
743.958996	14027.227347
744.288260	13760.948559
744.617477	13462.416470
744.946647	13395.144792
745.275768	13113.286319
745.604842	12915.910022
745.933869	12749.166297
746.262847	12696.561857
746.591778	12614.806944
746.920662	12512.335410
747.249498	12509.000687
747.578286	12624.667441
747.907027	12763.079882
748.235720	12992.401970
748.564365	13013.511802
748.892963	12912.222418
749.221514	12973.636275
749.550017	12821.806803
749.878473	12780.522274
750.206881	12555.563304
750.535242	12464.046197
750.863555	12371.810726
751.191821	12277.122733
751.520039	12293.882049
751.848210	12198.120291
752.176334	12234.398954
752.504411	12139.481589
752.832440	11992.804177
753.160421	12045.141436
753.488356	11918.227867
753.816243	11828.704537
754.144082	11691.265039
754.471875	11634.337809
754.799620	11573.894375
755.127318	11545.802545
755.454969	11510.748882
755.782572	11464.980246
756.110129	11474.412245
756.437638	11389.990562
756.765100	11380.188038
757.092515	11381.730631
757.419882	11390.083823
757.747203	11392.448124
758.074477	11463.669546
758.401703	11419.365365
758.728882	11580.347052
759.056014	11617.588576
759.383099	11730.775082
759.710138	11836.730054
760.037129	11912.962382
760.364073	11933.366452
760.690970	11929.565423
761.017820	11918.311047
761.344623	12109.771549
761.671379	12433.842124
761.998088	13054.345148
762.324751	14596.560138
762.651366	17434.220597
762.977935	21088.658885
763.304456	23335.019724
763.630931	23871.096024
763.957359	22731.339030
764.283740	20838.552119
764.610074	18979.039344
764.936362	16836.001994
765.262602	15310.014478
765.588796	13831.784333
765.914943	12799.323257
766.241044	11940.454315
766.567097	11291.582197
766.893104	10735.111910
767.219064	10364.917298
767.544978	9969.060692
767.870845	9654.714503
768.196665	9460.466242
768.522438	9264.284699
768.848165	9106.370555
769.173846	8931.356817
769.499479	8809.307961
769.825066	8654.559662
770.150607	8466.335580
770.476101	8404.881394
770.801548	8284.695245
771.126949	8154.278075
771.452303	8063.842295
771.777611	7903.279025
772.102872	7873.253912
772.428087	7756.515913
772.753256	7634.051162
773.078378	7549.752988
773.403453	7397.991572
773.728482	7297.009698
774.053465	7229.231385
774.378401	7142.417675
774.703291	7047.795217
775.028135	6949.969106
775.352932	6906.600059
775.677683	6821.727193
776.002388	6739.218628
776.327046	6737.673515
776.651658	6652.364589
776.976224	6573.011786
777.300743	6558.868829
777.625216	6490.193190
777.949643	6445.936900
778.274024	6443.623011
778.598359	6379.837291
778.922647	6385.193517
779.246889	6339.200550
779.571086	6341.007804
779.895236	6353.920719
780.219339	6348.919895
780.543397	6342.424368
780.867409	6396.866309
781.191374	6392.142748
781.515294	6365.033943
781.839167	6416.219298
782.162995	6385.001953
782.486776	6337.892371
782.810511	6297.971473
783.134201	6220.783846
783.457844	6211.324121
783.781441	6163.712943
784.104993	6116.411797
784.428498	6087.934319
784.751958	6067.494961
785.075372	6048.540222
785.398739	6007.991701
785.722061	6032.038005
786.045337	6028.915010
786.368568	6142.484645
786.691752	6160.680689
787.014891	6404.586836
787.337983	6675.742940
787.661030	7114.192254
787.984031	7544.096813
788.306987	7801.997203
788.629897	7897.395998
788.952760	7812.850807
789.275579	7645.113974
789.598351	7345.308993
789.921078	7086.276865
790.243759	6812.441388
790.566395	6607.964626
790.888984	6407.591364
791.211529	6267.142297
791.534027	6100.751453
791.856480	5962.094516
792.178888	5902.145114
792.501249	5831.163148
792.823566	5727.847220
793.145836	5719.809100
793.468062	5706.157656
793.790241	5662.957488
794.112375	5699.977201
794.434464	5795.391120
794.756507	5825.020502
795.078505	5940.069715
795.400457	6157.673641
795.722364	6388.639146
796.044226	6590.723880
796.366042	6746.215750
796.687812	6697.273708
797.009538	6727.069448
797.331218	6641.992415
797.652852	6578.690646
797.974442	6453.145750
798.295986	6384.573455
798.617484	6254.083188
798.938938	6151.175594
799.260346	6083.349389
799.581709	5944.672288
799.903026	5888.723042
800.224299	5818.451878
800.545526	5701.550041
800.866708	5630.898270
801.187845	5582.835909
801.508936	5505.101317
801.829983	5478.221885
802.150984	5372.168611
802.471940	5340.714331
802.792851	5326.369728
803.113717	5298.608094
803.434538	5272.439464
803.755314	5243.767902
804.076045	5228.672166
804.396731	5192.784192
804.717372	5209.356985
805.037967	5211.103745
805.358518	5238.023507
805.679024	5290.950581
805.999485	5300.853928
806.319901	5318.361855
806.640272	5335.078321
806.960598	5377.464343
807.280879	5373.567531
807.601115	5414.670579
807.921306	5374.898395
808.241453	5370.747005
808.561554	5382.167739
808.881611	5350.504252
809.201623	5344.921174
809.521590	5300.395183
809.841513	5285.158295
810.161390	5302.704031
810.481223	5213.977203
810.801011	5203.456315
811.120755	5176.750802
811.440453	5123.949757
811.760107	5097.433288
812.079716	5072.489658
812.399281	5018.756000
812.718801	5015.038149
813.038276	4977.859639
813.357707	4945.631543
813.677093	4968.533504
813.996434	4905.582096
814.315731	4930.929017
814.634983	4921.988531
814.954191	4931.352474
815.273354	4987.589066
815.592473	5031.487434
815.911547	5107.359320
816.230577	5159.036188
816.549562	5246.187655
816.868502	5303.820647
817.187399	5359.580849
817.506250	5441.469352
817.825058	5465.765193
818.143821	5627.611438
818.462539	5795.640657
818.781213	6024.962746
819.099843	6384.112190
819.418429	7016.514857
819.736970	7639.684652
820.055466	8356.970268
820.373919	9279.980331
820.692327	10748.828889
821.010691	13478.656547
821.329011	19739.825076
821.647286	29377.717248
821.965517	39801.608484
822.283704	45360.859355
822.601847	46958.504353
822.919945	42434.804784
823.237999	37316.790986
823.556010	32115.293159
823.873976	27364.776956
824.191897	23080.486825
824.509775	19951.745102
824.827609	17118.984644
825.145398	15517.097516
825.463144	14727.297422
825.780845	15008.752603
826.098502	16242.083495
826.416116	18681.092028
826.733685	20939.218920
827.051210	21450.656581
827.368692	20029.842657
827.686129	17477.556876
828.003522	14985.071783
828.320872	12767.286725
828.638177	11098.311921
828.955439	9836.443058
829.272656	8760.386084
829.589830	7906.258347
829.906960	7161.649677
830.224046	6615.687674
830.541088	6201.367842
830.858086	5936.097286
831.175041	5728.515173
831.491952	5664.996635
831.808819	5698.424526
832.125642	5937.647440
832.442421	6493.225444
832.759157	7601.334074
833.075849	9363.729020
833.392497	11214.417256
833.709101	12344.815347
834.025662	12101.146135
834.342179	11066.466952
834.658653	9765.135936
834.975083	8652.729723
835.291469	7747.222546
835.607811	6996.251939
835.924110	6465.030271
836.240366	5967.097861
836.556578	5509.719014
836.872746	5146.950021
837.188871	4872.330645
837.504952	4648.974762
837.820990	4477.656190
838.136984	4358.248899
838.452935	4308.096980
838.768842	4342.885983
839.084706	4620.151965
839.400526	5363.719637
839.716303	6266.728922
840.032037	6845.486151
840.347727	6706.982970
840.663373	6109.235714
840.978977	5525.931365
841.294537	5076.852777
841.610054	4743.075460
841.925527	4499.088655
842.240957	4285.305924
842.556344	4100.681226
842.871687	3937.977985
843.186987	3786.519039
843.502244	3667.265503
843.817458	3576.255032
844.132629	3500.768795
844.447756	3449.583439
844.762840	3405.501069
845.077881	3363.961962
845.392879	3332.081705
845.707833	3309.215031
846.022745	3276.820576
846.337613	3265.866149
846.652438	3237.819689
846.967221	3230.399111
847.281960	3209.453117
847.596656	3200.404246
847.911309	3190.639531
848.225919	3173.822241
848.540485	3164.627177
848.855009	3159.412103
849.169490	3142.988024
849.483928	3138.148516
849.798323	3133.182980
850.112675	3123.463635
850.426984	3122.841052
850.741251	3111.853858
851.055474	3111.962242
851.369654	3113.497274
851.683792	3108.209103
851.997887	3112.720936
852.311938	3113.096502
852.625947	3112.725977
852.939914	3103.858588
853.253837	3111.440483
853.567718	3110.696913
853.881555	3102.868001
854.195350	3110.091974
854.509103	3106.127107
854.822812	3104.166098
855.136479	3099.629060
855.450103	3101.080912
855.763685	3095.059254
856.077224	3097.035386
856.390720	3104.486211
856.704173	3116.053139
857.017584	3121.800054
857.330953	3128.139305
857.644278	3134.760861
857.957561	3136.931078
858.270802	3133.936632
858.584000	3135.658186
858.897155	3127.710807
859.210268	3119.619755
859.523339	3106.767333
859.836367	3103.102415
860.149352	3099.344234
860.462295	3097.554625
860.775195	3084.256061
861.088054	3081.669949
861.400869	3081.271698
861.713642	3080.137438
862.026373	3087.537852
862.339062	3090.307966
862.651708	3104.108125
862.964312	3116.509363
863.276873	3126.374901
863.589392	3155.507729
863.901869	3182.810619
864.214303	3201.682178
864.526696	3223.444839
864.839045	3239.478229
865.151353	3256.156887
865.463619	3252.557503
865.775842	3255.919952
866.088023	3259.897423
866.400162	3252.391145
866.712258	3256.285436
867.024313	3256.388780
867.336325	3252.428953
867.648296	3256.653440
867.960224	3251.967688
868.272110	3257.034047
868.583954	3254.896598
868.895755	3267.101232
869.207515	3263.327928
869.519233	3281.796195
869.830909	3285.168727
870.142542	3299.583906
870.454134	3302.520378
870.765684	3319.347750
871.077191	3338.436079
871.388657	3350.973429
871.700081	3364.370295
872.011463	3387.489027
872.322803	3407.144485
872.634101	3424.508740
872.945357	3445.432049
873.256571	3475.532778
873.567744	3489.685818
873.878874	3493.731344
874.189963	3512.023171
874.501010	3511.763551
874.812015	3510.362110
875.122979	3530.287271
875.433900	3525.190664
875.744780	3534.126110
876.055618	3536.311450
876.366415	3536.631563
876.677169	3540.301523
876.987882	3560.108217
877.298554	3582.294335
877.609183	3622.235397
877.919771	3667.565452
878.230317	3736.843509
878.540822	3846.410467
878.851285	4001.196575
879.161707	4230.614446
879.472087	4609.563021
879.782425	5253.225106
880.092722	6459.064065
880.402977	8428.990712
880.713191	10849.329332
881.023363	13275.256071
881.333494	14648.431091
881.643583	15138.317819
881.953631	14739.623043
882.263637	13903.852668
882.573602	12870.625337
882.883526	11889.994885
883.193408	10911.448951
883.503248	9979.846240
883.813048	9125.136250
884.122806	8340.165582
884.432522	7551.285498
884.742197	6870.704523
885.051831	6282.580831
885.361424	5774.556031
885.670975	5362.419019
885.980485	5024.543244
886.289954	4749.162654
886.599382	4525.789127
886.908768	4336.488759
887.218113	4170.050023
887.527417	4032.605484
887.836680	3907.536978
888.145901	3804.284065
888.455082	3720.694172
888.764221	3648.164571
889.073319	3589.074687
889.382376	3553.317782
889.691392	3528.424565
890.000366	3520.353677
890.309300	3512.635671
890.618193	3516.661032
890.927044	3510.289014
891.235855	3518.982483
891.544625	3533.538815
891.853353	3565.454360
892.162041	3625.502064
892.470687	3713.951629
892.779293	3845.248481
893.087858	4015.765510
893.396381	4306.940035
893.704864	4723.538469
894.013306	5300.904339
894.321707	5878.769284
894.630068	6237.918728
894.938387	6279.725017
895.246665	6108.713955
895.554903	5789.124966
895.863100	5446.691988
896.171256	5172.717879
896.479371	4926.631434
896.787446	4697.352195
897.095480	4493.739991
897.403473	4342.749872
897.711425	4195.381821
898.019336	4064.788210
898.327207	3943.699695
898.635038	3839.272193
898.942827	3730.715986
899.250576	3640.035711
899.558284	3556.866755
899.865952	3501.472036
900.173579	3435.261521
900.481165	3388.880385
900.788711	3344.026719
901.096216	3312.801812
901.403681	3286.648306
901.711105	3273.700102
902.018489	3267.340686
902.325832	3302.147333
902.633135	3360.939790
902.940397	3538.658107
903.247619	3945.088533
903.554800	4711.354000
903.861941	5696.261871
904.169041	6419.990082
904.476101	6651.507593
904.783121	6379.973402
905.090100	5976.360981
905.397039	5550.015477
905.703938	5181.993602
906.010796	4849.776523
906.317614	4588.115432
906.624391	4341.363554
906.931129	4135.442502
907.237826	3948.725725
907.544483	3776.303140
907.851099	3595.668516
908.157675	3434.706994
908.464211	3291.049233
908.770707	3182.036802
909.077163	3098.215016
909.383578	3037.716129
909.689954	2991.997904
909.996289	2958.948100
910.302584	2937.369441
910.608839	2923.440733
910.915054	2912.226686
911.221229	2905.489184
911.527363	2913.907911
911.833458	2918.376894
912.139513	2928.809562
912.445527	2943.287755
912.751502	2979.435349
913.057436	3024.099972
913.363331	3084.498036
913.669186	3175.314423
913.975000	3295.876138
914.280775	3486.842607
914.586510	3766.893827
914.892205	4151.322137
915.197859	4662.273326
915.503475	5251.974900
915.809050	5754.396457
916.114585	6045.931425
916.420081	6115.088494
916.725536	6052.379061
917.030952	5814.025745
917.336328	5603.124033
917.641665	5391.922372
917.946961	5162.378473
918.252218	4956.391885
918.557435	4728.405703
918.862612	4523.588663
919.167750	4347.541488
919.472848	4154.389679
919.777906	3979.474243
920.082925	3816.670180
920.387904	3655.028102
920.692843	3544.392419
920.997743	3440.582459
921.302603	3344.256091
921.607423	3271.318157
921.912204	3208.613765
922.216946	3154.171824
922.521647	3105.721294
922.826310	3062.155642
923.130932	3021.861700
923.435516	2982.719661
923.740059	2951.703962
924.044564	2921.333530
924.349028	2896.117679
924.653454	2865.913606
924.957840	2838.651046
925.262186	2817.339568
925.566493	2794.901392
925.870761	2770.371137
926.174989	2758.045516
926.479178	2740.328381
926.783328	2725.366236
927.087438	2714.686552
927.391509	2699.432020
927.695541	2687.527336
927.999533	2674.846313
928.303486	2669.033863
928.607400	2659.082625
928.911275	2654.966523
929.215110	2648.985194
929.518906	2645.050573
929.822663	2646.540234
930.126381	2643.457569
930.430060	2646.217600
930.733699	2648.695327
931.037299	2654.152377
931.340861	2654.343940
931.644383	2655.435350
931.947866	2654.318735
932.251309	2652.052736
932.554714	2652.985349
932.858080	2647.372025
933.161407	2647.112405
933.464694	2641.335243
933.767943	2641.110912
934.071153	2634.176804
934.374323	2631.658748
934.677455	2626.063067
934.980548	2622.846811
935.283602	2619.829681
935.586617	2618.665174
935.889593	2627.293109
936.192530	2624.331431
936.495428	2631.081536
936.798287	2636.833492
937.101108	2652.410658
937.403890	2675.907476
937.706632	2699.207689
938.009336	2732.199520
938.312002	2763.797473
938.614628	2786.149949
938.917216	2806.538896
939.219765	2818.297387
939.522275	2826.756443
939.824747	2828.868687
940.127179	2826.615291
940.429573	2817.808395
940.731929	2817.611790
941.034246	2806.367496
941.336524	2809.016623
941.638763	2799.829120
941.940964	2795.312246
942.243126	2776.352466
942.545250	2767.487597
942.847335	2751.618045
943.149381	2736.686147
943.451389	2725.714076
943.753359	2709.358052
944.055290	2704.316898
944.357182	2691.134281
944.659036	2688.409537
944.960851	2684.114474
945.262628	2679.542148
945.564367	2678.609534
945.866067	2679.050635
946.167729	2677.296314
946.469352	2674.354801
946.770937	2671.957732
947.072484	2666.074705
947.373992	2666.155364
947.675462	2663.652431
947.976893	2659.087666
948.278286	2655.032058
948.579641	2652.040133
948.880958	2648.881850
949.182236	2649.481747
949.483476	2645.826911
949.784678	2645.539565
950.085841	2644.062507
950.386967	2649.287663
950.688054	2650.699186
950.989103	2662.634118
951.290114	2671.627536
951.591087	2681.598939
951.892021	2691.908098
952.192917	2705.436035
952.493776	2713.675801
952.794596	2721.378684
953.095378	2725.086452
953.396122	2721.945813
953.696828	2718.200236
953.997496	2712.566747
954.298126	2702.645756
954.598718	2694.925229
954.899272	2684.961388
955.199788	2673.321364
955.500266	2660.012718
955.800706	2646.938485
956.101108	2626.378139
956.401472	2618.728188
956.701798	2600.948039
957.002087	2587.198292
957.302337	2577.509194
957.602550	2566.476629
957.902724	2559.799621
958.202861	2545.628937
958.502960	2536.895138
958.803022	2530.157636
959.103045	2523.243693
959.403031	2516.982580
959.702979	2509.128463
960.002889	2505.390447
960.302762	2501.160919
960.602596	2493.841164
960.902393	2491.537356
961.202153	2489.210864
961.501875	2485.087200
961.801559	2484.043681
962.101205	2478.863896
962.400814	2480.431694
962.700385	2476.577732
962.999918	2474.311734
963.299414	2475.816518
963.598873	2472.514562
963.898293	2470.540951
964.197677	2468.476598
964.497022	2469.852833
964.796331	2466.586165
965.095601	2466.465178
965.394835	2466.999540
965.694030	2462.207923
965.993189	2464.050465
966.292309	2461.113993
966.591393	2461.562656
966.890439	2461.179528
967.189447	2460.776236
967.488419	2463.899230
967.787353	2461.471915
968.086249	2460.362861
968.385108	2462.197841
968.683930	2462.021401
968.982714	2468.655559
969.281462	2466.596248
969.580172	2471.334932
969.878844	2469.310909
970.177480	2475.670325
970.476078	2476.592856
970.774639	2476.638226
971.073162	2482.279277
971.371649	2480.789616
971.670098	2480.479585
971.968510	2485.419916
972.266885	2485.664412
972.565223	2490.980309
972.863524	2490.327479
973.161788	2491.560042
973.460014	2492.858139
973.758204	2494.751092
974.056356	2494.168839
974.354471	2495.754282
974.652550	2492.815289
974.950591	2493.846205
975.248595	2491.529795
975.546563	2492.296050
975.844493	2489.762870
976.142386	2488.074084
976.440243	2484.487303
976.738062	2483.121150
977.035845	2484.814978
977.333590	2481.540748
977.631299	2480.509832
977.928971	2476.756693
978.226606	2474.374748
978.524204	2474.959522
978.821765	2471.627319
979.119290	2473.033801
979.416777	2470.692185
979.714228	2472.562453
980.011642	2472.214614
980.309020	2478.001858
980.606360	2479.433546
980.903664	2490.660196
981.200931	2502.590086
981.498162	2526.732172
981.795356	2552.608415
982.092513	2595.916967
982.389633	2635.056486
982.686717	2685.631862
982.983764	2714.172354
983.280775	2736.053482
983.577749	2736.073647
983.874686	2726.898747
984.171587	2711.626572
984.468451	2692.583613
984.765279	2676.562826
985.062070	2654.716986
985.358824	2634.746455
985.655543	2616.852879
985.952224	2593.635845
986.248869	2563.489745
986.545478	2536.060827
986.842050	2514.588032
987.138586	2497.059940
987.435086	2479.879688
987.731549	2470.142699
988.027975	2464.562142
988.324366	2453.713579
988.620719	2452.697787
988.917037	2449.693259
989.213318	2447.880964
989.509563	2444.011878
989.805772	2442.703699
990.101944	2439.510128
990.398080	2439.648760
990.694180	2438.171702
990.990244	2441.098092
991.286271	2436.238419
991.582262	2437.654983
991.878217	2438.683379
992.174136	2442.285283
992.470019	2442.491971
992.765865	2444.526076
993.061676	2445.567074
993.357450	2450.240224
993.653188	2452.387756
993.948890	2456.370267
994.244556	2465.535085
994.540186	2474.639409
994.835780	2487.978302
995.131337	2501.211331
995.426859	2516.773372
995.722345	2539.128369
996.017795	2554.559341
996.313208	2574.539954
996.608586	2580.806109
996.903928	2586.961357
997.199234	2583.500605
997.494504	2580.491037
997.789738	2572.558781
998.084936	2562.375650
998.380099	2548.756973
998.675225	2538.299099
998.970316	2524.229239
999.265371	2511.966632
999.560390	2496.323932
999.855373	2487.572489
1000.150320	2472.491877
1000.445232	2469.454582
1000.740108	2460.773715
1001.034948	2453.711058
1001.329752	2449.874740
1001.624521	2444.959615
1001.919254	2433.874118
1002.213951	2437.092895
1002.508613	2429.793304
1002.803239	2431.519899
1003.097829	2427.716349
1003.392384	2427.378591
1003.686903	2428.139806
1003.981386	2424.979002
1004.275834	2424.764753
1004.570246	2426.350196
1004.864623	2423.232242
1005.158964	2422.909608
1005.453270	2421.578744
1005.747540	2420.661254
1006.041775	2419.862231
1006.335974	2421.162849
1006.630138	2418.173444
1006.924266	2417.192940
1007.218359	2420.746953
1007.512416	2416.358629
1007.806438	2417.767632
1008.100425	2419.380801
1008.394376	2417.661767
1008.688292	2419.252251
1008.982172	2416.681263
1009.276017	2416.088927
1009.569827	2417.475245
1009.863602	2416.623290
1010.157341	2415.965419
1010.451045	2414.979873
1010.744714	2412.965933
1011.038347	2415.821746
1011.331945	2416.197312
1011.625508	2416.235121
1011.919036	2411.226734
1012.212528	2414.037178
1012.505986	2413.994328
1012.799408	2415.869637
1013.092795	2412.345871
1013.386147	2409.684141
1013.679464	2409.840417
1013.972745	2411.309913
1014.265992	2415.423495
1014.559204	2414.914338
1014.852380	2412.779410
1015.145521	2412.310582
1015.438628	2413.056673
1015.731699	2410.785633
1016.024736	2411.614903
1016.317737	2414.579102
1016.610703	2413.585994
1016.903635	2409.742115
1017.196531	2411.070459
1017.489393	2413.379307
1017.782219	2409.487536
1018.075011	2415.683114
1018.367768	2414.478279
1018.660490	2417.598753
1018.953177	2417.598753
1019.245829	2417.598753
