Dividing Wavelength (nm)	Counts (n)	Blue Motor Position (mm): 20.200000	Red Motor Position (mm): 0.000000	
326.493990	1971.262553
326.888308	1971.262553
327.282561	1971.262553
327.676750	1948.300097
328.070874	1949.449480
328.464933	1954.702363
328.858929	1966.218879
329.252859	1977.924438
329.646726	1992.309370
330.040528	2008.897287
330.434265	2024.479494
330.827938	2046.605118
331.221547	2066.182439
331.615091	2086.848649
332.008571	2105.208531
332.401986	2129.471605
332.795338	2148.902732
333.188625	2170.478871
333.581847	2188.349761
333.975006	2203.097657
334.368100	2224.031048
334.761129	2237.937071
335.154095	2255.339134
335.546996	2289.495472
335.939833	2352.915708
336.332606	2367.194776
336.725315	2378.194574
337.117960	2387.404762
337.510540	2396.405742
337.903056	2404.542164
338.295508	2410.200860
338.687896	2415.594894
339.080220	2424.502613
339.472480	2428.482604
339.864676	2435.736824
340.256807	2435.325970
340.648875	2435.315888
341.040879	2438.635488
341.432818	2442.471806
341.824694	2441.135900
342.216506	2442.723864
342.608253	2442.723864
342.999937	2442.655808
343.391557	2440.263781
343.783113	2439.817638
344.174605	2435.729263
344.566033	2431.968562
344.957397	2434.637853
345.348697	2430.093253
345.739934	2426.355237
346.131106	2427.983530
346.522215	2427.353386
346.913260	2424.341296
347.304241	2424.273241
347.695159	2422.171079
348.086012	2419.988260
348.476802	2417.835687
348.867528	2419.083373
349.258191	2416.676222
349.648789	2412.434091
350.039324	2410.183216
350.429796	2417.422312
350.820203	2412.237486
351.210548	2409.137176
351.600828	2407.995355
351.991045	2410.170613
352.381198	2411.105747
352.771288	2410.130283
353.161314	2409.976528
353.551276	2408.050808
353.941175	2407.861764
354.331010	2408.610376
354.720782	2410.326888
355.110490	2414.120357
355.500135	2409.553071
355.889717	2412.146745
356.279235	2410.468041
356.668689	2409.608524
357.058080	2411.405695
357.447408	2408.857392
357.836672	2406.964439
358.225873	2407.667680
358.615010	2407.970149
359.004084	2411.783782
359.393095	2412.454255
359.782043	2415.103382
360.170927	2414.324523
360.559748	2416.567837
360.948505	2417.487848
361.337199	2416.227559
361.725830	2419.907601
362.114398	2419.774011
362.502903	2419.022879
362.891344	2419.622776
363.279722	2416.288053
363.668037	2416.434246
364.056289	2419.622776
364.444478	2418.100348
364.832603	2418.491037
365.220665	2423.161666
365.608665	2423.131419
365.996601	2421.510688
366.384474	2420.578075
366.772284	2422.695359
367.160031	2421.205698
367.547715	2423.801893
367.935336	2419.277457
368.322893	2422.279464
368.710388	2420.565472
369.097820	2427.189548
369.485189	2424.421955
369.872495	2423.023034
370.259738	2425.704928
370.646918	2425.347006
371.034035	2426.783735
371.421090	2426.294743
371.808081	2425.709969
372.195010	2424.081677
372.581875	2425.531008
372.968678	2425.936821
373.355418	2428.132244
373.742096	2428.550660
374.128710	2430.814138
374.515262	2426.423293
374.901751	2428.038983
375.288177	2428.517892
375.674540	2429.516041
376.060841	2433.881680
376.447079	2430.748603
376.833254	2428.974117
377.219367	2426.715680
377.605417	2430.478901
377.991404	2429.226174
378.377329	2425.251224
378.763191	2426.960176
379.148991	2431.819848
379.534727	2430.022677
379.920402	2432.865887
380.306013	2435.280600
380.691563	2433.964859
381.077049	2433.392688
381.462474	2430.965372
381.847835	2434.476536
382.233134	2431.751792
382.618371	2439.517690
383.003545	2432.820517
383.388657	2434.789087
383.773706	2437.097936
384.158693	2435.167174
384.543618	2436.631629
384.928480	2434.658018
385.313280	2433.448141
385.698017	2433.896803
386.082692	2437.344952
386.467305	2435.809921
386.851856	2436.432504
387.236344	2437.115580
387.620770	2439.799994
388.005133	2439.336208
388.389435	2439.089192
388.773674	2436.286310
389.157851	2440.341918
389.541965	2438.600200
389.926018	2439.600869
390.310008	2438.494336
390.693936	2441.266970
391.077802	2438.176743
391.461606	2441.246806
391.845348	2441.841662
392.229027	2441.456013
392.612645	2443.394337
392.996200	2443.716971
393.379694	2442.514656
393.763125	2443.457352
394.146494	2442.108843
394.529801	2445.317537
394.913047	2442.224789
395.296230	2445.972887
395.679351	2445.143618
396.062410	2442.340736
396.445408	2446.103957
396.828343	2442.839810
397.211217	2440.478030
397.594028	2443.404419
397.976778	2443.290993
398.359466	2447.165120
398.742092	2441.917279
399.124656	2445.660336
399.507158	2447.260902
399.889598	2446.487085
400.271977	2446.063628
400.654294	2447.845676
401.036549	2445.287290
401.418742	2447.817950
401.800874	2448.382559
402.182944	2446.287959
402.564952	2446.547579
402.946898	2449.421037
403.328783	2450.043619
403.710606	2447.139914
404.092367	2452.418002
404.474067	2448.624534
404.855705	2450.222580
405.237282	2449.602518
405.618797	2450.824998
406.000250	2450.164607
406.381642	2452.362550
406.762972	2453.648044
407.144240	2452.586881
407.525447	2452.385235
407.906593	2449.768876
408.287677	2451.001438
408.668700	2451.765173
409.049661	2454.678960
409.430560	2454.159721
409.811399	2452.566717
410.192176	2452.231480
410.572891	2452.493620
410.953545	2453.731223
411.334138	2452.536470
411.714669	2452.415482
412.095139	2454.484876
412.475547	2452.211315
412.855894	2455.649382
413.236180	2454.615946
413.616405	2454.726851
413.996568	2454.167283
414.376670	2456.788683
414.756711	2453.643003
415.136691	2456.438323
415.516609	2454.252982
415.896466	2456.955041
416.276262	2456.677777
416.655997	2454.106789
417.035670	2455.334310
417.415283	2455.762808
417.794834	2451.389607
418.174324	2458.827830
418.553753	2457.197016
418.933121	2459.329424
419.312428	2460.123406
419.691674	2456.622325
420.070859	2460.902264
420.449983	2460.715742
420.829045	2459.631894
421.208047	2460.625001
421.586988	2462.220526
421.965867	2459.629373
422.344686	2461.393777
422.723444	2460.244394
423.102141	2462.759930
423.480777	2461.628191
423.859352	2462.170115
424.237866	2462.104580
424.616319	2465.882924
424.994712	2464.806638
425.373044	2463.392594
425.751314	2464.138685
426.129524	2461.434106
426.507673	2463.984930
426.885762	2469.477267
427.263789	2467.533902
427.641756	2463.102728
428.019662	2466.772688
428.397508	2465.088943
428.775292	2467.480970
429.153016	2463.208592
429.530679	2468.567339
429.908282	2466.603809
430.285824	2467.869139
430.663305	2469.678913
431.040726	2468.043059
431.418086	2466.203038
431.795385	2472.668318
432.172624	2468.799232
432.549802	2470.871146
432.926920	2472.615385
433.303977	2470.548512
433.680974	2469.759572
434.057910	2469.978862
434.434786	2469.827627
434.811601	2473.222844
435.188355	2471.244192
435.565050	2472.166723
435.941683	2473.820221
436.318257	2475.304841
436.694770	2471.365179
437.071222	2470.682103
437.447614	2470.805611
437.823946	2471.072792
438.200218	2476.325675
438.576429	2473.868112
438.952580	2474.926754
439.328670	2474.367186
439.704700	2475.350211
440.080670	2473.835345
440.456580	2478.246354
440.832429	2477.742239
441.208218	2476.570171
441.583947	2478.009420
441.959616	2475.481281
442.335224	2480.267857
442.710773	2477.354070
443.086261	2479.370532
443.461689	2480.393886
443.837057	2479.541931
444.212365	2476.993628
444.587612	2479.352888
444.962800	2482.874133
445.337927	2482.251551
445.712995	2477.699389
446.088002	2479.436067
446.462949	2480.587970
446.837837	2480.708958
447.212664	2480.104019
447.587431	2489.203302
447.962139	2487.910246
448.336786	2495.025835
448.711374	2493.861328
449.085901	2489.662047
449.460369	2489.969558
449.834776	2488.560555
450.209124	2494.456184
450.583412	2491.623056
450.957640	2493.389980
451.331808	2493.982316
451.705917	2491.418889
452.079965	2491.222284
452.453954	2492.399394
452.827883	2496.124806
453.201752	2496.268479
453.575562	2492.860659
453.949311	2497.311998
454.323001	2496.197903
454.696632	2500.271155
455.070202	2499.782163
455.443713	2502.451454
455.817164	2498.950373
456.190556	2501.448265
456.563888	2504.636795
456.937160	2503.623523
457.310373	2505.723163
457.683526	2505.755931
458.056619	2508.606703
458.429653	2507.273318
458.802628	2508.392454
459.175542	2511.412105
459.548398	2513.983094
459.921194	2516.914525
460.293930	2521.539783
460.666607	2528.249559
461.039224	2529.033459
461.411782	2532.549663
461.784280	2534.946732
462.156719	2532.300126
462.529099	2531.067564
462.901419	2530.981865
463.273680	2532.277441
463.645882	2530.334076
464.018024	2533.416742
464.390106	2541.369162
464.762130	2546.264122
465.134094	2557.009342
465.505999	2571.502659
465.877845	2584.423137
466.249631	2590.439754
466.621358	2586.487489
466.993026	2585.365832
467.364634	2584.193764
467.736184	2578.620768
468.107674	2576.339646
468.479105	2577.375603
468.850477	2574.945767
469.221790	2572.888977
469.593043	2570.600293
469.964238	2568.641804
470.335373	2569.970148
470.706449	2579.865933
471.077467	2588.806420
471.448425	2602.372165
471.819324	2616.633589
472.190164	2615.537138
472.560945	2604.237392
472.931667	2596.960486
473.302330	2594.081987
473.672934	2595.364961
474.043479	2598.606423
474.413965	2595.238932
474.784393	2593.192224
475.154761	2604.169336
475.525070	2604.552464
475.895321	2604.504573
476.265513	2606.258894
476.635645	2618.135853
477.005719	2619.469238
477.375734	2625.576596
477.745691	2631.668830
478.115588	2639.696868
478.485427	2648.617190
478.855207	2669.064110
479.224928	2687.272757
479.594591	2699.847916
479.964194	2700.377237
480.333739	2705.378061
480.703226	2711.182950
481.072653	2722.250803
481.442022	2732.592730
481.811333	2737.734707
482.180584	2740.933319
482.549777	2746.760893
482.918912	2749.692324
483.287988	2759.671288
483.657005	2760.724889
484.025964	2766.867535
484.394864	2776.554112
484.763706	2789.323355
485.132489	2789.570372
485.501213	2799.453554
485.869879	2814.070379
486.238487	2828.145281
486.607036	2842.991479
486.975527	2852.506657
487.343959	2872.910727
487.712333	2888.664333
488.080648	2906.474729
488.448905	2932.814758
488.817104	2950.216821
489.185244	2986.923983
489.553326	3035.805531
489.921350	3101.897579
490.289315	3179.370031
490.657222	3227.324007
491.025070	3266.113165
491.392861	3284.115126
491.760593	3293.436219
492.128267	3295.321611
492.495883	3304.214206
492.863440	3314.266267
493.230939	3329.573731
493.598380	3351.497709
493.965763	3384.882750
494.333088	3413.007347
494.700354	3443.564301
495.067563	3486.237669
495.434713	3535.088970
495.801805	3592.658947
496.168839	3635.526399
496.535815	3681.826876
496.902733	3737.476173
497.269593	3790.007517
497.636395	3848.069007
498.003139	3927.010955
498.369825	3974.092812
498.736453	4054.751273
499.103023	4109.180611
499.469535	4177.992361
499.835989	4258.073611
500.202385	4317.229030
500.568723	4403.679778
500.935003	4502.103265
501.301226	4583.268363
501.667390	4709.251839
502.033497	4814.019618
502.399546	4871.899626
502.765537	4926.422226
503.131470	5046.363879
503.497345	5173.559752
503.863163	5190.742525
504.228923	5334.700235
504.594625	5478.000074
504.960269	5534.587026
505.325856	5701.383683
505.691385	5768.063025
506.056856	5898.883488
506.422270	6058.688065
506.787625	6149.920347
507.152924	6288.393281
507.518164	6427.516524
507.883347	6485.068857
508.248472	6643.766901
508.613540	6828.182391
508.978550	7004.297621
509.343503	7117.874817
509.708398	7287.297916
510.073236	7498.998651
510.438016	7660.607961
510.802738	7736.641164
511.167403	7976.826939
511.532010	8181.185233
511.896561	8382.523877
512.261053	8673.796705
512.625488	8777.692365
512.989866	8923.842977
513.354186	9070.175070
513.718449	9240.107325
514.082655	9539.141009
514.446803	9662.679526
514.810894	9941.351990
515.174927	10116.557292
515.538904	10273.138051
515.902822	10595.540004
516.266684	10683.921513
516.630488	10959.912083
516.994235	11124.914090
517.357925	11441.546442
517.721558	11693.538599
518.085133	11968.205867
518.448651	12205.432484
518.812112	12367.190508
519.175516	12601.233638
519.538863	12918.085280
519.902152	13125.848874
520.265385	13461.393115
520.628560	13696.328529
520.991678	13863.596534
521.354739	14149.024144
521.717743	14467.466271
522.080690	14674.955122
522.443580	15069.574124
522.806413	15321.926724
523.169189	15529.171079
523.531908	15819.322251
523.894569	16026.909404
524.257174	16314.280379
524.619722	16661.580591
524.982213	16911.465546
525.344647	17124.340870
525.707025	17401.490906
526.069345	17796.122511
526.431608	18032.635806
526.793815	18398.782371
527.155964	18481.716914
527.518057	18796.879770
527.880093	18958.509245
528.242072	19431.316543
528.603995	19558.996367
528.965860	19812.979780
529.327669	20112.588156
529.689421	20330.013122
530.051117	20573.851213
530.412755	20882.712627
530.774337	21159.078763
531.135862	21336.484528
531.497331	21685.120646
531.858743	21874.426055
532.220098	22318.483653
532.581396	22425.963574
532.942638	22514.866843
533.303824	22930.557868
533.664953	23164.565709
534.026025	23267.485906
534.387040	23765.627523
534.747999	23987.055165
535.108902	24330.577032
535.469748	24330.882022
535.830537	24634.523321
536.191270	25005.723643
536.551947	25059.575769
536.912567	25475.344933
537.273131	25795.589272
537.633638	25747.882312
537.994089	26184.801637
538.354483	26204.706633
538.714821	26790.297146
539.075103	27231.574548
539.435328	27343.765427
539.795497	27512.260953
540.155609	27748.494463
540.515665	28280.338715
540.875665	28180.647377
541.235609	28620.830848
541.595496	28842.762605
541.955328	29510.486117
542.315102	29345.632825
542.674821	29433.301011
543.034483	29710.027589
543.394090	29893.563398
543.753640	30103.086355
544.113134	30998.922078
544.472571	30575.102192
544.831953	31634.543523
545.191278	31318.735399
545.550548	31347.142301
545.909761	31887.208674
546.268918	32258.865221
546.628019	32677.797708
546.987064	32591.541046
547.346053	32270.800153
547.704986	33130.952069
548.063863	33003.673017
548.422684	33355.769886
548.781449	33446.911427
549.140158	33964.577433
549.498811	34046.917120
549.857408	33822.464786
550.215949	34647.048841
550.574434	34788.949760
550.932864	34796.884536
551.291237	35542.077980
551.649555	35427.674035
552.007817	35802.584646
552.366022	35711.296912
552.724173	36032.912445
553.082267	36536.359877
553.440305	36942.192926
553.798288	36569.480257
554.156215	36999.599065
554.514086	37342.253854
554.871902	37290.455998
555.229661	37472.305541
555.587365	37510.661160
555.945014	37748.202850
556.302606	37845.497119
556.660143	38195.728762
557.017625	38416.617000
557.375050	38406.101153
557.732421	38869.582317
558.089735	39011.957105
558.446994	39072.894572
558.804197	39628.238162
559.161345	39720.529086
559.518437	39224.638344
559.875474	39638.305347
560.232455	39932.439029
560.589381	40218.922761
560.946251	40079.476884
561.303065	40810.577782
561.659825	40774.987236
562.016528	40614.759203
562.373177	40517.437207
562.729770	41064.064642
563.086307	40757.005441
563.442789	41288.413632
563.799216	41453.750875
564.155587	41369.684594
564.511904	41540.126005
564.868164	41698.733308
565.224370	42057.366034
565.580520	41930.727208
565.936615	42230.401119
566.292654	42071.095617
566.648638	42396.776840
567.004567	42471.728716
567.360441	42596.630864
567.716260	42572.251844
568.072023	42945.125829
568.427732	43036.247206
568.783385	42710.777710
569.138982	43152.428158
569.494525	43210.905542
569.850013	43065.017071
570.205445	43148.221315
570.560823	43174.279039
570.916145	43142.280315
571.271412	43255.895320
571.626625	43105.192546
571.981782	43232.832041
572.336884	43011.520346
572.691931	43400.853699
573.046923	43098.112246
573.401860	43017.610060
573.756743	43084.445677
574.111570	43252.795010
574.466342	43180.769525
574.821059	43357.444323
575.175722	42989.614012
575.530330	43044.580233
575.884882	42873.952299
576.239380	42885.279771
576.593823	42927.607820
576.948211	42887.485276
577.302544	42521.253011
577.656823	42596.028446
578.011047	42850.576468
578.365216	42656.754185
578.719330	42515.284285
579.073389	42413.515992
579.427394	42544.376784
579.781344	42559.333887
580.135239	42276.855352
580.489080	42417.354830
580.842866	41969.284473
581.196597	42441.358284
581.550273	42437.784106
581.903895	42333.280987
582.257463	42790.939618
582.610975	42236.909249
582.964434	42543.978532
583.317837	42252.937597
583.671186	42132.895122
584.024481	42398.440421
584.377721	41978.623211
584.730906	42282.972792
585.084037	42348.585930
585.437113	42088.737134
585.790135	42165.549196
586.143103	41841.087931
586.496016	41985.360713
586.848874	42022.113245
587.201679	42060.806622
587.554428	41611.644855
587.907124	41810.820843
588.259765	41598.386620
588.612352	41878.601677
588.964884	41335.021620
589.317362	41623.887297
589.669786	41594.031063
590.022155	41395.084448
590.374470	41814.722697
590.726731	41390.617985
591.078937	40951.026849
591.431090	41060.228324
591.783188	40746.945818
592.135232	40437.665988
592.487222	40713.626312
592.839157	40809.337659
593.191038	40507.072595
593.542866	40311.536319
593.894639	39741.976675
594.246358	40022.595025
594.598022	40003.078198
594.949633	39649.894959
595.301190	39618.997727
595.652692	39477.631171
596.004141	39819.489457
596.355535	38884.443639
596.706876	38841.671969
597.058162	38683.725057
597.409395	39141.154316
597.760573	39244.563505
598.111698	38824.645472
598.462768	38846.957619
598.813785	38907.955580
599.164748	38379.987976
599.515657	38777.228379
599.866511	38276.684652
600.217312	38892.660719
600.568060	37901.504338
600.918753	38623.324472
601.269392	38600.137685
601.619978	38259.965665
601.970510	38473.720670
602.320988	38673.000002
602.671412	38959.604722
603.021783	38718.655212
603.372100	38375.473623
603.722363	38509.964046
604.072572	38594.436140
604.422728	38593.649720
604.772830	38420.234028
605.122878	38524.951396
605.472872	38479.291145
605.822813	38744.241588
606.172701	38595.068805
606.522534	38823.523815
606.872314	39092.880227
607.222041	38859.028662
607.571714	39258.910629
607.921333	38707.877225
608.270899	39005.600210
608.620411	39341.018422
608.969870	39156.013117
609.319276	39152.242334
609.668627	39214.316582
610.017926	39698.741219
610.367171	39852.486329
610.716362	39962.506992
611.065500	39910.535216
611.414585	40093.229152
611.763616	40389.245706
612.112594	40315.932205
612.461518	40543.426876
612.810389	40848.996416
613.159207	40725.001675
613.507971	40805.395476
613.856682	41264.828594
614.205340	41154.137458
614.553945	41842.305370
614.902496	41305.011631
615.250994	41772.722323
615.599439	41855.616537
615.947830	42069.124525
616.296169	42113.564817
616.644454	42262.656942
616.992686	42437.779065
617.340864	42956.738127
617.688990	42683.608412
618.037063	43282.482365
618.385082	43243.937703
618.733048	43538.625913
619.080961	43561.938729
619.428821	43587.308335
619.776628	43689.318604
620.124382	43518.085731
620.472083	43649.564065
620.819731	43778.993169
621.167326	43448.353971
621.514868	43435.526755
621.862357	43015.502858
622.209793	43038.987073
622.557176	42697.998385
622.904506	42465.439876
623.251783	42116.856691
623.599007	41895.502146
623.946179	41686.016998
624.293297	41648.387305
624.640363	41059.915772
624.987376	41041.439943
625.334336	40805.881948
625.681243	40470.325104
626.028097	40432.029978
626.374899	40286.736363
626.721647	40278.052975
627.068343	40179.299292
627.414987	39935.085635
627.761577	39707.550636
628.108115	40058.553575
628.454600	39496.333851
628.801032	39696.477741
629.147412	39676.547540
629.493739	39664.925159
629.840014	39333.325621
630.186236	39680.693889
630.532405	39302.062906
630.878521	39513.458651
631.224585	39387.704548
631.570597	39091.788817
631.916556	39265.874983
632.262462	39225.132377
632.608316	39241.889173
632.954117	39134.938573
633.299866	39130.063777
633.645562	39051.797343
633.991206	38551.354439
634.336797	38138.050400
634.682336	38122.185889
635.027823	37887.865497
635.373257	37699.195273
635.718639	37462.588717
636.063968	37343.945161
636.409245	36769.452748
636.754470	36819.244225
637.099642	36591.442044
637.444762	36114.168283
637.789829	36258.299913
638.134845	35916.638232
638.479808	35865.200818
638.824719	35766.762207
639.169577	35389.845216
639.514383	35462.276515
639.859137	35161.680073
640.203839	35399.562040
640.548489	35036.455291
640.893086	35101.980208
641.237632	34872.998398
641.582125	34982.688864
641.926566	34883.045417
642.270955	34882.780757
642.615292	34889.798043
642.959576	34876.872524
643.303809	34874.518306
643.647990	35019.489287
643.992118	34986.290769
644.336195	34988.186242
644.680219	35081.112352
645.024192	35383.768105
645.368112	35888.811062
645.711981	35901.514770
646.055797	36784.689636
646.399562	36693.006171
646.743274	37644.763414
647.086935	38071.560102
647.430544	37966.348700
647.774101	38091.772608
648.117606	38323.007814
648.461059	38634.936770
648.804460	38237.484639
649.147810	37636.349728
649.491108	37379.981849
649.834354	37030.806328
650.177548	36207.691769
650.520690	35749.904589
650.863781	35760.337257
651.206820	35619.908354
651.549807	35208.598092
651.892742	34717.998040
652.235626	34534.247983
652.578458	34396.546345
652.921238	33802.622804
653.263967	34122.083244
653.606644	33801.042403
653.949269	33750.106584
654.291843	33384.065883
654.634365	33781.185298
654.976836	33369.073491
655.319255	33377.298134
655.661622	33369.333111
656.003938	33142.758451
656.346203	33013.152906
656.688416	33230.265320
657.030577	33024.240924
657.372687	32871.390619
657.714746	33148.399502
658.056753	33250.976901
658.398708	32716.057546
658.740612	32769.279527
659.082465	33042.109294
659.424266	32876.600652
659.766016	32988.335306
660.107715	32887.466859
660.449362	33004.618233
660.790958	32988.478979
661.132503	32999.249404
661.473996	33030.307953
661.815438	33140.724346
662.156829	33332.613346
662.498168	33110.053966
662.839456	33131.897285
663.180693	33289.798827
663.521879	33442.281128
663.863013	33402.738317
664.204097	33390.886564
664.545129	33853.782954
664.886110	33826.701876
665.227040	33889.285280
665.567918	34000.147815
665.908746	34061.347423
666.249522	34224.423708
666.590248	34236.630863
666.930922	34341.360834
667.271545	34301.475224
667.612118	34385.100405
667.952639	34178.360165
668.293109	34235.385698
668.633528	34132.987260
668.973896	34063.409255
669.314213	34075.117334
669.654480	33828.786393
669.994695	33859.333265
670.334859	33741.874380
670.674973	33650.468178
671.015035	33811.482632
671.355047	33767.024697
671.695008	33702.192938
672.034918	33609.339925
672.374777	33688.808674
672.714585	33526.491082
673.054342	33767.906898
673.394049	33531.501989
673.733705	33793.226094
674.073310	33465.505723
674.412864	33547.994124
674.752368	33146.451096
675.091820	33434.890796
675.431223	33014.077958
675.770574	32727.347210
676.109875	32598.207972
676.449125	32321.592298
676.788324	32257.294902
677.127473	31719.381101
677.466571	31655.542449
677.805619	31305.169654
678.144616	31299.074899
678.483562	31211.573071
678.822458	30900.821225
679.161303	30816.611270
679.500098	30735.252088
679.838842	30626.625305
680.177535	30783.884099
680.516179	31053.343855
680.854771	31310.709882
681.193314	32164.121776
681.531805	33285.470996
681.870247	34057.236362
682.208638	34789.723577
682.546978	35023.335688
682.885268	35103.865600
683.223508	34572.820371
683.561697	34222.858430
683.899836	34043.635329
684.237925	33538.791497
684.575963	33393.906215
684.913951	32928.794238
685.251889	33100.092646
685.589776	33081.931889
685.927614	33071.612647
686.265401	33211.250088
686.603137	33317.167251
686.940824	33823.725074
687.278460	34212.241760
687.616046	34352.237123
687.953582	34964.056760
688.291068	34830.677911
688.628504	35089.747848
688.965889	35043.575920
689.303224	34635.736492
689.640510	34307.766584
689.977745	33569.066147
690.314930	32756.212857
690.652065	32230.574266
690.989150	31483.203043
691.326185	30591.985017
691.663170	29892.275383
692.000105	29145.007505
692.336990	28458.049470
692.673825	28027.340847
693.010610	27493.598601
693.347345	26928.147498
693.684030	26278.567098
694.020665	26006.042322
694.357251	25334.598438
694.693786	25281.063905
695.030272	25047.633276
695.366707	24513.152501
695.703093	24224.304468
696.039429	24214.900195
696.375716	23960.710095
696.711952	23920.083436
697.048139	23758.280042
697.384276	23596.872378
697.720363	23717.474422
698.056400	23514.567980
698.392388	23289.707312
698.728326	23257.005347
699.064214	23048.120097
699.400053	22994.444411
699.735842	22641.440133
700.071581	22359.180888
700.407270	22071.822516
700.742910	21884.382334
701.078501	21612.865788
701.414042	21341.172801
701.749533	21043.812780
702.084974	20697.369564
702.420366	20893.596478
702.755709	20463.732248
703.091002	20173.182826
703.426246	20177.787920
703.761440	20083.440205
704.096584	19819.772735
704.431679	19778.062228
704.766725	19683.545635
705.101721	19623.734865
705.436668	19716.605522
705.771565	19393.225585
706.106413	19736.933975
706.441212	19714.173165
706.775961	19847.055460
707.110661	19914.448125
707.445311	20274.941037
707.779913	20122.672985
708.114465	20358.399859
708.448967	20645.175978
708.783421	21335.398160
709.117825	21603.756423
709.452180	21835.573882
709.786485	22222.769786
710.120742	23042.403428
710.454949	23051.656466
710.789107	23521.585266
711.123216	24217.125865
711.457275	24344.730072
711.791286	24884.947679
712.125247	24949.058553
712.459159	24639.488857
712.793023	25293.818024
713.126837	24192.618295
713.460602	24434.134935
713.794318	24052.431369
714.127985	23663.760928
714.461602	22779.824848
714.795171	22729.524215
715.128691	21722.001727
715.462162	21180.294459
715.795584	20768.245667
716.128957	20501.671972
716.462281	20096.010322
716.795556	19869.385251
717.128782	19368.675166
717.461960	18829.155757
717.795088	18745.475124
718.128167	18343.299432
718.461198	17893.260505
718.794180	17757.603055
719.127113	17379.466105
719.459997	17194.717899
719.792833	16846.162439
720.125619	16819.590517
720.458357	16498.290057
720.791046	16332.262175
721.123686	16171.630849
721.456278	15942.467557
721.788821	15889.026285
722.121315	15633.154960
722.453761	15710.254367
722.786158	15641.205682
723.118506	15640.988913
723.450805	15515.444018
723.783056	15670.091494
724.115259	15574.793522
724.447412	15505.341545
724.779518	15746.096971
725.111574	15774.128307
725.443582	15971.489480
725.775542	15946.848320
726.107453	16410.354689
726.439315	16299.653472
726.771129	16697.667691
727.102895	17068.847849
727.434612	17269.778159
727.766281	17398.924959
728.097901	17643.458729
728.429473	17685.738886
728.760996	17671.401845
729.092471	17752.279596
729.423897	17623.757900
729.755276	17493.522211
730.086606	17601.397862
730.417887	18130.938306
730.749120	18647.838057
731.080305	18820.023707
731.411442	19147.663419
731.742530	19224.036900
732.073570	19317.293205
732.404562	19605.286763
732.735506	19414.665612
733.066401	19127.859246
733.397249	18603.241489
733.728048	17965.689283
734.058798	17140.543139
734.389501	16461.235055
734.720156	16003.894017
735.050762	15483.760366
735.381320	15134.350431
735.711831	14892.944697
736.042293	14545.647005
736.372707	14552.855855
736.703073	14344.315923
737.033391	14536.335994
737.363661	14499.023894
737.693883	14619.431853
738.024056	14779.475885
738.354182	14953.975426
738.684260	15248.981228
739.014290	15474.905579
739.344272	15655.212528
739.674207	15940.539316
740.004093	16046.867333
740.333931	16033.987184
740.663722	16071.904223
740.993464	16066.608491
741.323159	15887.118208
741.652806	15615.392454
741.982405	15402.696091
742.311956	15062.072887
742.641460	14944.452686
742.970915	14645.126615
743.300323	14302.862515
743.629683	14095.199744
743.958996	13812.958143
744.288260	13540.508984
744.617477	13249.813368
744.946647	13171.259588
745.275768	12901.063824
745.604842	12708.539638
745.933869	12547.638610
746.262847	12505.708813
746.591778	12428.039756
746.920662	12324.323057
747.249498	12328.668531
747.578286	12455.529168
747.907027	12592.981269
748.235720	12811.800113
748.564365	12834.823063
748.892963	12737.271695
749.221514	12792.817648
749.550017	12650.881441
749.878473	12620.364816
750.206881	12390.878890
750.535242	12304.723051
750.863555	12218.496635
751.191821	12117.834875
751.520039	12139.567289
751.848210	12050.409442
752.176334	12088.853281
752.504411	11990.374341
752.832440	11838.030672
753.160421	11897.309600
753.488356	11774.484407
753.816243	11677.031341
754.144082	11536.511698
754.471875	11480.088584
754.799620	11425.376941
755.127318	11397.176727
755.454969	11356.955881
755.782572	11315.280662
756.110129	11322.797022
756.437638	11242.546894
756.765100	11239.242418
757.092515	11239.139074
757.419882	11256.611713
757.747203	11260.982394
758.074477	11332.783548
758.401703	11292.169492
758.728882	11451.290992
759.056014	11487.282310
759.383099	11605.925866
759.710138	11712.621887
760.037129	11790.991665
760.364073	11807.753502
760.690970	11791.473095
761.017820	11790.951336
761.344623	11972.959675
761.671379	12298.991259
761.998088	12925.795725
762.324751	14479.496984
762.651366	17330.607242
762.977935	20978.502111
763.304456	23175.608357
763.630931	23641.216888
763.957359	22456.523049
764.283740	20548.655526
764.610074	18683.262245
764.936362	16561.846404
765.262602	15060.255552
765.588796	13595.197941
765.914943	12568.801374
766.241044	11731.483364
766.567097	11095.745973
766.893104	10559.762935
767.219064	10198.143325
767.544978	9819.204832
767.870845	9510.663531
768.196665	9320.211260
768.522438	9124.375036
768.848165	8966.251683
769.173846	8793.617370
769.499479	8674.293258
769.825066	8520.250720
770.150607	8344.478289
770.476101	8276.984800
770.801548	8162.422059
771.126949	8022.144391
771.452303	7936.573325
771.777611	7771.210876
772.102872	7753.939883
772.428087	7636.460834
772.753256	7514.427102
773.078378	7425.309584
773.403453	7284.515199
773.728482	7180.617018
774.053465	7116.291895
774.378401	7030.642691
774.703291	6937.434277
775.028135	6842.726120
775.352932	6804.932589
775.677683	6726.010805
776.002388	6633.233410
776.327046	6638.655171
776.651658	6551.874228
776.976224	6475.488144
777.300743	6458.481812
777.625216	6389.536471
777.949643	6350.137333
778.274024	6353.555236
778.598359	6287.319515
778.922647	6290.203055
779.246889	6250.587148
779.571086	6257.506131
779.895236	6270.542555
780.219339	6263.263129
780.543397	6258.237099
780.867409	6313.364637
781.191374	6304.819881
781.515294	6276.901971
781.839167	6325.652449
782.162995	6303.289891
782.486776	6247.600264
782.810511	6208.763215
783.134201	6133.463500
783.457844	6121.316840
783.781441	6075.931332
784.104993	6034.414909
784.428498	6001.017265
784.751958	5985.722404
785.075372	5962.855730
785.398739	5920.991468
785.722061	5946.083811
786.045337	5943.117092
786.368568	6050.838988
786.691752	6078.653555
787.014891	6323.845195
787.337983	6599.513132
787.661030	7038.237189
787.984031	7456.826878
788.306987	7724.204637
788.629897	7807.121536
788.952760	7718.745068
789.275579	7545.455404
789.598351	7243.167655
789.921078	6982.497151
790.243759	6702.264450
790.566395	6502.607031
790.888984	6304.938348
791.211529	6171.093193
791.534027	6009.637638
791.856480	5871.147059
792.178888	5812.944418
792.501249	5742.673254
792.823566	5642.210619
793.145836	5636.592253
793.468062	5616.029387
793.790241	5578.291309
794.112375	5621.304954
794.434464	5715.508996
794.756507	5750.953349
795.078505	5868.888623
795.400457	6079.429892
795.722364	6321.513662
796.044226	6512.384349
796.366042	6667.651888
796.687812	6607.929338
797.009538	6644.893599
797.331218	6551.370112
797.652852	6479.949565
797.974442	6360.668304
798.295986	6290.301358
798.617484	6163.723026
798.938938	6056.185132
799.260346	5987.096118
799.581709	5850.979923
799.903026	5801.246420
800.224299	5727.801850
800.545526	5609.841370
800.866708	5549.113111
801.187845	5497.809288
801.508936	5423.618627
801.829983	5394.495881
802.150984	5292.246158
802.471940	5262.475623
802.792851	5250.117235
803.113717	5224.750149
803.434538	5198.972208
803.755314	5172.428013
804.076045	5154.078213
804.396731	5122.384479
804.717372	5140.686388
805.037967	5138.488445
805.358518	5166.938196
805.679024	5221.833841
805.999485	5235.760029
806.319901	5255.024798
806.640272	5270.864103
806.960598	5320.365714
807.280879	5308.261903
807.601115	5345.705073
807.921306	5310.860618
808.241453	5306.066481
808.561554	5315.874046
808.881611	5285.322133
809.201623	5279.736534
809.521590	5228.218463
809.841513	5215.285382
810.161390	5225.448348
810.481223	5141.462725
810.801011	5127.528976
811.120755	5102.363536
811.440453	5049.620464
811.760107	5018.521586
812.079716	4995.881764
812.399281	4943.456285
812.718801	4937.371612
813.038276	4907.666613
813.357707	4873.285944
813.677093	4893.700096
813.996434	4827.933203
814.315731	4844.546326
814.634983	4848.410370
814.954191	4853.378427
815.273354	4911.165174
815.592473	4950.839054
815.911547	5023.812277
816.230577	5078.261780
816.549562	5164.480634
816.868502	5219.056165
817.187399	5268.262868
817.506250	5351.686403
817.825058	5376.703128
818.143821	5532.878075
818.462539	5695.765317
818.781213	5922.143372
819.099843	6282.061592
819.418429	6906.882364
819.736970	7510.535331
820.055466	8226.956390
820.373919	9127.777814
820.692327	10564.846938
821.010691	13236.086306
821.329011	19413.120498
821.647286	28921.013916
821.965517	39192.619456
822.283704	44607.259787
822.601847	46065.809268
822.919945	41459.172636
823.237999	36388.986785
823.556010	31231.583931
823.873976	26555.976753
824.191897	22382.844065
824.509775	19352.160346
824.827609	16607.284844
825.145398	15064.086828
825.463144	14318.414475
825.780845	14613.712664
826.098502	15864.039806
826.416116	18300.336198
826.733685	20556.247503
827.051210	21082.349881
827.368692	19657.187962
827.686129	17113.242770
828.003522	14663.186548
828.320872	12463.312709
828.638177	10836.550007
828.955439	9602.082336
829.272656	8537.451137
829.589830	7709.877678
829.906960	6984.417831
830.224046	6464.511032
830.541088	6053.039452
830.858086	5802.516791
831.175041	5600.124546
831.491952	5548.152771
831.808819	5580.058233
832.125642	5820.375078
832.442421	6367.080651
832.759157	7461.570604
833.075849	9217.515394
833.392497	11054.589993
833.709101	12157.843992
834.025662	11905.269582
834.342179	10857.783347
834.658653	9556.275891
834.975083	8467.379099
835.291469	7566.693785
835.607811	6840.384504
835.924110	6321.352345
836.240366	5839.735630
836.556578	5398.740532
836.872746	5044.012180
837.188871	4775.890851
837.504952	4558.833890
837.820990	4393.458838
838.136984	4277.015746
838.452935	4232.477152
838.768842	4262.323303
839.084706	4539.188514
839.400526	5278.236791
839.716303	6173.036557
840.032037	6732.811322
840.347727	6588.110042
840.663373	5992.863198
840.978977	5414.151340
841.294537	4978.890555
841.610054	4651.754958
841.925527	4416.499432
842.240957	4212.557033
842.556344	4028.809495
842.871687	3869.869476
843.186987	3728.144998
843.502244	3607.379116
843.817458	3525.039430
844.132629	3448.164354
844.447756	3404.376892
844.762840	3360.042464
845.077881	3318.931855
845.392879	3290.303142
845.707833	3260.819954
846.022745	3235.737693
846.337613	3226.482134
846.652438	3202.266952
846.967221	3194.846373
847.281960	3172.115811
847.596656	3162.736744
847.911309	3151.512615
848.225919	3137.692292
848.540485	3127.042854
848.855009	3122.215949
849.169490	3108.050307
849.483928	3105.597786
849.798323	3096.677464
850.112675	3085.370156
850.426984	3087.414344
850.741251	3081.732963
851.055474	3075.013105
851.369654	3080.392017
851.683792	3078.037798
851.997887	3082.426122
852.311938	3079.663570
852.625947	3078.483940
852.939914	3070.390367
853.253837	3079.313210
853.567718	3076.661563
853.881555	3072.157292
854.195350	3075.590318
854.509103	3072.928588
854.822812	3071.842220
855.136479	3065.639080
855.450103	3068.930953
855.763685	3064.283009
856.077224	3067.209399
856.390720	3072.361458
856.704173	3086.794282
857.017584	3089.370312
857.330953	3092.994901
857.644278	3103.175511
857.957561	3107.031994
858.270802	3104.554267
858.584000	3104.967642
858.897155	3097.413472
859.210268	3088.299066
859.523339	3076.296079
859.836367	3071.643094
860.149352	3066.990109
860.462295	3064.585479
860.775195	3057.053995
861.088054	3049.724157
861.400869	3050.223231
861.713642	3047.732901
862.026373	3057.646330
862.339062	3059.950138
862.651708	3068.225192
862.964312	3087.744539
863.276873	3092.558841
863.589392	3126.909264
863.901869	3149.682676
864.214303	3172.085564
864.526696	3192.277906
864.839045	3206.010009
865.151353	3218.670867
865.463619	3220.558779
865.775842	3221.675394
866.088023	3225.700756
866.400162	3217.372769
866.712258	3217.758418
867.024313	3220.838563
867.336325	3217.798747
867.648296	3219.119529
867.960224	3217.919735
868.272110	3218.373438
868.583954	3219.613562
868.895755	3227.631517
869.207515	3226.335941
869.519233	3243.140627
869.830909	3251.430805
870.142542	3259.773914
870.454134	3263.179214
870.765684	3274.927623
871.077191	3296.619708
871.388657	3307.748055
871.700081	3326.075170
872.011463	3342.577387
872.322803	3365.736448
872.634101	3382.636916
872.945357	3403.330853
873.256571	3432.078032
873.567744	3444.297789
873.878874	3449.497739
874.189963	3467.368630
874.501010	3468.843167
874.812015	3464.709421
875.122979	3480.543685
875.433900	3478.078561
875.744780	3481.509066
876.055618	3490.441991
876.366415	3486.013337
876.677169	3495.470542
876.987882	3507.438241
877.298554	3525.546066
877.609183	3564.378074
877.919771	3609.728294
878.230317	3678.877801
878.540822	3779.100981
878.851285	3928.326696
879.161707	4146.071775
879.472087	4516.011809
879.782425	5135.320079
880.092722	6306.735519
880.402977	8224.120741
880.713191	10575.937477
881.023363	12944.420268
881.333494	14274.727836
881.643583	14727.546959
881.953631	14315.951871
882.263637	13469.141369
882.573602	12436.660129
882.883526	11490.133083
883.193408	10555.631709
883.503248	9643.185384
883.813048	8816.607552
884.122806	8065.674755
884.432522	7305.821635
884.742197	6652.810731
885.051831	6099.105516
885.361424	5606.594867
885.670975	5213.397470
885.980485	4899.205036
886.289954	4633.173265
886.599382	4417.759720
886.908768	4242.751023
887.218113	4081.053493
887.527417	3949.408802
887.836680	3828.244669
888.145901	3727.345975
888.455082	3655.166734
888.764221	3585.939089
889.073319	3527.325593
889.382376	3493.570027
889.691392	3472.659321
890.000366	3463.514668
890.309300	3460.641210
890.618193	3463.665902
890.927044	3458.176086
891.235855	3466.400728
891.544625	3475.938591
891.853353	3506.752644
892.162041	3566.313877
892.470687	3656.956344
892.779293	3774.916823
893.087858	3944.118111
893.396381	4220.703537
893.704864	4625.651864
894.013306	5186.109704
894.321707	5756.370069
894.630068	6110.995077
894.938387	6148.801210
895.246665	5968.947965
895.554903	5655.259646
895.863100	5320.965611
896.171256	5052.635074
896.479371	4820.552954
896.787446	4594.704220
897.095480	4397.786669
897.403473	4252.440121
897.711425	4112.543061
898.019336	3991.356243
898.327207	3869.365361
898.635038	3767.077829
898.942827	3665.894309
899.250576	3582.057400
899.558284	3494.855521
899.865952	3443.597069
900.173579	3378.823283
900.481165	3331.733865
900.788711	3292.274233
901.096216	3260.698966
901.403681	3234.326170
901.711105	3221.693038
902.018489	3216.576267
902.325832	3252.562544
902.633135	3310.250988
902.940397	3481.136021
903.247619	3880.516393
903.554800	4619.756234
903.861941	5575.619497
904.169041	6267.414519
904.476101	6476.360264
904.783121	6202.481937
905.090100	5806.947965
905.397039	5396.792127
905.703938	5041.053023
906.010796	4718.739290
906.317614	4473.898010
906.624391	4236.411773
906.931129	4042.869273
907.237826	3863.590719
907.544483	3698.228270
907.851099	3527.471787
908.157675	3368.572097
908.464211	3230.462125
908.770707	3133.891262
909.077163	3056.504509
909.383578	2995.952690
909.689954	2952.518108
909.996289	2921.164652
910.302584	2902.605644
910.608839	2890.446381
910.915054	2877.881305
911.221229	2873.923999
911.527363	2878.468599
911.833458	2884.303735
912.139513	2898.360992
912.445527	2909.050759
912.751502	2943.544854
913.057436	2987.871720
913.363331	3042.822817
913.669186	3129.061836
913.975000	3245.056266
914.280775	3427.863628
914.586510	3692.851880
914.892205	4063.167479
915.197859	4554.685021
915.503475	5133.923680
915.809050	5624.153206
916.114585	5906.346916
916.420081	5971.869313
916.725536	5905.575620
917.030952	5672.719682
917.336328	5466.728054
917.641665	5254.561012
917.946961	5035.782497
918.252218	4830.428574
918.557435	4609.560501
918.862612	4413.250408
919.167750	4245.753031
919.472848	4058.827046
919.777906	3892.320255
920.082925	3734.638004
920.387904	3581.006320
920.692843	3478.900269
920.997743	3376.728684
921.302603	3282.917852
921.607423	3222.212277
921.912204	3159.520488
922.216946	3107.752879
922.521647	3058.299160
922.826310	3020.707276
923.130932	2982.891060
923.435516	2943.973352
923.740059	2916.821698
924.044564	2884.822974
924.349028	2863.975282
924.653454	2832.697443
924.957840	2804.419090
925.262186	2787.959723
925.566493	2765.173708
925.870761	2741.124883
926.174989	2731.158522
926.479178	2716.302242
926.783328	2698.350693
927.087438	2688.865762
927.391509	2677.215655
927.695541	2666.157884
927.999533	2653.300422
928.303486	2647.359422
928.607400	2641.776344
928.911275	2637.531692
929.215110	2630.670682
929.518906	2628.724797
929.822663	2626.645321
930.126381	2627.608181
930.430060	2631.066412
930.733699	2630.920219
931.037299	2637.279635
931.340861	2636.692340
931.644383	2637.740900
931.947866	2635.253091
932.251309	2633.647483
932.554714	2631.278141
932.858080	2629.226391
933.161407	2626.902419
933.464694	2622.186420
933.767943	2620.817747
934.071153	2617.546038
934.374323	2613.142590
934.677455	2606.427773
934.980548	2607.272166
935.283602	2603.939964
935.586617	2604.577670
935.889593	2607.705706
936.192530	2607.914913
936.495428	2611.108484
936.798287	2623.141719
937.101108	2636.510859
937.403890	2656.919970
937.706632	2682.294618
938.009336	2715.956923
938.312002	2743.678228
938.614628	2768.536157
938.917216	2785.882768
939.219765	2795.970117
939.522275	2802.223668
939.824747	2804.323308
940.127179	2799.733338
940.429573	2791.070115
940.731929	2786.633900
941.034246	2782.903446
941.336524	2782.502674
941.638763	2774.091509
941.940964	2769.909872
942.243126	2752.096955
942.545250	2743.743763
942.847335	2727.957389
943.149381	2718.051522
943.451389	2699.714325
943.753359	2688.464990
944.055290	2679.713547
944.357182	2671.861950
944.659036	2668.955725
944.960851	2664.476660
945.262628	2658.581030
945.564367	2661.774601
945.866067	2659.924498
946.167729	2658.691936
946.469352	2656.955258
946.770937	2655.495844
947.072484	2647.188022
947.373992	2647.442601
947.675462	2644.243989
947.976893	2636.883904
948.278286	2634.869963
948.579641	2630.017852
948.880958	2631.590692
949.182236	2628.518109
949.483476	2624.525515
949.784678	2626.685650
950.085841	2625.760598
950.386967	2629.581793
950.688054	2636.034470
950.989103	2642.789616
951.290114	2651.263795
951.591087	2660.733603
951.892021	2673.976714
952.192917	2689.684949
952.493776	2697.007225
952.794596	2700.833461
953.095378	2702.880170
953.396122	2699.500076
953.696828	2696.442616
953.997496	2691.265351
954.298126	2681.525842
954.598718	2675.955367
954.899272	2661.305774
955.199788	2650.794968
955.500266	2643.858340
955.800706	2625.130454
956.101108	2607.423401
956.401472	2598.608943
956.701798	2584.957499
957.002087	2572.989800
957.302337	2559.194682
957.602550	2552.300904
957.902724	2539.612320
958.202861	2531.972451
958.502960	2525.973478
958.803022	2517.932838
959.103045	2506.176867
959.403031	2505.153513
959.702979	2496.134889
960.002889	2495.736638
960.302762	2491.363437
960.602596	2485.616521
960.902393	2480.497229
961.202153	2479.557054
961.501875	2476.149234
961.801559	2475.428349
962.101205	2471.329891
962.400814	2467.261680
962.700385	2465.560291
962.999918	2464.650362
963.299414	2464.216823
963.598873	2461.991154
963.898293	2459.999898
964.197677	2463.082563
964.497022	2461.605505
964.796331	2459.024435
965.095601	2458.603498
965.394835	2455.230966
965.694030	2454.290791
965.993189	2456.957562
966.292309	2453.887499
966.591393	2453.625359
966.890439	2454.368929
967.189447	2453.905143
967.488419	2454.749536
967.787353	2456.513940
968.086249	2456.327417
968.385108	2457.151646
968.683930	2455.646862
968.982714	2457.925463
969.281462	2459.899075
969.580172	2461.333283
969.878844	2464.534416
970.177480	2464.993161
970.476078	2469.709160
970.774639	2472.322998
971.073162	2475.435911
971.371649	2476.212249
971.670098	2474.004223
971.968510	2475.466158
972.266885	2475.670325
972.565223	2479.141159
972.863524	2479.756180
973.161788	2485.863538
973.460014	2483.380769
973.758204	2483.058136
974.056356	2487.043168
974.354471	2486.375215
974.652550	2484.620893
974.950591	2484.575523
975.248595	2484.860348
975.546563	2480.686273
975.844493	2482.218783
976.142386	2480.081334
976.440243	2476.401292
976.738062	2479.352888
977.035845	2474.311734
977.333590	2469.676393
977.631299	2469.436938
977.928971	2468.874849
978.226606	2467.480970
978.524204	2464.156329
978.821765	2465.202369
979.119290	2463.253963
979.416777	2460.405711
979.714228	2462.770012
980.011642	2465.371247
980.309020	2468.264870
980.606360	2472.272587
980.903664	2480.716520
981.200931	2496.470125
981.498162	2512.241375
981.795356	2541.248174
982.092513	2577.085737
982.389633	2621.236162
982.686717	2663.090342
982.983764	2696.735003
983.280775	2713.897611
983.577749	2712.707899
983.874686	2702.915458
984.171587	2686.163703
984.468451	2672.605520
984.765279	2655.319404
985.062070	2635.432052
985.358824	2617.788013
985.655543	2595.037286
985.952224	2575.026426
986.248869	2548.946016
986.545478	2521.126409
986.842050	2501.188645
987.138586	2485.177941
987.435086	2471.642443
987.731549	2457.829681
988.027975	2456.466049
988.324366	2450.961109
988.620719	2444.115222
988.917037	2444.107660
989.213318	2438.766558
989.509563	2437.042483
989.805772	2434.060641
990.101944	2435.031063
990.398080	2433.012081
990.694180	2431.310691
990.990244	2435.457040
991.286271	2430.983016
991.582262	2434.794129
991.878217	2433.586772
992.174136	2436.581218
992.470019	2435.978800
992.765865	2438.300251
993.061676	2437.334870
993.357450	2442.696137
993.653188	2445.229317
993.948890	2452.788527
994.244556	2456.876903
994.540186	2464.814200
994.835780	2477.820377
995.131337	2489.964516
995.426859	2507.568226
995.722345	2526.706966
996.017795	2545.142466
996.313208	2558.486400
996.608586	2568.321691
996.903928	2571.137176
997.199234	2569.458471
997.494504	2568.021742
997.789738	2557.949517
998.084936	2550.108002
998.380099	2537.500077
998.675225	2525.207223
998.970316	2513.237003
999.265371	2499.943480
999.560390	2488.815133
999.855373	2475.617393
1000.150320	2465.645990
1000.445232	2459.636935
1000.740108	2452.133177
1001.034948	2445.453648
1001.329752	2437.057607
1001.624521	2437.496187
1001.919254	2430.027718
1002.213951	2429.450506
1002.508613	2423.033117
1002.803239	2425.740216
1003.097829	2422.460946
1003.392384	2425.044537
1003.686903	2423.017993
1003.981386	2422.720565
1004.275834	2421.230904
1004.570246	2421.883734
1004.864623	2417.870975
1005.158964	2418.034813
1005.453270	2416.976170
1005.747540	2416.648495
1006.041775	2416.472055
1006.335974	2416.267888
1006.630138	2416.777045
1006.924266	2415.978022
1007.218359	2416.177148
1007.512416	2416.172106
1007.806438	2413.754873
1008.100425	2415.269740
1008.394376	2413.669173
1008.688292	2414.611869
1008.982172	2412.605490
1009.276017	2411.488874
1009.569827	2413.273443
1009.863602	2413.039029
1010.157341	2412.292938
1010.451045	2409.129614
1010.744714	2408.993503
1011.038347	2409.106929
1011.331945	2413.089441
1011.625508	2410.815880
1011.919036	2411.498957
1012.212528	2413.172620
1012.505986	2411.476272
1012.799408	2409.724471
1013.092795	2412.371076
1013.386147	2408.451579
1013.679464	2408.456620
1013.972745	2409.076682
1014.265992	2408.007958
1014.559204	2410.326888
1014.852380	2409.921076
1015.145521	2407.156003
1015.438628	2408.101219
1015.731699	2406.437638
1016.024736	2409.109450
1016.317737	2410.508370
1016.610703	2412.083731
1016.903635	2406.258677
1017.196531	2408.675911
1017.489393	2409.127094
1017.782219	2405.560478
1018.075011	2414.281674
1018.367768	2410.510891
1018.660490	2412.098854
1018.953177	2412.098854
1019.245829	2412.098854
