Dividing Wavelength (nm)	Counts (n)	Blue Motor Position (mm): 0.000000	Red Motor Position (mm): 0.000000	
326.493990	2066.615978
326.888308	2066.615978
327.282561	2066.615978
327.676750	2040.064221
328.070874	2042.005065
328.464933	2048.291384
328.858929	2055.074256
329.252859	2069.449107
329.646726	2076.320199
330.040528	2096.005905
330.434265	2113.218925
330.827938	2134.424538
331.221547	2153.787610
331.615091	2175.948523
332.008571	2194.905782
332.401986	2215.864379
332.795338	2236.127297
333.188625	2255.684453
333.581847	2274.316558
333.975006	2288.865328
334.368100	2307.396609
334.761129	2325.968220
335.154095	2341.686538
335.546996	2356.121882
335.939833	2369.004550
336.332606	2381.194060
336.725315	2397.794580
337.117960	2407.057700
337.510540	2416.514905
337.903056	2424.210226
338.295508	2432.613830
338.687896	2437.279418
339.080220	2442.149172
339.472480	2445.786365
339.864676	2451.427416
340.256807	2455.861111
340.648875	2459.122737
341.040879	2456.796245
341.432818	2460.947635
341.824694	2460.428396
342.216506	2462.195320
342.608253	2460.665330
342.999937	2456.680298
343.391557	2457.532253
343.783113	2454.018569
344.174605	2455.694752
344.566033	2450.288115
344.957397	2453.428754
345.348697	2451.283743
345.739934	2448.622014
346.131106	2447.946499
346.522215	2443.890891
346.913260	2444.004317
347.304241	2442.938113
347.695159	2441.332505
348.086012	2437.816300
348.476802	2439.240426
348.867528	2432.618871
349.258191	2429.425300
349.648789	2434.781526
350.039324	2428.349013
350.429796	2431.696340
350.820203	2429.377409
351.210548	2429.362285
351.600828	2427.837336
351.991045	2428.722059
352.381198	2430.796494
352.771288	2426.975299
353.161314	2427.618046
353.551276	2431.131730
353.941175	2429.392532
354.331010	2429.067378
354.720782	2429.475711
355.110490	2426.572007
355.500135	2427.557552
355.889717	2431.421597
356.279235	2431.351021
356.668689	2432.515527
357.058080	2430.272214
357.447408	2431.794642
357.836672	2431.345979
358.225873	2430.463777
358.615010	2433.102822
359.004084	2428.069229
359.393095	2437.695313
359.782043	2432.089550
360.170927	2433.906886
360.559748	2435.396547
360.948505	2432.671803
361.337199	2435.230188
361.725830	2433.556525
362.114398	2436.266146
362.502903	2436.649273
362.891344	2436.669438
363.279722	2438.988369
363.668037	2436.649273
364.056289	2439.502566
364.444478	2439.036260
364.832603	2439.449634
365.220665	2440.505756
365.608665	2436.787905
365.996601	2437.861671
366.384474	2440.478030
366.772284	2439.782350
367.160031	2442.018102
367.547715	2442.796960
367.935336	2441.488781
368.322893	2440.745211
368.710388	2438.108687
369.097820	2440.674635
369.485189	2439.280756
369.872495	2443.424584
370.259738	2444.037084
370.646918	2444.773093
371.034035	2444.014399
371.421090	2442.280242
371.808081	2443.371652
372.195010	2442.388627
372.581875	2444.032043
372.968678	2443.283432
373.355418	2446.817281
373.742096	2445.120932
374.128710	2442.791919
374.515262	2445.781323
374.901751	2444.765531
375.288177	2443.991714
375.674540	2446.847527
376.060841	2444.727722
376.447079	2447.326437
376.833254	2449.035388
377.219367	2448.669905
377.605417	2448.964812
377.991404	2444.049687
378.377329	2447.427260
378.763191	2448.347271
379.148991	2445.698144
379.534727	2449.209308
379.920402	2447.316355
380.306013	2448.679987
380.691563	2451.016562
381.077049	2446.156889
381.462474	2446.202260
381.847835	2449.811726
382.233134	2449.879782
382.618371	2451.838270
383.003545	2451.026644
383.388657	2446.666046
383.773706	2450.126798
384.158693	2450.830039
384.543618	2452.922118
384.928480	2450.930862
385.313280	2450.429267
385.698017	2450.716613
386.082692	2452.470935
386.467305	2452.012190
386.851856	2451.651747
387.236344	2451.697117
387.620770	2451.049329
388.005133	2448.254009
388.389435	2452.125616
388.773674	2448.364915
389.157851	2453.587550
389.541965	2453.085955
389.926018	2456.430761
390.310008	2452.239042
390.693936	2456.798765
391.077802	2455.566203
391.461606	2453.650565
391.845348	2456.219033
392.229027	2454.283229
392.612645	2454.482355
392.996200	2454.840277
393.379694	2457.474280
393.763125	2453.713579
394.146494	2455.412448
394.529801	2455.724999
394.913047	2454.517643
395.296230	2456.188786
395.679351	2457.696091
396.062410	2455.309104
396.445408	2458.837912
396.828343	2454.008487
397.211217	2457.151646
397.594028	2457.985957
397.976778	2460.529219
398.359466	2458.832871
398.742092	2459.152984
399.124656	2456.506378
399.507158	2457.494444
399.889598	2457.093673
400.271977	2460.017542
400.654294	2460.554425
401.036549	2457.139043
401.418742	2460.272120
401.800874	2458.464867
402.182944	2461.018211
402.564952	2460.100721
402.946898	2459.755402
403.328783	2460.377984
403.710606	2459.362192
404.092367	2461.746658
404.474067	2460.652727
404.855705	2459.319342
405.237282	2459.415124
405.618797	2462.444857
406.000250	2462.069292
406.381642	2459.808334
406.762972	2458.190124
407.144240	2456.808847
407.525447	2458.157356
407.906593	2456.753395
408.287677	2463.069961
408.668700	2462.354117
409.049661	2463.768160
409.430560	2462.885958
409.811399	2462.989302
410.192176	2460.095680
410.572891	2462.218006
410.953545	2465.225054
411.334138	2463.072481
411.714669	2465.467029
412.095139	2463.574076
412.475547	2463.692543
412.855894	2463.342183
413.236180	2465.661114
413.616405	2464.526854
413.996568	2465.741772
414.376670	2463.059878
414.756711	2463.077522
415.136691	2466.293778
415.516609	2465.686319
415.896466	2464.027780
416.276262	2464.751185
416.655997	2465.930815
417.035670	2465.146916
417.415283	2466.881073
417.794834	2466.931484
418.174324	2462.467543
418.553753	2463.306895
418.933121	2467.007102
419.312428	2464.345373
419.691674	2465.454426
420.070859	2466.215641
420.449983	2465.222533
420.829045	2464.559622
421.208047	2466.971814
421.586988	2468.527010
421.965867	2468.408542
422.344686	2469.086578
422.723444	2469.620940
423.102141	2469.174798
423.480777	2467.612040
423.859352	2467.201186
424.237866	2467.087760
424.616319	2468.219499
424.994712	2469.991465
425.373044	2466.913840
425.751314	2463.735393
426.129524	2463.740434
426.507673	2465.953501
426.885762	2463.803448
427.263789	2469.903245
427.641756	2468.947946
428.019662	2468.859726
428.397508	2469.005919
428.775292	2471.218986
429.153016	2469.643625
429.530679	2469.656228
429.908282	2468.610189
430.285824	2471.251753
430.663305	2470.672021
431.040726	2469.308388
431.418086	2470.372072
431.795385	2470.833338
432.172624	2468.138841
432.549802	2469.479788
432.926920	2470.394757
433.303977	2471.125724
433.680974	2469.290744
434.057910	2470.364510
434.434786	2470.377113
434.811601	2470.782926
435.188355	2471.584469
435.565050	2471.024901
435.941683	2472.212093
436.318257	2472.585138
436.694770	2472.867443
437.071222	2473.338791
437.447614	2470.808132
437.823946	2473.295941
438.200218	2471.534058
438.576429	2475.009933
438.952580	2469.709160
439.328670	2472.285190
439.704700	2470.525827
440.080670	2471.536578
440.456580	2474.268884
440.832429	2473.744604
441.208218	2473.185036
441.583947	2474.654532
441.959616	2476.182002
442.335224	2472.423822
442.710773	2472.668318
443.086261	2471.813842
443.461689	2473.976497
443.837057	2474.437763
444.212365	2472.239819
444.587612	2472.683441
444.962800	2471.549181
445.337927	2472.507001
445.712995	2469.890642
446.088002	2475.226703
446.462949	2474.450365
446.837837	2476.217290
447.212664	2476.227372
447.587431	2473.618575
447.962139	2473.968935
448.336786	2476.237454
448.711374	2476.025726
449.085901	2474.105046
449.460369	2476.824749
449.834776	2473.903400
450.209124	2476.333236
450.583412	2475.135962
450.957640	2474.284007
451.331808	2474.876343
451.705917	2476.779378
452.079965	2473.381641
452.453954	2475.924903
452.827883	2478.778196
453.201752	2477.223000
453.575562	2478.145531
453.949311	2477.147383
454.323001	2474.876343
454.696632	2475.587146
455.070202	2475.952629
455.443713	2475.516569
455.817164	2477.434728
456.190556	2477.520428
456.563888	2478.216107
456.937160	2475.531693
457.310373	2479.572178
457.683526	2474.543627
458.056619	2475.443473
458.429653	2477.873309
458.802628	2476.754173
459.175542	2477.966570
459.548398	2478.841210
459.921194	2477.933803
460.293930	2476.335757
460.666607	2478.095120
461.039224	2477.996817
461.411782	2476.774337
461.784280	2478.601756
462.156719	2477.729636
462.529099	2477.880871
462.901419	2475.511528
463.273680	2474.778040
463.645882	2474.394913
464.018024	2474.876343
464.390106	2473.689151
464.762130	2479.841879
465.134094	2479.665439
465.505999	2477.510346
465.877845	2479.035295
466.249631	2479.045377
466.621358	2479.259626
466.993026	2475.909779
467.364634	2481.762559
467.736184	2481.230717
468.107674	2480.464462
468.479105	2479.443628
468.850477	2482.042343
469.221790	2476.519759
469.593043	2477.686786
469.964238	2477.986735
470.335373	2481.351705
470.706449	2479.156283
471.077467	2479.904894
471.448425	2479.554534
471.819324	2481.238279
472.190164	2478.790799
472.560945	2479.451190
472.931667	2478.339616
473.302330	2479.657877
473.672934	2477.137300
474.043479	2480.414050
474.413965	2482.279277
474.784393	2481.139977
475.154761	2481.593680
475.525070	2477.666622
475.895321	2480.882878
476.265513	2481.782724
476.635645	2481.195429
477.005719	2479.496560
477.375734	2479.221818
477.745691	2483.138794
478.115588	2479.055459
478.485427	2479.972949
478.855207	2485.518219
479.224928	2480.683752
479.594591	2481.450008
479.964194	2479.491519
480.333739	2481.109730
480.703226	2480.401448
481.072653	2481.684421
481.442022	2479.395737
481.811333	2477.853144
482.180584	2474.785602
482.549777	2478.216107
482.918912	2475.498925
483.287988	2479.310038
483.657005	2479.642754
484.025964	2483.544607
484.394864	2481.046715
484.763706	2482.082672
485.132489	2479.335243
485.501213	2480.081334
485.869879	2479.983032
486.238487	2482.997642
486.607036	2480.348515
486.975527	2485.293887
487.343959	2481.961685
487.712333	2485.188023
488.080648	2480.189719
488.448905	2484.041161
488.817104	2481.129894
489.185244	2480.756849
489.553326	2480.343474
489.921350	2481.419761
490.289315	2482.115440
490.657222	2482.380100
491.025070	2480.393886
491.392861	2482.427991
491.760593	2485.082159
492.128267	2479.773824
492.495883	2482.206181
492.863440	2479.693165
493.230939	2479.990593
493.598380	2481.379431
493.965763	2485.331696
494.333088	2481.439925
494.700354	2481.412199
495.067563	2481.278608
495.434713	2483.032930
495.801805	2484.169710
496.168839	2482.801037
496.535815	2482.826243
496.902733	2486.619711
497.269593	2483.088383
497.636395	2484.898157
498.003139	2484.484782
498.369825	2483.350523
498.736453	2484.552838
499.103023	2481.545789
499.469535	2484.502426
499.835989	2483.010245
500.202385	2480.691314
500.568723	2481.150059
500.935003	2481.926397
501.301226	2478.468165
501.667390	2484.361274
502.033497	2486.400421
502.399546	2485.624083
502.765537	2485.840853
503.131470	2483.559730
503.497345	2483.539566
503.863163	2485.162817
504.228923	2484.557879
504.594625	2483.317755
504.960269	2484.562920
505.325856	2482.052425
505.691385	2484.900677
506.056856	2483.839514
506.422270	2484.386480
506.787625	2484.147025
507.152924	2480.141828
507.518164	2483.123671
507.883347	2483.947899
508.248472	2485.629124
508.613540	2483.474031
508.978550	2483.479072
509.343503	2482.748105
509.708398	2484.033599
510.073236	2484.167189
510.438016	2483.345481
510.802738	2483.053094
511.167403	2485.961840
511.532010	2483.103506
511.896561	2483.869761
512.261053	2484.709113
512.625488	2483.877323
512.989866	2483.438743
513.354186	2483.433702
513.718449	2486.246665
514.082655	2484.515029
514.446803	2481.729792
514.810894	2483.032930
515.174927	2484.000831
515.538904	2486.929742
515.902822	2485.382108
516.266684	2483.869761
516.630488	2484.268012
516.994235	2484.784731
517.357925	2483.945379
517.721558	2487.385966
518.085133	2484.484782
518.448651	2481.455049
518.812112	2478.964719
519.175516	2484.325986
519.538863	2476.335757
519.902152	2483.776500
520.265385	2486.158445
520.628560	2484.605770
520.991678	2485.513177
521.354739	2484.336068
521.717743	2482.279277
522.080690	2485.437560
522.443580	2482.390183
522.806413	2487.796820
523.169189	2482.506129
523.531908	2484.197436
523.894569	2482.491006
524.257174	2487.325472
524.619722	2484.099134
524.982213	2486.294556
525.344647	2485.122488
525.707025	2484.903198
526.069345	2484.802375
526.431608	2485.616521
526.793815	2489.520895
527.155964	2483.950420
527.518057	2485.412354
527.880093	2486.344968
528.242072	2486.581902
528.603995	2485.835811
528.965860	2487.569968
529.327669	2484.857828
529.689421	2485.971923
530.051117	2487.703559
530.412755	2485.041830
530.774337	2486.133239
531.135862	2486.949906
531.497331	2484.202478
531.858743	2485.220791
532.220098	2482.682570
532.581396	2487.438898
532.942638	2484.847745
533.303824	2484.366315
533.664953	2486.460914
534.026025	2485.651809
534.387040	2485.470328
534.747999	2484.925883
535.108902	2485.233393
535.469748	2486.334886
535.830537	2485.661892
536.191270	2484.920842
536.551947	2485.309011
536.912567	2483.100985
537.273131	2484.300780
537.633638	2482.359936
537.994089	2485.054432
538.354483	2485.886223
538.714821	2483.811788
539.075103	2486.380256
539.435328	2486.037457
539.795497	2484.996459
540.155609	2488.043837
540.515665	2486.811275
540.875665	2487.043168
541.235609	2485.798003
541.595496	2487.890082
541.955328	2484.998980
542.315102	2484.376397
542.674821	2487.827067
543.034483	2485.303970
543.394090	2486.365133
543.753640	2485.792962
544.113134	2488.711790
544.472571	2485.014103
544.831953	2485.979484
545.191278	2487.501913
545.550548	2484.880513
545.909761	2483.486634
546.268918	2486.965030
546.628019	2487.920328
546.987064	2485.384628
547.346053	2485.051912
547.704986	2485.873620
548.063863	2487.703559
548.422684	2484.953609
548.781449	2487.925370
549.140158	2484.136943
549.498811	2485.893785
549.857408	2485.750112
550.215949	2485.258599
550.574434	2487.842191
550.932864	2488.537870
551.291237	2487.343116
551.649555	2486.607108
552.007817	2485.319093
552.366022	2487.138950
552.724173	2483.947899
553.082267	2488.232880
553.440305	2485.316572
553.798288	2487.096100
554.156215	2487.212046
554.514086	2484.905718
554.871902	2485.387149
555.229661	2484.020996
555.587365	2483.000162
555.945014	2488.031234
556.302606	2486.082828
556.660143	2486.604587
557.017625	2486.082828
557.375050	2485.029227
557.732421	2485.145173
558.089735	2484.741881
558.446994	2487.373363
558.804197	2488.086687
559.161345	2486.869248
559.518437	2486.392859
559.875474	2486.435709
560.232455	2487.086018
560.589381	2486.566779
560.946251	2485.258599
561.303065	2488.053919
561.659825	2486.647437
562.016528	2486.939824
562.373177	2490.387973
562.729770	2487.239773
563.086307	2486.468476
563.442789	2486.463435
563.799216	2488.250524
564.155587	2485.495533
564.511904	2485.525780
564.868164	2485.750112
565.224370	2484.996459
565.580520	2486.269351
565.936615	2486.786069
566.292654	2486.009731
566.648638	2487.751450
567.004567	2486.841522
567.360441	2486.239104
567.716260	2485.457725
568.072023	2486.095431
568.427732	2487.943014
568.783385	2486.909577
569.138982	2487.012921
569.494525	2486.760863
569.850013	2486.823877
570.205445	2484.729278
570.560823	2487.620380
570.916145	2488.467294
571.271412	2489.213384
571.626625	2485.866058
571.981782	2487.557365
572.336884	2482.581747
572.691931	2481.709627
573.046923	2483.337920
573.401860	2482.039823
573.756743	2486.476038
574.111570	2484.502426
574.466342	2486.584423
574.821059	2485.263640
575.175722	2484.389000
575.530330	2487.779176
575.884882	2486.433188
576.239380	2486.861686
576.593823	2488.994094
576.948211	2486.039978
577.302544	2487.519557
577.656823	2486.801192
578.011047	2486.191213
578.365216	2487.428816
578.719330	2486.312200
579.073389	2486.738178
579.427394	2485.974443
579.781344	2485.266161
580.135239	2485.175420
580.489080	2485.402272
580.842866	2485.873620
581.196597	2487.343116
581.550273	2488.588281
581.903895	2488.469814
582.257463	2488.361429
582.610975	2488.174907
582.964434	2485.891264
583.317837	2485.994608
583.671186	2488.258086
584.024481	2487.811944
584.377721	2486.271871
584.730906	2486.513847
585.084037	2489.374701
585.437113	2488.520226
585.790135	2487.527118
586.143103	2484.295739
586.496016	2488.752119
586.848874	2484.893116
587.201679	2488.532829
587.554428	2487.660709
587.907124	2487.577530
588.259765	2486.839001
588.612352	2484.358753
588.964884	2486.654999
589.317362	2486.579382
589.669786	2485.858497
590.022155	2485.566110
590.374470	2482.924545
590.726731	2486.859166
591.078937	2483.199288
591.431090	2488.094248
591.783188	2488.137098
592.135232	2484.941007
592.487222	2486.055102
592.839157	2486.831439
593.191038	2484.457056
593.542866	2486.639875
593.894639	2487.418734
594.246358	2487.350678
594.598022	2488.805051
594.949633	2485.024186
595.301190	2485.855976
595.652692	2488.119454
596.004141	2485.026706
596.355535	2486.181130
596.706876	2488.399238
597.058162	2486.148363
597.409395	2486.768425
597.760573	2488.177427
598.111698	2489.392345
598.462768	2486.617190
598.813785	2487.020483
599.164748	2488.048878
599.515657	2486.672643
599.866511	2485.024186
600.217312	2486.092910
600.568060	2486.130719
600.918753	2490.148518
601.269392	2486.544093
601.619978	2487.605256
601.970510	2488.056440
602.320988	2485.971923
602.671412	2485.772797
603.021783	2488.527787
603.372100	2487.078456
603.722363	2488.421923
604.072572	2487.227170
604.422728	2487.524598
604.772830	2487.544762
605.122878	2486.143322
605.472872	2486.196254
605.822813	2485.281284
606.172701	2489.336893
606.522534	2487.191882
606.872314	2487.721203
607.222041	2489.861173
607.571714	2484.331027
607.921333	2484.346150
608.270899	2483.471510
608.620411	2482.533856
608.969870	2486.188692
609.319276	2488.578199
609.668627	2487.259937
610.017926	2486.803713
610.367171	2485.271202
610.716362	2485.387149
611.065500	2485.624083
611.414585	2487.489310
611.763616	2483.821870
612.112594	2487.660709
612.461518	2486.231542
612.810389	2487.764053
613.159207	2486.047540
613.507971	2485.278764
613.856682	2487.922849
614.205340	2488.638693
614.553945	2485.414875
614.902496	2486.216418
615.250994	2487.968219
615.599439	2484.767087
615.947830	2485.936634
616.296169	2487.751450
616.644454	2488.603405
616.992686	2486.765904
617.340864	2487.569968
617.688990	2485.646768
618.037063	2486.271871
618.385082	2487.201964
618.733048	2488.565596
619.080961	2487.406131
619.428821	2488.174907
619.776628	2488.232880
620.124382	2490.498879
620.472083	2485.258599
620.819731	2487.421254
621.167326	2486.972592
621.514868	2486.551655
621.862357	2487.088538
622.209793	2487.698518
622.557176	2485.477889
622.904506	2488.137098
623.251783	2486.793631
623.599007	2488.134577
623.946179	2488.368991
624.293297	2486.428147
624.640363	2484.454535
624.987376	2480.837507
625.334336	2483.007724
625.681243	2485.344299
626.028097	2482.017137
626.374899	2485.404793
626.721647	2485.641727
627.068343	2486.997797
627.414987	2487.073415
627.761577	2485.044350
628.108115	2487.484269
628.454600	2487.264978
628.801032	2482.105358
629.147412	2486.223980
629.493739	2489.498210
629.840014	2485.858497
630.186236	2485.702221
630.532405	2486.690287
630.878521	2489.646924
631.224585	2487.643065
631.570597	2486.191213
631.916556	2486.123157
632.262462	2484.502426
632.608316	2487.280102
632.954117	2487.403610
633.299866	2489.697335
633.645562	2486.569299
633.991206	2487.529639
634.336797	2489.357057
634.682336	2484.920842
635.027823	2487.849752
635.373257	2485.069556
635.718639	2487.665750
636.063968	2487.275061
636.409245	2485.520739
636.754470	2486.478558
637.099642	2485.137612
637.444762	2482.765749
637.789829	2487.086018
638.134845	2487.123826
638.479808	2484.237766
638.824719	2484.537714
639.169577	2486.740698
639.514383	2484.295739
639.859137	2485.011583
640.203839	2483.801706
640.548489	2486.871768
640.893086	2485.639206
641.237632	2488.081645
641.582125	2487.718682
641.926566	2483.511839
642.270955	2481.820532
642.615292	2481.485296
642.959576	2484.086531
643.303809	2481.757518
643.647990	2487.431337
643.992118	2486.541573
644.336195	2488.774804
644.680219	2486.957468
645.024192	2486.365132
645.368112	2488.699187
645.711981	2487.048209
646.055797	2486.670122
646.399562	2487.816985
646.743274	2484.285657
647.086935	2487.287664
647.430544	2488.041316
647.774101	2486.534011
648.117606	2484.477220
648.461059	2489.067191
648.804460	2487.143991
649.147810	2484.648620
649.491108	2487.108703
649.834354	2487.663230
650.177548	2487.786738
650.520690	2486.523929
650.863781	2485.871099
651.206820	2488.119454
651.549807	2484.956130
651.892742	2486.307159
652.235626	2488.953765
652.578458	2483.368167
652.921238	2487.275061
653.263967	2486.786069
653.606644	2486.380256
653.949269	2486.317242
654.291843	2484.089052
654.634365	2488.043837
654.976836	2486.637355
655.319255	2485.041830
655.661622	2488.910915
656.003938	2484.721716
656.346203	2487.622900
656.688416	2487.164155
657.030577	2486.919659
657.372687	2486.211377
657.714746	2485.578712
658.056753	2483.897488
658.398708	2484.570482
658.740612	2485.732468
659.082465	2488.076604
659.424266	2485.170379
659.766016	2481.651654
660.107715	2485.041830
660.449362	2479.108392
660.790958	2487.486789
661.132503	2483.688280
661.473996	2486.549135
661.815438	2485.863538
662.156829	2487.501913
662.498168	2485.987046
662.839456	2488.096769
663.180693	2488.379073
663.521879	2487.290184
663.863013	2485.172900
664.204097	2485.518219
664.545129	2486.534011
664.886110	2487.254896
665.227040	2485.094762
665.567918	2488.094248
665.908746	2486.102993
666.249522	2485.624083
666.590248	2487.874958
666.930922	2485.581233
667.271545	2485.896305
667.612118	2486.418065
667.952639	2485.956799
668.293109	2485.694659
668.633528	2486.839001
668.973896	2486.045019
669.314213	2486.816316
669.654480	2486.803713
669.994695	2484.464618
670.334859	2488.595843
670.674973	2486.241624
671.015035	2484.499906
671.355047	2486.775987
671.695008	2486.607108
672.034918	2485.803044
672.374777	2484.935965
672.714585	2484.961171
673.054342	2484.782210
673.394049	2488.200112
673.733705	2483.463948
674.073310	2484.464618
674.412864	2485.649289
674.752368	2486.725575
675.091820	2485.414875
675.431223	2486.370174
675.770574	2486.972592
676.109875	2484.353712
676.449125	2483.416058
676.788324	2480.885398
677.127473	2482.349853
677.466571	2480.754328
677.805619	2483.857158
678.144616	2487.267499
678.483562	2486.387818
678.822458	2487.915287
679.161303	2486.405462
679.500098	2487.842191
679.838842	2485.787920
680.177535	2485.997128
680.516179	2485.987046
680.854771	2483.930255
681.193314	2486.982674
681.531805	2484.885554
681.870247	2487.461583
682.208638	2486.281953
682.546978	2485.709782
682.885268	2483.388331
683.223508	2484.567961
683.561697	2486.672643
683.899836	2485.818167
684.237925	2485.790441
684.575963	2485.659371
684.913951	2486.972592
685.251889	2485.760194
685.589776	2489.057109
685.927614	2485.997128
686.265401	2483.892447
686.603137	2484.406644
686.940824	2485.296408
687.278460	2483.978146
687.616046	2483.776500
687.953582	2487.975781
688.291068	2486.022334
688.628504	2486.551655
688.965889	2483.153917
689.303224	2484.988897
689.640510	2484.961171
689.977745	2484.852786
690.314930	2484.527632
690.652065	2484.351192
690.989150	2484.502426
691.326185	2485.319093
691.663170	2483.506798
692.000105	2485.918990
692.336990	2483.448825
692.673825	2487.229690
693.010610	2486.967550
693.347345	2485.145173
693.684030	2481.807929
694.020665	2485.543424
694.357251	2478.478247
694.693786	2485.480410
695.030272	2485.515698
695.366707	2485.049391
695.703093	2483.476551
696.039429	2485.316573
696.375716	2487.212046
696.711952	2482.939668
697.048139	2483.748774
697.384276	2484.663743
697.720363	2486.496202
698.056400	2486.503764
698.392388	2485.729947
698.728326	2484.366315
699.064214	2485.689618
699.400053	2484.840183
699.735842	2483.847076
700.071581	2485.674494
700.407270	2484.381438
700.742910	2485.407313
701.078501	2486.682725
701.414042	2483.960502
701.749533	2483.572333
702.084974	2484.867910
702.420366	2485.024186
702.755709	2483.809268
703.091002	2486.183651
703.426246	2484.772128
703.761440	2487.365802
704.096584	2485.059474
704.431679	2484.749443
704.766725	2484.474700
705.101721	2484.792292
705.436668	2485.301449
705.771565	2485.563589
706.106413	2483.854638
706.441212	2482.942189
706.775961	2484.812457
707.110661	2483.847076
707.445311	2484.109216
707.779913	2485.082159
708.114465	2486.173569
708.448967	2484.567961
708.783421	2484.116778
709.117825	2483.504278
709.452180	2484.331027
709.786485	2484.835142
710.120742	2483.126191
710.454949	2481.901191
710.789107	2482.375059
711.123216	2478.601756
711.457275	2481.603763
711.791286	2482.080152
712.125247	2484.126860
712.459159	2484.976295
712.793023	2482.997642
713.126837	2486.831439
713.460602	2484.517550
713.794318	2483.035450
714.127985	2483.277426
714.461602	2484.666264
714.795171	2484.298259
715.128691	2486.153404
715.462162	2485.855976
715.795584	2487.093579
716.128957	2484.872951
716.462281	2483.965543
716.795556	2483.836994
717.128782	2484.883033
717.461960	2484.401603
717.795088	2482.168372
718.128167	2486.211377
718.461198	2483.083341
718.794180	2482.732981
719.127113	2484.293218
719.459997	2483.761377
719.792833	2485.666933
720.125619	2485.984525
720.458357	2484.283136
720.791046	2483.227014
721.123686	2483.169041
721.456278	2484.673825
721.788821	2484.328506
722.121315	2484.777169
722.453761	2483.557210
722.786158	2486.922180
723.118506	2484.711634
723.450805	2485.626603
723.783056	2486.836480
724.115259	2484.966212
724.447412	2485.092241
724.779518	2484.933445
725.111574	2483.791623
725.443582	2485.039309
725.775542	2483.229535
726.107453	2488.353868
726.439315	2483.320276
726.771129	2485.770276
727.102895	2481.649133
727.434612	2481.777683
727.766281	2478.228710
728.097901	2480.681232
728.429473	2485.467807
728.760996	2484.666264
729.092471	2484.842704
729.423897	2485.757673
729.755276	2481.938999
730.086606	2485.240955
730.417887	2482.949751
730.749120	2486.773466
731.080305	2482.112919
731.411442	2481.581078
731.742530	2482.864051
732.073570	2484.152066
732.404562	2487.083497
732.735506	2485.054433
733.066401	2481.986890
733.397249	2486.700369
733.728048	2483.494195
734.058798	2485.601398
734.389501	2485.268682
734.720156	2484.089052
735.050762	2483.015286
735.381320	2486.150883
735.711831	2485.465287
736.042293	2485.414875
736.372707	2484.504947
736.703073	2486.042499
737.033391	2485.359422
737.363661	2484.618373
737.693883	2484.996459
738.024056	2483.337920
738.354182	2486.027375
738.684260	2483.511839
739.014290	2483.128712
739.344272	2483.501757
739.674207	2482.695172
740.004093	2484.731799
740.333931	2484.802375
740.663722	2484.880513
740.993464	2483.279946
741.323159	2481.654174
741.652806	2484.154587
741.982405	2485.500575
742.311956	2484.255410
742.641460	2483.670636
742.970915	2483.221973
743.300323	2479.032774
743.629683	2481.737353
743.958996	2482.705255
744.288260	2480.756849
744.617477	2484.610811
744.946647	2486.692808
745.275768	2480.958495
745.604842	2485.830770
745.933869	2482.468321
746.262847	2486.007211
746.591778	2482.238948
746.920662	2483.826912
747.249498	2482.869092
747.578286	2482.990080
747.907027	2484.812457
748.235720	2482.496047
748.564365	2483.330358
748.892963	2486.145842
749.221514	2483.274905
749.550017	2483.781541
749.878473	2483.070738
750.206881	2484.583085
750.535242	2483.302632
750.863555	2481.787765
751.191821	2485.835811
751.520039	2483.721047
751.848210	2484.779690
752.176334	2486.584423
752.504411	2484.215080
752.832440	2482.934627
753.160421	2481.240800
753.488356	2482.342292
753.816243	2486.370174
754.144082	2480.330871
754.471875	2482.271716
754.799620	2484.915801
755.127318	2484.610811
755.454969	2483.363125
755.782572	2484.076449
756.110129	2483.799185
756.437638	2485.603918
756.765100	2483.496716
757.092515	2484.320945
757.419882	2481.964205
757.747203	2485.107365
758.074477	2483.426140
758.401703	2483.789103
758.728882	2481.724750
759.056014	2484.721716
759.383099	2482.301963
759.710138	2480.882878
760.037129	2477.681745
760.364073	2480.656026
760.690970	2478.329533
761.017820	2483.108547
761.344623	2484.353712
761.671379	2483.181644
761.998088	2484.716675
762.324751	2481.039153
762.651366	2481.878506
762.977935	2483.355564
763.304456	2485.429998
763.630931	2484.797334
763.957359	2481.815491
764.283740	2484.268012
764.610074	2484.462097
764.936362	2484.051243
765.262602	2483.884885
765.588796	2484.588126
765.914943	2485.001500
766.241044	2486.740698
766.567097	2483.085862
766.893104	2483.075780
767.219064	2484.252889
767.544978	2484.101654
767.870845	2485.069556
768.196665	2483.209370
768.522438	2482.972436
768.848165	2482.226345
769.173846	2482.148207
769.499479	2485.331696
769.825066	2485.765235
770.150607	2482.339771
770.476101	2483.766418
770.801548	2485.137612
771.126949	2483.340440
771.452303	2483.693321
771.777611	2480.749287
772.102872	2482.508650
772.428087	2480.943372
772.753256	2484.431850
773.078378	2484.454535
773.403453	2482.170893
773.728482	2482.586788
774.053465	2484.230204
774.378401	2484.938486
774.703291	2482.090234
775.028135	2481.460090
775.352932	2480.862713
775.677683	2480.913125
776.002388	2480.524956
776.327046	2478.122846
776.651658	2483.529483
776.976224	2477.999338
777.300743	2482.430512
777.625216	2482.417909
777.949643	2483.214411
778.274024	2482.720378
778.598359	2483.264823
778.922647	2481.918835
779.246889	2483.378249
779.571086	2479.836838
779.895236	2483.395893
780.219339	2481.129894
780.543397	2481.908753
780.867409	2483.040492
781.191374	2485.029227
781.515294	2481.835656
781.839167	2481.757518
782.162995	2482.175934
782.486776	2483.799185
782.810511	2480.340954
783.134201	2482.105357
783.457844	2482.831284
783.781441	2483.317755
784.104993	2481.865903
784.428498	2481.621407
784.751958	2480.885398
785.075372	2482.236428
785.398739	2484.298259
785.722061	2478.422795
786.045337	2482.415388
786.368568	2484.918321
786.691752	2481.840697
787.014891	2480.661067
787.337983	2483.474031
787.661030	2481.870944
787.984031	2482.387662
788.306987	2482.705255
788.629897	2481.228197
788.952760	2485.578712
789.275579	2483.468990
789.598351	2482.468321
789.921078	2484.169710
790.243759	2485.561068
790.566395	2485.520739
790.888984	2484.847745
791.211529	2483.017806
791.534027	2483.574854
791.856480	2483.022848
792.178888	2481.707106
792.501249	2477.863227
792.823566	2481.384473
793.145836	2479.267188
793.468062	2484.068887
793.790241	2481.886067
794.112375	2484.895636
794.434464	2483.421099
794.756507	2483.736171
795.078505	2483.557210
795.400457	2481.782724
795.722364	2482.296921
796.044226	2481.749956
796.366042	2482.770790
796.687812	2482.067549
797.009538	2483.748774
797.331218	2483.705924
797.652852	2484.555358
797.974442	2483.194247
798.295986	2483.370687
798.617484	2481.709627
798.938938	2482.672487
799.260346	2481.024030
799.581709	2481.906232
799.903026	2483.121150
800.224299	2482.848928
800.545526	2481.351705
800.866708	2482.664926
801.187845	2481.218114
801.508936	2483.723568
801.829983	2482.183495
802.150984	2480.466982
802.471940	2481.321458
802.792851	2481.802888
803.113717	2481.500419
803.434538	2482.183495
803.755314	2484.998980
804.076045	2480.719040
804.396731	2480.966057
804.717372	2482.276757
805.037967	2483.232055
805.358518	2482.785913
805.679024	2480.940851
805.999485	2480.164513
806.319901	2484.081490
806.640272	2480.020840
806.960598	2481.699545
807.280879	2482.995121
807.601115	2484.290698
807.921306	2483.592498
808.241453	2477.492702
808.561554	2477.487661
808.881611	2482.216263
809.201623	2478.074955
809.521590	2480.734164
809.841513	2478.541262
810.161390	2485.495533
810.481223	2485.339258
810.801011	2481.639051
811.120755	2480.872795
811.440453	2480.890439
811.760107	2479.965388
812.079716	2482.629638
812.399281	2481.931438
812.718801	2481.356746
813.038276	2481.293732
813.357707	2483.277426
813.677093	2483.123671
813.996434	2482.226345
814.315731	2481.979329
814.634983	2482.712817
814.954191	2482.422950
815.273354	2483.426140
815.592473	2483.869761
815.911547	2484.154587
816.230577	2481.727271
816.549562	2481.341623
816.868502	2483.267343
817.187399	2480.459421
817.506250	2480.618217
817.825058	2482.785913
818.143821	2480.600573
818.462539	2480.164513
818.781213	2482.470841
819.099843	2482.347333
819.418429	2482.160810
819.736970	2482.173413
820.055466	2480.933289
820.373919	2479.909935
820.692327	2481.873464
821.010691	2481.034112
821.329011	2480.638382
821.647286	2482.075111
821.965517	2483.242138
822.283704	2480.288022
822.601847	2481.969246
822.919945	2482.362456
823.237999	2481.099647
823.556010	2484.141984
823.873976	2481.089565
824.191897	2481.167703
824.509775	2476.686117
824.827609	2480.708958
825.145398	2478.427836
825.463144	2482.516212
825.780845	2480.436736
826.098502	2480.240131
826.416116	2481.482775
826.733685	2480.887919
827.051210	2482.730461
827.368692	2480.754328
827.686129	2478.934472
828.003522	2479.940182
828.320872	2480.189719
828.638177	2479.073103
828.955439	2481.472693
829.272656	2482.438074
829.589830	2482.390183
829.906960	2481.747436
830.224046	2480.282980
830.541088	2482.087713
830.858086	2481.031592
831.175041	2482.664926
831.491952	2480.439256
831.808819	2480.401447
832.125642	2479.660398
832.442421	2479.317599
832.759157	2480.328351
833.075849	2481.036633
833.392497	2482.808598
833.709101	2481.525625
834.025662	2481.543269
834.342179	2480.870275
834.658653	2480.542600
834.975083	2482.745584
835.291469	2484.199957
835.607811	2482.120481
835.924110	2484.769607
836.240366	2479.456231
836.556578	2481.558392
836.872746	2482.680049
837.188871	2480.456900
837.504952	2484.094093
837.820990	2482.480923
838.136984	2478.561426
838.452935	2482.501088
838.768842	2482.435553
839.084706	2478.780717
839.400526	2481.429843
839.716303	2480.552682
840.032037	2478.735346
840.347727	2477.759883
840.663373	2478.117805
840.978977	2478.258957
841.294537	2477.331385
841.610054	2479.592342
841.925527	2480.275419
842.240957	2481.414719
842.556344	2482.748105
842.871687	2481.162662
843.186987	2481.276088
843.502244	2477.946406
843.817458	2481.495378
844.132629	2481.540748
844.447756	2478.276601
844.762840	2482.518732
845.077881	2481.336582
845.392879	2479.521766
845.707833	2480.101499
846.022745	2480.527476
846.337613	2482.105358
846.652438	2477.764924
846.967221	2480.398927
847.281960	2481.578557
847.596656	2481.770121
847.911309	2482.750625
848.225919	2481.417240
848.540485	2479.862044
848.855009	2478.770634
849.169490	2479.461272
849.483928	2479.173927
849.798323	2479.184009
850.112675	2481.782724
850.426984	2477.951447
850.741251	2483.620224
851.055474	2481.016468
851.369654	2482.110399
851.683792	2480.464462
851.997887	2481.535707
852.311938	2477.656539
852.625947	2483.310193
852.939914	2480.819863
853.253837	2481.480254
853.567718	2482.564103
853.881555	2479.110912
854.195350	2481.777682
854.509103	2480.315748
854.822812	2481.001345
855.136479	2480.691314
855.450103	2480.648464
855.763685	2479.539410
856.077224	2477.903556
856.390720	2478.989924
856.704173	2477.752321
857.017584	2478.642085
857.330953	2480.386324
857.644278	2481.765080
857.957561	2484.774648
858.270802	2481.704586
858.584000	2479.279791
858.897155	2478.412712
859.210268	2479.781386
859.523339	2482.322127
859.836367	2481.548310
860.149352	2481.369349
860.462295	2482.611993
860.775195	2479.320120
861.088054	2479.320120
861.400869	2480.161993
861.713642	2481.286170
862.026373	2478.647126
862.339062	2481.749956
862.651708	2480.898001
862.964312	2478.493371
863.276873	2481.507981
863.589392	2479.877168
863.901869	2479.438587
864.214303	2478.846252
864.526696	2479.113433
864.839045	2482.130563
865.151353	2475.713174
865.463619	2482.304483
865.775842	2480.620738
866.088023	2480.240131
866.400162	2480.104019
866.712258	2479.410861
867.024313	2480.499750
867.336325	2479.791468
867.648296	2481.790285
867.960224	2479.695686
868.272110	2482.309524
868.583954	2478.780717
868.895755	2480.875316
869.207515	2482.475882
869.519233	2480.474544
869.830909	2480.769452
870.142542	2481.553351
870.454134	2477.341467
870.765684	2479.186529
871.077191	2479.425984
871.388657	2476.182002
871.700081	2474.087402
872.011463	2479.857003
872.322803	2475.816518
872.634101	2480.618217
872.945357	2479.773824
873.256571	2481.480254
873.567744	2481.563433
873.878874	2481.601242
874.189963	2481.881026
874.501010	2480.978660
874.812015	2478.057311
875.122979	2480.456900
875.433900	2477.938844
875.744780	2482.117960
876.055618	2481.704586
876.366415	2479.330202
876.677169	2479.032774
876.987882	2482.364977
877.298554	2479.070583
877.609183	2481.170223
877.919771	2479.441108
878.230317	2478.599235
878.540822	2482.503609
878.851285	2480.381283
879.161707	2482.745584
879.472087	2482.014617
879.782425	2479.322641
880.092722	2477.875829
880.402977	2480.401448
880.713191	2482.508650
881.023363	2482.488485
881.333494	2482.485965
881.643583	2480.640902
881.953631	2478.778196
882.263637	2478.140490
882.573602	2480.845069
882.883526	2480.608135
883.193408	2479.284832
883.503248	2481.235758
883.813048	2481.780203
884.122806	2480.920686
884.432522	2480.615697
884.742197	2480.958495
885.051831	2480.794658
885.361424	2479.488999
885.670975	2479.947744
885.980485	2478.163175
886.289954	2483.267343
886.599382	2480.736684
886.908768	2474.586477
887.218113	2473.285859
887.527417	2480.136787
887.836680	2475.559419
888.145901	2479.695686
888.455082	2481.702065
888.764221	2480.620738
889.073319	2479.466313
889.382376	2478.773155
889.691392	2479.219297
890.000366	2479.925058
890.309300	2479.761221
890.618193	2479.554534
890.927044	2479.075624
891.235855	2481.553351
891.544625	2477.621251
891.853353	2481.911273
892.162041	2482.937148
892.470687	2477.664101
892.779293	2480.751808
893.087858	2481.898670
893.396381	2479.741056
893.704864	2479.373052
894.013306	2478.992445
894.321707	2480.953454
894.630068	2478.574029
894.938387	2477.759883
895.246665	2479.362970
895.554903	2480.928248
895.863100	2478.511015
896.171256	2479.254585
896.479371	2479.627630
896.787446	2482.385142
897.095480	2479.451190
897.403473	2479.519246
897.711425	2479.378093
898.019336	2480.598053
898.327207	2477.623772
898.635038	2480.930769
898.942827	2481.293732
899.250576	2479.000007
899.558284	2479.068062
899.865952	2480.938330
900.173579	2478.488330
900.481165	2479.302476
900.788711	2478.763072
901.096216	2479.257106
901.403681	2479.786427
901.711105	2480.708958
902.018489	2479.887250
902.325832	2476.602938
902.633135	2478.836169
902.940397	2476.565129
903.247619	2475.125880
903.554800	2479.725933
903.861941	2479.783906
904.169041	2478.233751
904.476101	2480.431694
904.783121	2478.405151
905.090100	2479.607466
905.397039	2479.758700
905.703938	2477.182671
906.010796	2479.073103
906.317614	2480.083855
906.624391	2479.408340
906.931129	2480.159472
907.237826	2479.897332
907.544483	2476.464306
907.851099	2480.114102
908.157675	2482.102837
908.464211	2480.106540
908.770707	2477.843062
909.077163	2479.110912
909.383578	2478.077476
909.689954	2477.802733
909.996289	2475.589666
910.302584	2477.654019
910.608839	2478.082517
910.915054	2478.057311
911.221229	2478.281642
911.527363	2477.331385
911.833458	2476.665953
912.139513	2480.915645
912.445527	2478.783237
912.751502	2477.943885
913.057436	2477.054121
913.363331	2480.164513
913.669186	2479.211735
913.975000	2477.313741
914.280775	2478.014461
914.586510	2479.249544
914.892205	2479.453711
915.197859	2479.443628
915.503475	2477.684266
915.809050	2478.213587
916.114585	2476.640747
916.420081	2475.141003
916.725536	2477.427167
917.030952	2479.889770
917.336328	2477.442290
917.641665	2474.422639
917.946961	2475.466158
918.252218	2477.470017
918.557435	2473.487505
918.862612	2478.082517
919.167750	2478.140490
919.472848	2480.996304
919.777906	2478.936992
920.082925	2478.926910
920.387904	2476.333236
920.692843	2476.902887
920.997743	2478.843731
921.302603	2478.263998
921.607423	2476.771817
921.912204	2476.887763
922.216946	2480.764411
922.521647	2480.388845
922.826310	2476.663432
923.130932	2481.137456
923.435516	2478.453042
923.740059	2479.756180
924.044564	2479.196612
924.349028	2475.609831
924.653454	2476.993628
924.957840	2477.976652
925.262186	2479.146200
925.566493	2477.928762
925.870761	2477.969091
926.174989	2477.895994
926.479178	2476.262660
926.783328	2476.849955
927.087438	2476.184522
927.391509	2480.829946
927.695541	2478.143011
927.999533	2480.106540
928.303486	2477.091930
928.607400	2480.469503
928.911275	2478.342136
929.215110	2479.660398
929.518906	2476.197125
929.822663	2475.604790
930.126381	2478.881540
930.430060	2478.279122
930.733699	2475.357773
931.037299	2478.594194
931.340861	2478.024543
931.644383	2480.419092
931.947866	2478.384986
932.251309	2480.209884
932.554714	2478.621920
932.858080	2477.777527
933.161407	2474.720067
933.464694	2476.280304
933.767943	2475.183853
934.071153	2477.505305
934.374323	2476.479430
934.677455	2478.407671
934.980548	2479.070583
935.283602	2476.509677
935.586617	2480.378762
935.889593	2479.131077
936.192530	2479.352887
936.495428	2478.362301
936.798287	2479.988073
937.101108	2477.167547
937.403890	2480.192240
937.706632	2476.839872
938.009336	2480.698876
938.312002	2478.392548
938.614628	2478.989924
938.917216	2479.221818
939.219765	2478.828608
939.522275	2477.961529
939.824747	2477.918679
940.127179	2478.359780
940.429573	2477.069245
940.731929	2479.257106
941.034246	2476.534882
941.336524	2480.925727
941.638763	2477.527990
941.940964	2478.387507
942.243126	2478.493371
942.545250	2480.797178
942.847335	2479.698207
943.149381	2480.797178
943.451389	2477.994297
943.753359	2478.420274
944.055290	2477.449852
944.357182	2477.971611
944.659036	2478.556385
944.960851	2478.689976
945.262628	2480.724081
945.564367	2475.942547
945.866067	2476.802064
946.167729	2478.014461
946.469352	2479.282311
946.770937	2480.227528
947.072484	2476.965901
947.373992	2477.911117
947.675462	2478.775675
947.976893	2470.392237
948.278286	2472.393575
948.579641	2474.533544
948.880958	2472.058338
949.182236	2476.943216
949.483476	2477.913638
949.784678	2476.613020
950.085841	2477.318782
950.386967	2480.164513
950.688054	2479.057980
950.989103	2478.082517
951.290114	2477.374235
951.591087	2477.908597
951.892021	2478.054790
952.192917	2476.832311
952.493776	2478.949595
952.794596	2478.057311
953.095378	2476.015644
953.396122	2478.611838
953.696828	2477.500263
953.997496	2476.975983
954.298126	2479.083186
954.598718	2478.437918
954.899272	2479.065542
955.199788	2477.497743
955.500266	2478.349698
955.800706	2476.015644
956.101108	2477.180150
956.401472	2477.472537
956.701798	2476.534883
957.002087	2478.742908
957.302337	2478.957157
957.602550	2478.022023
957.902724	2476.580253
958.202861	2479.057980
958.502960	2474.735191
958.803022	2475.183853
959.103045	2477.255767
959.403031	2477.018833
959.702979	2477.878350
960.002889	2477.162506
960.302762	2477.795171
960.602596	2476.892804
960.902393	2480.300624
961.202153	2478.997486
961.501875	2477.023874
961.801559	2477.321303
962.101205	2478.642085
962.400814	2478.236272
962.700385	2476.839872
962.999918	2474.732670
963.299414	2473.744604
963.598873	2474.410036
963.898293	2471.181177
964.197677	2477.585963
964.497022	2474.924234
964.796331	2479.607466
965.095601	2476.648308
965.394835	2478.674852
965.694030	2476.902887
965.993189	2477.606128
966.292309	2479.499081
966.591393	2478.455562
966.890439	2477.238123
967.189447	2480.179637
967.488419	2477.729636
967.787353	2477.033957
968.086249	2478.402630
968.385108	2476.003041
968.683930	2476.333236
968.982714	2478.581591
969.281462	2474.619244
969.580172	2478.465644
969.878844	2472.943060
970.177480	2480.555203
970.476078	2476.232413
970.774639	2477.863227
971.073162	2475.221662
971.371649	2476.277784
971.670098	2477.273412
971.968510	2475.307362
972.266885	2476.282825
972.565223	2477.147383
972.863524	2479.357929
973.161788	2476.371045
973.460014	2477.535552
973.758204	2475.584625
974.056356	2478.800881
974.354471	2477.769965
974.652550	2476.776858
974.950591	2477.729636
975.248595	2478.024543
975.546563	2478.148052
975.844493	2478.561426
976.142386	2475.912300
976.440243	2475.486323
976.738062	2477.109574
977.035845	2473.724439
977.333590	2478.211066
977.631299	2477.313741
977.928971	2476.224852
978.226606	2474.425160
978.524204	2473.522793
978.821765	2473.084213
979.119290	2476.315592
979.416777	2478.677373
979.714228	2479.176447
980.011642	2475.665283
980.309020	2476.222331
980.606360	2475.433390
980.903664	2477.855665
981.200931	2475.017495
981.498162	2478.258957
981.795356	2477.407002
982.092513	2475.675366
982.389633	2473.008595
982.686717	2477.832980
982.983764	2480.212404
983.280775	2479.592342
983.577749	2477.162506
983.874686	2476.550006
984.171587	2477.538072
984.468451	2478.942033
984.765279	2476.895325
985.062070	2475.902218
985.358824	2477.822897
985.655543	2476.255098
985.952224	2475.587146
986.248869	2478.112764
986.545478	2476.648308
986.842050	2478.866416
987.138586	2475.279635
987.435086	2477.316261
987.731549	2477.999338
988.027975	2478.032105
988.324366	2474.314254
988.620719	2475.546816
988.917037	2474.145376
989.213318	2476.020685
989.509563	2476.224852
989.805772	2478.579070
990.101944	2477.389358
990.398080	2479.186529
990.694180	2476.418936
990.990244	2477.328864
991.286271	2476.968422
991.582262	2476.323154
991.878217	2477.167547
992.174136	2475.272073
992.470019	2475.844244
992.765865	2473.182515
993.061676	2472.585138
993.357450	2475.057824
993.653188	2470.775364
993.948890	2474.452886
994.244556	2477.752321
994.540186	2475.393061
994.835780	2475.718216
995.131337	2477.447331
995.426859	2475.887094
995.722345	2477.654019
996.017795	2474.039511
996.313208	2476.524800
996.608586	2476.711323
996.903928	2478.637044
997.199234	2477.527990
997.494504	2476.628144
997.789738	2474.561271
998.084936	2475.040180
998.380099	2476.915490
998.675225	2476.474389
998.970316	2476.799543
999.265371	2477.180150
999.560390	2474.964563
999.855373	2476.471868
1000.150320	2477.230562
1000.445232	2476.323154
1000.740108	2476.524800
1001.034948	2477.096971
1001.329752	2475.574543
1001.624521	2477.064204
1001.919254	2474.677217
1002.213951	2477.197794
1002.508613	2475.433390
1002.803239	2474.689820
1003.097829	2474.289048
1003.392384	2473.462299
1003.686903	2477.399440
1003.981386	2476.595376
1004.275834	2477.553196
1004.570246	2476.676035
1004.864623	2476.718885
1005.158964	2479.761221
1005.453270	2474.838534
1005.747540	2475.733339
1006.041775	2475.829121
1006.335974	2474.697382
1006.630138	2476.804584
1006.924266	2478.274081
1007.218359	2476.529841
1007.512416	2471.846609
1007.806438	2471.730663
1008.100425	2473.598410
1008.394376	2469.741928
1008.688292	2475.766107
1008.982172	2476.066055
1009.276017	2478.122846
1009.569827	2474.778040
1009.863602	2475.352732
1010.157341	2477.558237
1010.451045	2478.057311
1010.744714	2475.844244
1011.038347	2477.956488
1011.331945	2474.931796
1011.625508	2473.996662
1011.919036	2479.352888
1012.212528	2476.464306
1012.505986	2475.514049
1012.799408	2476.174440
1013.092795	2475.869450
1013.386147	2477.127218
1013.679464	2477.210397
1013.972745	2474.215952
1014.265992	2477.091930
1014.559204	2476.514718
1014.852380	2473.313585
1015.145521	2475.173771
1015.438628	2474.064717
1015.731699	2477.487661
1016.024736	2475.251909
1016.317737	2474.936837
1016.610703	2475.493884
1016.903635	2475.410705
1017.196531	2477.981694
1017.489393	2476.219810
1017.782219	2476.149234
1018.075011	2474.432721
1018.367768	2477.470017
1018.660490	2477.369193
1018.953177	2477.369193
1019.245829	2477.369193
