Dividing Wavelength (nm)	Counts (n)	Blue Motor Position (mm): 22.500000	Red Motor Position (mm): 0.000000	
326.493990	2068.060269
326.888308	2068.060269
327.282561	2068.060269
327.676750	2041.700075
328.070874	2044.379448
328.464933	2050.663247
328.858929	2057.430996
329.252859	2067.447768
329.646726	2080.070818
330.040528	2098.574373
330.434265	2115.069028
330.827938	2136.836731
331.221547	2154.037148
331.615091	2176.429953
332.008571	2197.343180
332.401986	2220.204812
332.795338	2240.878584
333.188625	2256.745616
333.581847	2275.541558
333.975006	2293.120062
334.368100	2313.783751
334.761129	2327.994764
335.154095	2342.959429
335.546996	2389.942983
335.939833	2486.728096
336.332606	2496.228150
336.725315	2512.576612
337.117960	2518.391583
337.510540	2532.713501
337.903056	2539.924872
338.295508	2546.556509
338.687896	2552.903322
339.080220	2555.474311
339.472480	2561.957234
339.864676	2564.853377
340.256807	2567.797411
340.648875	2569.705488
341.040879	2569.534089
341.432818	2572.916703
341.824694	2577.388206
342.216506	2571.381672
342.608253	2573.488874
342.999937	2574.061045
343.391557	2572.551219
343.783113	2572.059707
344.174605	2566.464026
344.566033	2567.189952
344.957397	2565.163408
345.348697	2561.317008
345.739934	2561.959755
346.131106	2559.749209
346.522215	2557.826009
346.913260	2557.836091
347.304241	2558.133519
347.695159	2552.651264
348.086012	2553.707386
348.476802	2550.685214
348.867528	2547.070707
349.258191	2546.790923
349.648789	2543.859492
350.039324	2541.656508
350.429796	2545.681869
350.820203	2545.644061
351.210548	2544.983669
351.600828	2542.868905
351.991045	2545.107178
352.381198	2540.033256
352.771288	2541.895963
353.161314	2538.687268
353.551276	2539.274563
353.941175	2538.992258
354.331010	2542.458051
354.720782	2540.902855
355.110490	2544.993752
355.500135	2538.452855
355.889717	2541.681714
356.279235	2540.481919
356.668689	2541.270860
357.058080	2540.739018
357.447408	2544.920655
357.836672	2544.290511
358.225873	2542.752959
358.615010	2544.149358
359.004084	2544.320758
359.393095	2547.955430
359.782043	2543.771272
360.170927	2546.982487
360.559748	2544.711447
360.948505	2546.422919
361.337199	2546.458207
361.725830	2547.574822
362.114398	2546.939637
362.502903	2545.636499
362.891344	2548.943496
363.279722	2548.010882
363.668037	2550.886861
364.056289	2550.024823
364.444478	2548.880481
364.832603	2550.869217
365.220665	2552.890719
365.608665	2553.853580
365.996601	2549.853424
366.384474	2551.852242
366.772284	2554.133364
367.160031	2553.742674
367.547715	2555.991029
367.935336	2551.595143
368.322893	2554.584547
368.710388	2548.454504
369.097820	2550.760832
369.485189	2552.053888
369.872495	2556.308622
370.259738	2556.984136
370.646918	2558.251986
371.034035	2555.708724
371.421090	2553.926676
371.808081	2556.154866
372.195010	2554.511450
372.581875	2558.458674
372.968678	2556.255689
373.355418	2555.373488
373.742096	2558.604867
374.128710	2555.862479
374.515262	2557.016904
374.901751	2559.701318
375.288177	2560.460012
375.674540	2558.181410
376.060841	2560.512944
376.447079	2560.313818
376.833254	2560.175187
377.219367	2560.396997
377.605417	2558.998077
377.991404	2562.988150
378.377329	2560.235680
378.763191	2563.585527
379.148991	2561.690053
379.534727	2564.515620
379.920402	2559.184600
380.306013	2562.599982
380.691563	2562.254662
381.077049	2563.058727
381.462474	2562.055537
381.847835	2562.000084
382.233134	2563.088973
382.618371	2561.863973
383.003545	2563.199879
383.388657	2564.780281
383.773706	2563.875393
384.158693	2567.051320
384.543618	2566.542164
384.928480	2565.070147
385.313280	2564.785322
385.698017	2565.614592
386.082692	2564.687019
386.467305	2567.893193
386.851856	2567.716753
387.236344	2569.163564
387.620770	2564.361865
388.005133	2562.882286
388.389435	2567.807493
388.773674	2563.242729
389.157851	2567.956207
389.541965	2568.626681
389.926018	2567.958728
390.310008	2566.413614
390.693936	2570.685992
391.077802	2569.889490
391.461606	2569.904613
391.845348	2571.777402
392.229027	2571.860581
392.612645	2571.800087
392.996200	2570.628019
393.379694	2570.998544
393.763125	2572.175653
394.146494	2572.863771
394.529801	2574.920562
394.913047	2573.491394
395.296230	2573.292269
395.679351	2574.582804
396.062410	2573.849316
396.445408	2571.356466
396.828343	2574.174471
397.211217	2574.325705
397.594028	2574.217321
397.976778	2572.594069
398.359466	2573.511559
398.742092	2574.255129
399.124656	2573.047773
399.507158	2574.083730
399.889598	2573.985427
400.271977	2573.103226
400.654294	2574.320664
401.036549	2575.681776
401.418742	2575.696899
401.800874	2577.052970
402.182944	2575.124728
402.564952	2577.478947
402.946898	2577.153793
403.328783	2578.772003
403.710606	2574.849985
404.092367	2576.644636
404.474067	2576.624472
404.855705	2578.066242
405.237282	2577.970460
405.618797	2577.887281
406.000250	2578.522466
406.381642	2580.554051
406.762972	2575.633885
407.144240	2575.306210
407.525447	2578.409040
407.906593	2576.319482
408.287677	2580.342322
408.668700	2579.497929
409.049661	2580.138156
409.430560	2580.569174
409.811399	2579.782754
410.192176	2580.949782
410.572891	2583.810636
410.953545	2582.394072
411.334138	2582.809967
411.714669	2579.354256
412.095139	2584.465986
412.475547	2581.443815
412.855894	2582.925914
413.236180	2580.576736
413.616405	2582.058835
413.996568	2581.153948
414.376670	2582.439442
414.756711	2584.536563
415.136691	2584.498754
415.516609	2582.245358
415.896466	2586.492530
416.276262	2583.122519
416.655997	2583.036819
417.035670	2584.886923
417.415283	2584.213929
417.794834	2585.557396
418.174324	2582.933476
418.553753	2584.821388
418.933121	2587.765422
419.312428	2585.007910
419.691674	2583.677046
420.070859	2586.812643
420.449983	2586.616038
420.829045	2588.496389
421.208047	2586.679053
421.586988	2584.904567
421.965867	2588.955134
422.344686	2587.924218
422.723444	2589.315576
423.102141	2589.562593
423.480777	2585.721234
423.859352	2588.927407
424.237866	2587.215936
424.616319	2589.106368
424.994712	2587.145360
425.373044	2590.041502
425.751314	2584.420616
426.129524	2586.585792
426.507673	2587.561255
426.885762	2586.386666
427.263789	2587.684763
427.641756	2586.805082
428.019662	2586.721903
428.397508	2589.348344
428.775292	2591.626945
429.153016	2587.427664
429.530679	2589.517223
429.908282	2591.750454
430.285824	2589.670978
430.663305	2590.280957
431.040726	2590.527974
431.418086	2594.119796
431.795385	2593.729107
432.172624	2591.924373
432.549802	2592.148705
432.926920	2590.288519
433.303977	2592.461256
433.680974	2591.483273
434.057910	2589.678539
434.434786	2592.423448
434.811601	2593.880341
435.188355	2595.085177
435.565050	2592.110896
435.941683	2591.470670
436.318257	2595.702718
436.694770	2594.838160
437.071222	2593.938314
437.447614	2594.686926
437.823946	2595.541401
438.200218	2595.259097
438.576429	2596.088367
438.952580	2594.260948
439.328670	2594.230701
439.704700	2595.864035
440.080670	2596.889910
440.456580	2593.794642
440.832429	2595.775815
441.208218	2596.842019
441.583947	2600.053234
441.959616	2595.927050
442.335224	2598.286310
442.710773	2599.528954
443.086261	2596.645414
443.461689	2598.203131
443.837057	2600.630446
444.212365	2598.775302
444.587612	2598.712287
444.962800	2596.854622
445.337927	2596.428644
445.712995	2597.638521
446.088002	2599.085332
446.462949	2601.971393
446.837837	2606.115222
447.212664	2603.488780
447.587431	2605.298555
447.962139	2604.998606
448.336786	2605.442228
448.711374	2606.107660
449.085901	2606.460541
449.460369	2605.280911
449.834776	2605.800149
450.209124	2608.131683
450.583412	2607.015067
450.957640	2609.185284
451.331808	2609.742332
451.705917	2606.576487
452.079965	2610.276694
452.453954	2612.162086
452.827883	2611.242075
453.201752	2610.914400
453.575562	2613.331633
453.949311	2612.406582
454.323001	2613.392127
454.696632	2613.734926
455.070202	2613.079576
455.443713	2614.168465
455.817164	2614.841459
456.190556	2618.130812
456.563888	2619.325565
456.937160	2619.502006
457.310373	2618.602160
457.683526	2618.763477
458.056619	2618.375308
458.429653	2622.985443
458.802628	2621.536111
459.175542	2624.568365
459.548398	2627.169601
459.921194	2626.360495
460.293930	2630.537091
460.666607	2633.518934
461.039224	2636.208389
461.411782	2634.126393
461.784280	2635.520272
462.156719	2637.758544
462.529099	2638.492032
462.901419	2636.573873
463.273680	2637.398102
463.645882	2634.925416
464.018024	2640.881539
464.390106	2641.922537
464.762130	2647.654329
465.134094	2653.867551
465.505999	2666.631753
465.877845	2676.421674
466.249631	2681.477951
466.621358	2682.748322
466.993026	2680.109278
467.364634	2682.576922
467.736184	2681.480472
468.107674	2682.720595
468.479105	2686.733354
468.850477	2687.799558
469.221790	2693.702749
469.593043	2691.774508
469.964238	2697.017308
470.335373	2697.856660
470.706449	2709.544575
471.077467	2721.794579
471.448425	2748.016141
471.819324	2767.288472
472.190164	2772.682506
472.560945	2770.071189
472.931667	2766.973400
473.302330	2774.393978
473.672934	2779.205759
474.043479	2792.398459
474.413965	2802.170736
474.784393	2813.306645
475.154761	2836.594255
475.525070	2846.885770
475.895321	2862.031917
476.265513	2884.139897
476.635645	2910.542941
477.005719	2929.573296
477.375734	2959.472380
477.745691	2988.355671
478.115588	3025.577030
478.485427	3076.580904
478.855207	3152.651916
479.224928	3230.895665
479.594591	3297.902682
479.964194	3319.204077
480.333739	3359.785366
480.703226	3405.838827
481.072653	3470.882314
481.442022	3538.766492
481.811333	3600.487859
482.180584	3632.431130
482.549777	3681.665559
482.918912	3723.842373
483.287988	3788.517856
483.657005	3838.405115
484.025964	3877.340466
484.394864	3944.634829
484.763706	4006.807379
485.132489	4044.099315
485.501213	4113.226137
485.869879	4195.991801
486.238487	4266.545270
486.607036	4356.885267
486.975527	4420.108898
487.343959	4518.630688
487.712333	4631.867607
488.080648	4713.546902
488.448905	4835.981405
488.817104	4923.639509
489.185244	5095.608390
489.553326	5291.719357
489.921350	5595.973156
490.289315	5968.015351
490.657222	6198.620413
491.025070	6388.707201
491.392861	6494.929354
491.760593	6540.332506
492.128267	6555.576955
492.495883	6568.807464
492.863440	6605.864986
493.230939	6623.367872
493.598380	6692.106525
493.965763	6811.516336
494.333088	6890.818727
494.700354	7012.587798
495.067563	7154.387894
495.434713	7290.972917
495.801805	7490.395922
496.168839	7632.148127
496.535815	7764.657376
496.902733	7956.412786
497.269593	8093.025535
497.636395	8285.164073
498.003139	8515.340637
498.369825	8651.673601
498.736453	8913.760669
499.103023	9062.288185
499.469535	9264.196479
499.835989	9481.555909
500.202385	9645.010281
500.568723	9844.934881
500.935003	10122.019382
501.301226	10287.863261
501.667390	10677.685606
502.033497	10951.994951
502.399546	11104.847777
502.765537	11201.993332
503.131470	11549.855632
503.497345	11900.664488
503.863163	11803.002214
504.228923	12245.960841
504.594625	12613.750823
504.960269	12673.790965
505.325856	13137.398158
505.691385	13252.691867
506.056856	13606.538017
506.422270	14014.248896
506.787625	14076.575202
507.152924	14485.742974
507.518164	14797.881138
507.883347	14872.250760
508.248472	15168.297561
508.613540	15680.723287
508.978550	16024.330854
509.343503	16211.075357
509.708398	16626.509284
510.073236	17140.875855
510.438016	17448.749203
510.802738	17563.483344
511.167403	18083.596830
511.532010	18466.049008
511.896561	18981.756526
512.261053	19620.410224
512.625488	19768.471433
512.989866	19985.538477
513.354186	20291.849067
513.718449	20521.957575
514.082655	21249.786764
514.446803	21350.851817
514.810894	21948.460441
515.174927	22209.909803
515.538904	22462.872382
515.902822	23095.562395
516.266684	23174.464015
516.630488	23632.601556
516.994235	23888.540937
517.357925	24494.956456
517.721558	24911.320476
518.085133	25390.714042
518.448651	25770.988441
518.812112	25944.721726
519.175516	26284.157738
519.538863	26825.401221
519.902152	27114.894522
520.265385	27723.812974
520.628560	27974.794380
520.991678	28180.521348
521.354739	28572.153467
521.717743	29061.198322
522.080690	29226.953981
522.443580	29950.949373
522.806413	30194.729491
523.169189	30506.688693
523.531908	30903.188046
523.894569	31024.579031
524.257174	31387.146377
524.619722	31859.200023
524.982213	32189.345189
525.344647	32429.316715
525.707025	32740.686103
526.069345	33281.097795
526.431608	33408.684358
526.793815	33910.037190
527.155964	33769.283133
527.518057	34157.295704
527.880093	34239.698405
528.242072	34941.479952
528.603995	34913.317546
528.965860	35043.134819
529.327669	35394.278911
529.689421	35629.357997
530.051117	35760.105363
530.412755	36158.321229
530.774337	36380.215177
531.135862	36494.916551
531.497331	36783.152084
531.858743	36953.931253
532.220098	37463.380178
532.581396	37375.162506
532.942638	37343.070521
533.303824	37702.666107
533.664953	37907.798219
534.026025	37771.041797
534.387040	38421.050695
534.747999	38613.065724
535.108902	39042.572032
535.469748	38569.908406
535.830537	38953.036098
536.191270	39311.464658
536.551947	39197.658089
536.912567	39577.466181
537.273131	39806.687447
537.633638	39598.102145
537.994089	39863.249193
538.354483	39770.131520
538.714821	40455.922527
539.075103	40847.957938
539.435328	40840.610457
539.795497	40718.612013
540.155609	40949.960645
540.515665	41587.611154
540.875665	41028.325382
541.235609	41389.544219
541.595496	41612.020421
541.955328	42244.413006
542.315102	41803.334730
542.674821	41802.311376
543.034483	41810.835967
543.394090	41904.856007
543.753640	41971.028713
544.113134	43061.584045
544.472571	42291.893114
544.831953	43426.679530
545.191278	42818.048423
545.550548	42610.932617
545.909761	43282.923466
546.268918	43490.238397
546.628019	43951.403151
546.987064	43479.750277
547.346053	42878.829615
547.704986	43815.854086
548.063863	43523.976320
548.422684	43787.278306
548.781449	43448.817757
549.140158	44018.654664
549.498811	43852.770456
549.857408	43321.594157
550.215949	44180.362277
550.574434	44080.854941
550.932864	44065.736521
551.291237	44800.086443
551.649555	44593.507520
552.007817	44804.512576
552.366022	44580.539151
552.724173	44680.742166
553.082267	45121.333971
553.440305	45513.669331
553.798288	44834.613305
554.156215	45246.334422
554.514086	45461.022041
554.871902	45117.495133
555.229661	45325.399879
555.587365	45042.455037
555.945014	45233.663482
556.302606	45244.035656
556.660143	45369.426796
557.017625	45617.890146
557.375050	45346.723960
557.732421	45770.551408
558.089735	45852.639036
558.446994	45758.036743
558.804197	46253.183915
559.161345	46134.870555
559.518437	45532.520726
559.875474	45790.363142
560.232455	46007.137799
560.589381	46080.952894
560.946251	45925.153514
561.303065	46575.646362
561.659825	46292.875440
562.016528	46131.815616
562.373177	45730.945582
562.729770	46384.707619
563.086307	45907.796821
563.442789	46463.725185
563.799216	46314.239850
564.155587	46225.349184
564.511904	46231.123826
564.868164	46286.261446
565.224370	46634.040568
565.580520	46349.245622
565.936615	46564.444918
566.292654	46228.555358
566.648638	46602.924046
567.004567	46564.782676
567.360441	46637.387894
567.716260	46369.241359
568.072023	46769.456042
568.427732	46702.897688
568.783385	46249.178718
569.138982	46673.842998
569.494525	46812.772157
569.850013	46424.953671
570.205445	46548.275417
570.560823	46323.618917
570.916145	46215.574387
571.271412	46445.458564
571.626625	46091.892198
571.981782	46178.078285
572.336884	45815.561350
572.691931	46145.053686
573.046923	45801.604915
573.401860	45659.028482
573.756743	45668.631880
574.111570	45830.591550
574.466342	45743.004022
574.821059	45898.027065
575.175722	45403.822589
575.530330	45518.362645
575.884882	45161.683367
576.239380	45065.556125
576.593823	45173.978741
576.948211	45120.189629
577.302544	44680.883319
577.656823	44664.174414
578.011047	44944.011385
578.365216	44777.731446
578.719330	44506.270352
579.073389	44490.730996
579.427394	44553.319441
579.781344	44463.536491
580.135239	44227.509668
580.489080	44292.880831
580.842866	43797.862208
581.196597	44293.689936
581.550273	44270.835865
581.903895	44212.436618
582.257463	44657.630997
582.610975	44101.080050
582.964434	44411.340384
583.317837	43923.530612
583.671186	43889.664140
584.024481	44178.887739
584.377721	43746.707099
584.730906	43968.444772
585.084037	44113.360301
585.437113	43840.457437
585.790135	43964.195079
586.143103	43532.216086
586.496016	43694.609295
586.848874	43817.588243
587.201679	43857.367988
587.554428	43363.531516
587.907124	43612.188950
588.259765	43395.303388
588.612352	43549.585381
588.964884	43028.239333
589.317362	43328.142616
589.669786	43337.141076
590.022155	43210.078793
590.374470	43681.456925
590.726731	43268.445272
591.078937	42630.424239
591.431090	42958.318529
591.783188	42484.142557
592.135232	42311.614108
592.487222	42566.598190
592.839157	42717.555542
593.191038	42371.568550
593.542866	42202.306769
593.894639	41586.297933
594.246358	41886.450754
594.598022	41890.067782
594.949633	41479.916984
595.301190	41480.821872
595.652692	41411.997519
596.004141	41903.651171
596.355535	40825.295431
596.706876	40822.424494
597.058162	40562.658878
597.409395	41044.414224
597.760573	41280.924998
598.111698	40905.883317
598.462768	40829.827428
598.813785	40863.918231
599.164748	40466.183796
599.515657	40736.077090
599.866511	40259.554461
600.217312	40930.365680
600.568060	39894.332948
600.918753	40700.547038
601.269392	40618.706426
601.619978	40382.790508
601.970510	40566.953941
602.320988	40713.805273
602.671412	40961.242748
603.021783	40834.422440
603.372100	40438.742275
603.722363	40530.176203
604.072572	40573.762019
604.422728	40557.534545
604.772830	40343.930774
605.122878	40521.056755
605.472872	40360.115398
605.822813	40628.793775
606.172701	40371.621832
606.522534	40701.976205
606.872314	40909.891034
607.222041	40735.704045
607.571714	41089.033477
607.921333	40583.050345
608.270899	40770.122523
608.620411	41160.736329
608.969870	40933.700403
609.319276	40950.638680
609.668627	40974.324542
610.017926	41353.000895
610.367171	41509.818588
610.716362	41546.941645
611.065500	41462.131794
611.414585	41681.053982
611.763616	41847.311236
612.112594	41739.289391
612.461518	41871.808723
612.810389	42274.848973
613.159207	42046.935887
613.507971	42033.576829
613.856682	42542.262020
614.205340	42356.293854
614.553945	43035.259139
614.902496	42388.345510
615.250994	42809.102896
615.599439	42869.112791
615.947830	42986.087725
616.296169	42995.635670
616.644454	43051.113568
616.992686	43187.592726
617.340864	43623.362668
617.688990	43122.430772
618.037063	43794.671158
618.385082	43631.632681
618.733048	43985.065456
619.080961	43866.757137
619.428821	43904.691820
619.776628	43967.688599
620.124382	43778.199188
620.472083	43880.317841
620.819731	43989.506713
621.167326	43584.407151
621.514868	43569.422322
621.862357	43038.303996
622.209793	43142.744101
622.557176	42707.979870
622.904506	42477.515960
623.251783	42114.303346
623.599007	41807.632314
623.946179	41732.476272
624.293297	41464.775879
624.640363	40958.175205
624.987376	40800.797944
625.334336	40598.665319
625.681243	40206.491276
626.028097	40113.658428
626.374899	39941.724835
626.721647	39897.271940
627.068343	39655.959467
627.414987	39374.824400
627.761577	39146.591200
628.108115	39463.019386
628.454600	38705.122235
628.801032	38946.165006
629.147412	38836.966052
629.493739	38709.656753
629.840014	38284.511043
630.186236	38719.454235
630.532405	38142.826893
630.878521	38404.861029
631.224585	38164.929832
631.570597	37856.254941
631.916556	38009.947119
632.262462	37907.261336
632.608316	37848.572223
632.954117	37733.984275
633.299866	37665.946343
633.645562	37584.020031
633.991206	37093.467871
634.336797	36689.658845
634.682336	36569.908756
635.027823	36328.956725
635.373257	36238.684783
635.718639	35901.892857
636.063968	35810.763918
636.409245	35183.911561
636.754470	35123.823528
637.099642	34909.090539
637.444762	34324.518339
637.789829	34449.014674
638.134845	34064.369594
638.479808	33974.349710
638.824719	33939.268321
639.169577	33430.444498
639.514383	33549.463620
639.859137	33153.687673
640.203839	33321.290915
640.548489	33029.725700
640.893086	33019.845038
641.237632	32733.081522
641.582125	32834.741431
641.926566	32610.732718
642.270955	32649.655467
642.615292	32584.289346
642.959576	32457.446353
643.303809	32474.792964
643.647990	32571.986410
643.992118	32538.487943
644.336195	32364.689123
644.680219	32425.616508
645.024192	32614.987452
645.368112	33137.137565
645.711981	33152.220697
646.055797	33834.626570
646.399562	33646.652025
646.743274	34500.154659
647.086935	34912.362248
647.430544	34893.669649
647.774101	34919.177888
648.117606	35220.585955
648.461059	35371.830653
648.804460	34982.953525
649.147810	34496.593084
649.491108	34185.745456
649.834354	34072.427879
650.177548	33267.771505
650.520690	32763.456995
650.863781	32730.003898
651.206820	32562.060378
651.549807	32148.395896
651.892742	31550.353733
652.235626	31463.424076
652.578458	31322.150781
652.921238	30630.265018
653.263967	30907.437739
653.606644	30605.472624
653.949269	30511.190444
654.291843	30121.166453
654.634365	30478.969909
654.976836	30018.657110
655.319255	30119.782656
655.661622	29969.500819
656.003938	29854.557470
656.346203	29667.765076
656.688416	29916.246070
657.030577	29701.276146
657.372687	29513.720017
657.714746	29651.885442
658.056753	29845.599340
658.398708	29224.723270
658.740612	29308.532453
659.082465	29510.183648
659.424266	29383.998526
659.766016	29393.070083
660.107715	29241.475025
660.449362	29332.672018
660.790958	29320.472426
661.132503	29233.492358
661.473996	29316.167281
661.815438	29401.211546
662.156829	29521.248981
662.498168	29310.334666
662.839456	29298.765217
663.180693	29411.311498
663.521879	29465.019951
663.863013	29416.823999
664.204097	29407.066846
664.545129	29814.442488
664.886110	29743.556304
665.227040	29843.270327
665.567918	29833.155252
665.908746	29904.031354
666.249522	30000.582053
666.590248	30031.118842
666.930922	30133.204728
667.271545	30141.076490
667.612118	30182.310608
667.952639	30001.602887
668.293109	30042.393383
668.633528	29898.107998
668.973896	29859.097029
669.314213	29841.841160
669.654480	29649.937036
669.994695	29627.551792
670.334859	29541.474090
670.674973	29365.411792
671.015035	29554.019001
671.355047	29482.658948
671.695008	29400.069725
672.034918	29317.016715
672.374777	29398.980835
672.714585	29280.793504
673.054342	29418.137220
673.394049	29284.319791
673.733705	29477.519492
674.073310	29205.851711
674.412864	29266.441339
674.752368	28988.935902
675.091820	29226.404495
675.431223	28834.817747
675.770574	28614.715929
676.109875	28463.017527
676.449125	28257.182174
676.788324	28159.164500
677.127473	27694.380197
677.466571	27590.804650
677.805619	27303.554663
678.144616	27233.928767
678.483562	27188.548300
678.822458	26874.073561
679.161303	26807.893293
679.500098	26727.096200
679.838842	26646.490671
680.177535	26704.279938
680.516179	26921.041992
680.854771	27000.001584
681.193314	27671.387495
681.531805	28617.690209
681.870247	29369.981598
682.208638	30173.236531
682.546978	30525.426662
682.885268	30707.291328
683.223508	30299.169595
683.561697	30041.329700
683.899836	29880.133764
684.237925	29466.741505
684.575963	29305.989191
684.913951	28910.808100
685.251889	29050.894203
685.589776	29059.743949
685.927614	29061.604135
686.265401	29220.680265
686.603137	29327.373766
686.940824	29783.928384
687.278460	30113.992891
687.616046	30295.194646
687.953582	30967.568622
688.291068	30901.390875
688.628504	31266.226741
688.965889	31286.214916
689.303224	31050.414944
689.640510	30779.677257
689.977745	30170.259730
690.314930	29459.134404
690.652065	29049.885973
690.989150	28377.204486
691.326185	27552.950626
691.663170	26935.996574
692.000105	26225.768574
692.336990	25620.830112
692.673825	25197.307654
693.010610	24700.630492
693.347345	24214.643097
693.684030	23591.657304
694.020665	23388.246747
694.357251	22721.203790
694.693786	22721.418039
695.030272	22496.638030
695.366707	21996.502637
695.703093	21711.851364
696.039429	21778.036673
696.375716	21537.084643
696.711952	21522.588805
697.048139	21395.425699
697.384276	21228.465204
697.720363	21352.235613
698.056400	21245.458934
698.392388	21079.799057
698.728326	21072.832182
699.064214	20926.507651
699.400053	20944.897780
699.735842	20551.849097
700.071581	20374.518948
700.407270	20131.169849
700.742910	19963.934612
701.078501	19722.791017
701.414042	19527.035452
701.749533	19218.726044
702.084974	18909.983098
702.420366	19147.577720
702.755709	18745.601153
703.091002	18437.354760
703.426246	18486.521133
703.761440	18415.282068
704.096584	18196.082616
704.431679	18130.240106
704.766725	18071.926559
705.101721	17989.964959
705.436668	18096.096371
705.771565	17820.209144
706.106413	18137.151528
706.441212	18190.658335
706.775961	18287.839178
707.110661	18351.166153
707.445311	18710.658395
707.779913	18601.146890
708.114465	18887.771774
708.448967	19191.801242
708.783421	19792.863056
709.117825	20134.444079
709.452180	20338.225161
709.786485	20774.892428
710.120742	21520.123681
710.454949	21614.098350
710.789107	22127.071042
711.123216	22814.722235
711.457275	23040.026524
711.791286	23618.539257
712.125247	23783.213589
712.459159	23554.030132
712.793023	24319.347862
713.126837	23326.515297
713.460602	23599.365228
713.794318	23280.643318
714.127985	23023.209235
714.461602	22150.046101
714.795171	22126.793778
715.128691	21147.625261
715.462162	20635.408742
715.795584	20216.836697
716.128957	19945.352919
716.462281	19575.833821
716.795556	19299.749990
717.128782	18826.705757
717.461960	18225.870794
717.795088	18202.757104
718.128167	17864.866206
718.461198	17417.025222
718.794180	17300.869475
719.127113	16971.137684
719.459997	16781.522244
719.792833	16405.111889
720.125619	16448.329701
720.458357	16111.169770
720.791046	15974.095756
721.123686	15820.310317
721.456278	15597.798827
721.788821	15593.894454
722.121315	15334.247304
722.453761	15423.649647
722.786158	15319.181816
723.118506	15393.052364
723.450805	15275.676658
723.783056	15449.089830
724.115259	15337.493807
724.447412	15323.423947
724.779518	15531.389187
725.111574	15578.397947
725.443582	15824.396172
725.775542	15775.224757
726.107453	16276.973320
726.439315	16173.365006
726.771129	16585.204590
727.102895	16979.019528
727.434612	17271.356040
727.766281	17431.987366
728.097901	17764.433818
728.429473	17858.733642
728.760996	17883.558804
729.092471	18004.478441
729.423897	17886.190287
729.755276	17732.024240
730.086606	17821.350966
730.417887	18358.405250
730.749120	18900.031860
731.080305	19122.409759
731.411442	19527.973107
731.742530	19642.036774
732.073570	19786.717889
732.404562	20111.640419
732.735506	20001.662607
733.066401	19884.634741
733.397249	19449.399162
733.728048	18870.591522
734.058798	18021.396553
734.389501	17271.875279
734.720156	16751.585352
735.050762	16164.293450
735.381320	15763.297387
735.711831	15476.738038
736.042293	15095.190748
736.372707	15120.457011
736.703073	14902.550615
737.033391	15082.998717
737.363661	15073.808694
737.693883	15178.747873
738.024056	15363.821233
738.354182	15566.384877
738.684260	15916.661890
739.014290	16183.966552
739.344272	16401.509985
739.674207	16740.278044
740.004093	16931.541942
740.333931	17007.121441
740.663722	17089.314933
740.993464	17152.704923
741.323159	17015.272986
741.652806	16735.388125
741.982405	16576.107828
742.311956	16228.187554
742.641460	16124.218797
742.970915	15805.559901
743.300323	15457.180882
743.629683	15248.192288
743.958996	14936.918682
744.288260	14629.516682
744.617477	14321.965968
744.946647	14288.275937
745.275768	13973.090395
745.604842	13779.258030
745.933869	13591.091922
746.262847	13562.432962
746.591778	13471.593890
746.920662	13346.059077
747.249498	13337.756297
747.578286	13483.254079
747.907027	13637.533551
748.235720	13902.501639
748.564365	13977.768586
748.892963	13916.798351
749.221514	14021.883723
749.550017	13911.593360
749.878473	13886.463208
750.206881	13672.619982
750.535242	13602.386627
750.863555	13525.687992
751.191821	13414.283533
751.520039	13429.122169
751.848210	13348.375487
752.176334	13394.670924
752.504411	13323.575531
752.832440	13152.196465
753.160421	13274.605762
753.488356	13161.273062
753.816243	13070.060945
754.144082	12898.828073
754.471875	12838.984535
754.799620	12805.266778
755.127318	12773.764607
755.454969	12763.944440
755.782572	12734.582239
756.110129	12749.173859
756.437638	12654.190959
756.765100	12662.007268
757.092515	12679.840349
757.419882	12718.017008
757.747203	12714.306718
758.074477	12801.622023
758.401703	12783.017645
758.728882	12966.054380
759.056014	13005.859330
759.383099	13173.787727
759.710138	13299.224237
760.037129	13427.806428
760.364073	13492.633146
760.690970	13514.640303
761.017820	13513.876568
761.344623	13715.179923
761.671379	14033.727914
761.998088	14576.972735
762.324751	15980.354349
762.651366	18900.190656
762.977935	23172.311442
763.304456	26447.294518
763.630931	28034.569862
763.957359	27261.831553
764.283740	25216.867331
764.610074	23081.018667
764.936362	20471.765327
765.262602	18588.057534
765.588796	16617.246164
765.914943	15299.591892
766.241044	14152.510102
766.567097	13341.932893
766.893104	12599.910335
767.219064	12126.795526
767.544978	11644.276444
767.870845	11251.928481
768.196665	11022.646722
768.522438	10794.955447
768.848165	10589.719992
769.173846	10384.340863
769.499479	10253.427139
769.825066	10085.034957
770.150607	9862.326862
770.476101	9790.835739
770.801548	9662.687087
771.126949	9516.160910
771.452303	9404.128827
771.777611	9201.716418
772.102872	9189.156383
772.428087	9061.100993
772.753256	8903.685923
773.078378	8828.234973
773.403453	8646.851737
773.728482	8524.823047
774.053465	8451.582643
774.378401	8345.552054
774.703291	8231.621977
775.028135	8114.616797
775.352932	8083.374246
775.677683	7975.571691
776.002388	7869.848613
776.327046	7879.141980
776.651658	7779.248996
776.976224	7680.243255
777.300743	7682.499171
777.625216	7597.215451
777.949643	7552.434882
778.274024	7567.502890
778.598359	7485.236301
778.922647	7499.606110
779.246889	7444.871782
779.571086	7454.069367
779.895236	7458.218237
780.219339	7472.013354
780.543397	7477.026782
780.867409	7547.585292
781.191374	7560.473001
781.515294	7528.474277
781.839167	7616.893595
782.162995	7595.304854
782.486776	7548.192751
782.810511	7500.208528
783.134201	7411.015393
783.457844	7399.914772
783.781441	7350.627411
784.104993	7289.763040
784.428498	7267.929802
784.751958	7257.802124
785.075372	7221.074798
785.398739	7165.049935
785.722061	7206.520987
786.045337	7208.857562
786.368568	7339.204156
786.691752	7345.976946
787.014891	7633.970504
787.337983	7945.544058
787.661030	8493.527564
787.984031	9109.251574
788.306987	9542.654694
788.629897	9806.675044
788.952760	9804.855187
789.275579	9618.892063
789.598351	9253.216846
789.921078	8917.178571
790.243759	8512.421808
790.566395	8224.826502
790.888984	7968.012481
791.211529	7759.724607
791.534027	7536.220010
791.856480	7329.008423
792.178888	7252.821464
792.501249	7155.938049
792.823566	6998.525500
793.145836	6995.974676
793.468062	6960.772299
793.790241	6908.939155
794.112375	6964.240613
794.434464	7108.520956
794.756507	7133.134390
795.078505	7270.641943
795.400457	7549.453039
795.722364	7879.446970
796.044226	8171.564191
796.366042	8460.260990
796.687812	8427.801000
797.009538	8525.987553
797.331218	8441.868340
797.652852	8372.504583
797.974442	8217.642858
798.295986	8137.750652
798.617484	7957.526881
798.938938	7811.340981
799.260346	7719.523926
799.581709	7515.687391
799.903026	7440.022192
800.224299	7337.651481
800.545526	7171.860534
800.866708	7071.654998
801.187845	7005.988928
801.508936	6901.589152
801.829983	6863.677155
802.150984	6714.378343
802.471940	6672.211611
802.792851	6658.739128
803.113717	6624.078674
803.434538	6592.218582
803.755314	6537.396034
804.076045	6532.468306
804.396731	6468.155786
804.717372	6503.653071
805.037967	6501.311455
805.358518	6538.305962
805.679024	6620.501976
805.999485	6625.921216
806.319901	6667.291445
806.640272	6686.019332
806.960598	6768.532938
807.280879	6770.456138
807.601115	6849.803900
807.921306	6797.753986
808.241453	6808.577343
808.561554	6834.962743
808.881611	6803.989893
809.201623	6812.232180
809.521590	6757.540702
809.841513	6736.856848
810.161390	6777.077694
810.481223	6650.486759
810.801011	6632.799871
811.120755	6616.350586
811.440453	6536.889398
811.760107	6502.163410
812.079716	6474.169882
812.399281	6405.776548
812.718801	6399.331433
813.038276	6358.324167
813.357707	6295.284538
813.677093	6337.756259
813.996434	6241.792855
814.315731	6272.246465
814.634983	6268.001814
814.954191	6272.417864
815.273354	6368.943358
815.592473	6422.656852
815.911547	6539.651950
816.230577	6613.998887
816.549562	6759.335353
816.868502	6853.559559
817.187399	6941.263033
817.506250	7089.213337
817.825058	7103.663804
818.143821	7352.296033
818.462539	7585.449398
818.781213	7905.698778
819.099843	8389.306749
819.418429	9289.195561
819.736970	10171.831023
820.055466	11255.011147
820.373919	12606.670522
820.692327	14604.699081
821.010691	17880.040079
821.329011	25239.837348
821.647286	36756.464215
821.965517	50548.743546
822.283704	58085.180326
822.601847	61301.885142
822.919945	59089.005126
823.237999	55201.925151
823.556010	49190.530671
823.873976	42619.356385
824.191897	36216.559159
824.509775	31424.334969
824.827609	26827.016911
825.145398	24044.839391
825.463144	22406.482035
825.780845	22297.777114
826.098502	23526.303786
826.416116	26785.039223
826.733685	30479.332872
827.051210	32259.891096
827.368692	31325.520792
827.686129	27862.366567
828.003522	23900.831270
828.320872	20207.016530
828.638177	17336.399527
828.955439	15168.842005
829.272656	13350.475128
829.589830	11871.950075
829.906960	10596.286094
830.224046	9636.026945
830.541088	8865.814255
830.858086	8383.179227
831.175041	7975.964901
831.491952	7825.262128
831.808819	7804.479971
832.125642	8105.862833
832.442421	8802.615830
832.759157	10265.331824
833.075849	12798.796457
833.392497	15898.405352
833.709101	18342.495368
834.025662	18709.904743
834.342179	17381.903503
834.658653	15347.059397
834.975083	13443.053398
835.291469	11812.519912
835.607811	10491.687193
835.924110	9589.640768
836.240366	8734.915654
836.556578	7932.104342
836.872746	7289.727752
837.188871	6776.228259
837.504952	6347.145408
837.820990	6029.880391
838.136984	5803.885464
838.452935	5686.514800
838.768842	5667.280277
839.084706	5945.529284
839.400526	6899.797022
839.716303	8387.912870
840.032037	9609.046690
840.347727	9837.365589
840.663373	9045.100371
840.978977	8020.080039
841.294537	7195.745521
841.610054	6591.301092
841.925527	6152.355224
842.240957	5799.179547
842.556344	5481.836392
842.871687	5201.165110
843.186987	4920.559364
843.502244	4690.216442
843.817458	4522.714023
844.132629	4383.316037
844.447756	4296.288077
844.762840	4210.560736
845.077881	4138.565497
845.392879	4076.012339
845.707833	4026.203219
846.022745	3982.055314
846.337613	3955.614462
846.652438	3915.335643
846.967221	3895.682705
847.281960	3865.155997
847.596656	3851.227289
847.911309	3826.326510
848.225919	3808.511072
848.540485	3788.525418
848.855009	3775.645270
849.169490	3757.131632
849.483928	3743.134869
849.798323	3736.765371
850.112675	3722.314903
850.426984	3724.074266
850.741251	3708.653376
851.055474	3703.012325
851.369654	3708.345866
851.683792	3704.910320
851.997887	3709.217986
852.311938	3710.125393
852.625947	3711.441134
852.939914	3705.356462
853.253837	3715.431208
853.567718	3716.048749
853.881555	3700.355637
854.195350	3715.385837
854.509103	3709.996844
854.822812	3711.100857
855.136479	3703.627346
855.450103	3710.304354
855.763685	3698.374464
856.077224	3698.563507
856.390720	3716.051270
856.704173	3734.988364
857.017584	3744.364910
857.330953	3752.755911
857.644278	3772.988582
857.957561	3782.907052
858.270802	3785.599028
858.584000	3789.760501
858.897155	3785.518370
859.210268	3766.256121
859.523339	3743.896083
859.836367	3744.735435
860.149352	3738.154209
860.462295	3731.487283
860.775195	3719.423802
861.088054	3716.278122
861.400869	3712.242678
861.713642	3709.833006
862.026373	3720.303483
862.339062	3721.646950
862.651708	3743.381885
862.964312	3772.388684
863.276873	3780.184829
863.589392	3831.609639
863.901869	3872.279148
864.214303	3920.273453
864.526696	3948.942495
864.839045	3996.962006
865.151353	4023.909494
865.463619	4032.837377
865.775842	4036.678737
866.088023	4057.357550
866.400162	4047.673493
866.712258	4052.513001
867.024313	4057.521387
867.336325	4056.598856
867.648296	4063.911050
867.960224	4061.453487
868.272110	4068.006987
868.583954	4072.670054
868.895755	4084.168926
869.207515	4079.878904
869.519233	4114.680510
869.830909	4128.750370
870.142542	4148.546982
870.454134	4161.560720
870.765684	4191.956357
871.077191	4225.631265
871.388657	4246.733535
871.700081	4283.423053
872.011463	4319.285821
872.322803	4351.529041
872.634101	4380.165316
872.945357	4420.522273
873.256571	4467.036999
873.567744	4499.527236
873.878874	4522.335936
874.189963	4560.013520
874.501010	4566.418306
874.812015	4565.949479
875.122979	4603.516157
875.433900	4606.618987
875.744780	4617.475112
876.055618	4641.723062
876.366415	4637.732989
876.677169	4655.351822
876.987882	4695.181978
877.298554	4743.158639
877.609183	4808.791942
877.919771	4898.171600
878.230317	5024.994428
878.540822	5205.177869
878.851285	5483.792360
879.161707	5866.436101
879.472087	6496.643346
879.782425	7497.829103
880.092722	9291.007855
880.402977	12090.806728
880.713191	15536.526123
881.023363	19154.784049
881.333494	21551.371273
881.643583	22997.529597
881.953631	23225.934196
882.263637	22582.652718
882.573602	21326.666881
882.883526	19915.350492
883.193408	18373.090131
883.503248	16799.214174
883.813048	15345.557133
884.122806	13996.395650
884.432522	12581.512644
884.742197	11382.811959
885.051831	10323.698303
885.361424	9346.198408
885.670975	8542.189822
885.980485	7855.688012
886.289954	7289.495859
886.599382	6832.043915
886.908768	6453.997705
887.218113	6108.477021
887.527417	5820.821221
887.836680	5561.146345
888.145901	5343.625598
888.455082	5190.175395
888.764221	5035.658988
889.073319	4902.973299
889.382376	4827.482020
889.691392	4763.000621
890.000366	4738.858535
890.309300	4723.326740
890.618193	4717.448755
890.927044	4702.857135
891.235855	4723.939240
891.544625	4744.890276
891.853353	4790.744611
892.162041	4888.757245
892.470687	5044.801121
892.779293	5250.863326
893.087858	5568.012396
893.396381	6049.082146
893.704864	6719.028807
894.013306	7727.592293
894.321707	8840.336263
894.630068	9713.141476
894.938387	10049.295696
895.246665	9937.795456
895.554903	9420.023585
895.863100	8782.471379
896.171256	8267.716639
896.479371	7781.451980
896.787446	7305.030174
897.095480	6891.978193
897.403473	6583.202478
897.711425	6285.751716
898.019336	6028.471389
898.327207	5765.171923
898.635038	5548.046907
898.942827	5304.329803
899.250576	5114.444661
899.558284	4926.918779
899.865952	4806.331859
900.173579	4665.323224
900.481165	4561.825815
900.788711	4468.932473
901.096216	4398.187441
901.403681	4331.419878
901.711105	4301.838388
902.018489	4282.641674
902.325832	4331.747553
902.633135	4416.537241
902.940397	4671.198689
903.247619	5273.717397
903.554800	6447.620646
903.861941	8170.281217
904.169041	9709.421104
904.476101	10538.065809
904.783121	10411.300954
905.090100	9795.624835
905.397039	9027.126137
905.703938	8315.171541
906.010796	7653.298288
906.317614	7136.718650
906.624391	6624.204703
906.931129	6223.753086
907.237826	5844.922977
907.544483	5486.509542
907.851099	5135.257065
908.157675	4794.389365
908.464211	4474.145026
908.770707	4237.682143
909.077163	4033.860732
909.383578	3888.738515
909.689954	3768.766615
909.996289	3697.827498
910.302584	3632.668064
910.608839	3599.961058
910.915054	3567.833785
911.221229	3554.182340
911.527363	3558.172413
911.833458	3567.750606
912.139513	3588.822629
912.445527	3612.916824
912.751502	3680.927030
913.057436	3764.713528
913.363331	3877.713512
913.669186	4048.661559
913.975000	4266.000825
914.280775	4615.350266
914.586510	5105.252117
914.892205	5782.649604
915.197859	6690.195928
915.503475	7800.174826
915.809050	8825.038882
916.114585	9528.731027
916.420081	9874.619716
916.725536	9934.143140
917.030952	9574.698788
917.336328	9219.390703
917.641665	8855.973922
917.946961	8417.179289
918.252218	8027.873662
918.557435	7549.468163
918.862612	7146.841287
919.167750	6798.250540
919.472848	6402.787144
919.777906	6056.669083
920.082925	5710.104879
920.387904	5353.889387
920.692843	5090.784006
920.997743	4849.095967
921.302603	4620.424187
921.607423	4458.081389
921.912204	4303.948111
922.216946	4189.347560
922.521647	4076.032504
922.826310	3977.452741
923.130932	3883.886405
923.435516	3792.097075
923.740059	3726.872106
924.044564	3651.025426
924.349028	3596.281016
924.653454	3536.354300
924.957840	3471.439362
925.262186	3425.559820
925.566493	3369.439175
925.870761	3311.176040
926.174989	3278.947943
926.479178	3244.166502
926.783328	3202.324925
927.087438	3176.562108
927.391509	3145.191008
927.695541	3116.118674
927.999533	3089.972729
928.303486	3070.962538
928.607400	3054.573747
928.911275	3042.984134
929.215110	3022.282636
929.518906	3017.170906
929.822663	3013.589166
930.126381	3010.806449
930.430060	3018.748787
930.733699	3020.861031
931.037299	3031.460057
931.340861	3030.209851
931.644383	3037.794267
931.947866	3035.180428
932.251309	3030.688760
932.554714	3027.969058
932.858080	3025.140970
933.161407	3018.375742
933.464694	3011.542458
933.767943	3003.085922
934.071153	3001.167763
934.374323	2991.801299
934.677455	2985.918273
934.980548	2979.757983
935.283602	2971.561067
935.586617	2969.567290
935.889593	2976.415698
936.192530	2978.492653
936.495428	2988.350630
936.798287	3006.294617
937.101108	3031.739841
937.403890	3076.230544
937.706632	3131.111065
938.009336	3203.055892
938.312002	3272.107097
938.614628	3334.229236
938.917216	3387.841907
939.219765	3421.985642
939.522275	3452.724078
939.824747	3461.460398
940.127179	3459.640541
940.429573	3455.292546
940.731929	3452.371197
941.034246	3442.462809
941.336524	3430.573248
941.638763	3415.472472
941.940964	3406.715987
942.243126	3368.017570
942.545250	3349.347657
942.847335	3313.111843
943.149381	3282.305352
943.451389	3250.329313
943.753359	3218.749004
944.055290	3194.793441
944.357182	3169.325532
944.659036	3152.709889
944.960851	3144.170174
945.262628	3128.156949
945.564367	3132.192393
945.866067	3124.028244
946.167729	3122.730147
946.469352	3118.989611
946.770937	3116.771503
947.072484	3102.711725
947.373992	3105.355810
947.675462	3099.913885
947.976893	3084.664394
948.278286	3075.358424
948.579641	3067.032959
948.880958	3064.230077
949.182236	3065.233267
949.483476	3053.507543
949.784678	3057.845456
950.085841	3056.905281
950.386967	3066.107907
950.688054	3076.573343
950.989103	3097.988164
951.290114	3113.184722
951.591087	3141.788229
951.892021	3167.777898
952.192917	3190.102648
952.493776	3216.530897
952.794596	3225.373081
953.095378	3235.765419
953.396122	3229.985736
953.696828	3230.265520
953.997496	3218.139025
954.298126	3196.817465
954.598718	3181.038653
954.899272	3158.774397
955.199788	3131.748771
955.500266	3103.064606
955.800706	3071.748958
956.101108	3036.745707
956.401472	3013.115298
956.701798	2976.055255
957.002087	2939.222065
957.302337	2910.691655
957.602550	2884.016389
957.902724	2857.504961
958.202861	2835.026456
958.502960	2812.469813
958.803022	2793.943573
959.103045	2776.055038
959.403031	2760.883686
959.702979	2747.504463
960.002889	2736.378637
960.302762	2722.034034
960.602596	2710.308310
960.902393	2700.321784
961.202153	2694.985723
961.501875	2687.287881
961.801559	2680.666325
962.101205	2674.390089
962.400814	2667.602175
962.700385	2663.163439
962.999918	2658.023983
963.299414	2651.760349
963.598873	2652.047695
963.898293	2641.960346
964.197677	2645.448824
964.497022	2640.591673
964.796331	2637.367855
965.095601	2638.335756
965.394835	2633.491207
965.694030	2635.021198
965.993189	2634.098667
966.292309	2628.134982
966.591393	2629.105404
966.890439	2629.871659
967.189447	2629.155815
967.488419	2630.688326
967.787353	2630.799231
968.086249	2630.698408
968.385108	2633.276958
968.683930	2634.696043
968.982714	2638.444141
969.281462	2638.066055
969.580172	2646.567961
969.878844	2650.565596
970.177480	2660.347955
970.476078	2665.154695
970.774639	2671.771209
971.073162	2676.840089
971.371649	2684.963909
971.670098	2690.418437
971.968510	2695.814992
972.266885	2699.202648
972.565223	2702.318081
972.863524	2704.858822
973.161788	2709.330326
973.460014	2714.225286
973.758204	2713.771582
974.056356	2713.189329
974.354471	2718.548076
974.652550	2717.423898
974.950591	2717.471789
975.248595	2718.008672
975.546563	2713.181767
975.844493	2715.740153
976.142386	2707.134903
976.440243	2700.810776
976.738062	2698.963193
977.035845	2692.061853
977.333590	2687.975998
977.631299	2683.575071
977.928971	2678.695234
978.226606	2666.644356
978.524204	2667.486228
978.821765	2662.245949
979.119290	2662.825682
979.416777	2660.685712
979.714228	2661.759478
980.011642	2667.103101
980.309020	2673.954029
980.606360	2683.660771
980.903664	2702.832279
981.200931	2733.008626
981.498162	2771.260901
981.795356	2833.793894
982.092513	2910.331212
982.389633	3004.464678
982.686717	3096.049840
982.983764	3168.869308
983.280775	3226.167062
983.577749	3241.114083
983.874686	3231.530850
984.171587	3207.376161
984.468451	3175.808456
984.765279	3136.568114
985.062070	3093.627566
985.358824	3058.634397
985.655543	3006.163547
985.952224	2959.787452
986.248869	2900.022053
986.545478	2843.924092
986.842050	2792.854683
987.138586	2745.737539
987.435086	2709.355532
987.731549	2679.128773
988.027975	2656.269661
988.324366	2639.459934
988.620719	2624.459980
988.917037	2612.814915
989.213318	2601.305961
989.509563	2595.743047
989.805772	2593.610639
990.101944	2590.356575
990.398080	2585.038157
990.694180	2582.444484
990.990244	2583.911459
991.286271	2584.980184
991.582262	2585.990935
991.878217	2586.331213
992.174136	2589.131574
992.470019	2592.244487
992.765865	2596.595002
993.061676	2596.511823
993.357450	2606.921806
993.653188	2610.521190
993.948890	2625.992491
994.244556	2638.900366
994.540186	2661.267965
994.835780	2686.435926
995.131337	2721.781976
995.426859	2756.825557
995.722345	2801.114614
996.017795	2845.300327
996.313208	2885.473283
996.608586	2912.420770
996.903928	2927.667740
997.199234	2932.993719
997.494504	2932.189655
997.789738	2919.410330
998.084936	2898.429048
998.380099	2872.741848
998.675225	2846.973991
998.970316	2819.832418
999.265371	2783.200874
999.560390	2750.438415
999.855373	2725.320866
1000.150320	2694.075794
1000.445232	2671.287258
1000.740108	2651.261275
1001.034948	2634.509521
1001.329752	2620.411934
1001.624521	2607.562033
1001.919254	2596.151381
1002.213951	2591.256421
1002.508613	2579.724781
1002.803239	2576.773186
1003.097829	2570.345714
1003.392384	2564.082081
1003.686903	2560.434806
1003.981386	2557.505896
1004.275834	2555.481872
1004.570246	2553.266285
1004.864623	2552.031203
1005.158964	2548.041129
1005.453270	2546.548948
1005.747540	2543.030222
1006.041775	2541.601055
1006.335974	2539.723225
1006.630138	2538.606610
1006.924266	2539.506456
1007.218359	2538.709953
1007.512416	2534.455220
1007.806438	2533.719211
1008.100425	2533.434386
1008.394376	2529.575383
1008.688292	2535.284489
1008.982172	2534.424973
1009.276017	2534.218285
1009.569827	2534.596372
1009.863602	2533.154602
1010.157341	2531.753161
1010.451045	2531.435568
1010.744714	2530.976823
1011.038347	2529.681247
1011.331945	2528.289888
1011.625508	2530.911288
1011.919036	2529.950949
1012.212528	2527.178314
1012.505986	2525.812161
1012.799408	2526.767460
1013.092795	2525.771832
1013.386147	2525.368540
1013.679464	2523.515916
1013.972745	2521.764115
1014.265992	2524.640093
1014.559204	2521.537263
1014.852380	2523.021883
1015.145521	2524.471214
1015.438628	2523.105062
1015.731699	2522.769825
1016.024736	2523.997346
1016.317737	2524.065402
1016.610703	2527.453057
1016.903635	2531.092770
1017.196531	2527.473222
1017.489393	2528.400794
1017.782219	2531.233922
1018.075011	2533.225178
1018.367768	2530.727286
1018.660490	2533.580579
1018.953177	2533.580579
1019.245829	2533.580579
