Dividing Wavelength (nm)	Counts (n)	Blue Motor Position (mm): 32.500000	Red Motor Position (mm): 0.000000	
326.493990	2067.964487
326.888308	2067.964487
327.282561	2067.964487
327.676750	2041.505991
328.070874	2043.371218
328.464933	2050.479245
328.858929	2058.340924
329.252859	2066.298385
329.646726	2080.461507
330.040528	2096.749475
330.434265	2114.915273
330.827938	2136.085599
331.221547	2154.596716
331.615091	2174.705878
332.008571	2196.229085
332.401986	2216.144163
332.795338	2236.689385
333.188625	2256.458270
333.581847	2273.497370
333.975006	2294.055196
334.368100	2310.801909
334.761129	2328.806390
335.154095	2346.543689
335.546996	2393.373488
335.939833	2497.294354
336.332606	2508.783144
336.725315	2520.062725
337.117960	2530.666793
337.510540	2541.248174
337.903056	2552.885678
338.295508	2559.179559
338.687896	2561.677450
339.080220	2566.537123
339.472480	2575.969122
339.864676	2579.089596
340.256807	2581.582446
340.648875	2581.421129
341.040879	2583.606470
341.432818	2586.835329
341.824694	2587.384814
342.216506	2583.112437
342.608253	2586.250555
342.999937	2586.605956
343.391557	2584.410534
343.783113	2584.216449
344.174605	2580.685121
344.566033	2577.030284
344.957397	2577.204204
345.348697	2574.628175
345.739934	2576.029615
346.131106	2572.747824
346.522215	2572.349573
346.913260	2569.687844
347.304241	2568.535940
347.695159	2567.404201
348.086012	2564.266083
348.476802	2564.142575
348.867528	2561.180897
349.258191	2557.147974
349.648789	2556.505227
350.039324	2555.234856
350.429796	2556.989177
350.820203	2557.901626
351.210548	2556.691749
351.600828	2552.540359
351.991045	2553.241079
352.381198	2550.337375
352.771288	2553.548590
353.161314	2553.460370
353.551276	2553.651933
353.941175	2548.351160
354.331010	2551.723692
354.720782	2556.812737
355.110490	2558.723334
355.500135	2550.203784
355.889717	2553.699824
356.279235	2551.333003
356.668689	2556.905998
357.058080	2554.385421
357.447408	2553.896429
357.836672	2558.521688
358.225873	2554.967675
358.615010	2555.565051
359.004084	2558.625032
359.393095	2559.998746
359.782043	2559.121585
360.170927	2556.059084
360.559748	2560.434806
360.948505	2559.184600
361.337199	2565.271793
361.725830	2562.078222
362.114398	2562.486556
362.502903	2563.588048
362.891344	2564.487894
363.279722	2561.959755
363.668037	2565.133161
364.056289	2561.765671
364.444478	2562.778942
364.832603	2561.667368
365.220665	2563.530074
365.608665	2565.065106
365.996601	2566.136351
366.384474	2565.733059
366.772284	2566.297668
367.160031	2566.481670
367.547715	2570.733883
367.935336	2565.654921
368.322893	2563.676268
368.710388	2563.361196
369.097820	2565.944787
369.485189	2564.518141
369.872495	2570.582649
370.259738	2569.602144
370.646918	2570.131465
371.034035	2570.161712
371.421090	2569.627350
371.808081	2568.334294
372.195010	2568.299006
372.581875	2571.800087
372.968678	2568.596434
373.355418	2571.868143
373.742096	2572.505849
374.128710	2571.853019
374.515262	2576.001889
374.901751	2576.654718
375.288177	2573.234296
375.674540	2575.654049
376.060841	2575.066755
376.447079	2572.221024
376.833254	2575.457444
377.219367	2576.269070
377.605417	2576.959708
377.991404	2573.292269
378.377329	2578.880388
378.763191	2573.763617
379.148991	2573.340160
379.534727	2577.736046
379.920402	2576.085068
380.306013	2575.084399
380.691563	2577.297466
381.077049	2578.908114
381.462474	2578.076324
381.847835	2579.654205
382.233134	2580.223855
382.618371	2579.089596
383.003545	2580.692683
383.388657	2580.133115
383.773706	2579.840728
384.158693	2579.795357
384.543618	2584.579412
384.928480	2583.430029
385.313280	2583.606470
385.698017	2581.466500
386.082692	2581.912642
386.467305	2585.161666
386.851856	2583.051943
387.236344	2583.258630
387.620770	2581.940368
388.005133	2580.208732
388.389435	2585.358271
388.773674	2580.808629
389.157851	2584.221490
389.541965	2586.172417
389.926018	2586.376584
390.310008	2585.549834
390.693936	2586.636203
391.077802	2587.972109
391.461606	2589.812130
391.845348	2588.864393
392.229027	2586.661409
392.612645	2588.758529
392.996200	2589.802048
393.379694	2589.660895
393.763125	2588.445977
394.146494	2593.585434
394.529801	2590.507809
394.913047	2590.253231
395.296230	2590.792634
395.679351	2590.280957
396.062410	2591.768098
396.445408	2592.126020
396.828343	2595.012080
397.211217	2592.748602
397.594028	2597.232708
397.976778	2592.073087
398.359466	2595.425455
398.742092	2594.840681
399.124656	2595.906885
399.507158	2594.397059
399.889598	2594.417224
400.271977	2594.278592
400.654294	2597.832606
401.036549	2595.306988
401.418742	2596.920157
401.800874	2600.847216
402.182944	2599.163470
402.564952	2601.086671
402.946898	2600.867380
403.328783	2600.169181
403.710606	2599.042483
404.092367	2600.459047
404.474067	2601.222782
404.855705	2602.740169
405.237282	2602.780498
405.618797	2601.172370
406.000250	2602.682196
406.381642	2604.653287
406.762972	2603.987855
407.144240	2600.819489
407.525447	2606.420211
407.906593	2603.761003
408.287677	2608.378700
408.668700	2607.960284
409.049661	2608.718977
409.430560	2609.273504
409.811399	2611.040429
410.192176	2609.981787
410.572891	2615.249792
410.953545	2614.425564
411.334138	2612.144442
411.714669	2612.802312
412.095139	2616.593260
412.475547	2614.312138
412.855894	2615.592591
413.236180	2617.329268
413.616405	2619.985956
413.996568	2618.430760
414.376670	2622.294805
414.756711	2621.730196
415.136691	2625.173304
415.516609	2626.574744
415.896466	2627.169601
416.276262	2627.504837
416.655997	2635.260652
417.035670	2637.120838
417.415283	2642.671149
417.794834	2645.842034
418.174324	2646.499905
418.553753	2651.649444
418.933121	2657.169507
419.312428	2667.171156
419.691674	2669.427073
420.070859	2681.049453
420.449983	2685.830987
420.829045	2698.212061
421.208047	2706.280428
421.586988	2721.597974
421.965867	2735.524161
422.344686	2751.623086
422.723444	2768.833585
423.102141	2771.081940
423.480777	2801.921199
423.859352	2809.046870
424.237866	2847.717561
424.616319	2866.473174
424.994712	2899.389388
425.373044	2915.117788
425.751314	2959.527833
426.129524	2962.539922
426.507673	3012.076820
426.885762	3040.889535
427.263789	3079.237592
427.641756	3118.142697
428.019662	3156.032009
428.397508	3197.215716
428.775292	3227.359295
429.153016	3286.595373
429.530679	3316.408757
429.908282	3360.932228
430.285824	3385.273439
430.663305	3473.050010
431.040726	3493.171776
431.418086	3538.458981
431.795385	3608.893983
432.172624	3688.950027
432.549802	3712.320816
432.926920	3788.588432
433.303977	3829.557890
433.680974	3886.739698
434.057910	3987.391375
434.434786	4050.909914
434.811601	4094.468004
435.188355	4235.645517
435.565050	4267.145167
435.941683	4327.462573
436.318257	4487.995596
436.694770	4536.070560
437.071222	4669.590561
437.447614	4660.145959
437.823946	4717.874732
438.200218	4833.067618
438.576429	4860.017627
438.952580	4978.923323
439.328670	5052.199014
439.704700	5156.898738
440.080670	5172.102858
440.456580	5351.013408
440.832429	5412.134878
441.208218	5373.842274
441.583947	5493.698227
441.959616	5611.489828
442.335224	5701.817222
442.710773	5809.768491
443.086261	5976.098841
443.461689	5910.891516
443.837057	6066.766514
444.212365	6248.910964
444.587612	6317.412683
444.962800	6336.412792
445.337927	6480.433516
445.712995	6297.570702
446.088002	6745.930925
446.462949	6856.722883
446.837837	6928.919768
447.212664	7020.646083
447.587431	7624.687219
447.962139	8342.018206
448.336786	9008.574691
448.711374	8954.485630
449.085901	8267.333511
449.460369	8296.723438
449.834776	8246.682425
450.209124	8957.331362
450.583412	8921.080424
450.957640	9208.655566
451.331808	9011.488478
451.705917	8680.521604
452.079965	8669.841920
452.453954	8896.310715
452.827883	8927.175179
453.201752	8973.087488
453.575562	9050.209580
453.949311	9385.398420
454.323001	9505.216565
454.696632	9516.652422
455.070202	10052.590090
455.443713	10172.748513
455.817164	10373.212516
456.190556	10704.746519
456.563888	10658.758593
456.937160	10937.985584
457.310373	10573.043855
457.683526	10639.420727
458.056619	10715.900072
458.429653	10835.955151
458.802628	11017.043480
459.175542	11117.911927
459.548398	11640.689663
459.921194	12188.511852
460.293930	12501.380983
460.666607	13338.688910
461.039224	14098.917595
461.411782	14473.969359
461.784280	14217.987129
462.156719	14224.621287
462.529099	14194.296226
462.901419	13656.425275
463.273680	13329.612313
463.645882	13571.791864
464.018024	13521.501313
464.390106	13898.771185
464.762130	14951.757318
465.134094	16442.885255
465.505999	18662.646446
465.877845	20844.566215
466.249631	22059.401113
466.621358	21642.172536
466.993026	20901.460678
467.364634	20205.514266
467.736184	19476.840683
468.107674	18926.084543
468.479105	18813.732347
468.850477	18570.514318
469.221790	18176.409513
469.593043	17541.929890
469.964238	17189.638936
470.335373	17260.509998
470.706449	17983.660996
471.077467	18874.405154
471.448425	21314.434521
471.819324	23155.428618
472.190164	23048.818296
472.560945	21355.590501
472.931667	19819.412293
473.302330	19505.655918
473.672934	18975.200505
474.043479	19404.991638
474.413965	19203.398416
474.784393	19033.544299
475.154761	19693.660710
475.525070	19840.023050
475.895321	19674.020375
476.265513	20209.355625
476.635645	20801.292951
477.005719	20864.672857
477.375734	21236.203375
477.745691	21852.207170
478.115588	22489.517401
478.485427	23687.698847
478.855207	25483.945141
479.224928	27286.240820
479.594591	28691.560757
479.964194	28311.011615
480.333739	28763.649257
480.703226	28974.818151
481.072653	29420.821634
481.442022	29940.882189
481.811333	30343.408241
482.180584	29903.733926
482.549777	29687.894403
482.918912	29453.795822
483.287988	29403.051567
483.657005	29242.838657
484.025964	28875.071360
484.394864	29074.249869
484.763706	28990.690224
485.132489	28479.849940
485.501213	28540.331183
485.869879	28707.117758
486.238487	28636.405493
486.607036	28913.338759
486.975527	28594.947044
487.343959	28940.936556
487.712333	29291.899166
488.080648	29244.058616
488.448905	29669.244655
488.817104	29566.004345
489.185244	30379.712110
489.553326	31336.308861
489.921350	33206.319839
490.289315	35734.818936
490.657222	36615.107741
491.025070	37165.856319
491.392861	36888.325677
491.760593	36104.353157
492.128267	35089.606696
492.495883	34110.027325
492.863440	33202.511248
493.230939	32244.177819
493.598380	31670.524758
493.965763	31522.962624
494.333088	31021.690450
494.700354	30821.707877
495.067563	30768.420360
495.434713	30661.709215
495.801805	30941.921752
496.168839	30773.625351
496.535815	30627.704112
496.902733	30740.787275
497.269593	30558.685675
497.636395	30709.942975
498.003139	30973.628089
498.369825	30728.832179
498.736453	31117.767280
499.103023	30947.338472
499.469535	31026.013239
499.835989	31145.271816
500.202385	31007.834838
500.568723	31048.549718
500.935003	31351.598681
501.301226	31215.626159
501.667390	31913.949475
502.033497	32114.577316
502.399546	31904.391447
502.765537	31512.875275
503.131470	31974.443321
503.497345	32395.475449
503.863163	31351.936438
504.228923	32104.837806
504.594625	32489.225787
504.960269	31969.301344
505.325856	32612.590383
505.691385	32281.116874
506.056856	32588.458380
506.422270	33072.492328
506.787625	32581.819180
507.152924	33049.466858
507.518164	33202.919581
507.883347	32786.222845
508.248472	32913.685900
508.613540	33577.041252
508.978550	33782.891728
509.343503	33627.742657
509.708398	33977.286182
510.073236	34575.504786
510.438016	34661.605173
510.802738	34347.826113
511.167403	34870.039240
511.532010	35096.533242
511.896561	35590.334425
512.261053	36341.662953
512.625488	36107.743333
512.989866	36031.435387
513.354186	36088.176094
513.718449	36043.539197
514.082655	36903.149189
514.446803	36582.551969
514.810894	37180.967178
515.174927	37195.009312
515.538904	37203.289407
515.902822	37816.654157
516.266684	37503.601024
516.630488	37833.453803
516.994235	37842.059052
517.357925	38407.152234
517.721558	38644.877926
518.085133	39033.117348
518.448651	39227.428623
518.812112	39091.546842
519.175516	39254.728992
519.538863	39692.177637
519.902152	39748.671328
520.265385	40274.826637
520.628560	40286.033122
520.991678	40243.551318
521.354739	40444.690836
521.717743	40809.849336
522.080690	40723.476726
522.443580	41393.493963
522.806413	41389.957594
523.169189	41524.087574
523.531908	41748.038313
523.894569	41594.240271
524.257174	41793.431383
524.619722	42128.872281
524.982213	42267.919907
525.344647	42313.484376
525.707025	42434.406533
526.069345	42865.742780
526.431608	42782.457877
526.793815	43163.712781
527.155964	42710.543297
527.518057	42954.336017
527.880093	42815.104389
528.242072	43434.783185
528.603995	43166.737473
528.965860	43103.775982
529.327669	43321.395032
529.689421	43366.793143
530.051117	43323.295547
530.412755	43594.015591
530.774337	43641.896470
531.135862	43590.015435
531.497331	43756.055919
531.858743	43728.707660
532.220098	44128.203978
532.581396	43858.477042
532.942638	43633.722239
533.303824	43874.525555
533.664953	43948.401144
534.026025	43617.335968
534.387040	44175.555537
534.747999	44247.606228
535.108902	44598.198313
535.469748	43909.301955
535.830537	44168.389536
536.191270	44421.379842
536.551947	44166.730997
536.912567	44439.903562
537.273131	44560.515688
537.633638	44191.790572
537.994089	44363.270462
538.354483	44140.751410
538.714821	44778.379234
539.075103	45055.849383
539.435328	44930.017142
539.795497	44701.098346
540.155609	44822.542262
540.515665	45397.339665
540.875665	44695.540473
541.235609	44970.840406
541.595496	45104.867042
541.955328	45685.131576
542.315102	45125.407224
542.674821	45018.963260
543.034483	44926.143015
543.394090	44945.637157
543.753640	44920.386017
544.113134	45980.051679
544.472571	45094.328510
544.831953	46198.976388
545.191278	45477.025184
545.550548	45176.547209
545.909761	45805.549618
546.268918	45936.453260
546.628019	46338.931422
546.987064	45786.662935
547.346053	45113.005985
547.704986	46001.980698
548.063863	45646.047511
548.422684	45846.251894
548.781449	45426.041474
549.140158	45943.883921
549.498811	45708.267952
549.857408	45132.434592
550.215949	45947.011957
550.574434	45796.994780
550.932864	45741.365648
551.291237	46445.453523
551.649555	46189.655294
552.007817	46364.641306
552.366022	46057.874492
552.724173	46133.350647
553.082267	46523.931685
553.440305	46900.891526
553.798288	46159.415933
554.156215	46538.150260
554.514086	46739.879593
554.871902	46338.102152
555.229661	46501.836308
555.587365	46187.303596
555.945014	46314.791856
556.302606	46343.564242
556.660143	46427.784279
557.017625	46655.994793
557.375050	46342.387133
557.732421	46759.948426
558.089735	46802.009293
558.446994	46668.685897
558.804197	47155.053900
559.161345	46992.489291
559.518437	46359.902622
559.875474	46606.654499
560.232455	46821.626943
560.589381	46867.304838
560.946251	46702.045733
561.303065	47345.080194
561.659825	47024.248561
562.016528	46836.021958
562.373177	46440.805579
562.729770	47072.754543
563.086307	46581.872187
563.442789	47115.853888
563.799216	46967.407030
564.155587	46882.004843
564.511904	46830.486771
564.868164	46889.861481
565.224370	47197.145014
565.580520	46931.022502
565.936615	47117.131820
566.292654	46782.966335
566.648638	47135.635375
567.004567	47069.626507
567.360441	47151.653642
567.716260	46862.059518
568.072023	47269.692259
568.427732	47190.563788
568.783385	46725.706389
569.138982	47125.916031
569.494525	47284.699774
569.850013	46879.038124
570.205445	47011.197013
570.560823	46777.557177
570.916145	46632.533263
571.271412	46882.072899
571.626625	46525.244906
571.981782	46599.823736
572.336884	46231.169196
572.691931	46550.168371
573.046923	46194.958588
573.401860	46039.421348
573.756743	46066.825060
574.111570	46195.477827
574.466342	46113.826258
574.821059	46262.817560
575.175722	45768.446726
575.530330	45847.618047
575.884882	45504.678433
576.239380	45398.990643
576.593823	45508.653383
576.948211	45441.220389
577.302544	44990.637017
577.656823	44978.954143
578.011047	45257.636689
578.365216	45108.297548
578.719330	44804.497452
579.073389	44787.415502
579.427394	44851.128125
579.781344	44753.854021
580.135239	44497.498745
580.489080	44581.534779
580.842866	44084.608080
581.196597	44556.825564
581.550273	44561.039968
581.903895	44501.541750
582.257463	44925.117140
582.610975	44353.717475
582.964434	44680.971539
583.317837	44182.129201
583.671186	44138.341739
584.024481	44436.742758
584.377721	44012.330537
584.730906	44223.335593
585.084037	44360.066808
585.437113	44070.901183
585.790135	44189.600191
586.143103	43769.742652
586.496016	43939.400164
586.848874	44031.018094
587.201679	44058.520109
587.554428	43585.387656
587.907124	43840.379300
588.259765	43614.185247
588.612352	43769.362045
588.964884	43233.663831
589.317362	43540.836459
589.669786	43535.243298
590.022155	43421.464456
590.374470	43891.199172
590.726731	43473.857168
591.078937	42823.288703
591.431090	43183.075852
591.783188	42685.203937
592.135232	42493.163702
592.487222	42754.928136
592.839157	42895.682192
593.191038	42545.879047
593.542866	42367.656615
593.894639	41750.528643
594.246358	42049.834550
594.598022	42048.473439
594.949633	41641.191058
595.301190	41641.859011
595.652692	41593.403440
596.004141	42091.504728
596.355535	41002.444098
596.706876	41001.551814
597.058162	40705.971320
597.409395	41220.600031
597.760573	41444.729731
598.111698	41057.301934
598.462768	40975.773873
598.813785	41002.116423
599.164748	40613.942536
599.515657	40875.943904
599.866511	40396.474720
600.217312	41069.032699
600.568060	40035.432323
600.918753	40853.334329
601.269392	40751.744997
601.619978	40494.777220
601.970510	40696.534280
602.320988	40844.852587
602.671412	41103.793975
603.021783	40967.627369
603.372100	40547.769830
603.722363	40657.281335
604.072572	40689.874915
604.422728	40690.787364
604.772830	40475.915743
605.122878	40646.722638
605.472872	40503.453046
605.822813	40736.971895
606.172701	40493.615234
606.522534	40827.095123
606.872314	41029.850331
607.222041	40867.787317
607.571714	41201.307535
607.921333	40688.100429
608.270899	40898.850907
608.620411	41274.018617
608.969870	41032.776721
609.319276	41042.473380
609.668627	41090.954157
610.017926	41492.459375
610.367171	41626.118008
610.716362	41655.523058
611.065500	41568.721951
611.414585	41804.048053
611.763616	41969.531490
612.112594	41860.536703
612.461518	41997.671211
612.810389	42371.351781
613.159207	42155.797083
613.507971	42128.353042
613.856682	42626.386274
614.205340	42465.026502
614.553945	43155.198272
614.902496	42510.676670
615.250994	42919.882251
615.599439	42987.516892
615.947830	43097.227523
616.296169	43104.877474
616.644454	43157.774301
616.992686	43287.289105
617.340864	43729.715890
617.688990	43237.563164
618.037063	43918.118933
618.385082	43729.635232
618.733048	44084.093882
619.080961	43961.898834
619.428821	44014.067214
619.776628	44051.767483
620.124382	43872.272159
620.472083	43996.045089
620.819731	44095.794400
621.167326	43680.408365
621.514868	43665.897403
621.862357	43140.117660
622.209793	43226.908685
622.557176	42814.171776
622.904506	42558.466809
623.251783	42208.333468
623.599007	41899.124215
623.946179	41824.638646
624.293297	41566.725654
624.640363	41032.965764
624.987376	40885.524617
625.334336	40694.293487
625.681243	40274.060382
626.028097	40191.859327
626.374899	40014.113283
626.721647	39982.164971
627.068343	39759.020817
627.414987	39468.315118
627.761577	39219.445956
628.108115	39551.123632
628.454600	38777.949264
628.801032	39033.439982
629.147412	38932.158160
629.493739	38803.243253
629.840014	38380.615600
630.186236	38794.917787
630.532405	38230.212775
630.878521	38478.900456
631.224585	38248.925538
631.570597	37918.674508
631.916556	38092.864018
632.262462	37987.556834
632.608316	37948.094682
632.954117	37794.639438
633.299866	37754.169055
633.645562	37669.273504
633.991206	37174.796806
634.336797	36770.183716
634.682336	36671.359456
635.027823	36420.302433
635.373257	36312.336041
635.718639	35990.959963
636.063968	35877.261779
636.409245	35237.768728
636.754470	35204.038368
637.099642	34957.001665
637.444762	34398.363681
637.789829	34533.295205
638.134845	34132.132784
638.479808	34055.255188
638.824719	34002.930532
639.169577	33495.049405
639.514383	33613.234216
639.859137	33235.228336
640.203839	33391.534352
640.548489	33095.603498
640.893086	33085.468258
641.237632	32801.517706
641.582125	32895.920874
641.926566	32679.912473
642.270955	32711.696947
642.615292	32645.977945
642.959576	32519.878523
643.303809	32532.219268
643.647990	32634.516882
643.992118	32615.670528
644.336195	32428.943669
644.680219	32499.681140
645.024192	32685.210725
645.368112	33201.898748
645.711981	33225.836667
646.055797	33914.440638
646.399562	33706.551015
646.743274	34562.909463
647.086935	34977.584696
647.430544	34958.687931
647.774101	34979.523020
648.117606	35297.251823
648.461059	35431.782575
648.804460	35045.027773
649.147810	34566.781069
649.491108	34243.000360
649.834354	34146.424456
650.177548	33337.783049
650.520690	32816.593277
650.863781	32802.478046
651.206820	32623.340644
651.549807	32207.321943
651.892742	31615.654319
652.235626	31541.682948
652.578458	31392.875649
652.921238	30705.385772
653.263967	30967.049383
653.606644	30664.204587
653.949269	30579.188047
654.291843	30181.052840
654.634365	30533.205163
654.976836	30094.216445
655.319255	30179.989157
655.661622	30049.861852
656.003938	29917.274465
656.346203	29737.867362
656.688416	29981.135802
657.030577	29772.865572
657.372687	29580.802652
657.714746	29731.918800
658.056753	29902.070345
658.398708	29290.490163
658.740612	29345.080818
659.082465	29561.832790
659.424266	29455.502252
659.766016	29446.138309
660.107715	29303.660178
660.449362	29393.412881
660.790958	29370.838594
661.132503	29291.087540
661.473996	29379.242197
661.815438	29455.784557
662.156829	29557.252902
662.498168	29366.447749
662.839456	29352.662714
663.180693	29477.433792
663.521879	29535.281033
663.863013	29479.016714
664.204097	29470.857607
664.545129	29864.309582
664.886110	29806.056529
665.227040	29915.308415
665.567918	29925.796536
665.908746	29973.478289
666.249522	30046.093590
666.590248	30089.437431
666.930922	30192.851661
667.271545	30195.132783
667.612118	30252.402811
667.952639	30072.536962
668.293109	30114.854928
668.633528	29960.298193
668.973896	29919.752192
669.314213	29903.134029
669.654480	29699.909994
669.994695	29693.288438
670.334859	29617.852612
670.674973	29421.482026
671.015035	29609.408679
671.355047	29542.958710
671.695008	29458.474012
672.034918	29386.687982
672.374777	29461.874271
672.714585	29338.267699
673.054342	29471.079418
673.394049	29339.061681
673.733705	29546.658917
674.073310	29257.843651
674.412864	29328.013992
674.752368	29057.414936
675.091820	29287.904052
675.431223	28888.914369
675.770574	28687.303503
676.109875	28541.339414
676.449125	28328.126333
676.788324	28228.976919
677.127473	27753.848169
677.466571	27656.173292
677.805619	27359.977778
678.144616	27292.736347
678.483562	27235.635197
678.822458	26930.537005
679.161303	26872.631791
679.500098	26786.581816
679.838842	26700.483949
680.177535	26762.180110
680.516179	26984.507598
680.854771	27058.675574
681.193314	27738.989368
681.531805	28685.894500
681.870247	29429.961246
682.208638	30234.476468
682.546978	30593.971231
682.885268	30767.084454
683.223508	30373.909742
683.561697	30116.659662
683.899836	29950.155391
684.237925	29526.189312
684.575963	29374.564007
684.913951	28987.458844
685.251889	29121.369534
685.589776	29118.599420
685.927614	29111.841753
686.265401	29276.944583
686.603137	29371.098213
686.940824	29838.476189
687.278460	30175.515133
687.616046	30364.896159
687.953582	31029.158919
688.291068	30957.375409
688.628504	31343.293380
688.965889	31361.504548
689.303224	31115.229059
689.640510	30849.376250
689.977745	30244.740257
690.314930	29518.887200
690.652065	29102.268602
690.989150	28419.136803
691.326185	27604.627494
691.663170	26989.873906
692.000105	26279.013241
692.336990	25682.891757
692.673825	25256.135399
693.010610	24758.583597
693.347345	24262.486167
693.684030	23639.971723
694.020665	23437.864303
694.357251	22770.017283
694.693786	22780.283593
695.030272	22542.966234
695.366707	22044.872508
695.703093	21762.784662
696.039429	21821.133497
696.375716	21586.465265
696.711952	21585.081468
697.048139	21436.654776
697.384276	21277.029160
697.720363	21392.131305
698.056400	21288.893515
698.392388	21123.578957
698.728326	21123.147939
699.064214	20977.491360
699.400053	20996.932570
699.735842	20594.976168
700.071581	20420.700959
700.407270	20176.938485
700.742910	20001.014819
701.078501	19765.769375
701.414042	19556.357323
701.749533	19251.571682
702.084974	18940.028375
702.420366	19168.344753
702.755709	18772.525956
703.091002	18471.385069
703.426246	18515.235546
703.761440	18461.562381
704.096584	18225.951453
704.431679	18165.717226
704.766725	18120.704763
705.101721	18018.313888
705.436668	18138.242938
705.771565	17855.719032
706.106413	18165.709664
706.441212	18229.266012
706.775961	18315.663827
707.110661	18381.004742
707.445311	18758.995499
707.779913	18645.398138
708.114465	18918.464839
708.448967	19225.866839
708.783421	19823.092335
709.117825	20164.877525
709.452180	20379.227386
709.786485	20819.577216
710.120742	21546.602341
710.454949	21648.229482
710.789107	22154.870485
711.123216	22847.653573
711.457275	23083.443462
711.791286	23653.139217
712.125247	23820.092150
712.459159	23584.612292
712.793023	24359.319171
713.126837	23378.217371
713.460602	23639.621363
713.794318	23326.971522
714.127985	23059.114853
714.461602	22177.298578
714.795171	22166.523112
715.128691	21193.280471
715.462162	20689.023934
715.795584	20244.447097
716.128957	19987.907819
716.462281	19613.105592
716.795556	19340.164920
717.128782	18863.654894
717.461960	18267.215818
717.795088	18241.765552
718.128167	17895.478612
718.461198	17447.297350
718.794180	17324.517528
719.127113	17005.044485
719.459997	16818.292420
719.792833	16432.772701
720.125619	16472.439020
720.458357	16142.472815
720.791046	16006.207906
721.123686	15846.161354
721.456278	15621.761952
721.788821	15620.655419
722.121315	15363.848960
722.453761	15460.934021
722.786158	15334.453992
723.118506	15419.896508
723.450805	15304.587676
723.783056	15488.284801
724.115259	15367.836512
724.447412	15353.549882
724.779518	15550.737136
725.111574	15602.252687
725.443582	15862.482089
725.775542	15813.146837
726.107453	16305.975078
726.439315	16206.654265
726.771129	16614.564270
727.102895	17012.139909
727.434612	17290.192311
727.766281	17472.067060
728.097901	17792.996996
728.429473	17895.430722
728.760996	17924.709743
729.092471	18038.463380
729.423897	17921.044824
729.755276	17766.044467
730.086606	17856.815483
730.417887	18390.134272
730.749120	18941.782696
731.080305	19154.973092
731.411442	19569.275280
731.742530	19681.433391
732.073570	19824.556790
732.404562	20135.595982
732.735506	20052.124557
733.066401	19922.672767
733.397249	19486.633124
733.728048	18897.619668
734.058798	18052.669351
734.389501	17311.402966
734.720156	16781.403777
735.050762	16197.063470
735.381320	15796.195958
735.711831	15507.867163
736.042293	15133.122910
736.372707	15146.350897
736.703073	14930.995326
737.033391	15118.576660
737.363661	15095.664616
737.693883	15212.463110
738.024056	15393.344751
738.354182	15595.011069
738.684260	15935.319201
739.014290	16218.130452
739.344272	16434.380829
739.674207	16779.236081
740.004093	16968.831357
740.333931	17030.353598
740.663722	17118.135210
740.993464	17178.185435
741.323159	17043.921864
741.652806	16769.874658
741.982405	16602.097497
742.311956	16258.651247
742.641460	16159.426216
742.970915	15832.212481
743.300323	15487.926879
743.629683	15279.117246
743.958996	14979.403006
744.288260	14664.875335
744.617477	14363.021125
744.946647	14325.759436
745.275768	14005.575591
745.604842	13808.663080
745.933869	13623.672899
746.262847	13585.972630
746.591778	13499.184125
746.920662	13375.106206
747.249498	13371.799209
747.578286	13510.693079
747.907027	13666.379034
748.235720	13922.094083
748.564365	14008.890149
748.892963	13945.386734
749.221514	14056.239187
749.550017	13940.645529
749.878473	13913.655192
750.206881	13706.030229
750.535242	13632.678920
750.863555	13557.616139
751.191821	13453.027321
751.520039	13466.487201
751.848210	13377.525959
752.176334	13422.568669
752.504411	13349.577802
752.832440	13178.728058
753.160421	13300.035863
753.488356	13193.695243
753.816243	13104.214762
754.144082	12926.176332
754.471875	12866.461344
754.799620	12837.273063
755.127318	12810.191985
755.454969	12799.255202
755.782572	12765.855037
756.110129	12775.302159
756.437638	12683.049044
756.765100	12690.497349
757.092515	12714.921739
757.419882	12742.827046
757.747203	12747.532963
758.074477	12831.246364
758.401703	12814.010659
758.728882	12995.509842
759.056014	13031.286910
759.383099	13200.765462
759.710138	13331.835462
760.037129	13457.319863
760.364073	13536.856668
760.690970	13550.924008
761.017820	13555.672775
761.344623	13746.170417
761.671379	14060.839240
761.998088	14609.170585
762.324751	16014.563619
762.651366	18937.162479
762.977935	23228.966450
763.304456	26515.990321
763.630931	28114.835113
763.957359	27321.125605
764.283740	25296.149558
764.610074	23142.137616
764.936362	20534.278155
765.262602	18635.325913
765.588796	16662.104871
765.914943	15340.944477
766.241044	14186.217777
766.567097	13378.826577
766.893104	12635.863844
767.219064	12156.329125
767.544978	11669.966164
767.870845	11279.052410
768.196665	11054.877339
768.522438	10825.398975
768.848165	10618.179826
769.173846	10413.176263
769.499479	10282.617940
769.825066	10108.803997
770.150607	9889.596984
770.476101	9815.648298
770.801548	9698.131440
771.126949	9538.783087
771.452303	9424.353936
771.777611	9228.500068
772.102872	9221.568482
772.428087	9080.537162
772.753256	8938.210265
773.078378	8850.277419
773.403453	8663.532916
773.728482	8549.842293
774.053465	8476.057445
774.378401	8372.996096
774.703291	8251.446315
775.028135	8132.641442
775.352932	8100.433510
775.677683	8001.246288
776.002388	7894.489773
776.327046	7897.151502
776.651658	7800.903272
776.976224	7705.506998
777.300743	7698.209927
777.625216	7614.549459
777.949643	7573.280053
778.274024	7589.073988
778.598359	7500.072417
778.922647	7518.858276
779.246889	7471.352963
779.571086	7473.878581
779.895236	7477.422512
780.219339	7490.312743
780.543397	7490.675706
780.867409	7569.849548
781.191374	7584.773883
781.515294	7551.083852
781.839167	7638.724312
782.162995	7612.114581
782.486776	7558.854791
782.810511	7520.799121
783.134201	7435.775020
783.457844	7426.302692
783.781441	7372.720267
784.104993	7314.668860
784.428498	7285.588964
784.751958	7275.063035
785.075372	7241.998107
785.398739	7187.772936
785.722061	7228.805407
786.045337	7221.969603
786.368568	7361.365068
786.691752	7371.175154
787.014891	7658.765419
787.337983	7967.120197
787.661030	8519.837346
787.984031	9133.741499
788.306987	9571.175022
788.629897	9828.893930
788.952760	9824.772786
789.275579	9654.860696
789.598351	9281.220455
789.921078	8940.539278
790.243759	8539.583545
790.566395	8242.301662
790.888984	7997.326791
791.211529	7787.148484
791.534027	7557.637352
791.856480	7348.878130
792.178888	7278.758201
792.501249	7177.425968
792.823566	7020.890579
793.145836	7016.146853
793.468062	6984.201061
793.790241	6926.789881
794.112375	6984.846329
794.434464	7129.749255
794.756507	7155.146588
795.078505	7288.434696
795.400457	7568.818632
795.722364	7907.992503
796.044226	8188.880555
796.366042	8481.501891
796.687812	8462.466494
797.009538	8548.587046
797.331218	8465.375240
797.652852	8393.286740
797.974442	8254.493692
798.295986	8161.287799
798.617484	7979.702917
798.938938	7846.293822
799.260346	7738.876915
799.581709	7545.601598
799.903026	7466.034546
800.224299	7358.317691
800.545526	7195.175870
800.866708	7091.197031
801.187845	7024.706732
801.508936	6918.897954
801.829983	6887.247070
802.150984	6732.944912
802.471940	6692.419077
802.792851	6678.157652
803.113717	6644.689432
803.434538	6617.076512
803.755314	6551.173507
804.076045	6556.746503
804.396731	6495.647718
804.717372	6521.947418
805.037967	6519.777201
805.358518	6557.543005
805.679024	6636.984028
805.999485	6650.736296
806.319901	6687.365320
806.640272	6705.533638
806.960598	6792.788450
807.280879	6794.414222
807.601115	6875.574278
807.921306	6822.891700
808.241453	6830.650036
808.561554	6859.707246
808.881611	6830.123235
809.201623	6828.197514
809.521590	6781.259331
809.841513	6760.537668
810.161390	6797.391023
810.481223	6667.301528
810.801011	6658.681154
811.120755	6631.224510
811.440453	6553.008487
811.760107	6521.622264
812.079716	6493.774930
812.399281	6430.722698
812.718801	6419.927067
813.038276	6374.019800
813.357707	6317.556356
813.677093	6351.889134
813.996434	6259.255412
814.315731	6300.983563
814.634983	6285.565194
814.954191	6294.750176
815.273354	6391.245422
815.592473	6443.716272
815.911547	6561.875877
816.230577	6635.567464
816.549562	6780.404855
816.868502	6881.369084
817.187399	6967.353525
817.506250	7111.941379
817.825058	7137.255533
818.143821	7378.661267
818.462539	7614.430992
818.781213	7940.008872
819.099843	8414.308352
819.418429	9324.649996
819.736970	10210.045490
820.055466	11307.729013
820.373919	12676.654340
820.692327	14657.298481
821.010691	17952.877190
821.329011	25371.540013
821.647286	36970.156206
821.965517	50869.340766
822.283704	58364.588798
822.601847	61541.730639
822.919945	59376.877696
823.237999	55518.013059
823.556010	49550.897553
823.873976	42928.636215
824.191897	36460.671993
824.509775	31630.427421
824.827609	26989.866344
825.145398	24186.074878
825.463144	22531.580788
825.780845	22425.865272
826.098502	23656.771368
826.416116	26924.134739
826.733685	30634.945730
827.051210	32465.897848
827.368692	31532.755065
827.686129	28049.683241
828.003522	24053.880700
828.320872	20327.590847
828.638177	17441.404242
828.955439	15251.534573
829.272656	13423.455912
829.589830	11942.909357
829.906960	10648.671245
830.224046	9681.059573
830.541088	8900.147033
830.858086	8414.416737
831.175041	8016.261365
831.491952	7857.006273
831.808819	7843.080086
832.125642	8139.278121
832.442421	8833.182866
832.759157	10311.627260
833.075849	12863.615613
833.392497	15980.583721
833.709101	18446.544783
834.025662	18812.464497
834.342179	17486.923340
834.658653	15435.970227
834.975083	13517.032330
835.291469	11872.250024
835.607811	10548.112828
835.924110	9640.377461
836.240366	8772.648691
836.556578	7973.605641
836.872746	7318.890827
837.188871	6807.745553
837.504952	6377.939297
837.820990	6058.141100
838.136984	5829.053425
838.452935	5712.842226
838.768842	5688.112846
839.084706	5963.243899
839.400526	6929.965808
839.716303	8427.579189
840.032037	9656.431015
840.347727	9889.450790
840.663373	9094.576775
840.978977	8060.820123
841.294537	7229.959832
841.610054	6618.019208
841.925527	6181.097362
842.240957	5826.517724
842.556344	5499.596377
842.871687	5219.593048
843.186987	4936.849852
843.502244	4709.672775
843.817458	4539.997619
844.132629	4403.158018
844.447756	4308.139830
844.762840	4227.887181
845.077881	4156.766583
845.392879	4089.875512
845.707833	4039.998336
846.022745	3998.940659
846.337613	3966.871359
846.652438	3925.927107
846.967221	3909.906320
847.281960	3876.617061
847.596656	3858.481510
847.911309	3841.480218
848.225919	3815.523317
848.540485	3795.479690
848.855009	3790.360398
849.169490	3766.084722
849.483928	3753.302876
849.798323	3747.235847
850.112675	3727.202302
850.426984	3731.794793
850.741251	3717.616548
851.055474	3710.485836
851.369654	3719.585118
851.683792	3715.358111
851.997887	3718.385324
852.311938	3720.394224
852.625947	3725.669791
852.939914	3716.391548
853.253837	3724.434708
853.567718	3725.221128
853.881555	3712.156978
854.195350	3722.622414
854.509103	3725.069894
854.822812	3718.902042
855.136479	3717.785427
855.450103	3726.342785
855.763685	3708.098849
856.077224	3707.561967
856.390720	3727.865214
856.704173	3744.324581
857.017584	3755.004265
857.330953	3766.858539
857.644278	3789.881488
857.957561	3792.848207
858.270802	3794.531953
858.584000	3802.023107
858.897155	3793.317035
859.210268	3778.992596
859.523339	3756.080552
859.836367	3758.959051
860.149352	3746.512442
860.462295	3740.430290
860.775195	3730.262282
861.088054	3728.092066
861.400869	3722.312383
861.713642	3723.542424
862.026373	3732.664392
862.339062	3736.415011
862.651708	3751.344388
862.964312	3782.256743
863.276873	3795.273002
863.589392	3847.020447
863.901869	3887.117784
864.214303	3929.715534
864.526696	3965.230463
864.839045	4011.407432
865.151353	4037.548336
865.463619	4047.328174
865.775842	4051.439235
866.088023	4071.893717
866.400162	4061.367787
866.712258	4073.148964
867.024313	4074.477308
867.336325	4070.890527
867.648296	4077.600303
867.960224	4075.233481
868.272110	4084.307558
868.583954	4088.597580
868.895755	4103.287502
869.207515	4093.409361
869.519233	4131.805310
869.830909	4144.793843
870.142542	4167.463911
870.454134	4182.297507
870.765684	4208.708112
871.077191	4240.185076
871.388657	4265.658027
871.700081	4296.787152
872.011463	4340.017566
872.322803	4368.621073
872.634101	4401.602822
872.945357	4437.531126
873.256571	4488.340915
873.567744	4520.848796
873.878874	4540.600037
874.189963	4577.574380
874.501010	4586.794650
874.812015	4587.102160
875.122979	4628.195126
875.433900	4624.479796
875.744780	4635.381291
876.055618	4664.793903
876.366415	4656.317203
876.677169	4675.960059
876.987882	4716.422880
877.298554	4760.275877
877.609183	4830.365560
877.919771	4924.685548
878.230317	5052.899735
878.540822	5234.361108
878.851285	5511.586761
879.161707	5899.720319
879.472087	6535.669439
879.782425	7547.451701
880.092722	9357.644348
880.402977	12181.451716
880.713191	15670.439334
881.023363	19368.102995
881.333494	21819.089309
881.643583	23277.747175
881.953631	23494.799095
882.263637	22854.910314
882.573602	21571.687123
882.883526	20137.448607
883.193408	18567.872754
883.503248	16979.591699
883.813048	15504.827347
884.122806	14137.643739
884.432522	12708.748846
884.742197	11492.431849
885.051831	10417.438559
885.361424	9425.165562
885.670975	8607.538299
885.980485	7919.236797
886.289954	7345.203129
886.599382	6875.327262
886.908768	6503.239696
887.218113	6149.862373
887.527417	5857.987127
887.836680	5589.739769
888.145901	5375.810844
888.455082	5216.379313
888.764221	5059.047422
889.073319	4929.426753
889.382376	4853.857337
889.691392	4789.476761
890.000366	4760.659005
890.309300	4741.893310
890.618193	4741.817692
890.927044	4727.742791
891.235855	4745.094442
891.544625	4768.447588
891.853353	4815.975586
892.162041	4909.486469
892.470687	5066.982198
892.779293	5280.959014
893.087858	5599.590184
893.396381	6090.752324
893.704864	6761.429952
894.013306	7785.479862
894.321707	8908.984176
894.630068	9795.115678
894.938387	10134.420620
895.246665	10025.231748
895.554903	9507.913582
895.863100	8856.404941
896.171256	8336.256167
896.479371	7846.823143
896.787446	7362.827003
897.095480	6942.455266
897.403473	6637.021837
897.711425	6323.439382
898.019336	6076.934521
898.327207	5804.886133
898.635038	5588.968473
898.942827	5336.504968
899.250576	5147.328108
899.558284	4956.132266
899.865952	4837.153473
900.173579	4692.061504
900.481165	4587.707099
900.788711	4498.503882
901.096216	4420.456738
901.403681	4353.454762
901.711105	4329.494158
902.018489	4304.520282
902.325832	4355.357797
902.633135	4439.182104
902.940397	4701.140622
903.247619	5304.715452
903.554800	6490.848540
903.861941	8238.583811
904.169041	9800.487028
904.476101	10640.673454
904.783121	10517.359269
905.090100	9893.030009
905.397039	9113.135783
905.703938	8392.149960
906.010796	7730.286789
906.317614	7194.840633
906.624391	6687.246853
906.931129	6272.173368
907.237826	5889.350666
907.544483	5531.890008
907.851099	5168.606818
908.157675	4824.550589
908.464211	4502.108307
908.770707	4259.704424
909.077163	4054.017785
909.383578	3906.589241
909.689954	3786.398051
909.996289	3714.279304
910.302584	3646.732884
910.608839	3614.058645
910.915054	3585.112340
911.221229	3564.168866
911.527363	3572.869897
911.833458	3585.205601
912.139513	3603.968776
912.445527	3627.316880
912.751502	3697.154504
913.057436	3784.313534
913.363331	3896.509454
913.669186	4068.155701
913.975000	4288.769196
914.280775	4647.696830
914.586510	5136.489627
914.892205	5819.818031
915.197859	6740.804071
915.503475	7863.653035
915.809050	8913.478364
916.114585	9625.838773
916.420081	9987.138269
916.725536	10040.582062
917.030952	9679.978245
917.336328	9310.953181
917.641665	8947.294424
917.946961	8499.385385
918.252218	8106.006506
918.557435	7624.203268
918.862612	7213.301339
919.167750	6864.415684
919.472848	6455.540298
919.777906	6104.744046
920.082925	5756.110449
920.387904	5391.324995
920.692843	5132.673474
920.997743	4884.227768
921.302603	4645.582066
921.607423	4490.070031
921.912204	4329.005166
922.216946	4212.236919
922.521647	4095.327520
922.826310	3997.062829
923.130932	3905.961617
923.435516	3808.407729
923.740059	3744.112853
924.044564	3667.479752
924.349028	3613.562091
924.653454	3549.763769
924.957840	3482.575270
925.262186	3439.004578
925.566493	3378.243550
925.870761	3321.974191
926.174989	3287.701907
926.479178	3253.638830
926.783328	3214.060731
927.087438	3187.680373
927.391509	3155.721978
927.695541	3124.033285
927.999533	3098.323401
928.303486	3078.675504
928.607400	3064.950962
928.911275	3050.702141
929.215110	3035.308978
929.518906	3026.847401
929.822663	3023.764735
930.126381	3019.603263
930.430060	3027.767412
930.733699	3025.887061
931.037299	3038.177394
931.340861	3036.632281
931.644383	3043.405071
931.947866	3041.355842
932.251309	3038.021118
932.554714	3040.622354
932.858080	3033.063144
933.161407	3026.746578
933.464694	3020.616535
933.767943	3014.060514
934.071153	3010.438445
934.374323	3001.651714
934.677455	2995.017556
934.980548	2987.964981
935.283602	2981.645895
935.586617	2977.958291
935.889593	2986.588746
936.192530	2985.615804
936.495428	2999.872187
936.798287	3016.427336
937.101108	3043.458003
937.403890	3087.716813
937.706632	3141.120276
938.009336	3216.949312
938.312002	3283.374076
938.614628	3348.231041
938.917216	3403.885379
939.219765	3437.759413
939.522275	3469.392653
939.824747	3474.063282
940.127179	3471.855257
940.429573	3472.813076
940.731929	3467.532467
941.034246	3458.196250
941.336524	3447.662759
941.638763	3433.635749
941.940964	3423.440015
942.243126	3383.360322
942.545250	3362.666385
942.847335	3325.792865
943.149381	3294.988895
943.451389	3263.869852
943.753359	3226.857700
944.055290	3206.897252
944.357182	3175.891635
944.659036	3166.615912
944.960851	3152.389776
945.262628	3141.309320
945.564367	3142.836789
945.866067	3134.932260
946.167729	3131.461426
946.469352	3131.211888
946.770937	3128.955972
947.072484	3110.606172
947.373992	3113.469547
947.675462	3111.311934
947.976893	3096.286775
948.278286	3088.553645
948.579641	3079.144331
948.880958	3073.094946
949.182236	3075.043352
949.483476	3067.461457
949.784678	3067.002712
950.085841	3066.725448
950.386967	3075.726429
950.688054	3089.851742
950.989103	3107.417642
951.290114	3126.327010
951.591087	3151.469765
951.892021	3178.276101
952.192917	3204.122097
952.493776	3230.774677
952.794596	3240.194073
953.095378	3247.002151
953.396122	3241.535020
953.696828	3239.768095
953.997496	3231.921539
954.298126	3211.804815
954.598718	3191.652802
954.899272	3167.682116
955.199788	3143.477016
955.500266	3112.849486
955.800706	3083.396544
956.101108	3045.328271
956.401472	3018.438756
956.701798	2983.828715
957.002087	2948.754887
957.302337	2923.070208
957.602550	2893.471073
957.902724	2864.123996
958.202861	2841.945440
958.502960	2819.562717
958.803022	2796.570014
959.103045	2780.632406
959.403031	2767.661517
959.702979	2749.626789
960.002889	2737.606158
960.302762	2727.049982
960.602596	2715.203270
960.902393	2706.920654
961.202153	2697.937318
961.501875	2692.611339
961.801559	2682.705472
962.101205	2679.307734
962.400814	2671.471261
962.700385	2665.966321
962.999918	2661.411638
963.299414	2655.382418
963.598873	2652.226656
963.898293	2645.733650
964.197677	2648.007210
964.497022	2647.387148
964.796331	2643.059317
965.095601	2638.514717
965.394835	2637.937505
965.694030	2637.256949
965.993189	2632.654376
966.292309	2631.910806
966.591393	2632.394757
966.890439	2630.418624
967.189447	2633.193779
967.488419	2634.174284
967.787353	2634.723770
968.086249	2637.014974
968.385108	2634.660755
968.683930	2638.683596
968.982714	2640.755510
969.281462	2643.069400
969.580172	2650.855462
969.878844	2654.114568
970.177480	2660.078253
970.476078	2669.825324
970.774639	2674.674914
971.073162	2680.890657
971.371649	2688.701924
971.670098	2694.562266
971.968510	2701.788760
972.266885	2703.459902
972.565223	2708.276725
972.863524	2712.959957
973.161788	2714.361397
973.460014	2715.863661
973.758204	2720.617469
974.056356	2721.224928
974.354471	2720.972871
974.652550	2722.822974
974.950591	2722.412120
975.248595	2721.529918
975.546563	2717.348281
975.844493	2715.982128
976.142386	2710.323433
976.440243	2703.757330
976.738062	2702.643235
977.035845	2696.377081
977.333590	2688.878365
977.631299	2684.033816
977.928971	2680.605831
978.226606	2673.122238
978.524204	2668.623009
978.821765	2663.360044
979.119290	2664.438851
979.416777	2664.849705
979.714228	2668.330622
980.011642	2670.369768
980.309020	2676.766993
980.606360	2688.903571
980.903664	2710.721684
981.200931	2737.646487
981.498162	2775.898762
981.795356	2839.654235
982.092513	2920.365629
982.389633	3014.133611
982.686717	3108.299844
982.983764	3182.566123
983.280775	3241.915627
983.577749	3256.960951
983.874686	3251.768562
984.171587	3224.148080
984.468451	3190.170703
984.765279	3151.681494
985.062070	3109.575256
985.358824	3066.115469
985.655543	3017.354908
985.952224	2969.811786
986.248869	2906.174781
986.545478	2850.422140
986.842050	2799.020015
987.138586	2751.431522
987.435086	2715.127653
987.731549	2684.376614
988.027975	2657.615649
988.324366	2640.511014
988.620719	2627.996350
988.917037	2616.736933
989.213318	2604.348297
989.509563	2596.910075
989.805772	2595.264138
990.101944	2590.908581
990.398080	2588.629979
990.694180	2583.714854
990.990244	2588.854311
991.286271	2585.244845
991.582262	2586.961357
991.878217	2586.870617
992.174136	2591.778180
992.470019	2592.914960
992.765865	2593.280444
993.061676	2600.126331
993.357450	2605.170005
993.653188	2611.216869
993.948890	2629.833850
994.244556	2643.911272
994.540186	2664.078408
994.835780	2693.077646
995.131337	2726.649210
995.426859	2760.414858
995.722345	2806.352373
996.017795	2855.271730
996.313208	2891.351268
996.608586	2920.375711
996.903928	2938.874225
997.199234	2940.384051
997.494504	2940.356324
997.789738	2930.470622
998.084936	2907.142682
998.380099	2879.413816
998.675225	2853.706452
998.970316	2826.388439
999.265371	2791.576751
999.560390	2758.327821
999.855373	2728.816906
1000.150320	2698.983358
1000.445232	2674.049811
1000.740108	2656.204126
1001.034948	2636.064717
1001.329752	2624.815382
1001.624521	2612.822477
1001.919254	2598.452668
1002.213951	2593.940835
1002.508613	2585.378435
1002.803239	2576.173288
1003.097829	2572.397464
1003.392384	2567.752041
1003.686903	2559.179559
1003.981386	2556.164949
1004.275834	2555.330638
1004.570246	2552.124464
1004.864623	2551.655637
1005.158964	2550.564227
1005.453270	2546.064997
1005.747540	2547.506767
1006.041775	2542.052238
1006.335974	2542.949564
1006.630138	2539.065355
1006.924266	2541.734646
1007.218359	2540.524769
1007.512416	2535.080323
1007.806438	2534.311547
1008.100425	2535.576876
1008.394376	2531.400280
1008.688292	2537.517721
1008.982172	2534.818183
1009.276017	2535.581917
1009.569827	2535.481094
1009.863602	2534.240971
1010.157341	2534.858512
1010.451045	2533.084026
1010.744714	2532.539581
1011.038347	2531.130579
1011.331945	2528.841895
1011.625508	2529.058664
1011.919036	2525.492048
1012.212528	2531.793490
1012.505986	2526.764939
1012.799408	2525.597912
1013.092795	2525.539939
1013.386147	2526.202851
1013.679464	2524.297295
1013.972745	2525.237470
1014.265992	2522.847963
1014.559204	2524.269568
1014.852380	2521.600277
1015.145521	2525.809641
1015.438628	2524.461132
1015.731699	2523.725124
1016.024736	2525.350896
1016.317737	2524.990453
1016.610703	2528.272244
1016.903635	2531.412883
1017.196531	2531.060003
1017.489393	2529.330887
1017.782219	2530.606299
1018.075011	2536.408667
1018.367768	2533.056299
1018.660490	2534.593851
1018.953177	2534.593851
1019.245829	2534.593851
