Dividing Wavelength (nm)	Counts (n)	Blue Motor Position (mm): 44.000000	Red Motor Position (mm): 0.000000	
326.493990	2063.664383
326.888308	2063.664383
327.282561	2063.664383
327.676750	2039.504653
328.070874	2040.023892
328.464933	2047.633513
328.858929	2054.244987
329.252859	2065.088508
329.646726	2077.527556
330.040528	2096.028590
330.434265	2111.182299
330.827938	2133.958232
331.221547	2153.102013
331.615091	2173.548933
332.008571	2194.757068
332.401986	2214.568802
332.795338	2236.487739
333.188625	2254.681263
333.581847	2275.521393
333.975006	2290.291974
334.368100	2307.099181
334.761129	2326.270689
335.154095	2339.246619
335.546996	2392.521533
335.939833	2499.109169
336.332606	2509.257012
336.725315	2521.615401
337.117960	2531.332225
337.510540	2542.339584
337.903056	2550.954916
338.295508	2559.166956
338.687896	2562.229457
339.080220	2568.959397
339.472480	2577.496591
339.864676	2578.799729
340.256807	2583.039340
340.648875	2582.928434
341.040879	2582.618403
341.432818	2584.307190
341.824694	2588.335072
342.216506	2585.920359
342.608253	2586.686615
342.999937	2585.219639
343.391557	2586.399269
343.783113	2583.863568
344.174605	2581.695872
344.566033	2578.809812
344.957397	2580.090265
345.348697	2577.209245
345.739934	2573.372927
346.131106	2574.847465
346.522215	2573.761096
346.913260	2570.648184
347.304241	2570.693554
347.695159	2566.388409
348.086012	2568.795560
348.476802	2565.352452
348.867528	2561.828685
349.258191	2555.817109
349.648789	2558.201575
350.039324	2554.965154
350.429796	2557.067315
350.820203	2558.491441
351.210548	2559.635783
351.600828	2557.155535
351.991045	2558.118396
352.381198	2555.355843
352.771288	2554.564382
353.161314	2555.549928
353.551276	2555.968344
353.941175	2554.599670
354.331010	2552.752088
354.720782	2558.617470
355.110490	2556.611091
355.500135	2553.992211
355.889717	2555.401214
356.279235	2556.729558
356.668689	2554.138405
357.058080	2557.465566
357.447408	2556.865669
357.836672	2556.800134
358.225873	2556.316183
358.615010	2559.476987
359.004084	2556.908519
359.393095	2562.904971
359.782043	2558.625032
360.170927	2561.196020
360.559748	2559.943293
360.948505	2564.056875
361.337199	2561.652245
361.725830	2561.437996
362.114398	2563.187276
362.502903	2563.477142
362.891344	2566.496793
363.279722	2564.951680
363.668037	2566.874880
364.056289	2566.098542
364.444478	2566.920250
364.832603	2569.740776
365.220665	2568.140210
365.608665	2569.080385
365.996601	2567.837740
366.384474	2567.867987
366.772284	2568.200703
367.160031	2571.069120
367.547715	2569.403019
367.935336	2567.671382
368.322893	2568.437638
368.710388	2568.949315
369.097820	2569.569377
369.485189	2568.707339
369.872495	2572.382341
370.259738	2573.294789
370.646918	2574.529872
371.034035	2574.219841
371.421090	2574.035839
371.808081	2572.263873
372.195010	2575.550706
372.581875	2576.483319
372.968678	2573.183884
373.355418	2572.478122
373.742096	2577.007599
374.128710	2578.240161
374.515262	2577.569688
374.901751	2575.273442
375.288177	2578.966088
375.674540	2581.101016
376.060841	2579.515573
376.447079	2579.749987
376.833254	2579.830645
377.219367	2582.961202
377.605417	2582.610842
377.991404	2582.535224
378.377329	2585.159145
378.763191	2581.287539
379.148991	2584.216449
379.534727	2586.946234
379.920402	2584.705441
380.306013	2584.823908
380.691563	2589.615525
381.077049	2588.327510
381.462474	2586.426995
381.847835	2588.216605
382.233134	2590.548138
382.618371	2590.507809
383.003545	2594.979313
383.388657	2597.000815
383.773706	2599.859150
384.158693	2599.912082
384.543618	2607.236878
384.928480	2609.354163
385.313280	2613.349277
385.698017	2616.890688
386.082692	2621.715072
386.467305	2630.884931
386.851856	2637.345170
387.236344	2643.155099
387.620770	2649.249854
388.005133	2655.274033
388.389435	2665.903306
388.773674	2670.765499
389.157851	2689.145546
389.541965	2699.696681
389.926018	2709.257229
390.310008	2723.874055
390.693936	2735.433421
391.077802	2751.328179
391.461606	2765.887031
391.845348	2779.495626
392.229027	2797.512710
392.612645	2817.805874
392.996200	2841.211952
393.379694	2861.905888
393.763125	2889.899416
394.146494	2912.970256
394.529801	2938.433124
394.913047	2967.084522
395.296230	2984.657984
395.679351	3012.623785
396.062410	3044.433466
396.445408	3053.550393
396.828343	3089.609766
397.211217	3123.604787
397.594028	3127.178965
397.976778	3166.764626
398.359466	3204.361551
398.742092	3227.563462
399.124656	3252.991042
399.507158	3306.505411
399.889598	3330.997857
400.271977	3391.801734
400.654294	3404.480236
401.036549	3460.323617
401.418742	3482.991166
401.800874	3550.809808
402.182944	3590.566868
402.564952	3670.017973
402.946898	3691.216025
403.328783	3707.511555
403.710606	3768.869959
404.092367	3839.670444
404.474067	3908.857760
404.855705	3916.124583
405.237282	3919.156837
405.618797	4016.922455
406.000250	4100.219960
406.381642	4185.599462
406.762972	4208.226681
407.144240	4198.182182
407.525447	4271.679685
407.906593	4306.758554
408.287677	4395.785331
408.668700	4432.129529
409.049661	4488.053570
409.430560	4531.115106
409.811399	4534.190210
410.192176	4593.575002
410.572891	4680.187066
410.953545	4791.757883
411.334138	4708.372157
411.714669	4822.534127
412.095139	4750.606944
412.475547	4861.358574
412.855894	4877.092015
413.236180	4982.704188
413.616405	4921.086164
413.996568	5031.200088
414.376670	5034.330644
414.756711	5037.178896
415.136691	5108.264207
415.516609	5202.291808
415.896466	5238.658692
416.276262	5319.090302
416.655997	5433.683290
417.035670	5533.593918
417.415283	5672.185320
417.794834	5746.854891
418.174324	5708.342996
418.553753	5715.766095
418.933121	5874.179313
419.312428	5884.826230
419.691674	5817.526827
420.070859	6041.288522
420.449983	5930.438590
420.829045	6119.050841
421.208047	6048.469646
421.586988	6203.389345
421.965867	6281.267610
422.344686	6363.483788
422.723444	6525.279621
423.102141	6151.130223
423.480777	6537.665736
423.859352	6352.287385
424.237866	6709.327107
424.616319	6709.347271
424.994712	6874.487909
425.373044	6786.701256
425.751314	7103.366376
426.129524	6824.920764
426.507673	7089.115034
426.885762	7133.686396
427.263789	7170.698548
427.641756	7252.433296
428.019662	7336.118970
428.397508	7376.327213
428.775292	7361.208793
429.153016	7533.205400
429.530679	7457.688916
429.908282	7508.367635
430.285824	7456.917619
430.663305	7735.295176
431.040726	7615.517360
431.418086	7626.232333
431.795385	7761.471367
432.172624	7944.797968
432.549802	7828.972417
432.926920	7966.974003
433.303977	7908.322699
433.680974	7949.100592
434.057910	8144.616703
434.434786	8197.105197
434.811601	8163.039600
435.188355	8491.387594
435.565050	8381.472796
435.941683	8396.732369
436.318257	8724.861073
436.694770	8678.169906
437.071222	8906.466119
437.447614	8676.150924
437.823946	8640.721694
438.200218	8793.241804
438.576429	8674.177312
438.952580	8840.363990
439.328670	8849.690124
439.704700	8922.658306
440.080670	8820.590064
440.456580	9087.791382
440.832429	9060.581754
441.208218	8798.345972
441.583947	8910.937623
441.959616	9029.112351
442.335224	9060.685098
442.710773	9147.168613
443.086261	9328.718207
443.461689	9044.142552
443.837057	9212.927944
444.212365	9419.819418
444.587612	9409.608561
444.962800	9302.632756
445.337927	9435.504969
445.712995	8975.197211
446.088002	9648.579418
446.462949	9708.843892
446.837837	9691.585502
447.212664	9706.708963
447.587431	10540.898937
447.962139	11540.983202
448.336786	12466.886888
448.711374	12235.644119
449.085901	11025.081599
449.460369	10958.180447
449.834776	10736.029400
450.209124	11654.262970
450.583412	11468.304887
450.957640	11789.537292
451.331808	11367.882582
451.705917	10809.637808
452.079965	10684.607110
452.453954	10879.911492
452.827883	10827.876702
453.201752	10792.916300
453.575562	10802.096241
453.949311	11145.184569
454.323001	11203.966944
454.696632	11125.032557
455.070202	11715.081970
455.443713	11769.138263
455.817164	11931.617172
456.190556	12246.409503
456.563888	12115.243722
456.937160	12366.328471
457.310373	11853.965759
457.683526	11860.756193
458.056619	11881.356868
458.429653	11948.381529
458.802628	12086.509145
459.175542	12132.870116
459.548398	12679.588292
459.921194	13255.779573
460.293930	13549.779666
460.666607	14401.091919
461.039224	15189.344378
461.411782	15523.492220
461.784280	15191.038206
462.156719	15117.011382
462.529099	15018.524880
462.901419	14388.899888
463.273680	13985.179082
463.645882	14194.928891
464.018024	14090.942490
464.390106	14463.609788
464.762130	15535.354055
465.134094	17081.997699
465.505999	19378.271002
465.877845	21614.506683
466.249631	22828.403927
466.621358	22331.439419
466.993026	21505.572390
467.364634	20748.280177
467.736184	19948.715368
468.107674	19349.934676
468.479105	19214.743533
468.850477	18929.280635
469.221790	18505.712806
469.593043	17834.841093
469.964238	17445.152339
470.335373	17509.270775
470.706449	18235.895129
471.077467	19098.870091
471.448425	21560.437788
471.819324	23426.935082
472.190164	23315.659172
472.560945	21571.944222
472.931667	20007.298617
473.302330	19676.331744
473.672934	19136.719074
474.043479	19561.627850
474.413965	19356.518423
474.784393	19162.620523
475.154761	19835.080199
475.525070	19959.216092
475.895321	19805.481064
476.265513	20322.423665
476.635645	20905.233981
477.005719	20955.141404
477.375734	21332.993529
477.745691	21959.727419
478.115588	22581.780598
478.485427	23780.123361
478.855207	25587.949186
479.224928	27394.373570
479.594591	28804.175093
479.964194	28427.915973
480.333739	28874.872235
480.703226	29078.492000
481.072653	29526.774085
481.442022	30032.873164
481.811333	30438.653281
482.180584	29997.882515
482.549777	29772.674008
482.918912	29546.374092
483.287988	29480.783639
483.657005	29330.408540
484.025964	28957.322826
484.394864	29143.192689
484.763706	29067.671163
485.132489	28537.215750
485.501213	28595.748587
485.869879	28760.755635
486.238487	28687.936168
486.607036	28956.914493
486.975527	28648.617688
487.343959	28990.712909
487.712333	29338.595374
488.080648	29312.870366
488.448905	29721.960001
488.817104	29595.900908
489.185244	30428.669276
489.553326	31391.055792
489.921350	33272.490025
490.289315	35785.686699
490.657222	36670.910793
491.025070	37229.621874
491.392861	36951.216591
491.760593	36166.674421
492.128267	35157.861399
492.495883	34158.278729
492.863440	33260.305556
493.230939	32289.031486
493.598380	31731.467267
493.965763	31581.533270
494.333088	31080.235890
494.700354	30874.892050
495.067563	30830.282879
495.434713	30720.050489
495.801805	31006.433398
496.168839	30829.977890
496.535815	30686.423472
496.902733	30800.093930
497.269593	30630.615378
497.636395	30771.641657
498.003139	31031.341739
498.369825	30788.595058
498.736453	31184.928053
499.103023	31017.929749
499.469535	31100.219024
499.835989	31222.245194
500.202385	31087.411973
500.568723	31124.817334
500.935003	31420.022262
501.301226	31295.755299
501.667390	31986.973109
502.033497	32205.877653
502.399546	31990.731289
502.765537	31594.284868
503.131470	32060.485735
503.497345	32468.579742
503.863163	31429.217327
504.228923	32187.774869
504.594625	32586.026023
504.960269	32047.219938
505.325856	32706.244940
505.691385	32366.645090
506.056856	32688.429502
506.422270	33172.410518
506.787625	32685.432536
507.152924	33129.810248
507.518164	33309.902948
507.883347	32887.396282
508.248472	33005.588655
508.613540	33684.301882
508.978550	33895.869027
509.343503	33740.374637
509.708398	34097.273206
510.073236	34684.635684
510.438016	34767.539980
510.802738	34441.815906
511.167403	34969.470959
511.532010	35215.572528
511.896561	35717.119445
512.261053	36472.289332
512.625488	36240.585298
512.989866	36158.530437
513.354186	36210.817285
513.718449	36176.217325
514.082655	37009.026023
514.446803	36713.684984
514.810894	37330.631474
515.174927	37335.539037
515.538904	37327.752975
515.902822	37947.083931
516.266684	37640.060017
516.630488	37981.411668
516.994235	37990.720158
517.357925	38564.980678
517.721558	38806.782143
518.085133	39171.633132
518.448651	39373.458247
518.812112	39266.192575
519.175516	39387.770083
519.538863	39835.384215
519.902152	39908.039845
520.265385	40449.452206
520.628560	40450.410025
520.991678	40390.039687
521.354739	40610.237287
521.717743	40968.668367
522.080690	40883.946736
522.443580	41538.434698
522.806413	41552.043293
523.169189	41695.380941
523.531908	41904.208218
523.894569	41760.580704
524.257174	41945.485186
524.619722	42289.617033
524.982213	42436.019702
525.344647	42498.787109
525.707025	42594.833692
526.069345	43039.705437
526.431608	42935.015795
526.793815	43321.488293
527.155964	42876.256106
527.518057	43132.470230
527.880093	42988.930936
528.242072	43611.667191
528.603995	43341.330275
528.965860	43257.934467
529.327669	43491.322246
529.689421	43549.179568
530.051117	43495.851722
530.412755	43764.585552
530.774337	43816.980784
531.135862	43760.945838
531.497331	43919.467442
531.858743	43918.607925
532.220098	44305.226616
532.581396	44042.022933
532.942638	43799.944205
533.303824	44053.438626
533.664953	44106.431235
534.026025	43805.376048
534.387040	44356.469945
534.747999	44425.029637
535.108902	44757.985246
535.469748	44068.378085
535.830537	44349.578688
536.191270	44583.972177
536.551947	44334.276265
536.912567	44619.426612
537.273131	44729.429630
537.633638	44370.070978
537.994089	44538.427873
538.354483	44304.919106
538.714821	44951.822653
539.075103	45217.990535
539.435328	45106.160098
539.795497	44869.906423
540.155609	45002.075395
540.515665	45570.084884
540.875665	44870.387853
541.235609	45136.154964
541.595496	45295.087421
541.955328	45862.237393
542.315102	45290.590712
542.674821	45192.600763
543.034483	45089.317603
543.394090	45119.007479
543.753640	45090.106544
544.113134	46152.219686
544.472571	45255.287511
544.831953	46369.228756
545.191278	45652.906000
545.550548	45339.242887
545.909761	45961.336396
546.268918	46098.735564
546.628019	46500.397059
546.987064	45962.861345
547.346053	45271.668741
547.704986	46168.905905
548.063863	45826.465366
548.422684	45995.913670
548.781449	45606.413959
549.140158	46116.122504
549.498811	45879.997378
549.857408	45281.567046
550.215949	46117.090405
550.574434	45948.095805
550.932864	45914.955260
551.291237	46606.513347
551.649555	46355.448762
552.007817	46517.171498
552.366022	46228.013434
552.724173	46296.560523
553.082267	46684.757096
553.440305	47068.658605
553.798288	46326.653691
554.156215	46703.679067
554.514086	46893.251657
554.871902	46495.673497
555.229661	46657.239958
555.587365	46338.452512
555.945014	46476.607854
556.302606	46507.247987
556.660143	46596.186543
557.017625	46815.297775
557.375050	46491.481778
557.732421	46906.872855
558.089735	46976.486148
558.446994	46830.527101
558.804197	47296.934654
559.161345	47164.664860
559.518437	46533.114147
559.875474	46780.077753
560.232455	46997.618665
560.589381	47035.278605
560.946251	46862.911473
561.303065	47505.633383
561.659825	47178.699432
562.016528	46981.857498
562.373177	46579.959069
562.729770	47225.347749
563.086307	46718.091726
563.442789	47273.077394
563.799216	47112.788866
564.155587	47036.841363
564.511904	46974.474728
564.868164	47036.259110
565.224370	47334.536621
565.580520	47056.262408
565.936615	47259.549458
566.292654	46919.155626
566.648638	47283.479815
567.004567	47205.195737
567.360441	47303.883885
567.716260	47011.595264
568.072023	47412.190555
568.427732	47321.054055
568.783385	46855.904269
569.138982	47275.393804
569.494525	47414.557377
569.850013	47028.571350
570.205445	47162.512287
570.560823	46931.496371
570.916145	46784.269473
571.271412	47029.796350
571.626625	46683.590069
571.981782	46745.230778
572.336884	46372.213119
572.691931	46679.088318
573.046923	46339.783377
573.401860	46175.376226
573.756743	46198.074021
574.111570	46340.695825
574.466342	46263.387211
574.821059	46411.665189
575.175722	45893.467341
575.530330	45988.470406
575.884882	45646.165978
576.239380	45549.809363
576.593823	45640.696326
576.948211	45573.452375
577.302544	45123.801616
577.656823	45109.285614
578.011047	45381.843158
578.365216	45223.634106
578.719330	44933.167863
579.073389	44929.170228
579.427394	44973.401312
579.781344	44891.550617
580.135239	44639.376978
580.489080	44697.314960
580.842866	44211.153644
581.196597	44707.276280
581.550273	44712.824069
581.903895	44615.265140
582.257463	45039.773143
582.610975	44479.968132
582.964434	44809.760417
583.317837	44295.643383
583.671186	44266.654228
584.024481	44561.811265
584.377721	44127.694822
584.730906	44338.344477
585.084037	44498.819527
585.437113	44191.528433
585.790135	44322.328731
586.143103	43898.022373
586.496016	44066.263321
586.848874	44167.981203
587.201679	44197.625708
587.554428	43685.285681
587.907124	43957.074449
588.259765	43754.934263
588.612352	43870.875760
588.964884	43364.958163
589.317362	43660.231146
589.669786	43647.164476
590.022155	43541.955595
590.374470	43996.634904
590.726731	43575.721243
591.078937	42928.706791
591.431090	43275.470120
591.783188	42785.563228
592.135232	42592.655914
592.487222	42869.765620
592.839157	43024.345041
593.191038	42659.052951
593.542866	42473.293994
593.894639	41848.536236
594.246358	42153.702484
594.598022	42155.759275
594.949633	41721.312636
595.301190	41760.250509
595.652692	41688.063706
596.004141	42195.322250
596.355535	41097.910949
596.706876	41102.707607
597.058162	40810.691208
597.409395	41319.993940
597.760573	41536.342619
598.111698	41156.335401
598.462768	41058.907542
598.813785	41097.273243
599.164748	40697.726513
599.515657	40976.956024
599.866511	40480.856074
600.217312	41154.364310
600.568060	40124.733843
600.918753	40931.673860
601.269392	40844.401404
601.619978	40583.173853
601.970510	40784.966200
602.320988	40932.588829
602.671412	41169.686897
603.021783	41048.154760
603.372100	40623.218259
603.722363	40711.350231
604.072572	40756.632395
604.422728	40762.470051
604.772830	40545.443337
605.122878	40715.645294
605.472872	40556.697713
605.822813	40839.897133
606.172701	40567.294218
606.522534	40892.564588
606.872314	41092.859713
607.222041	40935.033789
607.571714	41266.547627
607.921333	40764.736050
608.270899	40953.315533
608.620411	41335.886178
608.969870	41100.892791
609.319276	41103.176434
609.668627	41147.994812
610.017926	41554.369786
610.367171	41700.303628
610.716362	41721.511762
611.065500	41634.819039
611.414585	41866.666746
611.763616	42013.387008
612.112594	41929.933227
612.461518	42053.096177
612.810389	42435.860906
613.159207	42212.119375
613.507971	42189.487115
613.856682	42685.713093
614.205340	42530.879094
614.553945	43230.845826
614.902496	42556.087384
615.250994	42990.082839
615.599439	43050.571644
615.947830	43153.368333
616.296169	43174.480685
616.644454	43198.254767
616.992686	43348.440822
617.340864	43798.147033
617.688990	43297.966269
618.037063	43971.925689
618.385082	43784.840908
618.733048	44141.389116
619.080961	44028.056416
619.428821	44084.434160
619.776628	44111.941216
620.124382	43929.096046
620.472083	44066.490173
620.819731	44146.939427
621.167326	43730.615736
621.514868	43734.109256
621.862357	43194.252091
622.209793	43302.067248
622.557176	42849.653937
622.904506	42620.409987
623.251783	42255.695109
623.599007	41939.894547
623.946179	41860.171219
624.293297	41617.661472
624.640363	41064.961967
624.987376	40932.808119
625.334336	40721.545964
625.681243	40315.665024
626.028097	40228.536242
626.374899	40051.884129
626.721647	40020.225682
627.068343	39800.990943
627.414987	39503.643524
627.761577	39263.553531
628.108115	39580.087581
628.454600	38834.440434
628.801032	39074.129655
629.147412	38959.329979
629.493739	38841.586269
629.840014	38419.419882
630.186236	38838.788429
630.532405	38256.083976
630.878521	38533.294506
631.224585	38301.363620
631.570597	37969.428845
631.916556	38141.783375
632.262462	38041.771923
632.608316	37974.969073
632.954117	37844.430915
633.299866	37802.821231
633.645562	37729.732062
633.991206	37215.370532
634.336797	36797.325288
634.682336	36697.144958
635.027823	36464.052087
635.373257	36363.249174
635.718639	36026.142175
636.063968	35895.001599
636.409245	35265.449704
636.754470	35212.474739
637.099642	34983.180377
637.444762	34408.753499
637.789829	34556.809667
638.134845	34175.113662
638.479808	34084.345167
638.824719	34037.263310
639.169577	33527.806823
639.514383	33657.339271
639.859137	33255.198867
640.203839	33421.418312
640.548489	33149.876560
640.893086	33118.283649
641.237632	32826.824298
641.582125	32917.479368
641.926566	32702.396019
642.270955	32732.713518
642.615292	32688.167362
642.959576	32538.130021
643.303809	32549.122257
643.647990	32662.170132
643.992118	32633.337252
644.336195	32456.430561
644.680219	32521.348019
645.024192	32717.070818
645.368112	33236.995261
645.711981	33244.065479
646.055797	33934.789255
646.399562	33733.032196
646.743274	34598.842808
647.086935	34995.846276
647.430544	34980.223740
647.774101	35008.847412
648.117606	35323.808622
648.461059	35476.265717
648.804460	35098.892502
649.147810	34588.102629
649.491108	34267.946510
649.834354	34166.024462
650.177548	33364.347410
650.520690	32858.563403
650.863781	32823.610563
651.206820	32643.830414
651.549807	32223.993039
651.892742	31655.844918
652.235626	31567.430642
652.578458	31408.808215
652.921238	30726.183053
653.263967	30990.581489
653.606644	30685.420282
653.949269	30611.436309
654.291843	30222.188656
654.634365	30576.624621
654.976836	30114.945669
655.319255	30206.152745
655.661622	30068.980428
656.003938	29949.880648
656.346203	29754.195659
656.688416	29986.577728
657.030577	29787.689085
657.372687	29615.077457
657.714746	29759.448541
658.056753	29926.741752
658.398708	29299.150866
658.740612	29376.593071
659.082465	29574.508771
659.424266	29483.649535
659.766016	29461.302100
660.107715	29313.311467
660.449362	29407.316383
660.790958	29382.788649
661.132503	29327.509877
661.473996	29402.539890
661.815438	29478.046292
662.156829	29593.773541
662.498168	29395.409178
662.839456	29371.370436
663.180693	29493.063890
663.521879	29553.741738
663.863013	29508.325983
664.204097	29495.372738
664.545129	29888.055938
664.886110	29825.384313
665.227040	29935.803226
665.567918	29930.739387
665.908746	29990.527472
666.249522	30078.044423
666.590248	30109.241604
666.930922	30209.923528
667.271545	30220.948532
667.612118	30277.996749
667.952639	30096.868092
668.293109	30134.432249
668.633528	29977.022221
668.973896	29938.548134
669.314213	29921.647666
669.654480	29720.702233
669.994695	29720.714836
670.334859	29636.968667
670.674973	29441.036661
671.015035	29638.319697
671.355047	29554.442458
671.695008	29480.294647
672.034918	29383.822086
672.374777	29480.511417
672.714585	29357.744197
673.054342	29485.885287
673.394049	29350.646252
673.733705	29568.358563
674.073310	29293.807243
674.412864	29346.300778
674.752368	29072.024200
675.091820	29302.485589
675.431223	28902.394414
675.770574	28715.864160
676.109875	28553.748214
676.449125	28326.119953
676.788324	28245.547191
677.127473	27761.445187
677.466571	27668.635025
677.805619	27380.089461
678.144616	27307.892576
678.483562	27253.427950
678.822458	26935.220237
679.161303	26874.565074
679.500098	26791.670860
679.838842	26704.915123
680.177535	26774.122604
680.516179	26985.508267
680.854771	27070.209734
681.193314	27756.698941
681.531805	28690.683597
681.870247	29446.216447
682.208638	30260.672824
682.546978	30603.824166
682.885268	30795.524124
683.223508	30392.584697
683.561697	30115.595978
683.899836	29965.208277
684.237925	29548.020028
684.575963	29385.747807
684.913951	28991.844648
685.251889	29142.146650
685.589776	29146.126641
685.927614	29130.783889
686.265401	29291.974783
686.603137	29398.441432
686.940824	29861.055517
687.278460	30189.635405
687.616046	30367.993948
687.953582	31056.814689
688.291068	30993.056696
688.628504	31368.368079
688.965889	31379.877033
689.303224	31124.134258
689.640510	30880.301208
689.977745	30272.020461
690.314930	29533.314983
690.652065	29133.826225
690.989150	28444.813921
691.326185	27603.742772
691.663170	27000.137695
692.000105	26295.086960
692.336990	25690.584558
692.673825	25272.524190
693.010610	24769.457365
693.347345	24265.462968
693.684030	23641.791579
694.020665	23454.840389
694.357251	22787.381537
694.693786	22795.021406
695.030272	22556.620199
695.366707	22058.715516
695.703093	21779.173453
696.039429	21832.776042
696.375716	21598.969847
696.711952	21584.710944
697.048139	21454.588681
697.384276	21289.395110
697.720363	21409.737535
698.056400	21296.367026
698.392388	21126.487703
698.728326	21134.185545
699.064214	20977.405660
699.400053	21002.049341
699.735842	20611.327150
700.071581	20438.551685
700.407270	20198.592762
700.742910	20027.175887
701.078501	19772.141393
701.414042	19574.795343
701.749533	19260.857488
702.084974	18958.834399
702.420366	19180.383028
702.755709	18771.742056
703.091002	18469.497157
703.426246	18539.952323
703.761440	18468.395665
704.096584	18242.216736
704.431679	18177.800872
704.766725	18118.574876
705.101721	18043.630562
705.436668	18155.135844
705.771565	17868.674797
706.106413	18171.814502
706.441212	18251.227798
706.775961	18326.245209
707.110661	18409.759484
707.445311	18765.826262
707.779913	18641.246748
708.114465	18940.933262
708.448967	19243.374766
708.783421	19849.956644
709.117825	20180.689104
709.452180	20395.553163
709.786485	20830.755974
710.120742	21570.288202
710.454949	21675.139161
710.789107	22181.205473
711.123216	22879.226319
711.457275	23121.569708
711.791286	23693.423077
712.125247	23850.823023
712.459159	23633.065342
712.793023	24377.905905
713.126837	23411.768770
713.460602	23674.732999
713.794318	23360.341439
714.127985	23094.165996
714.461602	22208.100028
714.795171	22197.034696
715.128691	21218.710572
715.462162	20701.863753
715.795584	20277.885070
716.128957	20010.580408
716.462281	19632.365320
716.795556	19354.050778
717.128782	18882.319766
717.461960	18295.340415
717.795088	18256.694930
718.128167	17919.416532
718.461198	17473.740723
718.794180	17346.738934
719.127113	17025.688010
719.459997	16832.256417
719.792833	16454.618541
720.125619	16495.159500
720.458357	16157.487892
720.791046	16031.930394
721.123686	15872.004829
721.456278	15636.403983
721.788821	15633.076822
722.121315	15382.400406
722.453761	15473.957842
722.786158	15348.312123
723.118506	15441.752431
723.450805	15325.342106
723.783056	15502.407594
724.115259	15378.717843
724.447412	15369.187542
724.779518	15567.541822
725.111574	15626.551048
725.443582	15888.968312
725.775542	15828.958416
726.107453	16334.051785
726.439315	16237.029738
726.771129	16633.516488
727.102895	17038.215277
727.434612	17323.020305
727.766281	17496.912387
728.097901	17818.742169
728.429473	17929.133356
728.760996	17951.831151
729.092471	18069.453873
729.423897	17957.414229
729.755276	17802.718861
730.086606	17881.648207
730.417887	18429.861085
730.749120	18980.723089
731.080305	19196.630667
731.411442	19610.814388
731.742530	19731.401308
732.073570	19859.839826
732.404562	20176.285656
732.735506	20083.253682
733.066401	19959.321956
733.397249	19519.917343
733.728048	18930.828269
734.058798	18087.806193
734.389501	17331.975915
734.720156	16806.728013
735.050762	16226.211422
735.381320	15822.230997
735.711831	15529.239135
736.042293	15161.134081
736.372707	15172.209496
736.703073	14952.405106
737.033391	15138.801770
737.363661	15118.740498
737.693883	15234.805503
738.024056	15429.739361
738.354182	15623.153311
738.684260	15972.177597
739.014290	16245.385450
739.344272	16473.936242
739.674207	16807.927808
740.004093	16991.062845
740.333931	17077.377481
740.663722	17159.810429
740.993464	17212.382102
741.323159	17077.208603
741.652806	16805.145091
741.982405	16632.712424
742.311956	16284.346008
742.641460	16189.020309
742.970915	15855.598394
743.300323	15513.392268
743.629683	15300.501820
743.958996	14992.562938
744.288260	14692.669737
744.617477	14377.675759
744.946647	14342.692672
745.275768	14027.607954
745.604842	13822.858970
745.933869	13644.298780
746.262847	13608.582205
746.591778	13514.519315
746.920662	13389.912074
747.249498	13395.106983
747.578286	13534.499928
747.907027	13687.604812
748.235720	13963.111431
748.564365	14047.581005
748.892963	13970.831958
749.221514	14090.319907
749.550017	13972.223317
749.878473	13948.771869
750.206881	13731.992172
750.535242	13662.288137
750.863555	13584.437598
751.191821	13479.682422
751.520039	13491.945028
751.848210	13406.331112
752.176334	13447.182103
752.504411	13379.486968
752.832440	13214.222822
753.160421	13320.157629
753.488356	13213.418758
753.816243	13129.173515
754.144082	12964.133700
754.471875	12902.029205
754.799620	12861.039583
755.127318	12835.158299
755.454969	12828.604799
755.782572	12784.948407
756.110129	12807.565544
756.437638	12717.298643
756.765100	12723.123696
757.092515	12741.294535
757.419882	12771.246551
757.747203	12776.552365
758.074477	12866.249616
758.401703	12837.439422
758.728882	13030.986962
759.056014	13066.774113
759.383099	13237.026481
759.710138	13355.584337
760.037129	13486.936642
760.364073	13555.786201
760.690970	13576.580960
761.017820	13583.439450
761.344623	13786.938228
761.671379	14101.738121
761.998088	14642.792560
762.324751	16053.688014
762.651366	18976.909456
762.977935	23299.376245
763.304456	26605.538858
763.630931	28201.018679
763.957359	27424.854907
764.283740	25368.805187
764.610074	23210.856104
764.936362	20599.210737
765.262602	18693.773050
765.588796	16709.204372
765.914943	15383.335540
766.241044	14228.896186
766.567097	13410.472420
766.893104	12670.640244
767.219064	12191.392871
767.544978	11701.206194
767.870845	11309.432923
768.196665	11081.383726
768.522438	10849.198262
768.848165	10639.642538
769.173846	10432.874572
769.499479	10306.175252
769.825066	10137.213419
770.150607	9916.811653
770.476101	9837.312657
770.801548	9714.124501
771.126949	9562.100945
771.452303	9441.120814
771.777611	9245.491277
772.102872	9242.060772
772.428087	9107.414073
772.753256	8947.528838
773.078378	8866.527578
773.403453	8679.846089
773.728482	8567.937515
774.053465	8490.170155
774.378401	8390.057881
774.703291	8268.508100
775.028135	8152.690111
775.352932	8115.277188
775.677683	8014.227259
776.002388	7904.052842
776.327046	7917.767301
776.651658	7819.106879
776.976224	7716.088379
777.300743	7718.868576
777.625216	7634.802294
777.949643	7585.509892
778.274024	7608.069055
778.598359	7518.142432
778.922647	7532.479474
779.246889	7483.272771
779.571086	7490.138823
779.895236	7494.416242
780.219339	7502.650967
780.543397	7505.126173
780.867409	7585.950993
781.191374	7597.911130
781.515294	7566.275369
781.839167	7658.531005
782.162995	7632.412787
782.486776	7580.516629
782.810511	7536.948457
783.134201	7447.233562
783.457844	7444.682739
783.781441	7394.099801
784.104993	7332.655697
784.428498	7307.535628
784.751958	7290.143647
785.075372	7259.919409
785.398739	7202.004113
785.722061	7243.616317
786.045337	7240.400061
786.368568	7384.123358
786.691752	7383.495734
787.014891	7683.487238
787.337983	7991.710945
787.661030	8539.830562
787.984031	9162.818875
788.306987	9600.466646
788.629897	9859.629845
788.952760	9859.960040
789.275579	9672.446761
789.598351	9310.370927
789.921078	8977.629568
790.243759	8561.242863
790.566395	8265.133048
790.888984	8015.084255
791.211529	7807.393758
791.534027	7577.391114
791.856480	7372.644650
792.178888	7294.723535
792.501249	7195.324584
792.823566	7035.240223
793.145836	7031.245109
793.468062	6997.537434
793.790241	6943.818898
794.112375	7002.596232
794.434464	7145.631410
794.756507	7174.988570
795.078505	7310.525032
795.400457	7596.683609
795.722364	7930.042510
796.044226	8217.448773
796.366042	8511.017847
796.687812	8480.546593
797.009538	8580.222807
797.331218	8489.623190
797.652852	8419.301615
797.974442	8276.276518
798.295986	8190.856687
798.617484	8001.780650
798.938938	7862.203703
799.260346	7758.113958
799.581709	7561.022487
799.903026	7482.977864
800.224299	7378.079014
800.545526	7205.253137
800.866708	7113.516740
801.187845	7039.154679
801.508936	6938.417302
801.829983	6901.684934
802.150984	6749.978971
802.471940	6710.209308
802.792851	6692.338418
803.113717	6665.756414
803.434538	6628.144365
803.755314	6568.941054
804.076045	6573.873823
804.396731	6512.349061
804.717372	6539.072218
805.037967	6535.946702
805.358518	6576.848104
805.679024	6659.039076
805.999485	6666.948647
806.319901	6705.349636
806.640272	6728.155816
806.960598	6814.742675
807.280879	6820.008160
807.601115	6898.355252
807.921306	6837.619431
808.241453	6854.600557
808.561554	6877.769701
808.881611	6848.072263
809.201623	6853.720876
809.521590	6802.739687
809.841513	6782.471728
810.161390	6822.188459
810.481223	6687.025042
810.801011	6676.569689
811.120755	6652.777963
811.440453	6574.597229
811.760107	6540.115737
812.079716	6508.807651
812.399281	6450.925122
812.718801	6439.829542
813.038276	6392.291462
813.357707	6329.700496
813.677093	6370.241455
813.996434	6275.513133
814.315731	6316.205327
814.634983	6309.235932
814.954191	6311.312887
815.273354	6406.373925
815.592473	6465.050435
815.911547	6582.348003
816.230577	6656.337018
816.549562	6803.130377
816.868502	6898.783750
817.187399	6990.361351
817.506250	7139.735781
817.825058	7159.101373
818.143821	7404.469454
818.462539	7645.943244
818.781213	7964.035011
819.099843	8447.007796
819.418429	9357.014203
819.736970	10254.389999
820.055466	11358.798422
820.373919	12730.657701
820.692327	14726.132916
821.010691	18048.339000
821.329011	25479.392979
821.647286	37160.434558
821.965517	51139.987713
822.283704	58588.907541
822.601847	61739.729518
822.919945	59593.569174
823.237999	55758.823937
823.556010	49804.815432
823.873976	43166.742514
824.191897	36661.995513
824.509775	31803.039049
824.827609	27145.738821
825.145398	24313.900895
825.463144	22650.539416
825.780845	22541.466491
826.098502	23771.336630
826.416116	27065.332418
826.733685	30789.278134
827.051210	32657.345747
827.368692	31707.741077
827.686129	28207.239463
828.003522	24183.130844
828.320872	20430.551373
828.638177	17527.348353
828.955439	15328.911243
829.272656	13486.097290
829.589830	11998.470434
829.906960	10688.738335
830.224046	9720.171365
830.541088	8940.246891
830.858086	8450.672715
831.175041	8042.228348
831.491952	7888.284112
831.808819	7864.315947
832.125642	8169.633429
832.442421	8867.508083
832.759157	10344.019194
833.075849	12920.563007
833.392497	16064.400466
833.709101	18551.133602
834.025662	18928.214431
834.342179	17593.581553
834.658653	15522.065573
834.975083	13586.252414
835.291469	11932.075917
835.607811	10597.896743
835.924110	9683.076034
836.240366	8813.693765
836.556578	8010.632916
836.872746	7351.693615
837.188871	6830.594583
837.504952	6399.006279
837.820990	6081.506848
838.136984	5845.359037
838.452935	5727.572477
838.768842	5709.610846
839.084706	5983.849615
839.400526	6954.433048
839.716303	8457.044733
840.032037	9696.724958
840.347727	9931.768756
840.663373	9136.612437
840.978977	8098.817821
841.294537	7253.668378
841.610054	6645.329658
841.925527	6207.351692
842.240957	5842.629252
842.556344	5518.697309
842.871687	5236.148198
843.186987	4955.429025
843.502244	4722.767172
843.817458	4549.263260
844.132629	4410.611364
844.447756	4315.963701
844.762840	4233.608891
845.077881	4161.661543
845.392879	4099.554528
845.707833	4047.063513
846.022745	4004.521216
846.337613	3977.661948
846.652438	3932.019342
846.967221	3914.370262
847.281960	3882.328688
847.596656	3868.475597
847.911309	3847.073379
848.225919	3823.616890
848.540485	3804.266421
848.855009	3794.809216
849.169490	3776.696350
849.483928	3761.043568
849.798323	3753.658277
850.112675	3733.042479
850.426984	3739.147316
850.741251	3723.323134
851.055474	3722.635017
851.369654	3727.865214
851.683792	3722.370356
851.997887	3728.006366
852.311938	3728.107189
852.625947	3732.044330
852.939914	3723.187023
853.253837	3731.081470
853.567718	3732.803024
853.881555	3722.398082
854.195350	3733.211357
854.509103	3727.540059
854.822812	3732.029207
855.136479	3719.033112
855.450103	3730.872262
855.763685	3715.826938
856.077224	3718.680231
856.390720	3731.991398
856.704173	3750.497474
857.017584	3765.764608
857.330953	3774.974796
857.644278	3795.053712
857.957561	3802.509579
858.270802	3801.660144
858.584000	3809.645332
858.897155	3801.778611
859.210268	3787.887712
859.523339	3763.407869
859.836367	3765.575565
860.149352	3758.074328
860.462295	3747.404726
860.775195	3738.123962
861.088054	3736.445258
861.400869	3731.204978
861.713642	3731.333527
862.026373	3737.221595
862.339062	3738.615474
862.651708	3761.774535
862.964312	3791.340902
863.276873	3801.876914
863.589392	3850.400540
863.901869	3891.871592
864.214303	3940.062502
864.526696	3976.878049
864.839045	4017.275335
865.151353	4048.790109
865.463619	4054.658012
865.775842	4066.910536
866.088023	4080.168771
866.400162	4072.380188
866.712258	4078.926126
867.024313	4082.961570
867.336325	4085.020881
867.648296	4088.428701
867.960224	4088.504319
868.272110	4099.206688
868.583954	4097.142336
868.895755	4109.513327
869.207515	4101.598716
869.519233	4142.525323
869.830909	4155.743229
870.142542	4180.195345
870.454134	4192.256306
870.765684	4221.381572
871.077191	4253.188733
871.388657	4276.592289
871.700081	4310.211744
872.011463	4351.982745
872.322803	4382.537178
872.634101	4414.165378
872.945357	4456.649702
873.256571	4504.485211
873.567744	4535.508471
873.878874	4554.606883
874.189963	4590.174744
874.501010	4605.457002
874.812015	4599.359726
875.122979	4644.404956
875.433900	4643.868073
875.744780	4654.908200
876.055618	4678.601623
876.366415	4679.483825
876.677169	4694.209036
876.987882	4735.720417
877.298554	4779.936377
877.609183	4852.536554
877.919771	4944.532571
878.230317	5069.936314
878.540822	5256.345580
878.851285	5533.515781
879.161707	5924.646305
879.472087	6561.419653
879.782425	7585.996363
880.092722	9404.542202
880.402977	12263.083120
880.713191	15799.825588
881.023363	19529.142654
881.333494	22019.787726
881.643583	23494.864630
881.953631	23723.491039
882.263637	23063.488054
882.573602	21752.523393
882.883526	20316.815381
883.193408	18733.618330
883.503248	17116.461547
883.813048	15627.710514
884.122806	14252.947531
884.432522	12809.677787
884.742197	11578.595251
885.051831	10497.272792
885.361424	9496.634000
885.670975	8663.711877
885.980485	7968.564487
886.289954	7388.093266
886.599382	6918.101452
886.908768	6537.199429
887.218113	6176.283061
887.527417	5885.088370
887.836680	5619.895952
888.145901	5404.328652
888.455082	5241.716152
888.764221	5086.355352
889.073319	4955.232420
889.382376	4874.430286
889.691392	4812.996264
890.000366	4786.613386
890.309300	4760.084313
890.618193	4763.557668
890.927044	4747.998147
891.235855	4768.165283
891.544625	4786.454589
891.853353	4837.168597
892.162041	4929.469603
892.470687	5091.734263
892.779293	5305.854752
893.087858	5626.273011
893.396381	6116.300892
893.704864	6801.267670
894.013306	7831.021646
894.321707	8970.662693
894.630068	9861.006080
894.938387	10210.219409
895.246665	10101.580023
895.554903	9573.161236
895.863100	8917.281915
896.171256	8393.453098
896.479371	7898.704177
896.787446	7412.847852
897.095480	6987.525702
897.403473	6671.841087
897.711425	6364.486978
898.019336	6108.189675
898.327207	5838.210681
898.635038	5614.239777
898.942827	5369.890009
899.250576	5173.189227
899.558284	4976.813600
899.865952	4860.685580
900.173579	4715.427252
900.481165	4604.826857
900.788711	4511.000902
901.096216	4437.102628
901.403681	4372.414542
901.711105	4343.856405
902.018489	4322.623065
902.325832	4368.048902
902.633135	4459.003921
902.940397	4721.602666
903.247619	5331.365511
903.554800	6525.524117
903.861941	8297.703943
904.169041	9880.850582
904.476101	10725.803419
904.783121	10599.905643
905.090100	9974.185025
905.397039	9183.200260
905.703938	8449.409906
906.010796	7783.271837
906.317614	7245.496668
906.624391	6724.720270
906.931129	6313.546118
907.237826	5921.057003
907.544483	5556.561415
907.851099	5196.353329
908.157675	4848.612016
908.464211	4523.069424
908.770707	4280.942805
909.077163	4071.624015
909.383578	3922.640275
909.689954	3798.229639
909.996289	3723.187023
910.302584	3661.929442
910.608839	3624.219091
910.915054	3591.055860
911.221229	3574.898962
911.527363	3581.182760
911.833458	3592.908484
912.139513	3616.740539
912.445527	3634.470277
912.751502	3706.122717
913.057436	3795.817447
913.363331	3911.325405
913.669186	4086.029112
913.975000	4306.982885
914.280775	4663.765507
914.586510	5162.249923
914.892205	5851.685685
915.197859	6787.505320
915.503475	7928.628467
915.809050	8985.075352
916.114585	9707.152585
916.420081	10073.755375
916.725536	10124.348395
917.030952	9760.382128
917.336328	9398.066840
917.641665	9022.831074
917.946961	8570.979852
918.252218	8170.868512
918.557435	7683.668719
918.862612	7262.008967
919.167750	6910.239772
919.472848	6503.290108
919.777906	6145.332897
920.082925	5793.097395
920.387904	5427.946457
920.692843	5159.285725
920.997743	4911.190379
921.302603	4674.147764
921.607423	4509.884286
921.912204	4346.414791
922.216946	4231.967995
922.521647	4114.010037
922.826310	4011.576311
923.130932	3922.189092
923.435516	3823.611849
923.740059	3754.343874
924.044564	3678.078778
924.349028	3623.430150
924.653454	3563.558886
924.957840	3489.411075
925.262186	3446.964560
925.566493	3391.022875
925.870761	3331.983402
926.174989	3298.106848
926.479178	3260.300715
926.783328	3217.952502
927.087438	3193.742361
927.391509	3158.290446
927.695541	3132.686426
927.999533	3104.821448
928.303486	3084.046853
928.607400	3068.842733
928.911275	3056.839746
929.215110	3038.885676
929.518906	3029.773791
929.822663	3030.056095
930.126381	3026.923018
930.430060	3030.083822
930.733699	3030.466949
931.037299	3043.039587
931.340861	3041.713764
931.644383	3052.562327
931.947866	3048.940258
932.251309	3042.676624
932.554714	3045.378683
932.858080	3038.094215
933.161407	3030.353523
933.464694	3022.539735
933.767943	3017.133098
934.071153	3011.260153
934.374323	3002.158350
934.677455	2997.081908
934.980548	2988.156545
935.283602	2985.716627
935.586617	2979.195894
935.889593	2985.025989
936.192530	2989.983963
936.495428	3002.143227
936.798287	3021.168541
937.101108	3048.317675
937.403890	3093.340220
937.706632	3145.453148
938.009336	3218.388562
938.312002	3288.243831
938.614628	3355.202957
938.917216	3412.039446
939.219765	3445.321143
939.522275	3479.971514
939.824747	3483.283553
940.127179	3483.122236
940.429573	3479.409426
940.731929	3482.729026
941.034246	3468.626398
941.336524	3457.639203
941.638763	3444.519600
941.940964	3431.173145
942.243126	3391.431209
942.545250	3374.503014
942.847335	3336.061696
943.149381	3303.770585
943.451389	3273.289248
943.753359	3236.519072
944.055290	3211.842624
944.357182	3187.929910
944.659036	3169.537261
944.960851	3160.962258
945.262628	3145.546409
945.564367	3149.637306
945.866067	3142.458703
946.167729	3140.245636
946.469352	3134.884369
946.770937	3132.424286
947.072484	3116.665639
947.373992	3120.479272
947.675462	3114.502984
947.976893	3096.415324
948.278286	3090.809561
948.579641	3089.120774
948.880958	3077.541244
949.182236	3080.497881
949.483476	3075.129052
949.784678	3074.115780
950.085841	3074.965214
950.386967	3084.137594
950.688054	3095.855756
950.989103	3115.405351
951.290114	3130.793473
951.591087	3156.846156
951.892021	3184.237265
952.192917	3212.891184
952.493776	3239.831110
952.794596	3247.967532
953.095378	3255.362905
953.396122	3248.758993
953.696828	3248.128849
953.997496	3236.599730
954.298126	3215.192470
954.598718	3199.307795
954.899272	3172.904751
955.199788	3151.961278
955.500266	3121.482462
955.800706	3088.404931
956.101108	3050.051832
956.401472	3022.391021
956.701798	2988.403562
957.002087	2951.368725
957.302337	2924.360743
957.602550	2895.704304
957.902724	2866.213554
958.202861	2843.273784
958.502960	2823.772080
958.803022	2801.527989
959.103045	2780.889505
959.403031	2763.631115
959.702979	2750.836666
960.002889	2737.885942
960.302762	2727.934704
960.602596	2716.642520
960.902393	2705.872094
961.202153	2699.469829
961.501875	2690.690660
961.801559	2682.821418
962.101205	2677.361849
962.400814	2671.887156
962.700385	2665.739469
962.999918	2661.111689
963.299414	2653.839825
963.598873	2653.610453
963.898293	2645.809267
964.197677	2648.105512
964.497022	2647.351860
964.796331	2641.675521
965.095601	2636.644449
965.394835	2637.826600
965.694030	2635.752165
965.993189	2634.819552
966.292309	2632.856022
966.591393	2633.183697
966.890439	2632.293933
967.189447	2630.237143
967.488419	2630.143881
967.787353	2633.647483
968.086249	2632.616567
968.385108	2634.927936
968.683930	2633.375261
968.982714	2640.526138
969.281462	2644.178454
969.580172	2647.566109
969.878844	2655.493323
970.177480	2660.564724
970.476078	2668.517144
970.774639	2674.712722
971.073162	2682.173630
971.371649	2689.717717
971.670098	2696.077132
971.968510	2699.464788
972.266885	2705.229347
972.565223	2709.332847
972.863524	2711.011551
973.161788	2712.102961
973.460014	2716.193857
973.758204	2719.815926
974.056356	2723.130485
974.354471	2722.850701
974.652550	2723.720300
974.950591	2722.565875
975.248595	2722.838098
975.546563	2717.242417
975.844493	2717.585215
976.142386	2709.756303
976.440243	2705.597352
976.738062	2703.457382
977.035845	2696.271217
977.333590	2691.615711
977.631299	2686.130936
977.928971	2678.322189
978.226606	2674.881601
978.524204	2669.411949
978.821765	2665.646207
979.119290	2665.053872
979.416777	2666.692247
979.714228	2668.955725
980.011642	2672.396312
980.309020	2677.772703
980.606360	2689.004394
980.903664	2706.759337
981.200931	2736.572721
981.498162	2777.191818
981.795356	2842.467199
982.092513	2925.215219
982.389633	3021.642410
982.686717	3115.982563
982.983764	3193.434850
983.280775	3251.304776
983.577749	3263.940428
983.874686	3258.770725
984.171587	3229.645458
984.468451	3197.651776
984.765279	3159.485200
985.062070	3115.233951
985.358824	3071.804411
985.655543	3024.866227
985.952224	2972.261787
986.248869	2910.421953
986.545478	2856.693335
986.842050	2795.047585
987.138586	2755.232552
987.435086	2717.819629
987.731549	2686.078004
988.027975	2658.994405
988.324366	2641.892290
988.620719	2625.238839
988.917037	2614.670060
989.213318	2608.366097
989.509563	2598.059458
989.805772	2592.173911
990.101944	2589.852459
990.398080	2587.399938
990.694180	2584.284505
990.990244	2585.897674
991.286271	2586.585792
991.582262	2585.312900
991.878217	2586.595874
992.174136	2589.580237
992.470019	2593.658530
992.765865	2594.152563
993.061676	2596.925198
993.357450	2603.269490
993.653188	2612.767024
993.948890	2630.131278
994.244556	2647.306490
994.540186	2664.257369
994.835780	2692.316432
995.131337	2727.049982
995.426859	2763.971392
995.722345	2807.607620
996.017795	2858.392204
996.313208	2892.717421
996.608586	2926.921649
996.903928	2943.849844
997.199234	2945.485698
997.494504	2944.747169
997.789738	2934.589244
998.084936	2913.464289
998.380099	2886.819271
998.675225	2858.964375
998.970316	2828.911536
999.265371	2792.995836
999.560390	2762.632966
999.855373	2729.610888
1000.150320	2702.076106
1000.445232	2677.321520
1000.740108	2657.361071
1001.034948	2634.426342
1001.329752	2622.662809
1001.624521	2610.533793
1001.919254	2595.604416
1002.213951	2592.342789
1002.508613	2580.496078
1002.803239	2572.964594
1003.097829	2571.971487
1003.392384	2566.763975
1003.686903	2560.752399
1003.981386	2555.839794
1004.275834	2553.707386
1004.570246	2550.087838
1004.864623	2550.788558
1005.158964	2548.794782
1005.453270	2544.998793
1005.747540	2542.241282
1006.041775	2540.050900
1006.335974	2540.862526
1006.630138	2539.539223
1006.924266	2538.478060
1007.218359	2535.791125
1007.512416	2535.390354
1007.806438	2530.681916
1008.100425	2531.541433
1008.394376	2528.294930
1008.688292	2533.202493
1008.982172	2534.195600
1009.276017	2533.250384
1009.569827	2534.611495
1009.863602	2535.206352
1010.157341	2532.869777
1010.451045	2530.069416
1010.744714	2529.202337
1011.038347	2530.112266
1011.331945	2524.635052
1011.625508	2528.317615
1011.919036	2526.825433
1012.212528	2521.713703
1012.505986	2521.078518
1012.799408	2525.192099
1013.092795	2523.909126
1013.386147	2524.791328
1013.679464	2523.536080
1013.972745	2522.038858
1014.265992	2526.149919
1014.559204	2523.546163
1014.852380	2520.619773
1015.145521	2520.662623
1015.438628	2523.513395
1015.731699	2525.008097
1016.024736	2523.311749
1016.317737	2525.171935
1016.610703	2526.160001
1016.903635	2525.769312
1017.196531	2528.577234
1017.489393	2526.505320
1017.782219	2531.067564
1018.075011	2530.697039
1018.367768	2531.062523
1018.660490	2532.224509
1018.953177	2532.224509
1019.245829	2532.224509
