Dividing Wavelength (nm)	Counts (n)	Blue Motor Position (mm): 35.500000	Red Motor Position (mm): 0.000000	
326.493990	2067.374672
326.888308	2067.374672
327.282561	2067.374672
327.676750	2039.855013
328.070874	2042.272246
328.464933	2050.176775
328.858929	2058.378733
329.252859	2069.378530
329.646726	2080.184244
330.040528	2098.418097
330.434265	2112.951744
330.827938	2136.607358
331.221547	2155.481438
331.615091	2175.046156
332.008571	2200.098170
332.401986	2218.117775
332.795338	2237.017060
333.188625	2255.606315
333.581847	2275.765889
333.975006	2294.123251
334.368100	2310.204532
334.761129	2328.093066
335.154095	2342.200735
335.546996	2395.090001
335.939833	2499.787205
336.332606	2506.612927
336.725315	2521.476769
337.117960	2532.889941
337.510540	2542.069883
337.903056	2551.741336
338.295508	2558.277192
338.687896	2565.798594
339.080220	2568.535940
339.472480	2574.882753
339.864676	2579.964236
340.256807	2580.201170
340.648875	2582.731829
341.040879	2584.014803
341.432818	2584.574371
341.824694	2587.089907
342.216506	2585.423806
342.608253	2586.600915
342.999937	2584.995307
343.391557	2582.487333
343.783113	2585.678384
344.174605	2581.133784
344.566033	2580.049936
344.957397	2580.430543
345.348697	2578.414081
345.739934	2577.272260
346.131106	2571.364027
346.522215	2570.360838
346.913260	2570.781774
347.304241	2569.108111
347.695159	2567.174829
348.086012	2566.174160
348.476802	2565.624674
348.867528	2560.568397
349.258191	2555.708724
349.648789	2557.425237
350.039324	2554.697973
350.429796	2557.344579
350.820203	2558.146122
351.210548	2560.482697
351.600828	2555.625545
351.991045	2557.001780
352.381198	2556.661502
352.771288	2557.594116
353.161314	2553.846018
353.551276	2555.522202
353.941175	2552.701676
354.331010	2553.299053
354.720782	2557.122768
355.110490	2559.658468
355.500135	2556.346430
355.889717	2557.016904
356.279235	2555.360885
356.668689	2556.364074
357.058080	2555.859959
357.447408	2554.284598
357.836672	2558.067984
358.225873	2556.643858
358.615010	2557.042109
359.004084	2557.591595
359.393095	2556.984136
359.782043	2561.246432
360.170927	2562.363047
360.559748	2559.897923
360.948505	2561.813562
361.337199	2564.039231
361.725830	2564.157698
362.114398	2561.863973
362.502903	2566.312791
362.891344	2563.933367
363.279722	2559.734086
363.668037	2564.742472
364.056289	2562.874724
364.444478	2563.870352
364.832603	2566.423697
365.220665	2563.429251
365.608665	2565.944787
365.996601	2568.661969
366.384474	2563.749365
366.772284	2566.932853
367.160031	2565.417987
367.547715	2571.283369
367.935336	2566.761454
368.322893	2568.654407
368.710388	2562.375650
369.097820	2564.540826
369.485189	2565.370096
369.872495	2569.110632
370.259738	2572.067268
370.646918	2567.263049
371.034035	2568.402350
371.421090	2570.577607
371.808081	2568.561146
372.195010	2569.992834
372.581875	2572.505849
372.968678	2573.521641
373.355418	2573.753534
373.742096	2573.292269
374.128710	2574.938206
374.515262	2572.304203
374.901751	2576.500963
375.288177	2573.196487
375.674540	2574.222362
376.060841	2574.227403
376.447079	2576.952147
376.833254	2577.269739
377.219367	2576.735377
377.605417	2578.824935
377.991404	2575.316292
378.377329	2576.453072
378.763191	2576.997517
379.148991	2577.524317
379.534727	2581.048084
379.920402	2581.204360
380.306013	2581.032961
380.691563	2580.322158
381.077049	2582.353743
381.462474	2577.083217
381.847835	2581.650502
382.233134	2581.776531
382.618371	2582.815008
383.003545	2584.924731
383.388657	2579.208063
383.773706	2582.358784
384.158693	2583.114957
384.543618	2584.619742
384.928480	2584.191243
385.313280	2582.953640
385.698017	2585.161666
386.082692	2584.672674
386.467305	2588.559403
386.851856	2589.560072
387.236344	2584.450863
387.620770	2586.938672
388.005133	2585.317941
388.389435	2586.205184
388.773674	2582.023547
389.157851	2589.010587
389.541965	2589.005545
389.926018	2587.354567
390.310008	2589.239959
390.693936	2591.695001
391.077802	2591.904209
391.461606	2593.751792
391.845348	2591.921853
392.229027	2592.052923
392.612645	2594.187852
392.996200	2592.975454
393.379694	2591.952100
393.763125	2593.083839
394.146494	2596.448809
394.529801	2595.864035
394.913047	2595.997626
395.296230	2595.828747
395.679351	2599.188676
396.062410	2596.826896
396.445408	2601.696650
396.828343	2599.859150
397.211217	2597.933429
397.594028	2600.587596
397.976778	2598.112390
398.359466	2599.292020
398.742092	2600.839654
399.124656	2601.308481
399.507158	2604.519696
399.889598	2605.545571
400.271977	2605.076744
400.654294	2604.227309
401.036549	2607.660335
401.418742	2607.597321
401.800874	2607.995572
402.182944	2607.017588
402.564952	2609.205449
402.946898	2612.078907
403.328783	2612.784668
403.710606	2613.762652
404.092367	2615.075872
404.474067	2613.135028
404.855705	2616.550410
405.237282	2620.911008
405.618797	2623.323200
406.000250	2626.254631
406.381642	2629.911988
406.762972	2630.088429
407.144240	2631.396608
407.525447	2638.756693
407.906593	2638.267701
408.287677	2649.214566
408.668700	2657.119096
409.049661	2663.357523
409.430560	2671.632578
409.811399	2679.912673
410.192176	2688.248221
410.572891	2700.483101
410.953545	2711.253526
411.334138	2720.589743
411.714669	2740.114132
412.095139	2746.607138
412.475547	2764.198244
412.855894	2779.639299
413.236180	2801.258287
413.616405	2815.113898
413.996568	2840.296982
414.376670	2859.554190
414.756711	2879.297869
415.136691	2910.162333
415.516609	2940.207610
415.896466	2967.618884
416.276262	3000.759430
416.655997	3042.071686
417.035670	3086.111206
417.415283	3138.748413
417.794834	3180.322809
418.174324	3202.823999
418.553753	3233.922877
418.933121	3301.708753
419.312428	3338.221830
419.691674	3359.074563
420.070859	3446.538582
420.449983	3458.498720
420.829045	3546.232441
421.208047	3566.386974
421.586988	3652.416785
421.965867	3715.653018
422.344686	3787.784368
422.723444	3884.793812
423.102141	3813.869819
423.480777	3985.087568
423.859352	3970.473263
424.237866	4150.815501
424.616319	4202.807441
424.994712	4321.738343
425.373044	4341.839943
425.751314	4523.470196
426.129524	4468.390549
426.507673	4639.313391
426.885762	4718.512438
427.263789	4797.252741
427.641756	4901.632352
428.019662	5002.286550
428.397508	5084.979117
428.775292	5133.669102
429.153016	5286.274911
429.530679	5315.095187
429.908282	5410.120937
430.285824	5434.749494
430.663305	5656.688813
431.040726	5657.344163
431.418086	5722.183484
431.795385	5859.622982
432.172624	6047.196755
432.549802	6041.283481
432.926920	6184.046438
433.303977	6215.503237
433.680974	6299.768645
434.057910	6495.930023
434.434786	6595.376865
434.811601	6624.802080
435.188355	6928.793739
435.565050	6907.693990
435.941683	6978.688559
436.318257	7287.807072
436.694770	7304.881460
437.071222	7542.586988
437.447614	7425.367558
437.823946	7452.022659
438.200218	7636.052500
438.576429	7585.950993
438.952580	7772.440918
439.328670	7833.459044
439.704700	7940.767565
440.080670	7901.965804
440.456580	8177.870675
440.832429	8204.654325
441.208218	8022.764453
441.583947	8158.510123
441.959616	8308.492012
442.335224	8373.999286
442.710773	8484.899629
443.086261	8684.577212
443.461689	8470.912948
443.837057	8654.131164
444.212365	8878.275987
444.587612	8894.735354
444.962800	8828.139192
445.337927	8981.042429
445.712995	8584.195236
446.088002	9224.968740
446.462949	9315.706989
446.837837	9320.218821
447.212664	9368.140030
447.587431	10184.239823
447.962139	11169.513178
448.336786	12061.678941
448.711374	11871.821526
449.085901	10734.393545
449.460369	10677.700729
449.834776	10492.196350
450.209124	11395.382076
450.583412	11240.016235
450.957640	11551.451158
451.331808	11157.807618
451.705917	10631.412854
452.079965	10521.245999
452.453954	10733.934800
452.827883	10688.478716
453.201752	10660.475106
453.575562	10677.161326
453.949311	11014.780002
454.323001	11095.161200
454.696632	11021.300734
455.070202	11609.288316
455.443713	11665.782006
455.817164	11840.256341
456.190556	12154.400884
456.563888	12025.017150
456.937160	12274.675253
457.310373	11781.138730
457.683526	11789.706171
458.056619	11815.010243
458.429653	11882.511293
458.802628	12026.887418
459.175542	12080.825244
459.548398	12625.998306
459.921194	13199.051469
460.293930	13486.719872
460.666607	14338.264018
461.039224	15136.613909
461.411782	15469.539271
461.784280	15130.544360
462.156719	15067.446758
462.529099	14975.319671
462.901419	14342.299462
463.273680	13948.000573
463.645882	14160.442357
464.018024	14043.404409
464.390106	14426.862297
464.762130	15490.848228
465.134094	17039.520936
465.505999	19340.986628
465.877845	21581.779513
466.249631	22781.939612
466.621358	22278.003188
466.993026	21457.812498
467.364634	20699.673372
467.736184	19917.651778
468.107674	19318.603905
468.479105	19169.741152
468.850477	18893.551457
469.221790	18469.371128
469.593043	17802.101320
469.964238	17422.119308
470.335373	17474.577554
470.706449	18213.648517
471.077467	19083.812165
471.448425	21538.786032
471.819324	23391.987283
472.190164	23287.847127
472.560945	21536.124303
472.931667	19984.777262
473.302330	19650.495830
473.672934	19106.938458
474.043479	19532.064003
474.413965	19319.062650
474.784393	19141.165372
475.154761	19815.702003
475.525070	19934.489232
475.895321	19762.328787
476.265513	20300.615633
476.635645	20883.491485
477.005719	20942.238571
477.375734	21309.002678
477.745691	21929.493099
478.115588	22562.203277
478.485427	23750.763681
478.855207	25567.414046
479.224928	27365.906174
479.594591	28778.374468
479.964194	28398.352126
480.333739	28826.754421
480.703226	29038.805517
481.072653	29483.818413
481.442022	29997.882515
481.811333	30399.231458
482.180584	29956.857605
482.549777	29733.993235
482.918912	29500.890281
483.287988	29433.575754
483.657005	29289.544947
484.025964	28911.997812
484.394864	29095.155534
484.763706	29022.804894
485.132489	28482.370517
485.501213	28560.843638
485.869879	28726.876561
486.238487	28653.147165
486.607036	28931.557489
486.975527	28600.096582
487.343959	28964.950092
487.712333	29295.816143
488.080648	29255.103784
488.448905	29673.040644
488.817104	29555.548992
489.185244	30376.364784
489.553326	31329.543633
489.921350	33222.449011
490.289315	35714.505606
490.657222	36627.708105
491.025070	37170.421084
491.392861	36893.250884
491.760593	36098.412157
492.128267	35103.202688
492.495883	34077.774023
492.863440	33191.266954
493.230939	32228.096538
493.598380	31674.114060
493.965763	31516.000790
494.333088	31013.796003
494.700354	30819.666209
495.067563	30768.324578
495.434713	30659.639822
495.801805	30941.165579
496.168839	30754.985685
496.535815	30623.824944
496.902733	30737.747459
497.269593	30564.356973
497.636395	30717.192155
498.003139	30966.663735
498.369825	30715.042103
498.736453	31112.007762
499.103023	30950.161518
499.469535	31037.696113
499.835989	31150.872538
500.202385	31008.351557
500.568723	31059.226881
500.935003	31343.749604
501.301226	31196.031194
501.667390	31923.875507
502.033497	32115.633437
502.399546	31925.065219
502.765537	31524.606040
503.131470	31979.050936
503.497345	32395.412435
503.863163	31358.666379
504.228923	32111.696296
504.594625	32490.889368
504.960269	31978.521614
505.325856	32632.525626
505.691385	32287.456125
506.056856	32602.334156
506.422270	33080.147320
506.787625	32612.008130
507.152924	33045.345715
507.518164	33218.264853
507.883347	32803.889569
508.248472	32920.292332
508.613540	33598.589664
508.978550	33801.947290
509.343503	33635.332114
509.708398	33996.220756
510.073236	34588.982311
510.438016	34689.502918
510.802738	34360.731467
511.167403	34886.470881
511.532010	35122.820338
511.896561	35624.503366
512.261053	36356.390684
512.625488	36136.218290
512.989866	36065.211118
513.354186	36112.328262
513.718449	36071.923414
514.082655	36903.242451
514.446803	36620.441282
514.810894	37218.075111
515.174927	37218.828764
515.538904	37228.291010
515.902822	37849.250258
516.266684	37535.647639
516.630488	37874.642550
516.994235	37888.893892
517.357925	38450.299469
517.721558	38692.100934
518.085133	39056.001666
518.448651	39246.058207
518.812112	39143.818566
519.175516	39289.916245
519.538863	39724.539324
519.902152	39800.927928
520.265385	40330.581798
520.628560	40329.255975
520.991678	40280.200507
521.354739	40487.971663
521.717743	40848.681344
522.080690	40761.091296
522.443580	41424.255084
522.806413	41435.985849
523.169189	41569.954513
523.531908	41787.991978
523.894569	41650.842347
524.257174	41837.047446
524.619722	42166.438959
524.982213	42313.948162
525.344647	42349.140457
525.707025	42488.130110
526.069345	42914.692383
526.431608	42812.949296
526.793815	43197.959859
527.155964	42761.214455
527.518057	42996.706915
527.880093	42854.591747
528.242072	43488.612625
528.603995	43205.708113
528.965860	43143.868278
529.327669	43352.113303
529.689421	43409.365687
530.051117	43376.809915
530.412755	43634.049914
530.774337	43698.899317
531.135862	43634.009585
531.497331	43791.260817
531.858743	43778.849496
532.220098	44179.051577
532.581396	43901.354576
532.942638	43683.087738
533.303824	43911.199949
533.664953	43986.179551
534.026025	43656.977082
534.387040	44218.216301
534.747999	44290.710614
535.108902	44627.500020
535.469748	43944.219507
535.830537	44206.573756
536.191270	44450.857989
536.551947	44210.621803
536.912567	44491.308208
537.273131	44598.135299
537.633638	44235.076440
537.994089	44416.119398
538.354483	44188.223956
538.714821	44814.829297
539.075103	45078.385861
539.435328	44972.902237
539.795497	44722.593826
540.155609	44869.296444
540.515665	45420.024857
540.875665	44721.966202
541.235609	45002.168656
541.595496	45143.580583
541.955328	45728.641775
542.315102	45157.768911
542.674821	45053.633796
543.034483	44957.670391
543.394090	44972.904758
543.753640	44966.164735
544.113134	46017.522576
544.472571	45130.670188
544.831953	46227.768938
545.191278	45489.471793
545.550548	45193.525815
545.909761	45834.543815
546.268918	45959.035109
546.628019	46368.417130
546.987064	45803.591130
547.346053	45133.846115
547.704986	46031.731068
548.063863	45678.129414
548.422684	45868.609412
548.781449	45455.123891
549.140158	45972.663868
549.498811	45735.270893
549.857408	45154.812274
550.215949	45980.656618
550.574434	45812.471122
550.932864	45754.407113
551.291237	46464.103272
551.649555	46221.785088
552.007817	46389.171561
552.366022	46084.380879
552.724173	46157.757393
553.082267	46543.415745
553.440305	46922.669311
553.798288	46188.185798
554.156215	46550.463278
554.514086	46765.816329
554.871902	46363.567540
555.229661	46516.432969
555.587365	46216.832155
555.945014	46348.239912
556.302606	46367.539970
556.660143	46447.477546
557.017625	46683.736262
557.375050	46364.147273
557.732421	46750.566839
558.089735	46818.342632
558.446994	46684.956222
558.804197	47174.855552
559.161345	47023.600772
559.518437	46395.500729
559.875474	46631.532594
560.232455	46859.937192
560.589381	46882.524082
560.946251	46724.705720
561.303065	47350.605299
561.659825	47035.084521
562.016528	46867.425826
562.373177	46453.216900
562.729770	47085.244002
563.086307	46590.195132
563.442789	47145.553846
563.799216	46972.647310
564.155587	46900.135353
564.511904	46848.019904
564.868164	46900.710044
565.224370	47213.369968
565.580520	46939.847042
565.936615	47132.416599
566.292654	46785.224772
566.648638	47145.148033
567.004567	47096.049715
567.360441	47175.795728
567.716260	46895.129487
568.072023	47287.114487
568.427732	47200.356229
568.783385	46732.592605
569.138982	47150.237077
569.494525	47304.866910
569.850013	46901.388080
570.205445	47029.456073
570.560823	46806.357288
570.916145	46670.193202
571.271412	46897.279539
571.626625	46539.551701
571.981782	46619.905172
572.336884	46237.165649
572.691931	46559.189515
573.046923	46219.781230
573.401860	46053.841569
573.756743	46073.771770
574.111570	46217.580766
574.466342	46131.810575
574.821059	46299.197047
575.175722	45790.037988
575.530330	45872.697788
575.884882	45521.916659
576.239380	45428.730930
576.593823	45523.192071
576.948211	45446.470750
577.302544	45003.723852
577.656823	44997.024159
578.011047	45263.784376
578.365216	45120.827335
578.719330	44822.963199
579.073389	44791.329958
579.427394	44862.359816
579.781344	44772.344973
580.135239	44531.037541
580.489080	44590.495430
580.842866	44084.741671
581.196597	44568.440382
581.550273	44562.232201
581.903895	44500.480587
582.257463	44932.648624
582.610975	44382.142021
582.964434	44705.786619
583.317837	44206.631729
583.671186	44162.115820
584.024481	44436.190752
584.377721	44029.102456
584.730906	44224.379112
585.084037	44384.468514
585.437113	44085.855766
585.790135	44207.778592
586.143103	43780.482830
586.496016	43959.673164
586.848874	44063.967076
587.201679	44100.661634
587.554428	43590.796814
587.907124	43868.153537
588.259765	43638.541582
588.612352	43792.937001
588.964884	43265.402936
589.317362	43547.369794
589.669786	43546.979105
590.022155	43431.375365
590.374470	43908.969239
590.726731	43497.676620
591.078937	42839.044829
591.431090	43185.241028
591.783188	42701.602810
592.135232	42512.388142
592.487222	42771.004375
592.839157	42903.531269
593.191038	42562.461923
593.542866	42379.054664
593.894639	41753.674323
594.246358	42057.950808
594.598022	42065.245358
594.949633	41643.449495
595.301190	41653.567090
595.652692	41601.663370
596.004141	42095.729215
596.355535	40999.230362
596.706876	41003.147339
597.058162	40711.473739
597.409395	41217.603065
597.760573	41448.364402
598.111698	41062.403582
598.462768	40972.567700
598.813785	40998.237255
599.164748	40613.173760
599.515657	40873.014993
599.866511	40378.412266
600.217312	41068.878944
600.568060	40032.518536
600.918753	40841.154901
601.269392	40755.914031
601.619978	40487.386889
601.970510	40690.492457
602.320988	40845.371826
602.671412	41083.301685
603.021783	40939.585951
603.372100	40538.294981
603.722363	40631.757973
604.072572	40675.532833
604.422728	40669.347337
604.772830	40463.925359
605.122878	40638.258541
605.472872	40495.540955
605.822813	40734.237069
606.172701	40480.793060
606.522534	40819.843423
606.872314	41006.587926
607.222041	40852.134534
607.571714	41185.072499
607.921333	40673.269355
608.270899	40878.086394
608.620411	41254.398447
608.969870	41017.691068
609.319276	41018.321212
609.668627	41072.289284
610.017926	41459.223048
610.367171	41607.279216
610.716362	41637.168217
611.065500	41557.815414
611.414585	41785.607513
611.763616	41951.501803
612.112594	41845.743437
612.461518	41974.938128
612.810389	42343.630476
613.159207	42129.121818
613.507971	42108.082562
613.856682	42603.895167
614.205340	42454.440078
614.553945	43136.813184
614.902496	42473.929179
615.250994	42895.543561
615.599439	42969.285559
615.947830	43072.858585
616.296169	43093.134106
616.644454	43121.036893
616.992686	43277.670584
617.340864	43711.010689
617.688990	43221.635638
618.037063	43906.322633
618.385082	43727.051641
618.733048	44058.346189
619.080961	43968.603568
619.428821	43988.279192
619.776628	44035.534968
620.124382	43862.343607
620.472083	43973.584228
620.819731	44076.930403
621.167326	43663.699460
621.514868	43656.684695
621.862357	43106.641878
622.209793	43214.502406
622.557176	42793.911378
622.904506	42539.214642
623.251783	42182.868080
623.599007	41882.233829
623.946179	41796.032619
624.293297	41531.140149
624.640363	40988.144865
624.987376	40848.058761
625.334336	40664.107058
625.681243	40254.682186
626.028097	40144.447275
626.374899	39982.963994
626.721647	39958.360642
627.068343	39723.193336
627.414987	39433.901682
627.761577	39198.517606
628.108115	39497.213533
628.454600	38745.580015
628.801032	38995.107048
629.147412	38907.753934
629.493739	38787.345974
629.840014	38346.691155
630.186236	38757.676263
630.532405	38202.952735
630.878521	38457.392373
631.224585	38232.020028
631.570597	37907.662108
631.916556	38065.114986
632.262462	37957.393090
632.608316	37920.713655
632.954117	37773.965667
633.299866	37730.152998
633.645562	37659.155908
633.991206	37153.054309
634.336797	36737.143993
634.682336	36634.634650
635.027823	36392.860912
635.373257	36300.350698
635.718639	35955.273635
636.063968	35850.021904
636.409245	35214.284513
636.754470	35161.299466
637.099642	34930.593580
637.444762	34373.225967
637.789829	34492.933206
638.134845	34107.930205
638.479808	34023.848800
638.824719	33965.373936
639.169577	33465.230980
639.514383	33586.879064
639.859137	33194.949517
640.203839	33363.066957
640.548489	33077.916610
640.893086	33047.339491
641.237632	32777.756227
641.582125	32868.446585
641.926566	32647.996928
642.270955	32667.329752
642.615292	32617.750004
642.959576	32499.353465
643.303809	32491.285098
643.647990	32601.174691
643.992118	32582.751794
644.336195	32399.246232
644.680219	32456.216312
645.024192	32659.692404
645.368112	33173.307843
645.711981	33198.117882
646.055797	33881.010226
646.399562	33686.318344
646.743274	34542.739806
647.086935	34939.302174
647.430544	34941.895847
647.774101	34970.675795
648.117606	35276.273061
648.461059	35427.288387
648.804460	35033.279364
649.147810	34538.956420
649.491108	34223.594439
649.834354	34129.347547
650.177548	33310.039059
650.520690	32795.206182
650.863781	32786.285860
651.206820	32593.963320
651.549807	32164.590603
651.892742	31578.319534
652.235626	31514.924504
652.578458	31373.149614
652.921238	30659.468423
653.263967	30956.026900
653.606644	30637.544444
653.949269	30556.018904
654.291843	30155.158953
654.634365	30520.892144
654.976836	30071.271633
655.319255	30143.002211
655.661622	30016.260042
656.003938	29892.005682
656.346203	29698.770693
656.688416	29946.477869
657.030577	29746.843136
657.372687	29563.612317
657.714746	29695.733398
658.056753	29884.315401
658.398708	29251.842158
658.740612	29324.714557
659.082465	29548.655214
659.424266	29415.631767
659.766016	29424.297510
660.107715	29261.417829
660.449362	29358.626399
660.790958	29342.288019
661.132503	29253.750234
661.473996	29346.991416
661.815438	29432.257492
662.156829	29542.028617
662.498168	29339.031434
662.839456	29321.132817
663.180693	29438.390056
663.521879	29511.441416
663.863013	29459.031060
664.204097	29431.725650
664.545129	29843.976088
664.886110	29771.874985
665.227040	29879.012107
665.567918	29884.010412
665.908746	29945.386460
666.249522	30022.526196
666.590248	30065.658308
666.930922	30164.835448
667.271545	30168.094554
667.612118	30226.856764
667.952639	30044.707273
668.293109	30077.051316
668.633528	29930.963718
668.973896	29894.294365
669.314213	29869.673370
669.654480	29685.514979
669.994695	29655.414249
670.334859	29593.012326
670.674973	29386.093126
671.015035	29587.487222
671.355047	29508.315901
671.695008	29422.023950
672.034918	29329.251595
672.374777	29434.500805
672.714585	29322.929988
673.054342	29447.706108
673.394049	29300.441401
673.733705	29513.241108
674.073310	29233.101668
674.412864	29287.856161
674.752368	29017.632670
675.091820	29252.920964
675.431223	28846.614047
675.770574	28658.858792
676.109875	28491.953750
676.449125	28289.130487
676.788324	28197.416775
677.127473	27715.386685
677.466571	27616.494370
677.805619	27327.265730
678.144616	27250.630109
678.483562	27213.355818
678.822458	26890.921097
679.161303	26843.425866
679.500098	26751.243327
679.838842	26654.911918
680.177535	26724.275675
680.516179	26943.084437
680.854771	27022.701900
681.193314	27705.301857
681.531805	28648.325301
681.870247	29407.366795
682.208638	30205.900688
682.546978	30563.086602
682.885268	30734.684958
683.223508	30334.306438
683.561697	30079.077860
683.899836	29902.181251
684.237925	29511.212043
684.575963	29329.022223
684.913951	28949.990468
685.251889	29085.892414
685.589776	29092.244268
685.927614	29090.898280
686.265401	29252.215203
686.603137	29354.885863
686.940824	29841.538690
687.278460	30142.714865
687.616046	30349.412255
687.953582	31004.724447
688.291068	30954.774174
688.628504	31310.906487
688.965889	31337.632164
689.303224	31085.859297
689.640510	30829.115852
689.977745	30228.331302
690.314930	29489.502314
690.652065	29088.468444
690.989150	28409.576255
691.326185	27573.067351
691.663170	26953.723792
692.000105	26262.357268
692.336990	25647.139894
692.673825	25230.775874
693.010610	24740.546348
693.347345	24225.090888
693.684030	23598.437656
694.020665	23411.141147
694.357251	22744.483839
694.693786	22747.258994
695.030272	22514.894569
695.366707	22011.694154
695.703093	21731.088407
696.039429	21796.386473
696.375716	21563.278478
696.711952	21547.156868
697.048139	21415.398751
697.384276	21240.558932
697.720363	21362.111234
698.056400	21272.532451
698.392388	21108.276535
698.728326	21085.195612
699.064214	20950.044798
699.400053	20965.150615
699.735842	20579.845145
700.071581	20393.844212
700.407270	20160.428706
700.742910	19986.319855
701.078501	19738.146372
701.414042	19533.621719
701.749533	19232.168281
702.084974	18929.260470
702.420366	19154.605088
702.755709	18751.053161
703.091002	18446.529660
703.426246	18499.610489
703.761440	18443.615873
704.096584	18203.636785
704.431679	18142.263258
704.766725	18088.103622
705.101721	17999.530548
705.436668	18106.710520
705.771565	17830.679621
706.106413	18137.441394
706.441212	18216.905102
706.775961	18302.627403
707.110661	18384.100011
707.445311	18727.659687
707.779913	18621.540877
708.114465	18899.063958
708.448967	19216.540704
708.783421	19808.397372
709.117825	20155.954682
709.452180	20380.762417
709.786485	20806.659259
710.120742	21544.905993
710.454949	21642.979120
710.789107	22147.812869
711.123216	22857.284697
711.457275	23083.846754
711.791286	23652.332632
712.125247	23818.458816
712.459159	23594.092182
712.793023	24360.763461
713.126837	23374.078584
713.460602	23641.317711
713.794318	23310.814623
714.127985	23049.622360
714.461602	22173.318587
714.795171	22148.546357
715.128691	21180.725477
715.462162	20668.347642
715.795584	20239.219420
716.128957	19964.302616
716.462281	19604.361711
716.795556	19319.140788
717.128782	18849.164097
717.461960	18258.804652
717.795088	18215.949804
718.128167	17879.147795
718.461198	17428.579546
718.794180	17308.297615
719.127113	16987.712998
719.459997	16793.316024
719.792833	16437.947445
720.125619	16467.617156
720.458357	16135.959644
720.791046	15997.143912
721.123686	15838.249263
721.456278	15613.071003
721.788821	15607.039262
722.121315	15346.411608
722.453761	15442.294355
722.786158	15324.099462
723.118506	15413.700930
723.450805	15297.807324
723.783056	15475.560929
724.115259	15354.878226
724.447412	15335.966338
724.779518	15550.112033
725.111574	15599.633807
725.443582	15851.033629
725.775542	15799.775177
726.107453	16302.544573
726.439315	16214.793208
726.771129	16596.549707
727.102895	17009.049682
727.434612	17294.479813
727.766281	17468.061863
728.097901	17794.486657
728.429473	17903.713337
728.760996	17919.799659
729.092471	18043.519657
729.423897	17920.639011
729.755276	17761.832583
730.086606	17863.000979
730.417887	18388.904230
730.749120	18936.088713
731.080305	19159.968876
731.411442	19576.799202
731.742530	19683.293577
732.073570	19817.015224
732.404562	20136.947012
732.735506	20051.438960
733.066401	19922.559342
733.397249	19477.851434
733.728048	18899.810049
734.058798	18053.107932
734.389501	17294.794885
734.720156	16772.067560
735.050762	16196.211515
735.381320	15783.459482
735.711831	15494.389638
736.042293	15122.654954
736.372707	15141.483663
736.703073	14925.397124
737.033391	15108.839672
737.363661	15092.891982
737.693883	15202.035483
738.024056	15389.468103
738.354182	15592.097282
738.684260	15940.196517
739.014290	16219.554578
739.344272	16435.137002
739.674207	16777.262469
740.004093	16973.943087
740.333931	17040.801389
740.663722	17127.960419
740.993464	17190.039708
741.323159	17048.804221
741.652806	16763.333761
741.982405	16598.707321
742.311956	16251.185298
742.641460	16154.990000
742.970915	15826.684856
743.300323	15483.301621
743.629683	15277.786381
743.958996	14961.133864
744.288260	14654.349406
744.617477	14345.873640
744.946647	14313.453980
745.275768	13990.011028
745.604842	13790.555256
745.933869	13621.606026
746.262847	13582.637907
746.591778	13488.522085
746.920662	13372.303324
747.249498	13366.448024
747.578286	13501.066996
747.907027	13659.807890
748.235720	13928.942491
748.564365	14010.135314
748.892963	13944.900263
749.221514	14051.797930
749.550017	13939.241568
749.878473	13909.760900
750.206881	13701.553685
750.535242	13632.797387
750.863555	13547.881671
751.191821	13450.216877
751.520039	13460.057210
751.848210	13369.946585
752.176334	13422.982044
752.504411	13353.225077
752.832440	13180.873068
753.160421	13293.129482
753.488356	13191.885469
753.816243	13108.726595
754.144082	12924.018718
754.471875	12872.087272
754.799620	12832.425994
755.127318	12811.061584
755.454969	12799.184626
755.782572	12758.502514
756.110129	12772.776541
756.437638	12691.616485
756.765100	12694.840303
757.092515	12713.641286
757.419882	12745.841656
757.747203	12752.367430
758.074477	12834.863392
758.401703	12811.124598
758.728882	12995.333401
759.056014	13037.177499
759.383099	13213.496896
759.710138	13332.853775
760.037129	13463.545688
760.364073	13540.072924
760.690970	13548.481569
761.017820	13567.280031
761.344623	13758.637190
761.671379	14071.728132
761.998088	14611.189567
762.324751	16018.649474
762.651366	18949.941804
762.977935	23254.121807
763.304456	26540.593673
763.630931	28124.657802
763.957359	27337.584972
764.283740	25304.734643
764.610074	23148.144151
764.936362	20540.728311
765.262602	18641.145925
765.588796	16668.842373
765.914943	15345.773903
766.241044	14195.231360
766.567097	13378.206515
766.893104	12638.036581
767.219064	12155.928354
767.544978	11672.902636
767.870845	11279.100301
768.196665	11053.770806
768.522438	10818.648870
768.848165	10616.438107
769.173846	10407.217619
769.499479	10283.043918
769.825066	10110.558318
770.150607	9892.598991
770.476101	9808.389036
770.801548	9696.692191
771.126949	9533.288230
771.452303	9424.185058
771.777611	9221.281136
772.102872	9216.756700
772.428087	9082.404909
772.753256	8929.907485
773.078378	8846.257098
773.403453	8665.597268
773.728482	8549.859938
774.053465	8468.682237
774.378401	8369.852937
774.703291	8251.776511
775.028135	8131.600444
775.352932	8100.569622
775.677683	7997.392326
776.002388	7889.761171
776.327046	7897.905155
776.651658	7799.680793
776.976224	7696.264042
777.300743	7705.869961
777.625216	7607.524611
777.949643	7572.355001
778.274024	7585.910664
778.598359	7497.629978
778.922647	7519.818616
779.246889	7469.107129
779.571086	7471.952860
779.895236	7480.427040
780.219339	7490.337948
780.543397	7495.298444
780.867409	7572.488592
781.191374	7584.171466
781.515294	7547.514715
781.839167	7635.704661
782.162995	7611.481917
782.486776	7560.722538
782.810511	7519.291816
783.134201	7433.766120
783.457844	7423.240191
783.781441	7374.409054
784.104993	7313.527039
784.428498	7289.828575
784.751958	7273.495236
785.075372	7237.017447
785.398739	7187.848553
785.722061	7221.873821
786.045337	7222.907258
786.368568	7359.943463
786.691752	7367.069134
787.014891	7661.449833
787.337983	7969.597924
787.661030	8516.847942
787.984031	9142.228282
788.306987	9574.499663
788.629897	9836.546401
788.952760	9833.536832
789.275579	9654.659050
789.598351	9279.226679
789.921078	8941.063558
790.243759	8535.963997
790.566395	8241.560612
790.888984	7998.914754
791.211529	7787.435830
791.534027	7554.806744
791.856480	7349.785538
792.178888	7269.474916
792.501249	7179.790269
792.823566	7014.256420
793.145836	7019.993253
793.468062	6981.085628
793.790241	6927.190652
794.112375	6982.282902
794.434464	7128.521734
794.756507	7151.403531
795.078505	7289.800848
795.400457	7576.017399
795.722364	7912.847135
796.044226	8203.757000
796.366042	8490.810382
796.687812	8465.276938
797.009538	8557.582985
797.331218	8465.415569
797.652852	8397.417966
797.974442	8248.565296
798.295986	8166.969179
798.617484	7982.997311
798.938938	7836.811411
799.260346	7735.859785
799.581709	7545.825929
799.903026	7464.280224
800.224299	7358.562187
800.545526	7193.068668
800.866708	7095.171981
801.187845	7027.512134
801.508936	6917.867038
801.829983	6883.773715
802.150984	6731.409881
802.471940	6690.722728
802.792851	6675.422826
803.113717	6651.978940
803.434538	6614.538291
803.755314	6552.491769
804.076045	6552.907664
804.396731	6495.468758
804.717372	6524.634353
805.037967	6524.805752
805.358518	6557.482512
805.679024	6641.838659
805.999485	6651.684033
806.319901	6689.656524
806.640272	6711.159566
806.960598	6795.515714
807.280879	6798.663914
807.601115	6878.717438
807.921306	6825.581155
808.241453	6838.247054
808.561554	6863.233533
808.881611	6826.763306
809.201623	6837.654719
809.521590	6783.583303
809.841513	6769.130315
810.161390	6805.726571
810.481223	6672.347723
810.801011	6664.715416
811.120755	6635.930427
811.440453	6559.572070
811.760107	6522.259970
812.079716	6496.658470
812.399281	6436.532628
812.718801	6421.656183
813.038276	6380.354009
813.357707	6312.749616
813.677093	6354.364341
813.996434	6255.620740
814.315731	6296.459127
814.634983	6289.822448
814.954191	6293.507532
815.273354	6391.452110
815.592473	6448.707014
815.911547	6557.963942
816.230577	6639.055943
816.549562	6777.710358
816.868502	6878.823302
817.187399	6970.123639
817.506250	7112.304342
817.825058	7136.396016
818.143821	7380.622276
818.462539	7622.416179
818.781213	7939.608100
819.099843	8411.467662
819.418429	9327.183175
819.736970	10217.498836
820.055466	11318.086064
820.373919	12683.379239
820.692327	14676.202807
821.010691	17967.246999
821.329011	25397.648149
821.647286	37028.147120
821.965517	50972.349183
822.283704	58431.416854
822.601847	61609.990383
822.919945	59427.412743
823.237999	55574.287459
823.556010	49589.671588
823.873976	42953.655462
824.191897	36484.211661
824.509775	31642.911838
824.827609	26994.073187
825.145398	24204.548186
825.463144	22542.278117
825.780845	22439.304988
826.098502	23672.638400
826.416116	26961.169576
826.733685	30697.027539
827.051210	32516.753008
827.368692	31570.757803
827.686129	28076.313136
828.003522	24081.228960
828.320872	20334.114100
828.638177	17447.067978
828.955439	15262.947745
829.272656	13425.081684
829.589830	11949.382198
829.906960	10648.434310
830.224046	9683.033184
830.541088	8910.925020
830.858086	8420.655164
831.175041	8014.585181
831.491952	7855.125923
831.808819	7840.804005
832.125642	8136.702092
832.442421	8836.925923
832.759157	10312.335542
833.075849	12875.084238
833.392497	16004.894686
833.709101	18493.120004
834.025662	18856.541826
834.342179	17513.207916
834.658653	15447.516990
834.975083	13534.278118
835.291469	11886.639997
835.607811	10557.131453
835.924110	9645.348039
836.240366	8779.295452
836.556578	7976.169068
836.872746	7324.173956
837.188871	6805.093906
837.504952	6382.188989
837.820990	6057.170678
838.136984	5826.502601
838.452935	5709.268048
838.768842	5690.255336
839.084706	5976.323173
839.400526	6930.885818
839.716303	8432.751413
840.032037	9664.885030
840.347727	9894.764166
840.663373	9097.679605
840.978977	8069.947133
841.294537	7233.491160
841.610054	6620.360823
841.925527	6184.356468
842.240957	5827.019319
842.556344	5499.523280
842.871687	5225.561774
843.186987	4934.591416
843.502244	4710.441551
843.817458	4540.940315
844.132629	4400.287081
844.447756	4306.141013
844.762840	4226.765525
845.077881	4149.734173
845.392879	4091.478599
845.707833	4044.416908
846.022745	3995.706759
846.337613	3968.003098
846.652438	3927.545317
846.967221	3912.812545
847.281960	3878.005899
847.596656	3861.070142
847.911309	3840.504755
848.225919	3812.596927
848.540485	3798.499341
848.855009	3787.955768
849.169490	3765.091614
849.483928	3754.341354
849.798323	3744.309458
850.112675	3726.831777
850.426984	3734.829568
850.741251	3719.471692
851.055474	3712.328378
851.369654	3721.268864
851.683792	3718.269377
851.997887	3720.353894
852.311938	3724.994277
852.625947	3725.301787
852.939914	3716.595714
853.253837	3726.161304
853.567718	3725.596694
853.881555	3713.674366
854.195350	3726.826736
854.509103	3724.981674
854.822812	3723.691138
855.136479	3712.678738
855.450103	3727.605594
855.763685	3706.578942
856.077224	3712.232596
856.390720	3726.297415
856.704173	3746.721650
857.017584	3759.518619
857.330953	3767.947428
857.644278	3789.107671
857.957561	3796.780307
858.270802	3797.123106
858.584000	3802.675937
858.897155	3795.978764
859.210268	3779.912607
859.523339	3756.955192
859.836367	3757.567692
860.149352	3752.012341
860.462295	3743.089498
860.775195	3731.262951
861.088054	3726.446129
861.400869	3724.878330
861.713642	3722.388000
862.026373	3733.057602
862.339062	3738.401225
862.651708	3752.667691
862.964312	3785.677166
863.276873	3796.964309
863.589392	3847.771578
863.901869	3889.905542
864.214303	3932.074794
864.526696	3965.840443
864.839045	4010.789891
865.151353	4038.123027
865.463619	4045.881363
865.775842	4053.475861
866.088023	4075.445210
866.400162	4065.057912
866.712258	4072.145774
867.024313	4071.808017
867.336325	4072.649890
867.648296	4081.242537
867.960224	4076.380344
868.272110	4084.819235
868.583954	4085.333433
868.895755	4103.804221
869.207515	4096.126543
869.519233	4135.744971
869.830909	4145.607989
870.142542	4169.987009
870.454134	4178.594779
870.765684	4210.787588
871.077191	4245.374944
871.388657	4268.118110
871.700081	4302.955003
872.011463	4343.319522
872.322803	4373.057289
872.634101	4402.048964
872.945357	4442.267290
873.256571	4492.615814
873.567744	4526.126884
873.878874	4542.797980
874.189963	4581.037652
874.501010	4593.174230
874.812015	4588.251543
875.122979	4629.886433
875.433900	4628.875682
875.744780	4637.312053
876.055618	4662.139735
876.366415	4662.553110
876.677169	4679.483825
876.987882	4718.658632
877.298554	4763.542545
877.609183	4831.590560
877.919771	4929.968678
878.230317	5051.314292
878.540822	5238.877982
878.851285	5513.373850
879.161707	5904.348099
879.472087	6539.742691
879.782425	7553.387660
880.092722	9373.700422
880.402977	12196.199611
880.713191	15711.668410
881.023363	19408.028933
881.333494	21876.117362
881.643583	23342.732689
881.953631	23569.284663
882.263637	22919.651332
882.573602	21607.922937
882.883526	20180.449649
883.193408	18613.454867
883.503248	17012.409611
883.813048	15530.391039
884.122806	14171.953832
884.432522	12733.727763
884.742197	11514.388595
885.051831	10433.875241
885.361424	9443.560733
885.670975	8618.560782
885.980485	7928.232736
886.289954	7357.795932
886.599382	6885.132306
886.908768	6506.612228
887.218113	6148.176107
887.527417	5865.024578
887.836680	5601.964567
888.145901	5385.666300
888.455082	5223.419284
888.764221	5066.893978
889.073319	4934.346920
889.382376	4859.705075
889.691392	4797.797185
890.000366	4768.218215
890.309300	4746.253908
890.618193	4748.038476
890.927044	4736.655551
891.235855	4747.428497
891.544625	4773.950007
891.853353	4818.493642
892.162041	4914.835134
892.470687	5076.383950
892.779293	5290.476713
893.087858	5605.493375
893.396381	6096.012768
893.704864	6777.760770
894.013306	7800.237840
894.321707	8928.553935
894.630068	9815.648298
894.938387	10167.629221
895.246665	10052.653105
895.554903	9518.371456
895.863100	8871.815748
896.171256	8345.499122
896.479371	7862.092798
896.787446	7377.680763
897.095480	6952.925743
897.403473	6650.499362
897.711425	6339.170303
898.019336	6080.992650
898.327207	5817.002547
898.635038	5588.038380
898.942827	5352.460220
899.250576	5151.030835
899.558284	4962.012772
899.865952	4842.290409
900.173579	4698.632648
900.481165	4588.939661
900.788711	4496.787369
901.096216	4425.616359
901.403681	4353.588352
901.711105	4327.407120
902.018489	4304.921053
902.325832	4359.806616
902.633135	4445.470943
902.940397	4705.793607
903.247619	5312.607378
903.554800	6500.792216
903.861941	8260.273375
904.169041	9828.331841
904.476101	10672.432723
904.783121	10540.200737
905.090100	9916.748638
905.397039	9128.758319
905.703938	8407.848113
906.010796	7733.734938
906.317614	7207.388065
906.624391	6691.884714
906.931129	6277.421210
907.237826	5894.941306
907.544483	5536.600967
907.851099	5178.053941
908.157675	4825.447914
908.464211	4506.078215
908.770707	4265.244652
909.077163	4058.554824
909.383578	3910.423038
909.689954	3789.334523
909.996289	3714.914489
910.302584	3651.360663
910.608839	3616.173409
910.915054	3581.487750
911.221229	3564.922518
911.527363	3573.502562
911.833458	3584.073862
912.139513	3608.541102
912.445527	3628.380563
912.751502	3698.596274
913.057436	3783.774130
913.363331	3897.260586
913.669186	4071.069488
913.975000	4293.659116
914.280775	4649.665400
914.586510	5145.306605
914.892205	5829.043343
915.197859	6754.889055
915.503475	7887.134729
915.809050	8935.498124
916.114585	9656.988063
916.420081	10018.224545
916.725536	10066.438140
917.030952	9702.539929
917.336328	9340.151544
917.641665	8970.458526
917.946961	8521.493365
918.252218	8124.220195
918.557435	7637.146431
918.862612	7233.362611
919.167750	6878.362036
919.472848	6469.113605
919.777906	6115.038083
920.082925	5770.659219
920.387904	5403.408641
920.692843	5133.989215
920.997743	4884.280700
921.302603	4653.773941
921.607423	4494.390300
921.912204	4336.040096
922.216946	4217.323443
922.521647	4101.064353
922.826310	4002.204806
923.130932	3909.503028
923.435516	3813.700940
923.740059	3742.597986
924.044564	3668.631656
924.349028	3613.572174
924.653454	3553.958009
924.957840	3486.774552
925.262186	3441.956173
925.566493	3379.972666
925.870761	3326.433092
926.174989	3289.431022
926.479178	3255.516660
926.783328	3214.748849
927.087438	3190.692463
927.391509	3155.167452
927.695541	3126.516054
927.999533	3099.014039
928.303486	3080.540731
928.607400	3063.892320
928.911275	3054.493089
929.215110	3033.831920
929.518906	3024.828419
929.822663	3025.345137
930.126381	3024.105013
930.430060	3029.383101
930.733699	3029.980478
931.037299	3039.493135
931.340861	3035.868546
931.644383	3047.753066
931.947866	3043.314330
932.251309	3040.576983
932.554714	3038.996582
932.858080	3037.315357
933.161407	3025.574510
933.464694	3020.172913
933.767943	3016.255937
934.071153	3010.768641
934.374323	3001.167763
934.677455	2993.275837
934.980548	2989.668891
935.283602	2981.915597
935.586617	2974.323619
935.889593	2986.437512
936.192530	2990.896412
936.495428	2998.029645
936.798287	3015.414064
937.101108	3043.412633
937.403890	3086.620362
937.706632	3146.781492
938.009336	3218.955692
938.312002	3286.592853
938.614628	3348.021833
938.917216	3406.267325
939.219765	3439.216306
939.522275	3473.707881
939.824747	3477.609734
940.127179	3475.774754
940.429573	3473.483549
940.731929	3473.924650
941.034246	3458.564255
941.336524	3449.154941
941.638763	3435.528702
941.940964	3423.417330
942.243126	3385.979201
942.545250	3367.304247
942.847335	3330.471056
943.149381	3294.825057
943.451389	3265.306581
943.753359	3232.385326
944.055290	3208.959084
944.357182	3180.398427
944.659036	3166.444513
944.960851	3158.852535
945.262628	3143.923158
945.564367	3144.754948
945.866067	3139.708753
946.167729	3132.315901
946.469352	3131.937815
946.770937	3128.570324
947.072484	3115.233951
947.373992	3113.406533
947.675462	3108.577108
947.976893	3097.390787
948.278286	3090.562544
948.579641	3079.887901
948.880958	3073.273907
949.182236	3077.072417
949.483476	3068.366344
949.784678	3068.610840
950.085841	3069.593865
950.386967	3076.308682
950.688054	3090.484407
950.989103	3110.608693
951.290114	3126.505971
951.591087	3151.515136
951.892021	3178.031605
952.192917	3204.810214
952.493776	3229.032958
952.794596	3242.341604
953.095378	3251.763521
953.396122	3244.731111
953.696828	3239.130389
953.997496	3230.986405
954.298126	3210.514280
954.598718	3192.257741
954.899272	3171.830986
955.199788	3145.221255
955.500266	3116.582460
955.800706	3084.258582
956.101108	3047.470761
956.401472	3021.985208
956.701798	2984.970536
957.002087	2946.244392
957.302337	2919.927048
957.602550	2894.544839
957.902724	2865.283461
958.202861	2841.332939
958.502960	2821.047336
958.803022	2800.154274
959.103045	2781.774227
959.403031	2763.817637
959.702979	2751.371028
960.002889	2738.500963
960.302762	2727.586865
960.602596	2715.102447
960.902393	2703.870756
961.202153	2699.013605
961.501875	2688.777542
961.801559	2684.187571
962.101205	2677.414781
962.400814	2676.214986
962.700385	2667.100580
962.999918	2659.450629
963.299414	2653.948210
963.598873	2654.066677
963.898293	2645.204328
964.197677	2646.366314
964.497022	2646.066366
964.796331	2643.371869
965.095601	2638.512197
965.394835	2638.411374
965.694030	2634.196969
965.993189	2636.344501
966.292309	2631.744448
966.591393	2636.064717
966.890439	2632.062040
967.189447	2630.264869
967.488419	2631.036166
967.787353	2632.051958
968.086249	2636.553708
968.385108	2635.326187
968.683930	2639.298617
968.982714	2637.748462
969.281462	2644.606952
969.580172	2648.816315
969.878844	2653.577685
970.177480	2663.375167
970.476078	2668.570077
970.774639	2675.733556
971.073162	2682.917200
971.371649	2687.703776
971.670098	2694.970599
971.968510	2701.153574
972.266885	2704.936960
972.565223	2706.676158
972.863524	2712.299566
973.161788	2714.189998
973.460014	2715.299052
973.758204	2719.573951
974.056356	2719.609239
974.354471	2724.305073
974.652550	2722.921277
974.950591	2721.406410
975.248595	2721.938252
975.546563	2720.151163
975.844493	2717.141594
976.142386	2712.060111
976.440243	2706.968545
976.738062	2703.011240
977.035845	2694.181659
977.333590	2692.399611
977.631299	2686.493899
977.928971	2680.852848
978.226606	2673.490243
978.524204	2669.535457
978.821765	2664.131341
979.119290	2665.373985
979.416777	2666.901455
979.714228	2669.288441
980.011642	2673.296158
980.309020	2676.378824
980.606360	2690.761236
980.903664	2706.471992
981.200931	2738.198493
981.498162	2779.457817
981.795356	2842.643639
982.092513	2919.178437
982.389633	3016.802902
982.686717	3110.061727
982.983764	3187.798840
983.280775	3242.838158
983.577749	3257.933893
983.874686	3252.088675
984.171587	3226.214953
984.468451	3192.905529
984.765279	3154.517143
985.062070	3109.897890
985.358824	3071.010429
985.655543	3018.380783
985.952224	2971.515696
986.248869	2907.732497
986.545478	2852.640247
986.842050	2801.601085
987.138586	2750.829104
987.435086	2712.392827
987.731549	2687.207222
988.027975	2659.821154
988.324366	2641.589821
988.620719	2628.596247
988.917037	2612.746859
989.213318	2605.258225
989.509563	2598.243460
989.805772	2594.772625
990.101944	2590.548138
990.398080	2585.643096
990.694180	2585.262489
990.990244	2584.007241
991.286271	2585.517067
991.582262	2585.075966
991.878217	2586.343816
992.174136	2591.752974
992.470019	2590.616194
992.765865	2596.249683
993.061676	2598.026690
993.357450	2607.151179
993.653188	2612.454473
993.948890	2627.411576
994.244556	2641.977990
994.540186	2662.863490
994.835780	2695.152081
995.131337	2726.545866
995.426859	2763.348810
995.722345	2807.332877
996.017795	2855.269209
996.313208	2893.992833
996.608586	2924.131371
996.903928	2937.800459
997.199234	2940.754576
997.494504	2940.648711
997.789738	2929.424582
998.084936	2908.927251
998.380099	2881.450442
998.675225	2856.927749
998.970316	2824.377018
999.265371	2792.456432
999.560390	2757.795979
999.855373	2727.607029
1000.150320	2702.958307
1000.445232	2676.232630
1000.740108	2655.309321
1001.034948	2635.598410
1001.329752	2621.548714
1001.624521	2611.637806
1001.919254	2599.087853
1002.213951	2593.366143
1002.508613	2582.268043
1002.803239	2576.717733
1003.097829	2570.398647
1003.392384	2566.237174
1003.686903	2559.711400
1003.981386	2560.061761
1004.275834	2554.486244
1004.570246	2553.881306
1004.864623	2551.136398
1005.158964	2546.049873
1005.453270	2547.179092
1005.747540	2544.978628
1006.041775	2543.617517
1006.335974	2540.081147
1006.630138	2538.858668
1006.924266	2539.287166
1007.218359	2536.635519
1007.512416	2535.720549
1007.806438	2533.323481
1008.100425	2533.719211
1008.394376	2530.954138
1008.688292	2536.297761
1008.982172	2532.983203
1009.276017	2535.602082
1009.569827	2533.326001
1009.863602	2535.322298
1010.157341	2533.162164
1010.451045	2530.565969
1010.744714	2532.227030
1011.038347	2528.121010
1011.331945	2528.630166
1011.625508	2528.811648
1011.919036	2528.599919
1012.212528	2527.264014
1012.505986	2525.711338
1012.799408	2524.761081
1013.092795	2526.475073
1013.386147	2525.834847
1013.679464	2523.185720
1013.972745	2524.244362
1014.265992	2526.283509
1014.559204	2525.555062
1014.852380	2523.069774
1015.145521	2521.786800
1015.438628	2524.075484
1015.731699	2523.546163
1016.024736	2527.566483
1016.317737	2525.179497
1016.610703	2530.029087
1016.903635	2529.744261
1017.196531	2530.205527
1017.489393	2526.712007
1017.782219	2530.129910
1018.075011	2533.237781
1018.367768	2530.931453
1018.660490	2535.216434
1018.953177	2535.216434
1019.245829	2535.216434
