Dividing Wavelength (nm)	Counts (n)	Blue Motor Position (mm): 37.000000	Red Motor Position (mm): 0.000000	
326.493990	2067.775443
326.888308	2067.775443
327.282561	2067.775443
327.676750	2040.890970
328.070874	2040.679242
328.464933	2048.666950
328.858929	2055.288505
329.252859	2064.806204
329.646726	2077.189798
330.040528	2097.457757
330.434265	2111.288163
330.827938	2133.154168
331.221547	2154.609318
331.615091	2176.419871
332.008571	2194.315967
332.401986	2215.635006
332.795338	2235.953377
333.188625	2256.279309
333.581847	2274.901332
333.975006	2292.641152
334.368100	2309.692855
334.761129	2327.457881
335.154095	2343.168637
335.546996	2394.437172
335.939833	2499.482215
336.332606	2507.293483
336.725315	2522.797551
337.117960	2536.176774
337.510540	2541.533000
337.903056	2552.033723
338.295508	2557.140412
338.687896	2563.663665
339.080220	2571.379151
339.472480	2571.797567
339.864676	2574.633216
340.256807	2580.622107
340.648875	2583.331727
341.040879	2583.165369
341.432818	2588.801379
341.824694	2588.655185
342.216506	2584.854155
342.608253	2587.099989
342.999937	2584.072776
343.391557	2585.635534
343.783113	2582.542786
344.174605	2580.135635
344.566033	2579.185378
344.957397	2577.844431
345.348697	2575.477609
345.739934	2577.168916
346.131106	2574.366035
346.522215	2573.133472
346.913260	2571.278328
347.304241	2568.472926
347.695159	2568.031825
348.086012	2568.702298
348.476802	2564.223233
348.867528	2562.718449
349.258191	2556.152346
349.648789	2556.754764
350.039324	2553.684701
350.429796	2560.946483
350.820203	2555.930535
351.210548	2557.631924
351.600828	2554.387942
351.991045	2555.885165
352.381198	2551.040616
352.771288	2555.839794
353.161314	2551.592622
353.551276	2552.547921
353.941175	2548.313352
354.331010	2555.048333
354.720782	2556.379198
355.110490	2558.773746
355.500135	2556.149825
355.889717	2554.009855
356.279235	2553.898950
356.668689	2552.976419
357.058080	2554.781152
357.447408	2555.809547
357.836672	2557.364743
358.225873	2552.585729
358.615010	2556.601008
359.004084	2558.183931
359.393095	2559.764332
359.782043	2559.504713
360.170927	2560.951524
360.559748	2559.666030
360.948505	2560.505382
361.337199	2561.233829
361.725830	2562.562173
362.114398	2559.741647
362.502903	2561.934549
362.891344	2563.908161
363.279722	2562.015208
363.668037	2565.221382
364.056289	2563.010836
364.444478	2564.888665
364.832603	2564.117369
365.220665	2564.699622
365.608665	2565.453275
365.996601	2567.595765
366.384474	2567.900755
366.772284	2567.920919
367.160031	2565.377657
367.547715	2568.369582
367.935336	2567.777247
368.322893	2564.702143
368.710388	2564.737431
369.097820	2566.912689
369.485189	2563.393963
369.872495	2569.264387
370.259738	2569.196331
370.646918	2570.431414
371.034035	2570.469223
371.421090	2570.287741
371.808081	2573.564491
372.195010	2572.682289
372.581875	2573.025088
372.968678	2572.329408
373.355418	2575.026426
373.742096	2571.220355
374.128710	2575.686817
374.515262	2576.241344
374.901751	2574.406364
375.288177	2575.311251
375.674540	2574.340829
376.060841	2579.099678
376.447079	2574.590366
376.833254	2580.153279
377.219367	2574.797053
377.605417	2579.318968
377.991404	2577.494071
378.377329	2578.676221
378.763191	2579.024061
379.148991	2575.162537
379.534727	2577.370562
379.920402	2581.315265
380.306013	2577.791499
380.691563	2580.415419
381.077049	2580.566654
381.462474	2578.580439
381.847835	2584.760894
382.233134	2583.339288
382.618371	2580.899370
383.003545	2583.424988
383.388657	2582.663774
383.773706	2584.229052
384.158693	2583.112437
384.543618	2586.888261
384.928480	2585.189392
385.313280	2584.241655
385.698017	2586.825246
386.082692	2587.276430
386.467305	2588.705597
386.851856	2588.604774
387.236344	2586.684094
387.620770	2586.603436
388.005133	2584.644947
388.389435	2587.732654
388.773674	2585.443970
389.157851	2591.284147
389.541965	2588.735844
389.926018	2588.539239
390.310008	2590.376739
390.693936	2594.379415
391.077802	2597.278079
391.461606	2594.712132
391.845348	2593.351020
392.229027	2596.569797
392.612645	2593.038468
392.996200	2596.138778
393.379694	2599.090374
393.763125	2596.698346
394.146494	2599.493666
394.529801	2602.677155
394.913047	2596.842019
395.296230	2599.062647
395.679351	2603.889552
396.062410	2602.505755
396.445408	2600.390991
396.828343	2600.897627
397.211217	2603.871908
397.594028	2605.333843
397.976778	2601.406784
398.359466	2605.822835
398.742092	2607.536827
399.124656	2607.478854
399.507158	2606.667228
399.889598	2609.734770
400.271977	2610.677466
400.654294	2613.402209
401.036549	2616.565533
401.418742	2618.445884
401.800874	2622.191461
402.182944	2624.233128
402.564952	2627.829992
402.946898	2633.037504
403.328783	2636.702422
403.710606	2639.323822
404.092367	2647.863537
404.474067	2658.727224
404.855705	2664.660662
405.237282	2668.602844
405.618797	2679.600121
406.000250	2696.364478
406.381642	2707.059286
406.762972	2717.877602
407.144240	2725.620815
407.525447	2742.153279
407.906593	2755.199785
408.287677	2783.442849
408.668700	2802.773154
409.049661	2819.749239
409.430560	2844.526510
409.811399	2861.636187
410.192176	2884.308776
410.572891	2917.154414
410.953545	2955.444498
411.334138	2965.945221
411.714669	3005.301509
412.095139	3013.082530
412.475547	3058.009293
412.855894	3086.068356
413.236180	3131.988226
413.616405	3148.886174
413.996568	3199.522044
414.376670	3228.969944
414.756711	3257.218049
415.136691	3309.517500
415.516609	3368.037734
415.896466	3408.714805
416.276262	3473.917089
416.655997	3545.307389
417.035670	3613.851958
417.415283	3702.513251
417.794834	3765.585647
418.174324	3792.850728
418.553753	3833.220288
418.933121	3943.130045
419.312428	3995.101820
419.691674	4010.631095
420.070859	4155.350019
420.449983	4149.073782
420.829045	4281.061272
421.208047	4302.052637
421.586988	4424.913118
421.965867	4511.646170
422.344686	4604.723514
422.723444	4753.470320
423.102141	4593.078448
423.480777	4856.025033
423.859352	4809.127179
424.237866	5075.106017
424.616319	5128.519563
424.994712	5279.486997
425.373044	5276.437099
425.751314	5534.697931
426.129524	5408.512809
426.507673	5639.516122
426.885762	5724.542744
427.263789	5808.563655
427.641756	5918.652373
428.019662	6035.811309
428.397508	6116.736951
428.775292	6157.855123
429.153016	6338.179716
429.530679	6337.910015
429.908282	6430.831083
430.285824	6434.284273
430.663305	6700.913421
431.040726	6658.280383
431.418086	6708.805347
431.795385	6867.281580
432.172624	7058.671506
432.549802	7009.847931
432.926920	7161.916858
433.303977	7160.757392
433.680974	7236.341932
434.057910	7449.053419
434.434786	7532.892849
434.811601	7537.291255
435.188355	7874.751135
435.565050	7810.214283
435.941683	7855.304884
436.318257	8188.429371
436.694770	8180.842435
437.071222	8418.207684
437.447614	8246.223680
437.823946	8235.796053
438.200218	8407.119666
438.576429	8315.877302
438.952580	8502.394953
439.328670	8533.345117
439.704700	8626.881207
440.080670	8541.559678
440.456580	8823.221546
440.832429	8814.709558
441.208218	8585.100123
441.583947	8704.643525
441.959616	8838.024894
442.335224	8877.318168
442.710773	8974.567067
443.086261	9162.798710
443.461689	8903.098629
443.837057	9080.048170
444.212365	9297.130337
444.587612	9286.680025
444.962800	9191.049336
445.337927	9328.849277
445.712995	8892.229901
446.088002	9555.078617
446.462949	9617.662022
446.837837	9610.828738
447.212664	9640.735383
447.587431	10464.911105
447.962139	11465.701131
448.336786	12377.096376
448.711374	12163.810198
449.085901	10975.690895
449.460369	10896.514532
449.834776	10684.135762
450.209124	11594.250554
450.583412	11427.693351
450.957640	11738.543500
451.331808	11324.647126
451.705917	10770.606674
452.079965	10649.361883
452.453954	10844.661224
452.827883	10788.205342
453.201752	10762.198029
453.575562	10771.624987
453.949311	11108.525298
454.323001	11180.449961
454.696632	11090.417474
455.070202	11687.106087
455.443713	11747.705797
455.817164	11912.722928
456.190556	12224.767830
456.563888	12088.865884
456.937160	12348.679392
457.310373	11839.870693
457.683526	11842.870179
458.056619	11859.712674
458.429653	11928.065679
458.802628	12072.144377
459.175542	12125.532717
459.548398	12666.319975
459.921194	13242.297008
460.293930	13529.252087
460.666607	14377.383372
461.039224	15178.132852
461.411782	15507.511762
461.784280	15174.059600
462.156719	15106.407315
462.529099	15005.213713
462.901419	14365.377864
463.273680	13981.683042
463.645882	14187.737685
464.018024	14086.740688
464.390106	14449.703765
464.762130	15526.063208
465.134094	17067.297694
465.505999	19359.069247
465.877845	21605.540991
466.249631	22799.439977
466.621358	22318.478612
466.993026	21494.469249
467.364634	20739.357335
467.736184	19939.479974
468.107674	19343.174489
468.479105	19195.831644
468.850477	18928.736190
469.221790	18497.220982
469.593043	17831.544179
469.964238	17441.991536
470.335373	17502.205598
470.706449	18236.835304
471.077467	19104.213714
471.448425	21554.368239
471.819324	23416.751951
472.190164	23310.983502
472.560945	21569.307698
472.931667	20005.209059
473.302330	19679.248051
473.672934	19135.864599
474.043479	19538.133552
474.413965	19334.889353
474.784393	19158.259925
475.154761	19821.655606
475.525070	19945.526838
475.895321	19792.973961
476.265513	20314.536779
476.635645	20899.086294
477.005719	20964.286058
477.375734	21332.668375
477.745691	21950.262653
478.115588	22583.227409
478.485427	23771.492906
478.855207	25582.421561
479.224928	27391.197643
479.594591	28807.373705
479.964194	28426.310365
480.333739	28854.337094
480.703226	29064.018847
481.072653	29502.604273
481.442022	30022.024601
481.811333	30430.867219
482.180584	29969.652054
482.549777	29757.853016
482.918912	29524.387099
483.287988	29471.107144
483.657005	29318.566870
484.025964	28937.924466
484.394864	29129.342119
484.763706	29056.580625
485.132489	28520.126238
485.501213	28594.175747
485.869879	28749.770961
486.238487	28685.632360
486.607036	28949.909810
486.975527	28634.714186
487.343959	28982.878956
487.712333	29326.867130
488.080648	29279.981878
488.448905	29716.986902
488.817104	29604.917011
489.185244	30416.187379
489.553326	31362.076719
489.921350	33251.980090
490.289315	35761.501763
490.657222	36662.108939
491.025070	37217.064360
491.392861	36932.072810
491.760593	36140.687273
492.128267	35129.305783
492.495883	34135.185203
492.863440	33230.199785
493.230939	32273.761831
493.598380	31697.769674
493.965763	31547.989432
494.333088	31046.525694
494.700354	30854.069564
495.067563	30811.287812
495.434713	30689.697702
495.801805	30951.661261
496.168839	30798.037139
496.535815	30640.712810
496.902733	30771.651740
497.269593	30586.898492
497.636395	30735.461296
498.003139	30998.619609
498.369825	30758.804359
498.736453	31145.786013
499.103023	30979.427937
499.469535	31056.663455
499.835989	31168.713181
500.202385	31044.393286
500.568723	31076.878482
500.935003	31375.297145
501.301226	31251.814082
501.667390	31951.420371
502.033497	32155.728254
502.399546	31940.733125
502.765537	31551.424978
503.131470	31995.853101
503.497345	32424.555345
503.863163	31387.101007
504.228923	32133.300161
504.594625	32535.102808
504.960269	32003.230830
505.325856	32674.803263
505.691385	32321.383090
506.056856	32641.390495
506.422270	33119.334730
506.787625	32625.006745
507.152924	33073.487956
507.518164	33253.353805
507.883347	32834.375947
508.248472	32957.027220
508.613540	33615.215390
508.978550	33838.394832
509.343503	33679.911038
509.708398	34027.503636
510.073236	34630.246675
510.438016	34728.725616
510.802738	34395.399482
511.167403	34913.015077
511.532010	35148.515099
511.896561	35660.293038
512.261053	36404.687459
512.625488	36180.023397
512.989866	36100.287466
513.354186	36151.019118
513.718449	36111.287264
514.082655	36959.214382
514.446803	36646.967833
514.810894	37267.370034
515.174927	37264.950280
515.538904	37258.663962
515.902822	37899.949142
516.266684	37562.897596
516.630488	37898.918226
516.994235	37930.470808
517.357925	38490.971499
517.721558	38730.350689
518.085133	39098.919529
518.448651	39296.820106
518.812112	39192.059887
519.175516	39332.529119
519.538863	39756.810271
519.902152	39841.501655
520.265385	40385.122042
520.628560	40383.476105
520.991678	40321.142238
521.354739	40534.786338
521.717743	40895.100288
522.080690	40817.582466
522.443580	41474.671664
522.806413	41501.651919
523.169189	41621.006278
523.531908	41836.326561
523.894569	41692.721732
524.257174	41878.377346
524.619722	42234.441604
524.982213	42364.271480
525.344647	42412.848039
525.707025	42526.014381
526.069345	42972.232113
526.431608	42876.046898
526.793815	43256.643931
527.155964	42804.323882
527.518057	43056.923498
527.880093	42899.947008
528.242072	43535.888566
528.603995	43271.364100
528.965860	43205.027557
529.327669	43416.425823
529.689421	43468.531189
530.051117	43434.427783
530.412755	43715.764497
530.774337	43740.937499
531.135862	43690.853635
531.497331	43847.832646
531.858743	43840.475082
532.220098	44240.566257
532.581396	43962.954955
532.942638	43738.913476
533.303824	43962.755830
533.664953	44037.077561
534.026025	43697.208010
534.387040	44273.951298
534.747999	44338.137789
535.108902	44684.825501
535.469748	43996.120707
535.830537	44275.395588
536.191270	44515.331826
536.551947	44268.287562
536.912567	44543.317792
537.273131	44668.598027
537.633638	44281.084531
537.994089	44468.892717
538.354483	44233.453188
538.714821	44875.991096
539.075103	45151.858158
539.435328	45031.356937
539.795497	44787.823836
540.155609	44915.097847
540.515665	45491.279046
540.875665	44799.668027
541.235609	45074.547022
541.595496	45213.047683
541.955328	45783.688655
542.315102	45206.184152
542.674821	45112.007837
543.034483	45012.820614
543.394090	45030.986412
543.753640	45014.605183
544.113134	46080.995744
544.472571	45184.532397
544.831953	46289.215562
545.191278	45579.955463
545.550548	45267.769408
545.909761	45903.796666
546.268918	46023.776127
546.628019	46421.172805
546.987064	45871.702160
547.346053	45202.423452
547.704986	46092.618124
548.063863	45735.003711
548.422684	45921.758297
548.781449	45511.594896
549.140158	46043.950825
549.498811	45786.052956
549.857408	45218.103961
550.215949	46037.024279
550.574434	45882.036525
550.932864	45828.822105
551.291237	46537.343675
551.649555	46274.634025
552.007817	46449.257073
552.366022	46157.775038
552.724173	46211.606999
553.082267	46611.758668
553.440305	46985.945874
553.798288	46243.046155
554.156215	46628.220556
554.514086	46818.297261
554.871902	46407.675116
555.229661	46595.669825
555.587365	46274.457584
555.945014	46411.355158
556.302606	46420.756910
556.660143	46511.580858
557.017625	46738.997391
557.375050	46418.901766
557.732421	46838.605550
558.089735	46879.459060
558.446994	46757.805936
558.804197	47234.252947
559.161345	47079.693691
559.518437	46449.496528
559.875474	46690.945112
560.232455	46912.912157
560.589381	46945.258721
560.946251	46785.834751
561.303065	47403.728978
561.659825	47093.806401
562.016528	46923.672500
562.373177	46505.274375
562.729770	47147.708939
563.086307	46644.702608
563.442789	47195.141155
563.799216	47020.702109
564.155587	46936.071218
564.511904	46891.318375
564.868164	46944.578165
565.224370	47254.808252
565.580520	46991.972573
565.936615	47184.206893
566.292654	46827.230186
566.648638	47201.162814
567.004567	47146.055440
567.360441	47223.832882
567.716260	46918.475071
568.072023	47335.007969
568.427732	47236.302177
568.783385	46789.156872
569.138982	47182.034155
569.494525	47335.628031
569.850013	46953.133003
570.205445	47069.303873
570.560823	46842.308277
570.916145	46689.621809
571.271412	46932.295394
571.626625	46598.777697
571.981782	46662.084507
572.336884	46277.013449
572.691931	46613.081971
573.046923	46258.525018
573.401860	46102.251769
573.756743	46120.949409
574.111570	46265.554907
574.466342	46179.683892
574.821059	46335.135433
575.175722	45819.742987
575.530330	45907.252377
575.884882	45555.193315
576.239380	45465.236446
576.593823	45558.346557
576.948211	45504.156674
577.302544	45038.994285
577.656823	45032.851639
578.011047	45300.892310
578.365216	45146.146531
578.719330	44848.045460
579.073389	44827.079301
579.427394	44894.754271
579.781344	44804.507534
580.135239	44549.752825
580.489080	44621.861489
580.842866	44140.453982
581.196597	44605.460095
581.550273	44621.743022
581.903895	44546.692844
582.257463	44974.457433
582.610975	44413.908852
582.964434	44741.508235
583.317837	44243.744704
583.671186	44192.342579
584.024481	44470.914220
584.377721	44047.921083
584.730906	44266.502993
585.084037	44409.633954
585.437113	44122.033606
585.790135	44225.125202
586.143103	43812.181606
586.496016	43991.162732
586.848874	44084.492133
587.201679	44107.585659
587.554428	43620.355619
587.907124	43896.842743
588.259765	43665.728525
588.612352	43811.314527
588.964884	43274.154379
589.317362	43572.837703
589.669786	43575.428856
590.022155	43453.989981
590.374470	43935.397488
590.726731	43515.179506
591.078937	42857.800442
591.431090	43203.487484
591.783188	42713.363822
592.135232	42535.476627
592.487222	42791.950370
592.839157	42943.386631
593.191038	42593.260853
593.542866	42402.380083
593.894639	41782.907975
594.246358	42082.042482
594.598022	42089.606733
594.949633	41666.147290
595.301190	41675.148270
595.652692	41626.831331
596.004141	42119.218471
596.355535	41020.191480
596.706876	41035.511547
597.058162	40747.991858
597.409395	41245.374781
597.760573	41467.843421
598.111698	41086.674217
598.462768	40993.682573
598.813785	41020.909844
599.164748	40637.336010
599.515657	40911.398339
599.866511	40408.863356
600.217312	41096.784251
600.568060	40070.664947
600.918753	40864.487882
601.269392	40779.224326
601.619978	40517.734635
601.970510	40733.395197
602.320988	40851.307785
602.671412	41118.849381
603.021783	40994.307676
603.372100	40556.125542
603.722363	40673.246669
604.072572	40704.176669
604.422728	40702.399662
604.772830	40484.500828
605.122878	40659.522128
605.472872	40515.569459
605.822813	40754.313464
606.172701	40516.048369
606.522534	40836.355723
606.872314	41031.140866
607.222041	40888.564433
607.571714	41209.970758
607.921333	40712.234953
608.270899	40905.515312
608.620411	41265.977977
608.969870	41041.739892
609.319276	41049.929247
609.668627	41096.506987
610.017926	41478.916315
610.367171	41641.677529
610.716362	41659.135045
611.065500	41576.757550
611.414585	41805.769607
611.763616	41976.208498
612.112594	41866.213042
612.461518	41991.359686
612.810389	42379.891495
613.159207	42159.467043
613.507971	42134.457879
613.856682	42642.553255
614.205340	42482.789007
614.553945	43159.286648
614.902496	42502.255423
615.250994	42925.092284
615.599439	42995.071061
615.947830	43091.412552
616.296169	43106.583905
616.644454	43149.700893
616.992686	43303.859378
617.340864	43736.055141
617.688990	43251.368364
618.037063	43925.163946
618.385082	43741.003034
618.733048	44085.084469
619.080961	43975.146986
619.428821	44018.821022
619.776628	44046.151638
620.124382	43877.512439
620.472083	44010.737532
620.819731	44116.039674
621.167326	43672.206407
621.514868	43665.635263
621.862357	43136.253616
622.209793	43239.390582
622.557176	42813.155983
622.904506	42575.299221
623.251783	42218.403173
623.599007	41894.370407
623.946179	41823.075888
624.293297	41562.435632
624.640363	41016.660152
624.987376	40879.041693
625.334336	40676.407473
625.681243	40271.718766
626.028097	40185.126866
626.374899	40001.737251
626.721647	39975.966872
627.068343	39743.544474
627.414987	39471.130603
627.761577	39228.865352
628.108115	39527.054643
628.454600	38797.856780
628.801032	39034.264210
629.147412	38918.731047
629.493739	38804.546391
629.840014	38378.841114
630.186236	38790.100965
630.532405	38219.608708
630.878521	38475.500197
631.224585	38248.983511
631.570597	37925.157432
631.916556	38091.107176
632.262462	37980.295052
632.608316	37930.400232
632.954117	37797.729666
633.299866	37748.860720
633.645562	37679.438991
633.991206	37170.416043
634.336797	36771.317975
634.682336	36660.951994
635.027823	36427.407939
635.373257	36311.484086
635.718639	35977.588302
636.063968	35874.753805
636.409245	35238.141774
636.754470	35174.048544
637.099642	34955.718691
637.444762	34381.508583
637.789829	34515.550343
638.134845	34133.372908
638.479808	34042.685071
638.824719	34001.544215
639.169577	33487.651512
639.514383	33601.715180
639.859137	33224.319279
640.203839	33387.294742
640.548489	33098.580299
640.893086	33073.765220
641.237632	32797.073929
641.582125	32885.677249
641.926566	32676.333253
642.270955	32700.419886
642.615292	32637.919661
642.959576	32524.057640
643.303809	32515.885929
643.647990	32621.793010
643.992118	32603.970010
644.336195	32417.578388
644.680219	32492.689060
645.024192	32681.245858
645.368112	33195.677964
645.711981	33219.497416
646.055797	33897.769542
646.399562	33710.231057
646.743274	34551.639963
647.086935	34958.360256
647.430544	34943.635045
647.774101	34980.004450
648.117606	35297.546731
648.461059	35443.848577
648.804460	35062.845731
649.147810	34560.900563
649.491108	34241.309053
649.834354	34140.070081
650.177548	33334.251721
650.520690	32823.807168
650.863781	32805.170022
651.206820	32616.396455
651.549807	32195.122351
651.892742	31599.323502
652.235626	31531.842616
652.578458	31389.556049
652.921238	30691.842712
653.263967	30963.623919
653.606644	30664.464206
653.949269	30576.017162
654.291843	30190.625991
654.634365	30540.013241
654.976836	30080.701111
655.319255	30169.377528
655.661622	30037.057322
656.003938	29896.547761
656.346203	29709.954493
656.688416	29972.444853
657.030577	29760.792009
657.372687	29587.653580
657.714746	29721.655011
658.056753	29911.570400
658.398708	29272.132802
658.740612	29346.366313
659.082465	29556.726101
659.424266	29437.946434
659.766016	29438.397617
660.107715	29283.498083
660.449362	29383.940553
660.790958	29356.352838
661.132503	29280.465829
661.473996	29370.649551
661.815438	29454.557036
662.156829	29563.196422
662.498168	29370.526042
662.839456	29348.045017
663.180693	29452.422107
663.521879	29521.203610
663.863013	29485.872684
664.204097	29455.668610
664.545129	29855.227944
664.886110	29782.852098
665.227040	29908.981767
665.567918	29899.317875
665.908746	29962.037391
666.249522	30036.964060
666.590248	30087.463819
666.930922	30178.958241
667.271545	30190.704129
667.612118	30254.230229
667.952639	30060.385261
668.293109	30094.060169
668.633528	29954.074888
668.973896	29902.705531
669.314213	29895.889891
669.654480	29690.125114
669.994695	29678.792600
670.334859	29592.115001
670.674973	29420.970348
671.015035	29602.565313
671.355047	29536.102741
671.695008	29456.959146
672.034918	29366.064621
672.374777	29459.459558
672.714585	29337.456073
673.054342	29464.591453
673.394049	29309.341558
673.733705	29541.854697
674.073310	29253.190666
674.412864	29325.052314
674.752368	29055.239678
675.091820	29277.337793
675.431223	28882.696105
675.770574	28674.672892
676.109875	28519.667493
676.449125	28323.256578
676.788324	28210.274238
677.127473	27741.666220
677.466571	27647.623495
677.805619	27361.538015
678.144616	27287.904401
678.483562	27238.453202
678.822458	26918.390345
679.161303	26860.195265
679.500098	26783.247092
679.838842	26686.489706
680.177535	26750.240137
680.516179	26961.691336
680.854771	27041.240743
681.193314	27732.319921
681.531805	28659.645212
681.870247	29427.228941
682.208638	30217.686905
682.546978	30589.429152
682.885268	30769.322727
683.223508	30354.087925
683.561697	30102.357908
683.899836	29928.228892
684.237925	29528.788026
684.575963	29353.272693
684.913951	28974.679519
685.251889	29114.127917
685.589776	29111.420817
685.927614	29114.256466
686.265401	29272.291598
686.603137	29372.466887
686.940824	29847.194865
687.278460	30166.720840
687.616046	30357.573883
687.953582	31032.796112
688.291068	30972.188840
688.628504	31338.542093
688.965889	31367.367410
689.303224	31122.077467
689.640510	30843.803254
689.977745	30256.879356
690.314930	29518.171356
690.652065	29106.399828
690.989150	28430.902857
691.326185	27609.484646
691.663170	27001.355134
692.000105	26279.565247
692.336990	25678.049729
692.673825	25255.011222
693.010610	24749.295271
693.347345	24258.987606
693.684030	23632.019302
694.020665	23436.304066
694.357251	22764.570316
694.693786	22774.962655
695.030272	22535.016335
695.366707	22045.346376
695.703093	21760.133015
696.039429	21822.151810
696.375716	21584.718505
696.711952	21574.036300
697.048139	21436.014549
697.384276	21277.669386
697.720363	21391.523846
698.056400	21282.284563
698.392388	21121.960747
698.728326	21117.806836
699.064214	20968.553394
699.400053	20987.049388
699.735842	20602.452199
700.071581	20416.489075
700.407270	20177.578712
700.742910	20012.929586
701.078501	19753.688249
701.414042	19544.576147
701.749533	19252.022866
702.084974	18942.337223
702.420366	19174.134518
702.755709	18770.380945
703.091002	18458.734293
703.426246	18529.260036
703.761440	18453.645249
704.096584	18220.012974
704.431679	18159.244385
704.766725	18096.938244
705.101721	18019.768261
705.436668	18139.750243
705.771565	17853.964711
706.106413	18167.564809
706.441212	18224.940702
706.775961	18322.562646
707.110661	18399.346981
707.445311	18752.953676
707.779913	18633.337178
708.114465	18925.519934
708.448967	19227.923630
708.783421	19825.612912
709.117825	20172.771972
709.452180	20390.643079
709.786485	20819.887247
710.120742	21549.269112
710.454949	21660.361019
710.789107	22164.804078
711.123216	22862.666129
711.457275	23098.897119
711.791286	23673.480272
712.125247	23833.647812
712.459159	23613.334266
712.793023	24383.693150
713.126837	23390.817735
713.460602	23662.581298
713.794318	23342.624304
714.127985	23075.309560
714.461602	22192.142256
714.795171	22176.129031
715.128691	21205.989220
715.462162	20691.116013
715.795584	20265.874521
716.128957	19993.400156
716.462281	19621.693198
716.795556	19342.481330
717.128782	18875.902377
717.461960	18273.416437
717.795088	18234.521414
718.128167	17907.390859
718.461198	17453.623998
718.794180	17336.883478
719.127113	17018.017895
719.459997	16816.407029
719.792833	16439.976509
720.125619	16486.660115
720.458357	16152.376162
720.791046	16015.952457
721.123686	15860.402613
721.456278	15629.585823
721.788821	15627.682787
722.121315	15373.217944
722.453761	15462.146418
722.786158	15346.187277
723.118506	15430.019145
723.450805	15318.261805
723.783056	15493.908208
724.115259	15370.105032
724.447412	15356.584657
724.779518	15567.163735
725.111574	15611.621671
725.443582	15866.492327
725.775542	15815.843855
726.107453	16320.211297
726.439315	16219.995679
726.771129	16623.431660
727.102895	17025.504008
727.434612	17310.465312
727.766281	17478.789438
728.097901	17808.947207
728.429473	17909.344306
728.760996	17946.600954
729.092471	18045.384884
729.423897	17940.939738
729.755276	17783.005429
730.086606	17873.514305
730.417887	18406.233197
730.749120	18963.051324
731.080305	19178.454787
731.411442	19592.777139
731.742530	19704.902483
732.073570	19847.488999
732.404562	20175.438742
732.735506	20080.947354
733.066401	19935.822617
733.397249	19512.839563
733.728048	18920.859387
734.058798	18069.466476
734.389501	17314.684757
734.720156	16801.805327
735.050762	16204.562187
735.381320	15809.428986
735.711831	15517.669687
736.042293	15144.233613
736.372707	15161.050902
736.703073	14938.322643
737.033391	15126.944976
737.363661	15111.965187
737.693883	15223.815788
738.024056	15406.171967
738.354182	15605.489107
738.684260	15957.028930
739.014290	16234.042854
739.344272	16458.588449
739.674207	16790.440045
740.004093	16981.338459
740.333931	17054.588945
740.663722	17145.075136
740.993464	17203.156790
741.323159	17065.611428
741.652806	16788.085827
741.982405	16621.586597
742.311956	16274.195645
742.641460	16180.220975
742.970915	15843.597927
743.300323	15501.026317
743.629683	15297.104083
743.958996	14987.085724
744.288260	14671.116283
744.617477	14363.507596
744.946647	14319.989836
745.275768	14014.571530
745.604842	13818.095079
745.933869	13638.128407
746.262847	13597.053086
746.591778	13506.355167
746.920662	13388.661868
747.249498	13384.691960
747.578286	13523.046427
747.907027	13680.693390
748.235720	13941.061424
748.564365	14023.408672
748.892963	13957.356954
749.221514	14070.624119
749.550017	13957.331748
749.878473	13932.350311
750.206881	13714.501888
750.535242	13648.417402
750.863555	13571.544847
751.191821	13468.561636
751.520039	13479.511022
751.848210	13393.403073
752.176334	13432.214917
752.504411	13365.575904
752.832440	13196.667003
753.160421	13311.559941
753.488356	13202.741594
753.816243	13119.930560
754.144082	12940.520935
754.471875	12888.644942
754.799620	12863.139224
755.127318	12824.188749
755.454969	12808.273826
755.782572	12775.329886
756.110129	12785.112245
756.437638	12707.291953
756.765100	12711.135832
757.092515	12726.617216
757.419882	12766.938885
757.747203	12769.714040
758.074477	12848.978623
758.401703	12822.867966
758.728882	13012.042306
759.056014	13059.580386
759.383099	13222.457547
759.710138	13352.257176
760.037129	13481.935817
760.364073	13545.585426
760.690970	13569.263725
761.017820	13579.744284
761.344623	13775.507412
761.671379	14089.452829
761.998088	14638.547909
762.324751	16035.333172
762.651366	18963.378999
762.977935	23276.991002
763.304456	26571.067448
763.630931	28175.197889
763.957359	27387.313434
764.283740	25336.977863
764.610074	23181.458616
764.936362	20575.212324
765.262602	18673.989042
765.588796	16692.739963
765.914943	15359.402662
766.241044	14219.721286
766.567097	13393.582034
766.893104	12650.505875
767.219064	12176.551714
767.544978	11692.840400
767.870845	11296.338526
768.196665	11067.097096
768.522438	10845.356903
768.848165	10632.617690
769.173846	10421.889898
769.499479	10294.578078
769.825066	10129.702100
770.150607	9905.285054
770.476101	9817.082506
770.801548	9702.978509
771.126949	9544.771978
771.452303	9436.354403
771.777611	9239.646059
772.102872	9227.862362
772.428087	9093.429913
772.753256	8947.672511
773.078378	8857.997946
773.403453	8683.730298
773.728482	8560.731186
774.053465	8483.009196
774.378401	8382.541521
774.703291	8260.432172
775.028135	8147.812795
775.352932	8116.260213
775.677683	8004.888522
776.002388	7908.156341
776.327046	7907.584170
776.651658	7803.496946
776.976224	7708.977832
777.300743	7708.042698
777.625216	7626.466746
777.949643	7581.527380
778.274024	7600.925740
778.598359	7512.302256
778.922647	7527.551746
779.246889	7478.730692
779.571086	7484.686815
779.895236	7488.150088
780.219339	7495.898341
780.543397	7496.780543
780.867409	7576.665188
781.191374	7587.357475
781.515294	7556.608957
781.839167	7653.532701
782.162995	7621.972558
782.486776	7574.225269
782.810511	7527.513937
783.134201	7441.035464
783.457844	7441.950433
783.781441	7380.493727
784.104993	7324.380643
784.428498	7299.678989
784.751958	7281.946731
785.075372	7253.484376
785.398739	7194.268462
785.722061	7232.404791
786.045337	7229.508648
786.368568	7371.938889
786.691752	7374.356122
787.014891	7674.960126
787.337983	7979.871796
787.661030	8524.661730
787.984031	9153.341506
788.306987	9589.734029
788.629897	9846.240540
788.952760	9848.388072
789.275579	9665.951234
789.598351	9295.592785
789.921078	8956.008059
790.243759	8553.673570
790.566395	8256.588292
790.888984	8006.678131
791.211529	7800.860422
791.534027	7571.243427
791.856480	7358.327773
792.178888	7283.708614
792.501249	7187.500713
792.823566	7027.819645
793.145836	7025.357041
793.468062	6993.179356
793.790241	6941.061387
794.112375	6995.347052
794.434464	7132.738659
794.756507	7162.375603
795.078505	7299.825183
795.400457	7582.732216
795.722364	7919.032630
796.044226	8206.879994
796.366042	8499.622319
796.687812	8476.153227
797.009538	8570.662259
797.331218	8482.782344
797.652852	8409.423474
797.974442	8260.913602
798.295986	8179.440994
798.617484	7988.782035
798.938938	7851.866817
799.260346	7752.019203
799.581709	7555.207516
799.903026	7473.908828
800.224299	7374.131791
800.545526	7204.454114
800.866708	7100.979390
801.187845	7039.457148
801.508936	6934.873371
801.829983	6890.322174
802.150984	6748.549804
802.471940	6703.645726
802.792851	6686.772984
803.113717	6655.618653
803.434538	6619.503827
803.755314	6564.189767
804.076045	6559.340177
804.396731	6502.334809
804.717372	6531.127359
805.037967	6528.425301
805.358518	6572.505150
805.679024	6648.694629
805.999485	6661.484036
806.319901	6700.043822
806.640272	6719.732048
806.960598	6807.243958
807.280879	6806.013917
807.601115	6887.098356
807.921306	6831.766651
808.241453	6847.295926
808.561554	6865.360900
808.881611	6837.495923
809.201623	6844.064546
809.521590	6796.135776
809.841513	6773.029647
810.161390	6806.538197
810.481223	6682.104876
810.801011	6668.077865
811.120755	6647.525081
811.440453	6566.433080
811.760107	6537.769079
812.079716	6508.797568
812.399281	6443.217198
812.718801	6430.074910
813.038276	6387.220061
813.357707	6321.594320
813.677093	6369.359253
813.996434	6266.557523
814.315731	6307.128729
814.634983	6299.723274
814.954191	6303.673018
815.273354	6398.161885
815.592473	6454.854702
815.911547	6572.195119
816.230577	6646.620194
816.549562	6794.643594
816.868502	6889.936525
817.187399	6980.576472
817.506250	7121.456557
817.825058	7150.639797
818.143821	7396.204483
818.462539	7629.199052
818.781213	7955.313815
819.099843	8431.375178
819.418429	9342.659518
819.736970	10239.011960
820.055466	11340.982985
820.373919	12707.085265
820.692327	14704.546695
821.010691	18019.869084
821.329011	25440.351763
821.647286	37061.592655
821.965517	50987.225628
822.283704	58465.064035
822.601847	61636.484167
822.919945	59475.291102
823.237999	55636.850699
823.556010	49678.373211
823.873976	43028.050289
824.191897	36560.998516
824.509775	31716.167365
824.827609	27078.517555
825.145398	24247.677778
825.463144	22591.419284
825.780845	22491.536383
826.098502	23716.234298
826.416116	27007.737235
826.733685	30730.863764
827.051210	32571.273087
827.368692	31631.062606
827.686129	28127.057391
828.003522	24128.946002
828.320872	20379.411388
828.638177	17493.779309
828.955439	15283.860972
829.272656	13454.055716
829.589830	11970.449180
829.906960	10675.149905
830.224046	9705.375578
830.541088	8923.114530
830.858086	8435.924819
831.175041	8038.553347
831.491952	7869.699899
831.808819	7855.355296
832.125642	8153.017786
832.442421	8852.142646
832.759157	10335.600467
833.075849	12900.232034
833.392497	16026.801020
833.709101	18514.373508
834.025662	18880.467142
834.342179	17544.589099
834.658653	15481.761548
834.975083	13555.372826
835.291469	11908.377453
835.607811	10575.869421
835.924110	9665.482407
836.240366	8794.474366
836.556578	7990.974937
836.872746	7337.568302
837.188871	6821.656617
837.504952	6391.757099
837.820990	6072.110137
838.136984	5840.277554
838.452935	5721.971755
838.768842	5697.254978
839.084706	5979.998174
839.400526	6945.633714
839.716303	8440.915562
840.032037	9677.513121
840.347727	9915.962218
840.663373	9118.575188
840.978977	8081.161179
841.294537	7249.706031
841.610054	6633.190560
841.925527	6202.794489
842.240957	5834.404610
842.556344	5509.978633
842.871687	5226.179316
843.186987	4945.036686
843.502244	4717.247109
843.817458	4546.455337
844.132629	4406.747320
844.447756	4313.531344
844.762840	4231.380701
845.077881	4154.588804
845.392879	4095.541769
845.707833	4043.136455
846.022745	4002.242615
846.337613	3976.333604
846.652438	3926.577416
846.967221	3911.733738
847.281960	3882.550499
847.596656	3864.530894
847.911309	3843.899972
848.225919	3819.652022
848.540485	3804.846153
848.855009	3787.698669
849.169490	3768.784259
849.483928	3755.077362
849.798323	3749.930344
850.112675	3732.462746
850.426984	3741.604878
850.741251	3726.158783
851.055474	3721.223493
851.369654	3724.056622
851.683792	3716.688976
851.997887	3724.611149
852.311938	3725.165676
852.625947	3726.302456
852.939914	3719.512022
853.253837	3730.126171
853.567718	3727.305646
853.881555	3719.035633
854.195350	3733.017273
854.509103	3726.930080
854.822812	3726.128536
855.136479	3716.353739
855.450103	3727.058629
855.763685	3712.555229
856.077224	3718.024881
856.390720	3731.086511
856.704173	3748.344901
857.017584	3760.252107
857.330953	3772.020680
857.644278	3791.872744
857.957561	3796.722334
858.270802	3801.937408
858.584000	3806.482008
858.897155	3797.385246
859.210268	3784.066517
859.523339	3760.433588
859.836367	3759.805964
860.149352	3754.500150
860.462295	3744.780805
860.775195	3734.166656
861.088054	3728.570975
861.400869	3723.494533
861.713642	3724.338927
862.026373	3732.956779
862.339062	3740.705033
862.651708	3755.843618
862.964312	3783.544758
863.276873	3800.969506
863.589392	3848.308461
863.901869	3894.611459
864.214303	3934.978499
864.526696	3969.402018
864.839045	4015.382382
865.151353	4041.994633
865.463619	4053.571643
865.775842	4054.768917
866.088023	4078.424532
866.400162	4067.588571
866.712258	4073.743820
867.024313	4081.111467
867.336325	4076.614757
867.648296	4083.354780
867.960224	4081.119028
868.272110	4093.510184
868.583954	4091.907097
868.895755	4106.433182
869.207515	4098.548818
869.519233	4136.964931
869.830909	4152.731139
870.142542	4173.543543
870.454134	4184.994524
870.765684	4214.570973
871.077191	4250.156478
871.388657	4272.932412
871.700081	4306.985406
872.011463	4348.143906
872.322803	4377.296899
872.634101	4410.828134
872.945357	4447.852888
873.256571	4496.842821
873.567744	4527.485475
873.878874	4552.691244
874.189963	4585.496553
874.501010	4596.692956
874.812015	4592.110547
875.122979	4632.858193
875.433900	4631.764263
875.744780	4647.714474
876.055618	4670.566024
876.366415	4666.273482
876.677169	4686.443138
876.987882	4724.985280
877.298554	4770.431282
877.609183	4837.284543
877.919771	4938.316828
878.230317	5063.430705
878.540822	5245.350824
878.851285	5523.504049
879.161707	5908.355816
879.472087	6549.502365
879.782425	7566.187149
880.092722	9383.654181
880.402977	12214.332642
880.713191	15725.786162
881.023363	19428.138096
881.333494	21890.567830
881.643583	23361.677345
881.953631	23588.491460
882.263637	22922.429008
882.573602	21644.022639
882.883526	20215.536080
883.193408	18646.645824
883.503248	17035.775359
883.813048	15560.020420
884.122806	14191.606771
884.432522	12768.481478
884.742197	11528.367714
885.051831	10452.880391
885.361424	9459.790727
885.670975	8636.454358
885.980485	7945.959954
886.289954	7376.135649
886.599382	6900.591004
886.908768	6522.549836
887.218113	6160.854609
887.527417	5872.679570
887.836680	5605.561431
888.145901	5390.861209
888.455082	5229.844235
888.764221	5076.033590
889.073319	4943.458805
889.382376	4863.803533
889.691392	4799.692659
890.000366	4771.222743
890.309300	4753.639198
890.618193	4756.212707
890.927044	4741.331221
891.235855	4756.300927
891.544625	4779.790184
891.853353	4827.025795
892.162041	4921.300413
892.470687	5080.056430
892.779293	5294.945695
893.087858	5613.203820
893.396381	6109.003821
893.704864	6788.216123
894.013306	7817.160993
894.321707	8944.655380
894.630068	9823.981325
894.938387	10175.143061
895.246665	10060.033354
895.554903	9535.594558
895.863100	8889.500116
896.171256	8362.329014
896.479371	7875.829942
896.787446	7385.784418
897.095480	6968.250850
897.403473	6661.708367
897.711425	6346.381674
898.019336	6087.571356
898.327207	5825.824566
898.635038	5600.308548
898.942827	5358.703689
899.250576	5160.175488
899.558284	4967.381601
899.865952	4845.693188
900.173579	4699.033420
900.481165	4591.966874
900.788711	4504.739789
901.096216	4427.043005
901.403681	4362.818705
901.711105	4330.595650
902.018489	4312.472702
902.325832	4363.186709
902.633135	4450.665852
902.940397	4709.950038
903.247619	5317.540147
903.554800	6507.388566
903.861941	8266.093388
904.169041	9837.892389
904.476101	10683.377068
904.783121	10550.056193
905.090100	9934.259086
905.397039	9144.025453
905.703938	8421.391173
906.010796	7751.333607
906.317614	7217.853501
906.624391	6703.552465
906.931129	6286.840606
907.237826	5905.696607
907.544483	5547.638573
907.851099	5183.878994
908.157675	4834.121219
908.464211	4510.156509
908.770707	4265.718520
909.077163	4063.280905
909.383578	3914.622320
909.689954	3794.751243
909.996289	3720.666446
910.302584	3653.316631
910.608839	3618.905714
910.915054	3586.705344
911.221229	3569.129361
911.527363	3580.240064
911.833458	3587.466558
912.139513	3611.573356
912.445527	3630.943990
912.751502	3701.673899
913.057436	3788.399389
913.363331	3902.296698
913.669186	4077.817072
913.975000	4300.043737
914.280775	4658.260567
914.586510	5151.718953
914.892205	5838.762687
915.197859	6759.136227
915.503475	7895.722335
915.809050	8946.311399
916.114585	9664.670781
916.420081	10027.906081
916.725536	10081.175953
917.030952	9717.980983
917.336328	9353.190488
917.641665	8980.702151
917.946961	8533.599696
918.252218	8138.176629
918.557435	7644.067935
918.862612	7240.561378
919.167750	6885.873355
919.472848	6483.377550
919.777906	6128.255988
920.082925	5775.324807
920.387904	5411.666051
920.692843	5141.429958
920.997743	4894.559613
921.302603	4661.338192
921.607423	4500.104448
921.912204	4337.852391
922.216946	4223.834094
922.521647	4106.639870
922.826310	4002.696318
923.130932	3914.035025
923.435516	3812.332267
923.740059	3747.553440
924.044564	3672.709949
924.349028	3616.952267
924.653454	3555.845921
924.957840	3488.664984
925.262186	3443.171091
925.566493	3383.720764
925.870761	3328.870490
926.174989	3293.320273
926.479178	3259.363060
926.783328	3218.144066
927.087438	3190.881506
927.391509	3156.916732
927.695541	3126.962196
927.999533	3100.281889
928.303486	3082.146338
928.607400	3067.872311
928.911275	3054.266237
929.215110	3035.190511
929.518906	3029.430992
929.822663	3025.720703
930.126381	3023.169879
930.430060	3029.123482
930.733699	3031.039120
931.037299	3040.697971
931.340861	3038.215203
931.644383	3047.440514
931.947866	3047.536296
932.251309	3041.383568
932.554714	3044.120915
932.858080	3035.704708
933.161407	3028.102648
933.464694	3021.559231
933.767943	3014.637726
934.071153	3011.988600
934.374323	3001.727331
934.677455	2996.572752
934.980548	2988.017913
935.283602	2982.964157
935.586617	2977.824700
935.889593	2986.145125
936.192530	2988.509426
936.495428	3002.423011
936.798287	3015.822398
937.101108	3046.399516
937.403890	3087.353850
937.706632	3145.463230
938.009336	3222.555076
938.312002	3288.750467
938.614628	3352.500898
938.917216	3405.629619
939.219765	3439.672531
939.522275	3472.815597
939.824747	3481.377996
940.127179	3479.699292
940.429573	3475.684013
940.731929	3475.580669
941.034246	3463.403762
941.336524	3451.599901
941.638763	3439.816203
941.940964	3425.690890
942.243126	3388.824932
942.545250	3366.878269
942.847335	3332.258145
943.149381	3296.130716
943.451389	3267.202055
943.753359	3231.800552
944.055290	3206.055379
944.357182	3180.632840
944.659036	3170.686644
944.960851	3157.221722
945.262628	3142.506594
945.564367	3145.861482
945.866067	3141.551295
946.167729	3135.640542
946.469352	3132.235243
946.770937	3131.731127
947.072484	3114.777727
947.373992	3118.125053
947.675462	3110.409567
947.976893	3095.291147
948.278286	3091.268306
948.579641	3081.556523
948.880958	3074.985379
949.182236	3077.536203
949.483476	3067.340469
949.784678	3066.314594
950.085841	3070.125707
950.386967	3077.329516
950.688054	3092.344592
950.989103	3113.020885
951.290114	3126.407669
951.591087	3151.310969
951.892021	3181.194929
952.192917	3209.437993
952.493776	3233.559914
952.794596	3243.291862
953.095378	3250.868716
953.396122	3247.949888
953.696828	3240.269690
953.997496	3233.668299
954.298126	3213.773386
954.598718	3195.630273
954.899272	3171.407529
955.199788	3147.875422
955.500266	3117.898201
955.800706	3085.317224
956.101108	3049.056204
956.401472	3017.422964
956.701798	2988.653099
957.002087	2948.109619
957.302337	2922.606422
957.602550	2893.471073
957.902724	2863.539222
958.202861	2840.160871
958.502960	2822.358036
958.803022	2802.193421
959.103045	2780.652571
959.403031	2764.089860
959.702979	2750.627458
960.002889	2739.693196
960.302762	2727.806155
960.602596	2714.389124
960.902393	2708.291848
961.202153	2698.852288
961.501875	2688.812830
961.801559	2683.154135
962.101205	2679.214473
962.400814	2671.940088
962.700385	2665.905827
962.999918	2660.872235
963.299414	2654.192706
963.598873	2652.849238
963.898293	2645.988228
964.197677	2646.383958
964.497022	2643.717188
964.796331	2643.104688
965.095601	2638.239974
965.394835	2635.434572
965.694030	2637.216620
965.993189	2633.894500
966.292309	2631.759571
966.591393	2629.869138
966.890439	2631.066412
967.189447	2629.579272
967.488419	2632.707308
967.787353	2631.802421
968.086249	2634.423821
968.385108	2637.120838
968.683930	2637.569501
968.982714	2639.921199
969.281462	2646.058804
969.580172	2649.764052
969.878844	2653.882675
970.177480	2661.774601
970.476078	2670.614264
970.774639	2676.519976
971.073162	2682.632375
971.371649	2687.161852
971.670098	2694.090918
971.968510	2700.203317
972.266885	2701.493852
972.565223	2709.206818
972.863524	2709.831921
973.161788	2713.368290
973.460014	2715.876264
973.758204	2719.347099
974.056356	2722.107130
974.354471	2724.441185
974.652550	2722.616287
974.950591	2720.693087
975.248595	2720.130998
975.546563	2718.177551
975.844493	2716.471120
976.142386	2713.471634
976.440243	2706.729091
976.738062	2699.500076
977.035845	2694.789118
977.333590	2690.950279
977.631299	2683.796882
977.928971	2679.355625
978.226606	2672.343380
978.524204	2667.982782
978.821765	2666.669562
979.119290	2668.562515
979.416777	2665.308450
979.714228	2668.325581
980.011642	2670.762978
980.309020	2677.056859
980.606360	2687.981039
980.903664	2709.605069
981.200931	2735.700602
981.498162	2776.443207
981.795356	2842.832683
982.092513	2920.605084
982.389633	3016.230731
982.686717	3108.390585
982.983764	3187.214067
983.280775	3245.451996
983.577749	3260.577978
983.874686	3249.976432
984.171587	3226.096486
984.468451	3194.087680
984.765279	3152.868685
985.062070	3110.129783
985.358824	3073.382292
985.655543	3018.839528
985.952224	2968.828761
986.248869	2910.185019
986.545478	2850.991790
986.842050	2796.910292
987.138586	2753.911770
987.435086	2713.456510
987.731549	2682.216480
988.027975	2659.798469
988.324366	2641.231899
988.620719	2627.837553
988.917037	2616.026130
989.213318	2603.498863
989.509563	2598.450147
989.805772	2595.155753
990.101944	2590.543097
990.398080	2587.871286
990.694180	2585.973291
990.990244	2587.858683
991.286271	2586.580750
991.582262	2585.491861
991.878217	2584.760894
992.174136	2591.344641
992.470019	2595.344796
992.765865	2596.315218
993.061676	2599.811259
993.357450	2606.962135
993.653188	2611.869699
993.948890	2631.867956
994.244556	2642.524955
994.540186	2666.664520
994.835780	2692.505475
995.131337	2728.337997
995.426859	2761.145826
995.722345	2808.941005
996.017795	2855.705269
996.313208	2892.483007
996.608586	2924.287647
996.903928	2936.983793
997.199234	2941.409926
997.494504	2942.760955
997.789738	2930.251332
998.084936	2907.810635
998.380099	2880.578322
998.675225	2854.931452
998.970316	2827.041268
999.265371	2790.823098
999.560390	2757.856473
999.855373	2729.958727
1000.150320	2701.622402
1000.445232	2675.436128
1000.740108	2654.543066
1001.034948	2639.217958
1001.329752	2623.756739
1001.624521	2609.570932
1001.919254	2598.997112
1002.213951	2591.939497
1002.508613	2581.753846
1002.803239	2578.575398
1003.097829	2570.136507
1003.392384	2566.138872
1003.686903	2559.446740
1003.981386	2558.357851
1004.275834	2556.406924
1004.570246	2550.864175
1004.864623	2551.191850
1005.158964	2546.130532
1005.453270	2545.051725
1005.747540	2541.364121
1006.041775	2540.008051
1006.335974	2540.171888
1006.630138	2541.656508
1006.924266	2541.081816
1007.218359	2538.956970
1007.512416	2536.496887
1007.806438	2534.170394
1008.100425	2535.176105
1008.394376	2532.153933
1008.688292	2535.859181
1008.982172	2536.038142
1009.276017	2536.804397
1009.569827	2532.398429
1009.863602	2532.113604
1010.157341	2532.214427
1010.451045	2529.688809
1010.744714	2530.076977
1011.038347	2529.890455
1011.331945	2531.241484
1011.625508	2527.889117
1011.919036	2527.437933
1012.212528	2528.191586
1012.505986	2522.757222
1012.799408	2524.372912
1013.092795	2524.725793
1013.386147	2524.594723
1013.679464	2522.316121
1013.972745	2522.086749
1014.265992	2522.371574
1014.559204	2522.411903
1014.852380	2525.580268
1015.145521	2521.338137
1015.438628	2525.446678
1015.731699	2523.881399
1016.024736	2525.146729
1016.317737	2525.328211
1016.610703	2525.343334
1016.903635	2529.613191
1017.196531	2528.930115
1017.489393	2530.477749
1017.782219	2530.744930
1018.075011	2532.136289
1018.367768	2533.746938
1018.660490	2535.629808
1018.953177	2535.629808
1019.245829	2535.629808
