Dividing Wavelength (nm)	Counts (n)	Blue Motor Position (mm): 32.000000	Red Motor Position (mm): 0.000000	
326.493990	2068.428273
326.888308	2068.428273
327.282561	2068.428273
327.676750	2041.836186
328.070874	2043.252751
328.464933	2050.640562
328.858929	2057.176418
329.252859	2067.535989
329.646726	2078.119891
330.040528	2099.075968
330.434265	2112.850921
330.827938	2136.136010
331.221547	2155.857004
331.615091	2173.662359
332.008571	2198.631194
332.401986	2216.376056
332.795338	2238.088306
333.188625	2256.773342
333.581847	2276.837135
333.975006	2295.718776
334.368100	2309.586991
334.761129	2327.694815
335.154095	2342.362052
335.546996	2394.192676
335.939833	2499.451968
336.332606	2508.543689
336.725315	2519.679598
337.117960	2533.245343
337.510540	2543.998124
337.903056	2549.548434
338.295508	2553.384752
338.687896	2564.099725
339.080220	2569.592062
339.472480	2572.155489
339.864676	2579.409709
340.256807	2580.748135
340.648875	2584.554207
341.040879	2579.462641
341.432818	2584.367684
341.824694	2588.408169
342.216506	2586.038826
342.608253	2587.967068
342.999937	2585.055801
343.391557	2583.412385
343.783113	2580.675039
344.174605	2583.384659
344.566033	2578.519945
344.957397	2577.657908
345.348697	2577.453741
345.739934	2573.390571
346.131106	2575.606158
346.522215	2572.324367
346.913260	2569.556774
347.304241	2568.193142
347.695159	2566.900086
348.086012	2563.252811
348.476802	2561.072512
348.867528	2559.434137
349.258191	2557.500854
349.648789	2556.684187
350.039324	2552.361398
350.429796	2555.731409
350.820203	2558.393139
351.210548	2556.419527
351.600828	2555.643189
351.991045	2556.081770
352.381198	2552.585729
352.771288	2551.920297
353.161314	2556.119578
353.551276	2553.709907
353.941175	2550.720503
354.331010	2551.779145
354.720782	2557.079918
355.110490	2555.731409
355.500135	2555.605381
355.889717	2554.455998
356.279235	2555.179403
356.668689	2554.944989
357.058080	2553.664536
357.447408	2557.367264
357.836672	2556.631255
358.225873	2556.427089
358.615010	2556.984136
359.004084	2556.454815
359.393095	2555.249979
359.782043	2556.177552
360.170927	2558.418344
360.559748	2557.304249
360.948505	2561.649724
361.337199	2559.073694
361.725830	2560.389436
362.114398	2563.441854
362.502903	2560.175187
362.891344	2562.715928
363.279722	2563.368758
363.668037	2564.273645
364.056289	2562.151319
364.444478	2563.439334
364.832603	2565.722976
365.220665	2563.507389
365.608665	2565.629715
365.996601	2567.590724
366.384474	2566.721125
366.772284	2567.308419
367.160031	2563.991340
367.547715	2565.816238
367.935336	2566.781619
368.322893	2568.079716
368.710388	2565.395301
369.097820	2562.809189
369.485189	2564.336659
369.872495	2569.561815
370.259738	2570.121383
370.646918	2568.203224
371.034035	2571.908472
371.421090	2569.569377
371.808081	2567.779767
372.195010	2568.533420
372.581875	2571.865622
372.968678	2570.373441
373.355418	2572.589028
373.742096	2571.865622
374.128710	2572.765468
374.515262	2575.376786
374.901751	2574.983576
375.288177	2572.384861
375.674540	2571.815211
376.060841	2574.560119
376.447079	2572.165571
376.833254	2577.284863
377.219367	2576.687486
377.605417	2574.371076
377.991404	2578.300655
378.377329	2575.921231
378.763191	2575.094481
379.148991	2578.076324
379.534727	2575.230592
379.920402	2577.010120
380.306013	2574.890315
380.691563	2578.638412
381.077049	2577.841910
381.462474	2575.880901
381.847835	2578.169585
382.233134	2577.189081
382.618371	2579.611355
383.003545	2579.523135
383.388657	2580.503639
383.773706	2580.891808
384.158693	2582.026068
384.543618	2583.883733
384.928480	2580.513722
385.313280	2579.961715
385.698017	2583.041860
386.082692	2584.324834
386.467305	2582.691500
386.851856	2582.633527
387.236344	2581.406006
387.620770	2583.215780
388.005133	2579.901222
388.389435	2580.440625
388.773674	2579.588670
389.157851	2584.962540
389.541965	2586.288363
389.926018	2586.250555
390.310008	2583.253589
390.693936	2586.603436
391.077802	2588.768611
391.461606	2588.861873
391.845348	2588.216605
392.229027	2588.108220
392.612645	2590.505289
392.996200	2586.462283
393.379694	2587.619228
393.763125	2591.034610
394.146494	2590.714497
394.529801	2589.141657
394.913047	2593.111565
395.296230	2590.951431
395.679351	2592.252048
396.062410	2591.858838
396.445408	2593.880341
396.828343	2592.274734
397.211217	2592.950248
397.594028	2596.053078
397.976778	2593.522419
398.359466	2594.674323
398.742092	2592.373036
399.124656	2595.601895
399.507158	2596.151381
399.889598	2594.271031
400.271977	2594.717173
400.654294	2594.586103
401.036549	2595.261617
401.418742	2596.794128
401.800874	2596.839498
402.182944	2597.509972
402.564952	2597.411669
402.946898	2600.822010
403.328783	2598.387133
403.710606	2599.213882
404.092367	2601.638677
404.474067	2600.305292
404.855705	2601.517689
405.237282	2603.511466
405.618797	2602.422576
406.000250	2603.836620
406.381642	2603.269490
406.762972	2603.932402
407.144240	2601.452154
407.525447	2604.741507
407.906593	2601.336208
408.287677	2605.170005
408.668700	2607.393154
409.049661	2608.880294
409.430560	2607.312496
409.811399	2605.686723
410.192176	2610.848865
410.572891	2611.650408
410.953545	2611.642847
411.334138	2611.378186
411.714669	2612.023454
412.095139	2613.220728
412.475547	2612.789709
412.855894	2612.731736
413.236180	2616.454628
413.616405	2613.881119
413.996568	2614.569237
414.376670	2615.481685
414.756711	2613.939092
415.136691	2621.533591
415.516609	2619.378497
415.896466	2624.616256
416.276262	2622.448560
416.655997	2622.314969
417.035670	2625.695063
417.415283	2631.399129
417.794834	2628.024076
418.174324	2628.359313
418.553753	2632.614047
418.933121	2635.593369
419.312428	2642.247692
419.691674	2645.224493
420.070859	2650.910915
420.449983	2652.821512
420.829045	2658.518016
421.208047	2663.954900
421.586988	2672.368586
421.965867	2681.609021
422.344686	2689.805937
422.723444	2702.602906
423.102141	2702.862526
423.480777	2719.836091
423.859352	2728.116186
424.237866	2745.820718
424.616319	2763.779829
424.994712	2784.831687
425.373044	2795.607153
425.751314	2822.443736
426.129524	2826.854746
426.507673	2860.615353
426.885762	2880.979094
427.263789	2912.478744
427.641756	2940.283228
428.019662	2967.124851
428.397508	2998.884121
428.775292	3023.999149
429.153016	3067.174111
429.530679	3094.091352
429.908282	3128.814820
430.285824	3152.568737
430.663305	3216.311607
431.040726	3239.705081
431.418086	3274.405863
431.795385	3326.022238
432.172624	3389.893657
432.549802	3414.159251
432.926920	3476.082264
433.303977	3505.152078
433.680974	3552.566650
434.057910	3634.979433
434.434786	3691.122764
434.811601	3731.262951
435.188355	3844.547761
435.565050	3872.054817
435.941683	3924.213115
436.318257	4050.685582
436.694770	4095.312397
437.071222	4204.158470
437.447614	4207.057134
437.823946	4252.248557
438.200218	4353.777396
438.576429	4378.194224
438.952580	4485.449814
439.328670	4548.683527
439.704700	4635.610663
440.080670	4665.361033
440.456580	4812.025842
440.832429	4873.190162
441.208218	4845.516748
441.583947	4952.048931
441.959616	5062.409871
442.335224	5145.818282
442.710773	5236.707766
443.086261	5382.261001
443.461689	5340.535370
443.837057	5478.710877
444.212365	5636.428416
444.587612	5706.051792
444.962800	5733.268981
445.337927	5865.901739
445.712995	5722.864040
446.088002	6113.634121
446.462949	6224.612602
446.837837	6297.505167
447.212664	6389.170987
447.587431	6905.029740
447.962139	7544.550517
448.336786	8142.353225
448.711374	8111.909697
449.085901	7515.155549
449.460369	7566.948363
449.834776	7533.192797
450.209124	8185.150101
450.583412	8169.835075
450.957640	8440.575284
451.331808	8279.333978
451.705917	8008.540837
452.079965	8012.125098
452.453954	8230.079384
452.827883	8272.344418
453.201752	8332.503028
453.575562	8422.104496
453.949311	8749.577850
454.323001	8878.938899
454.696632	8898.344821
455.070202	9403.748220
455.443713	9530.883599
455.817164	9739.078212
456.190556	10067.829498
456.563888	10039.457885
456.937160	10313.815121
457.310373	10001.644190
457.683526	10077.511034
458.056619	10171.644500
458.429653	10303.100148
458.802628	10488.044960
459.175542	10605.962589
459.548398	11117.574170
459.921194	11646.449181
460.293930	11960.497942
460.666607	12763.084923
461.039224	13519.759595
461.411782	13892.499989
461.784280	13690.087580
462.156719	13704.686762
462.529099	13697.213251
462.901419	13209.665619
463.273680	12914.543870
463.645882	13176.146987
464.018024	13133.702992
464.390106	13528.712684
464.762130	14561.753492
465.134094	16017.852972
465.505999	18175.436571
465.877845	20320.505506
466.249631	21529.164990
466.621358	21160.616315
466.993026	20458.154211
467.364634	19821.164094
467.736184	19120.562176
468.107674	18590.820086
468.479105	18507.807406
468.850477	18286.178118
469.221790	17908.338596
469.593043	17298.905946
469.964238	16972.143395
470.335373	17053.368986
470.706449	17788.732180
471.077467	18670.432508
471.448425	21102.544743
471.819324	22934.984001
472.190164	22848.623995
472.560945	21180.322185
472.931667	19675.996507
473.302330	19376.521722
473.672934	18853.174335
474.043479	19285.367578
474.413965	19092.830789
474.784393	18933.353887
475.154761	19601.689899
475.525070	19737.939685
475.895321	19578.520756
476.265513	20124.452512
476.635645	20714.065866
477.005719	20786.741660
477.375734	21147.952936
477.745691	21782.999689
478.115588	22406.701325
478.485427	23602.944448
478.855207	25413.684059
479.224928	27207.707205
479.594591	28613.987482
479.964194	28237.141067
480.333739	28682.186732
480.703226	28902.868282
481.072653	29351.223464
481.442022	29859.583501
481.811333	30273.464752
482.180584	29833.971918
482.549777	29623.518869
482.918912	29393.667459
483.287988	29338.708800
483.657005	29193.657160
484.025964	28824.067486
484.394864	29019.124852
484.763706	28953.189080
485.132489	28414.728314
485.501213	28489.929727
485.869879	28651.566763
486.238487	28594.715151
486.607036	28867.552479
486.975527	28550.363079
487.343959	28909.724252
487.712333	29243.567103
488.080648	29203.018583
488.448905	29626.793098
488.817104	29522.703354
489.185244	30341.356491
489.553326	31283.858176
489.921350	33190.046995
490.289315	35693.080703
490.657222	36574.218942
491.025070	37128.869373
491.392861	36851.525253
491.760593	36065.490902
492.128267	35068.585085
492.495883	34068.344544
492.863440	33175.727597
493.230939	32214.377038
493.598380	31653.979692
493.965763	31491.861225
494.333088	31005.709992
494.700354	30805.155248
495.067563	30755.603226
495.434713	30632.886418
495.801805	30915.329665
496.168839	30753.047361
496.535815	30610.677615
496.902733	30718.676774
497.269593	30546.377698
497.636395	30699.515349
498.003139	30952.845932
498.369825	30712.236700
498.736453	31112.022886
499.103023	30937.543510
499.469535	31027.608764
499.835989	31131.438890
500.202385	31003.716216
500.568723	31046.167772
500.935003	31333.692502
501.301226	31210.395962
501.667390	31914.637592
502.033497	32113.979939
502.399546	31901.752403
502.765537	31509.837980
503.131470	31983.562768
503.497345	32401.789494
503.863163	31345.682887
504.228923	32098.579214
504.594625	32486.916939
504.960269	31958.992184
505.325856	32605.580659
505.691385	32262.323452
506.056856	32590.104317
506.422270	33064.555032
506.787625	32579.439756
507.152924	33035.641494
507.518164	33206.082905
507.883347	32783.054480
508.248472	32917.870057
508.613540	33576.930347
508.978550	33795.509736
509.343503	33612.561222
509.708398	33984.449662
510.073236	34566.579423
510.438016	34660.143238
510.802738	34337.602653
511.167403	34864.521697
511.532010	35099.189930
511.896561	35596.398933
512.261053	36326.078226
512.625488	36114.717769
512.989866	36039.791099
513.354186	36081.219302
513.718449	36054.246608
514.082655	36890.004381
514.446803	36583.202278
514.810894	37179.727054
515.174927	37167.872781
515.538904	37198.248253
515.902822	37827.802669
516.266684	37504.112701
516.630488	37839.747683
516.994235	37847.037192
517.357925	38411.611134
517.721558	38651.365891
518.085133	39029.026452
518.448651	39210.366838
518.812112	39100.958676
519.175516	39240.487732
519.538863	39683.516935
519.902152	39747.602603
520.265385	40285.176126
520.628560	40298.220111
520.991678	40227.109595
521.354739	40435.548704
521.717743	40812.518627
522.080690	40717.412218
522.443580	41375.108875
522.806413	41372.434543
523.169189	41521.937522
523.531908	41749.011256
523.894569	41585.561925
524.257174	41794.290900
524.619722	42111.240845
524.982213	42249.378543
525.344647	42303.588591
525.707025	42423.752054
526.069345	42845.336189
526.431608	42774.986887
526.793815	43139.943740
527.155964	42699.546020
527.518057	42958.396667
527.880093	42813.496261
528.242072	43430.992237
528.603995	43164.567256
528.965860	43095.551339
529.327669	43310.251561
529.689421	43353.121533
530.051117	43308.799709
530.412755	43587.373870
530.774337	43634.927075
531.135862	43562.140375
531.497331	43732.806118
531.858743	43719.011000
532.220098	44125.028052
532.581396	43832.749513
532.942638	43613.983601
533.303824	43863.674472
533.664953	43929.083443
534.026025	43595.744706
534.387040	44165.468188
534.747999	44241.070372
535.108902	44574.119242
535.469748	43888.948296
535.830537	44151.960416
536.191270	44396.549639
536.551947	44147.619982
536.912567	44432.510710
537.273131	44543.227051
537.633638	44173.806256
537.994089	44344.103995
538.354483	44129.161798
538.714821	44760.994815
539.075103	45038.422114
539.435328	44907.601651
539.795497	44689.906984
540.155609	44810.355273
540.515665	45369.842691
540.875665	44662.198282
541.235609	44951.000945
541.595496	45109.361231
541.955328	45674.492221
542.315102	45106.288648
542.674821	45018.360842
543.034483	44905.789356
543.394090	44928.182162
543.753640	44935.794304
544.113134	45964.918135
544.472571	45072.628863
544.831953	46180.734973
545.191278	45462.279809
545.550548	45175.037383
545.909761	45790.121167
546.268918	45920.203101
546.628019	46320.183370
546.987064	45778.707995
547.346053	45100.561897
547.704986	45992.828484
548.063863	45635.362785
548.422684	45831.854359
548.781449	45417.884888
549.140158	45933.196675
549.498811	45706.468260
549.857408	45116.229803
550.215949	45950.485312
550.574434	45787.497246
550.932864	45727.527680
551.291237	46432.326358
551.649555	46180.797987
552.007817	46363.358332
552.366022	46053.851651
552.724173	46131.803013
553.082267	46516.299378
553.440305	46884.366624
553.798288	46161.477765
554.156215	46543.546815
554.514086	46728.736122
554.871902	46326.888105
555.229661	46498.751122
555.587365	46190.295521
555.945014	46310.045610
556.302606	46329.184351
556.660143	46420.643484
557.017625	46640.702453
557.375050	46343.380240
557.732421	46736.837256
558.089735	46801.313614
558.446994	46658.916141
558.804197	47158.776792
559.161345	46994.047008
559.518437	46369.400155
559.875474	46620.081613
560.232455	46827.998962
560.589381	46866.347019
560.946251	46702.007924
561.303065	47332.452104
561.659825	47018.794032
562.016528	46844.942280
562.373177	46420.008299
562.729770	47064.449242
563.086307	46568.434992
563.442789	47127.675393
563.799216	46953.705174
564.155587	46886.136069
564.511904	46829.276894
564.868164	46880.021149
565.224370	47184.272428
565.580520	46910.409224
565.936615	47111.498331
566.292654	46750.476098
566.648638	47126.339488
567.004567	47078.367868
567.360441	47150.635329
567.716260	46869.233080
568.072023	47274.874565
568.427732	47177.759257
568.783385	46708.808441
569.138982	47132.116650
569.494525	47274.567055
569.850013	46879.048206
570.205445	47005.200561
570.560823	46780.488607
570.916145	46646.008267
571.271412	46872.678708
571.626625	46514.232505
571.981782	46617.160264
572.336884	46230.029896
572.691931	46534.475259
573.046923	46199.157869
573.401860	46035.151491
573.756743	46054.164202
574.111570	46199.084773
574.466342	46111.053624
574.821059	46278.876156
575.175722	45761.232835
575.530330	45847.260125
575.884882	45513.228230
576.239380	45412.289207
576.593823	45519.063366
576.948211	45446.417818
577.302544	45019.462334
577.656823	44978.303834
578.011047	45263.108862
578.365216	45109.373834
578.719330	44823.805071
579.073389	44784.027847
579.427394	44853.300862
579.781344	44757.972643
580.135239	44524.012693
580.489080	44577.595118
580.842866	44081.235548
581.196597	44570.275362
581.550273	44565.887038
581.903895	44498.237274
582.257463	44934.508810
582.610975	44371.376637
582.964434	44686.927662
583.317837	44183.081979
583.671186	44155.166590
584.024481	44437.413232
584.377721	44006.230741
584.730906	44229.284154
585.084037	44387.253751
585.437113	44080.428963
585.790135	44204.368251
586.143103	43791.391887
586.496016	43945.459631
586.848874	44062.729472
587.201679	44089.555972
587.554428	43585.735495
587.907124	43852.621742
588.259765	43630.495900
588.612352	43776.253302
588.964884	43253.427675
589.317362	43544.692941
589.669786	43546.215370
590.022155	43438.407774
590.374470	43898.425666
590.726731	43482.815298
591.078937	42835.427801
591.431090	43183.370760
591.783188	42695.500494
592.135232	42502.147038
592.487222	42756.947118
592.839157	42912.554934
593.191038	42561.466295
593.542866	42376.818912
593.894639	41762.680345
594.246358	42058.631364
594.598022	42067.231572
594.949633	41651.469970
595.301190	41660.213852
595.652692	41592.758172
596.004141	42085.964500
596.355535	40999.661381
596.706876	41006.235046
597.058162	40718.213762
597.409395	41222.074568
597.760573	41444.132354
598.111698	41071.465056
598.462768	40970.019396
598.813785	41009.920129
599.164748	40610.171753
599.515657	40877.786446
599.866511	40392.053628
600.217312	41076.160891
600.568060	40028.649451
600.918753	40841.185148
601.269392	40758.142221
601.619978	40502.482624
601.970510	40696.655267
602.320988	40830.755001
602.671412	41102.873965
603.021783	40955.558847
603.372100	40557.690820
603.722363	40651.262197
604.072572	40686.472137
604.422728	40691.286438
604.772830	40464.454680
605.122878	40641.578141
605.472872	40510.291371
605.822813	40757.701120
606.172701	40502.054126
606.522534	40819.853506
606.872314	41032.217152
607.222041	40873.745961
607.571714	41199.956506
607.921333	40691.478002
608.270899	40874.461805
608.620411	41259.933633
608.969870	41027.483509
609.319276	41052.384288
609.668627	41083.614237
610.017926	41460.107770
610.367171	41623.562143
610.716362	41643.509988
611.065500	41558.702657
611.414585	41791.971969
611.763616	41948.126751
612.112594	41857.330529
612.461518	41973.652633
612.810389	42368.324568
613.159207	42151.927998
613.507971	42123.042186
613.856682	42631.747542
614.205340	42453.623412
614.553945	43148.385152
614.902496	42500.291893
615.250994	42916.431582
615.599439	42977.250582
615.947830	43070.191815
616.296169	43096.796504
616.644454	43132.886125
616.992686	43283.185606
617.340864	43721.589550
617.688990	43236.633071
618.037063	43913.314713
618.385082	43726.424017
618.733048	44070.417232
619.080961	43956.572855
619.428821	44010.901370
619.776628	44035.250143
620.124382	43864.952404
620.472083	43985.012524
620.819731	44086.848873
621.167326	43673.244885
621.514868	43672.350080
621.862357	43127.240032
622.209793	43217.264958
622.557176	42792.265442
622.904506	42551.583113
623.251783	42197.595811
623.599007	41886.975034
623.946179	41809.149701
624.293297	41544.592468
624.640363	41006.429130
624.987376	40879.752496
625.334336	40678.935612
625.681243	40265.218198
626.028097	40175.213437
626.374899	39993.598308
626.721647	39967.674174
627.068343	39745.288713
627.414987	39457.292635
627.761577	39187.447232
628.108115	39528.945076
628.454600	38761.192468
628.801032	39021.099237
629.147412	38904.479705
629.493739	38783.784399
629.840014	38375.211483
630.186236	38791.719175
630.532405	38211.555464
630.878521	38482.817432
631.224585	38237.671162
631.570597	37911.818539
631.916556	38063.103566
632.262462	37983.876792
632.608316	37920.552338
632.954117	37779.289125
633.299866	37741.959381
633.645562	37655.329672
633.991206	37155.842067
634.336797	36752.043123
634.682336	36658.726325
635.027823	36418.064161
635.373257	36326.466395
635.718639	35974.573692
636.063968	35874.199278
636.409245	35236.183285
636.754470	35187.901634
637.099642	34967.583047
637.444762	34380.074375
637.789829	34510.907440
638.134845	34122.413440
638.479808	34033.845408
638.824719	33992.611290
639.169577	33485.032633
639.514383	33593.959364
639.859137	33217.007086
640.203839	33383.344998
640.548489	33102.502317
640.893086	33075.557350
641.237632	32795.375060
641.582125	32882.965108
641.926566	32657.602846
642.270955	32697.128013
642.615292	32634.332880
642.959576	32515.555734
643.303809	32518.545138
643.647990	32631.610657
643.992118	32586.545262
644.336195	32425.190530
644.680219	32479.846720
645.024192	32676.250074
645.368112	33187.198743
645.711981	33217.105388
646.055797	33907.468722
646.399562	33701.615725
646.743274	34570.738375
647.086935	34968.669415
647.430544	34957.490657
647.774101	34980.211137
648.117606	35289.967356
648.461059	35439.361950
648.804460	35064.264816
649.147810	34561.651695
649.491108	34237.124896
649.834354	34134.489524
650.177548	33331.012780
650.520690	32803.783705
650.863781	32797.661223
651.206820	32621.084728
651.549807	32197.441282
651.892742	31625.439199
652.235626	31531.877904
652.578458	31400.155075
652.921238	30688.525633
653.263967	30965.186677
653.606644	30658.147640
653.949269	30574.409034
654.291843	30191.835868
654.634365	30542.886699
654.976836	30088.411556
655.319255	30185.083243
655.661622	30036.722085
656.003938	29906.778783
656.346203	29727.716998
656.688416	29980.326697
657.030577	29771.050757
657.372687	29583.381202
657.714746	29722.706091
658.056753	29914.998384
658.398708	29284.521437
658.740612	29353.844864
659.082465	29562.382276
659.424266	29450.317426
659.766016	29443.867269
660.107715	29294.621389
660.449362	29397.372707
660.790958	29368.426402
661.132503	29281.844585
661.473996	29378.392763
661.815438	29447.212075
662.156829	29579.020604
662.498168	29378.493586
662.839456	29347.125006
663.180693	29478.033689
663.521879	29538.126764
663.863013	29495.259312
664.204097	29477.511930
664.545129	29875.742919
664.886110	29805.063422
665.227040	29915.101728
665.567918	29912.399669
665.908746	29969.624327
666.249522	30051.477542
666.590248	30089.218141
666.930922	30192.218996
667.271545	30198.752331
667.612118	30268.146335
667.952639	30067.379862
668.293109	30116.836102
668.633528	29959.352976
668.973896	29927.258470
669.314213	29902.816436
669.654480	29696.328254
669.994695	29685.918271
670.334859	29614.948907
670.674973	29420.398177
671.015035	29615.503434
671.355047	29536.120385
671.695008	29462.824528
672.034918	29375.962927
672.374777	29463.114395
672.714585	29347.639204
673.054342	29477.721138
673.394049	29324.712036
673.733705	29553.121676
674.073310	29255.030687
674.412864	29323.970987
674.752368	29049.883452
675.091820	29287.568815
675.431223	28890.656087
675.770574	28686.416260
676.109875	28529.838021
676.449125	28309.584969
676.788324	28233.176200
677.127473	27755.350432
677.466571	27637.400035
677.805619	27364.908026
678.144616	27286.039174
678.483562	27237.092091
678.822458	26909.139827
679.161303	26871.648766
679.500098	26788.363863
679.838842	26701.429165
680.177535	26756.523936
680.516179	26976.754303
680.854771	27046.760807
681.193314	27738.918792
681.531805	28672.643827
681.870247	29433.805126
682.208638	30230.619985
682.546978	30599.347622
682.885268	30779.054674
683.223508	30364.911283
683.561697	30105.816140
683.899836	29936.808936
684.237925	29529.118222
684.575963	29365.316010
684.913951	28970.893612
685.251889	29119.262332
685.589776	29123.421284
685.927614	29113.253277
686.265401	29288.304823
686.603137	29388.119669
686.940824	29851.837768
687.278460	30169.813588
687.616046	30374.625586
687.953582	31031.213189
688.291068	30978.134881
688.628504	31338.721053
688.965889	31360.433303
689.303224	31130.075258
689.640510	30859.609792
689.977745	30256.733162
690.314930	29534.575271
690.652065	29117.997002
690.989150	28445.378530
691.326185	27601.880065
691.663170	27000.601482
692.000105	26275.063497
692.336990	25682.934607
692.673825	25252.757826
693.010610	24755.518575
693.347345	24252.303036
693.684030	23628.682059
694.020665	23426.587242
694.357251	22773.961986
694.693786	22776.570783
695.030272	22531.706817
695.366707	22044.731356
695.703093	21752.173033
696.039429	21817.826500
696.375716	21588.295204
696.711952	21567.306360
697.048139	21441.640477
697.384276	21275.231988
697.720363	21389.187271
698.056400	21287.729009
698.392388	21133.573045
698.728326	21120.970160
699.064214	20959.867486
699.400053	20988.690283
699.735842	20602.464802
700.071581	20415.836245
700.407270	20172.696354
700.742910	20004.324336
701.078501	19760.171173
701.414042	19556.241377
701.749533	19250.243338
702.084974	18938.057283
702.420366	19171.775258
702.755709	18768.530841
703.091002	18462.757134
703.426246	18521.196710
703.761440	18463.069686
704.096584	18227.544458
704.431679	18160.837389
704.766725	18101.878574
705.101721	18018.117283
705.436668	18134.255385
705.771565	17849.674689
706.106413	18152.748858
706.441212	18226.236278
706.775961	18314.093507
707.110661	18396.231548
707.445311	18748.509899
707.779913	18635.348598
708.114465	18920.602288
708.448967	19222.345593
708.783421	19820.942283
709.117825	20166.021867
709.452180	20375.217148
709.786485	20821.308852
710.120742	21559.875699
710.454949	21646.946508
710.789107	22161.524808
711.123216	22861.897353
711.457275	23085.376744
711.791286	23652.743486
712.125247	23828.871319
712.459159	23610.125571
712.793023	24364.945098
713.126837	23389.386047
713.460602	23656.478981
713.794318	23330.943951
714.127985	23063.261202
714.461602	22192.827853
714.795171	22179.625071
715.128691	21201.326152
715.462162	20687.892195
715.795584	20256.518140
716.128957	19982.468414
716.462281	19620.959710
716.795556	19334.236523
717.128782	18867.828969
717.461960	18271.888967
717.795088	18232.378924
718.128167	17894.447697
718.461198	17447.194007
718.794180	17318.589131
719.127113	16998.458218
719.459997	16809.263714
719.792833	16432.034172
720.125619	16482.085268
720.458357	16144.942981
720.791046	15996.856566
721.123686	15850.718557
721.456278	15626.989629
721.788821	15618.570902
722.121315	15370.614188
722.453761	15449.820797
722.786158	15341.945146
723.118506	15423.816005
723.450805	15305.278314
723.783056	15486.906046
724.115259	15372.703746
724.447412	15349.905128
724.779518	15560.194340
725.111574	15612.702999
725.443582	15859.288518
725.775542	15805.436392
726.107453	16299.507278
726.439315	16217.341512
726.771129	16615.141482
727.102895	17020.581321
727.434612	17300.108261
727.766281	17465.246379
728.097901	17799.185012
728.429473	17896.910300
728.760996	17926.262418
729.092471	18055.474753
729.423897	17929.594621
729.755276	17771.320034
730.086606	17861.561729
730.417887	18398.908400
730.749120	18946.760836
731.080305	19167.089506
731.411442	19587.201623
731.742530	19681.705614
732.073570	19824.917233
732.404562	20152.753550
732.735506	20056.724610
733.066401	19926.773746
733.397249	19490.560183
733.728048	18898.010357
734.058798	18054.811842
734.389501	17308.774004
734.720156	16785.900486
735.050762	16197.872575
735.381320	15795.757377
735.711831	15503.010012
736.042293	15126.922291
736.372707	15152.198636
736.703073	14934.985399
737.033391	15117.974243
737.363661	15096.975316
737.693883	15209.617378
738.024056	15395.653599
738.354182	15600.904178
738.684260	15936.859273
739.014290	16229.198305
739.344272	16440.949452
739.674207	16783.256401
740.004093	16973.028117
740.333931	17036.050102
740.663722	17127.090820
740.993464	17184.814552
741.323159	17051.455868
741.652806	16778.553005
741.982405	16609.313908
742.311956	16255.739980
742.641460	16160.124415
742.970915	15836.565518
743.300323	15488.977960
743.629683	15287.268792
743.958996	14973.227592
744.288260	14665.129913
744.617477	14350.080483
744.946647	14320.083097
745.275768	14007.080375
745.604842	13801.953305
745.933869	13630.523827
746.262847	13584.977002
746.591778	13495.625071
746.920662	13367.529351
747.249498	13376.764745
747.578286	13507.577646
747.907027	13667.871215
748.235720	13931.851236
748.564365	14019.640410
748.892963	13942.442701
749.221514	14070.261156
749.550017	13947.899750
749.878473	13915.676694
750.206881	13705.193398
750.535242	13636.515238
750.863555	13561.192838
751.191821	13452.268627
751.520039	13464.672386
751.848210	13378.140980
752.176334	13430.145523
752.504411	13356.630377
752.832440	13186.340200
753.160421	13301.170123
753.488356	13184.308615
753.816243	13105.424639
754.144082	12933.738063
754.471875	12876.510884
754.799620	12836.743742
755.127318	12812.536122
755.454969	12801.349801
755.782572	12761.617947
756.110129	12778.462963
756.437638	12698.908514
756.765100	12699.936909
757.092515	12717.860732
757.419882	12743.444588
757.747203	12742.905184
758.074477	12834.853310
758.401703	12821.479128
758.728882	13009.241945
759.056014	13040.308055
759.383099	13210.663767
759.710138	13339.598838
760.037129	13465.955360
760.364073	13532.223847
760.690970	13552.587588
761.017820	13555.541705
761.344623	13756.388836
761.671379	14092.248149
761.998088	14626.940652
762.324751	16025.507964
762.651366	18951.479356
762.977935	23252.309512
763.304456	26550.885188
763.630931	28130.591240
763.957359	27347.263987
764.283740	25322.333311
764.610074	23160.051356
764.936362	20556.053419
765.262602	18651.898706
765.588796	16673.507961
765.914943	15348.334809
766.241044	14198.896279
766.567097	13381.694994
766.893104	12646.924135
767.219064	12165.370435
767.544978	11680.983606
767.870845	11290.521035
768.196665	11055.003368
768.522438	10828.388379
768.848165	10620.965063
769.173846	10412.112580
769.499479	10288.828642
769.825066	10119.760945
770.150607	9896.626873
770.476101	9811.136465
770.801548	9697.312253
771.126949	9542.566473
771.452303	9424.490048
771.777611	9227.300274
772.102872	9222.301970
772.428087	9083.796268
772.753256	8935.450233
773.078378	8851.585598
773.403453	8667.462495
773.728482	8550.684166
774.053465	8480.186150
774.378401	8373.447279
774.703291	8255.239783
775.028135	8137.576732
775.352932	8103.052390
775.677683	7999.166812
776.002388	7891.835605
776.327046	7900.377841
776.651658	7801.629198
776.976224	7703.389713
777.300743	7707.483130
777.625216	7608.681556
777.949643	7569.942809
778.274024	7588.549708
778.598359	7502.804722
778.922647	7519.339707
779.246889	7469.059238
779.571086	7479.199519
779.895236	7482.572051
780.219339	7490.509348
780.543397	7493.130748
780.867409	7574.172337
781.191374	7586.303874
781.515294	7552.500417
781.839167	7647.195971
782.162995	7617.014583
782.486776	7563.069196
782.810511	7516.020107
783.134201	7433.362828
783.457844	7430.010460
783.781441	7374.719085
784.104993	7313.910167
784.428498	7293.682537
784.751958	7277.845752
785.075372	7239.245637
785.398739	7186.227822
785.722061	7224.757361
786.045337	7220.086732
786.368568	7371.286059
786.691752	7371.631378
787.014891	7666.175915
787.337983	7968.597255
787.661030	8517.183178
787.984031	9141.434300
788.306987	9583.296476
788.629897	9828.631790
788.952760	9835.873407
789.275579	9656.748608
789.598351	9284.940827
789.921078	8953.396741
790.243759	8540.145634
790.566395	8252.830112
790.888984	8001.110177
791.211529	7787.345089
791.534027	7555.706590
791.856480	7350.282092
792.178888	7273.467510
792.501249	7180.203643
792.823566	7026.269490
793.145836	7017.823037
793.468062	6983.739796
793.790241	6927.483039
794.112375	6984.430434
794.434464	7122.631146
794.756507	7155.761609
795.078505	7297.135727
795.400457	7576.856751
795.722364	7907.485867
796.044226	8200.651649
796.366042	8489.799631
796.687812	8458.756205
797.009538	8557.220022
797.331218	8471.717012
797.652852	8401.350066
797.974442	8249.422292
798.295986	8174.604007
798.617484	7983.022517
798.938938	7842.855755
799.260346	7740.916062
799.581709	7545.742750
799.903026	7472.020916
800.224299	7364.840944
800.545526	7190.469953
800.866708	7093.478153
801.187845	7027.807042
801.508936	6920.790908
801.829983	6883.791359
802.150984	6736.133442
802.471940	6694.362441
802.792851	6679.803589
803.113717	6646.907540
803.434538	6613.978723
803.755314	6555.758437
804.076045	6556.728859
804.396731	6499.478995
804.717372	6529.481423
805.037967	6522.144023
805.358518	6562.632050
805.679024	6648.528271
805.999485	6651.381564
806.319901	6700.633637
806.640272	6709.685028
806.960598	6796.007226
807.280879	6804.710778
807.601115	6877.578137
807.921306	6824.313305
808.241453	6837.284194
808.561554	6856.203644
808.881611	6822.949673
809.201623	6837.521128
809.521590	6783.492562
809.841513	6763.239726
810.161390	6803.054759
810.481223	6673.113978
810.801011	6660.571587
811.120755	6635.708616
811.440453	6559.993006
811.760107	6525.720722
812.079716	6495.191494
812.399281	6432.388799
812.718801	6422.218272
813.038276	6378.604729
813.357707	6315.875131
813.677093	6353.792170
813.996434	6262.958139
814.315731	6300.371062
814.634983	6290.339166
814.954191	6294.167923
815.273354	6392.004116
815.592473	6448.558300
815.911547	6562.833696
816.230577	6640.797661
816.549562	6784.841071
816.868502	6885.049127
817.187399	6972.238403
817.506250	7113.680577
817.825058	7138.233517
818.143821	7376.594394
818.462539	7622.035572
818.781213	7942.786547
819.099843	8418.026203
819.418429	9323.026744
819.736970	10218.880112
820.055466	11317.370220
820.373919	12688.979961
820.692327	14673.601572
821.010691	17992.248602
821.329011	25409.585601
821.647286	37029.906482
821.965517	50966.256948
822.283704	58453.257653
822.601847	61605.004682
822.919945	59435.292066
823.237999	55581.269457
823.556010	49608.359146
823.873976	42971.652381
824.191897	36510.092945
824.509775	31659.933294
824.827609	27007.470054
825.145398	24216.099990
825.463144	22562.016755
825.780845	22455.734108
826.098502	23674.806096
826.416116	26977.064334
826.733685	30683.055981
827.051210	32514.403830
827.368692	31568.511969
827.686129	28077.785153
828.003522	24074.849380
828.320872	20348.814105
828.638177	17454.614585
828.955439	15265.296923
829.272656	13438.765896
829.589830	11952.638784
829.906960	10650.614609
830.224046	9685.803298
830.541088	8913.974918
830.858086	8417.816995
831.175041	8021.002570
831.491952	7856.479473
831.808819	7843.538831
832.125642	8141.685272
832.442421	8842.723250
832.759157	10326.135701
833.075849	12874.295297
833.392497	16004.463667
833.709101	18482.158015
834.025662	18842.834928
834.342179	17511.072988
834.658653	15448.613441
834.975083	13533.337943
835.291469	11890.725853
835.607811	10558.018696
835.924110	9648.440787
836.240366	8781.248899
836.556578	7979.118143
836.872746	7328.466498
837.188871	6808.431150
837.504952	6382.677981
837.820990	6061.901800
838.136984	5829.575184
838.452935	5710.399787
838.768842	5692.566705
839.084706	5972.539787
839.400526	6936.826818
839.716303	8430.729910
840.032037	9666.281430
840.347727	9892.876254
840.663373	9102.060368
840.978977	8067.252636
841.294537	7232.240954
841.610054	6620.930474
841.925527	6188.991809
842.240957	5829.146686
842.556344	5497.247199
842.871687	5220.097164
843.186987	4942.485863
843.502244	4707.900809
843.817458	4539.538874
844.132629	4400.062750
844.447756	4305.112617
844.762840	4226.634455
845.077881	4150.301303
845.392879	4091.526490
845.707833	4045.591497
846.022745	3997.849249
846.337613	3970.029642
846.652438	3928.339299
846.967221	3908.399015
847.281960	3881.711147
847.596656	3862.229608
847.911309	3841.344107
848.225919	3819.893998
848.540485	3801.090494
848.855009	3787.154224
849.169490	3766.004063
849.483928	3753.239862
849.798323	3748.158378
850.112675	3728.560893
850.426984	3737.035073
850.741251	3722.314903
851.055474	3713.933985
851.369654	3718.965057
851.683792	3713.056824
851.997887	3722.496385
852.311938	3721.352043
852.625947	3729.889237
852.939914	3712.913151
853.253837	3728.286150
853.567718	3726.224318
853.881555	3716.978842
854.195350	3728.702045
854.509103	3723.124008
854.822812	3721.866241
855.136479	3715.484140
855.450103	3726.239442
855.763685	3710.246381
856.077224	3713.071948
856.390720	3730.589957
856.704173	3747.394644
857.017584	3758.696911
857.330953	3765.643621
857.644278	3787.668422
857.957561	3796.374494
858.270802	3796.223260
858.584000	3801.677788
858.897155	3795.774597
859.210268	3779.284983
859.523339	3759.173300
859.836367	3753.965788
860.149352	3750.983945
860.462295	3740.752923
860.775195	3730.592478
861.088054	3728.394535
861.400869	3720.109398
861.713642	3723.948237
862.026373	3735.545412
862.339062	3736.992223
862.651708	3754.500150
862.964312	3781.558543
863.276873	3793.700162
863.589392	3845.245960
863.901869	3889.035943
864.214303	3935.308694
864.526696	3967.141060
864.839045	4010.505066
865.151353	4039.869787
865.463619	4048.535530
865.775842	4052.265984
866.088023	4075.848502
866.400162	4066.751740
866.712258	4077.590221
867.024313	4074.789860
867.336325	4071.523192
867.648296	4077.600303
867.960224	4075.122576
868.272110	4091.022375
868.583954	4091.768466
868.895755	4102.135599
869.207515	4094.531018
869.519233	4130.229949
869.830909	4147.566477
870.142542	4172.028676
870.454134	4185.443187
870.765684	4214.480233
871.077191	4243.091301
871.388657	4269.116258
871.700081	4301.372081
872.011463	4344.136189
872.322803	4375.424110
872.634101	4403.644490
872.945357	4447.532775
873.256571	4491.206811
873.567744	4526.580588
873.878874	4546.586407
874.189963	4583.585956
874.501010	4592.420578
874.812015	4591.351853
875.122979	4630.047750
875.433900	4633.896671
875.744780	4642.764061
876.055618	4664.977905
876.366415	4667.480838
876.677169	4678.836037
876.987882	4722.779775
877.298554	4766.736116
877.609183	4834.408565
877.919771	4927.024644
878.230317	5051.916710
878.540822	5238.003342
878.851285	5514.366958
879.161707	5900.111009
879.472087	6540.682866
879.782425	7548.606125
880.092722	9373.670176
880.402977	12202.508615
880.713191	15708.018615
881.023363	19402.276977
881.333494	21865.598995
881.643583	23333.121729
881.953631	23566.196957
882.263637	22909.470722
882.573602	21611.429059
882.883526	20176.204997
883.193408	18609.157283
883.503248	17009.647059
883.813048	15535.318767
884.122806	14164.785312
884.432522	12742.401069
884.742197	11510.968172
885.051831	10434.777608
885.361424	9447.137431
885.670975	8617.300494
885.980485	7931.907737
886.289954	7357.201075
886.599382	6888.527523
886.908768	6514.625142
887.218113	6144.853987
887.527417	5861.896542
887.836680	5599.000369
888.145901	5381.789653
888.455082	5220.805446
888.764221	5067.204009
889.073319	4939.569555
889.382376	4858.520404
889.691392	4795.732833
890.000366	4767.583030
890.309300	4744.718877
890.618193	4750.974948
890.927044	4732.352926
891.235855	4749.346656
891.544625	4770.824492
891.853353	4819.300227
892.162041	4913.227006
892.470687	5073.810441
892.779293	5288.515704
893.087858	5604.916163
893.396381	6096.524445
893.704864	6772.908659
894.013306	7802.818911
894.321707	8933.383360
894.630068	9810.675200
894.938387	10157.677983
895.246665	10047.707733
895.554903	9519.911528
895.863100	8874.406902
896.171256	8341.866971
896.479371	7854.460491
896.787446	7374.156996
897.095480	6947.186389
897.403473	6644.374360
897.711425	6334.630744
898.019336	6079.475263
898.327207	5816.410211
898.635038	5590.581642
898.942827	5347.124158
899.250576	5154.501670
899.558284	4961.120488
899.865952	4840.417621
900.173579	4699.298080
900.481165	4590.666256
900.788711	4500.500178
901.096216	4424.620731
901.403681	4357.172613
901.711105	4332.241587
902.018489	4307.184531
902.325832	4358.158158
902.633135	4446.106128
902.940397	4703.325962
903.247619	5309.958252
903.554800	6503.388410
903.861941	8251.063187
904.169041	9830.802006
904.476101	10662.221866
904.783121	10532.041630
905.090100	9918.661756
905.397039	9134.868197
905.703938	8404.210921
906.010796	7741.503357
906.317614	7207.869496
906.624391	6688.174425
906.931129	6280.947497
907.237826	5897.832407
907.544483	5534.186254
907.851099	5177.179300
908.157675	4827.532431
908.464211	4507.159543
908.770707	4261.930093
909.077163	4064.195875
909.383578	3908.971186
909.689954	3791.459369
909.996289	3714.216290
910.302584	3652.878050
910.608839	3617.622741
910.915054	3583.592432
911.221229	3567.561562
911.527363	3576.116401
911.833458	3583.461362
912.139513	3604.425000
912.445527	3627.629431
912.751502	3700.927808
913.057436	3784.195067
913.363331	3896.254876
913.669186	4078.593410
913.975000	4293.200371
914.280775	4650.527437
914.586510	5145.251153
914.892205	5827.682231
915.197859	6756.282934
915.503475	7884.825881
915.809050	8933.312784
916.114585	9652.892125
916.420081	10017.528865
916.725536	10064.550228
917.030952	9702.111431
917.336328	9336.290020
917.641665	8974.330133
917.946961	8518.929938
918.252218	8122.985112
918.557435	7639.082234
918.862612	7225.947073
919.167750	6869.829883
919.472848	6471.331713
919.777906	6115.108659
920.082925	5765.136635
920.387904	5406.030041
920.692843	5137.379391
920.997743	4888.895877
921.302603	4657.980783
921.607423	4496.880630
921.912204	4333.143953
922.216946	4219.188670
922.521647	4103.027883
922.826310	4001.090711
923.130932	3910.294489
923.435516	3812.032318
923.740059	3746.315837
924.044564	3672.911596
924.349028	3614.219962
924.653454	3550.986249
924.957840	3486.855210
925.262186	3440.705967
925.566493	3384.124056
925.870761	3328.084070
926.174989	3292.869089
926.479178	3258.627052
926.783328	3214.748849
927.087438	3190.369829
927.391509	3154.312976
927.695541	3126.309366
927.999533	3097.922629
928.303486	3080.875967
928.607400	3064.744275
928.911275	3053.739436
929.215110	3035.624050
929.518906	3025.566948
929.822663	3025.350178
930.126381	3021.718027
930.430060	3028.442926
930.733699	3029.370498
931.037299	3041.113866
931.340861	3038.777292
931.644383	3048.267264
931.947866	3045.484547
932.251309	3039.367107
932.554714	3040.335008
932.858080	3034.204965
933.161407	3028.732792
933.464694	3020.664426
933.767943	3012.369207
934.071153	3007.721263
934.374323	3000.144409
934.677455	2993.434633
934.980548	2987.970023
935.283602	2982.102119
935.586617	2978.013744
935.889593	2985.157059
936.192530	2988.842142
936.495428	2999.428565
936.798287	3019.411699
937.101108	3042.026315
937.403890	3092.019438
937.706632	3143.746717
938.009336	3215.242882
938.312002	3289.189047
938.614628	3354.560210
938.917216	3404.891090
939.219765	3437.187242
939.522275	3474.234681
939.824747	3477.077892
940.127179	3478.381030
940.429573	3473.085298
940.731929	3473.586893
941.034246	3458.546611
941.336524	3453.346660
941.638763	3436.438630
941.940964	3422.731733
942.243126	3385.321330
942.545250	3365.998588
942.847335	3331.602795
943.149381	3297.186838
943.451389	3264.706683
943.753359	3229.514388
944.055290	3207.867674
944.357182	3181.315917
944.659036	3167.823268
944.960851	3156.069818
945.262628	3145.637150
945.564367	3140.961480
945.866067	3135.824544
946.167729	3132.459574
946.469352	3132.746920
946.770937	3128.320787
947.072484	3113.915690
947.373992	3118.455249
947.675462	3109.300513
947.976893	3093.768718
948.278286	3085.468458
948.579641	3080.076944
948.880958	3071.232240
949.182236	3076.772468
949.483476	3067.804255
949.784678	3067.668144
950.085841	3067.673185
950.386967	3076.485122
950.688054	3092.631938
950.989103	3109.010647
951.290114	3125.472535
951.591087	3153.604694
951.892021	3181.681400
952.192917	3208.253322
952.493776	3232.655027
952.794596	3242.228178
953.095378	3247.740680
953.396122	3248.718664
953.696828	3239.790781
953.997496	3232.372723
954.298126	3210.110987
954.598718	3195.065664
954.899272	3169.582631
955.199788	3145.306955
955.500266	3117.946092
955.800706	3086.431319
956.101108	3049.139383
956.401472	3021.082842
956.701798	2987.281905
957.002087	2949.891667
957.302337	2920.844538
957.602550	2892.150291
957.902724	2864.003008
958.202861	2842.399143
958.502960	2820.533139
958.803022	2801.298616
959.103045	2780.599638
959.403031	2765.075405
959.702979	2752.590988
960.002889	2740.923237
960.302762	2726.853377
960.602596	2716.599670
960.902393	2706.986189
961.202153	2700.641897
961.501875	2690.829291
961.801559	2684.172448
962.101205	2676.852692
962.400814	2672.812208
962.700385	2668.461692
962.999918	2660.789056
963.299414	2653.930566
963.598873	2653.116419
963.898293	2645.834473
964.197677	2648.612148
964.497022	2647.576191
964.796331	2642.013278
965.095601	2639.797691
965.394835	2638.870119
965.694030	2637.299799
965.993189	2634.320477
966.292309	2634.204531
966.591393	2633.113121
966.890439	2632.551032
967.189447	2633.586989
967.488419	2634.345683
967.787353	2633.339973
968.086249	2634.522123
968.385108	2635.830303
968.683930	2637.561939
968.982714	2641.262146
969.281462	2642.409009
969.580172	2647.732467
969.878844	2656.836791
970.177480	2662.934067
970.476078	2669.515293
970.774639	2677.921417
971.073162	2685.064732
971.371649	2688.220494
971.670098	2692.291226
971.968510	2701.912268
972.266885	2703.918647
972.565223	2708.468289
972.863524	2709.955429
973.161788	2715.485575
973.460014	2716.400544
973.758204	2717.940617
974.056356	2721.973540
974.354471	2722.311297
974.652550	2721.580330
974.950591	2722.230639
975.248595	2722.034034
975.546563	2716.803837
975.844493	2715.578836
976.142386	2710.741849
976.440243	2705.735983
976.738062	2704.269007
977.035845	2696.180476
977.333590	2693.309539
977.631299	2684.979032
977.928971	2681.477951
978.226606	2672.958401
978.524204	2670.657114
978.821765	2664.854746
979.119290	2665.298368
979.416777	2667.554284
979.714228	2670.377330
980.011642	2672.333298
980.309020	2675.395799
980.606360	2690.675536
980.903664	2709.995758
981.200931	2738.188411
981.498162	2775.079575
981.795356	2841.683300
982.092513	2920.327820
982.389633	3017.228879
982.686717	3112.599948
982.983764	3185.926052
983.280775	3245.542737
983.577749	3260.630911
983.874686	3253.328799
984.171587	3225.736044
984.468451	3195.000129
984.765279	3151.331133
985.062070	3109.822273
985.358824	3071.743917
985.655543	3017.249044
985.952224	2967.744913
986.248869	2909.358269
986.545478	2853.104034
986.842050	2798.654531
987.138586	2753.606780
987.435086	2715.185626
987.731549	2683.330575
988.027975	2658.936432
988.324366	2641.365490
988.620719	2628.707152
988.917037	2616.840276
989.213318	2606.271497
989.509563	2599.365117
989.805772	2595.327152
990.101944	2590.606112
990.398080	2586.638724
990.694180	2585.315421
990.990244	2587.901533
991.286271	2586.933631
991.582262	2583.422468
991.878217	2590.316245
992.174136	2593.111565
992.470019	2594.840681
992.765865	2595.443099
993.061676	2594.707090
993.357450	2607.123452
993.653188	2612.063783
993.948890	2630.007770
994.244556	2646.073927
994.540186	2665.492452
994.835780	2690.461287
995.131337	2725.477142
995.426859	2763.527771
995.722345	2807.753814
996.017795	2854.928931
996.313208	2893.639952
996.608586	2923.357554
996.903928	2938.970007
997.199234	2945.354628
997.494504	2942.942436
997.789738	2931.408276
998.084936	2911.309196
998.380099	2880.948847
998.675225	2859.148377
998.970316	2828.722493
999.265371	2792.411062
999.560390	2758.083325
999.855373	2729.590723
1000.150320	2701.231712
1000.445232	2675.040397
1000.740108	2657.159425
1001.034948	2637.176291
1001.329752	2623.749178
1001.624521	2612.895573
1001.919254	2598.724890
1002.213951	2591.914291
1002.508613	2583.152766
1002.803239	2578.162023
1003.097829	2571.195149
1003.392384	2568.246074
1003.686903	2564.351782
1003.981386	2559.025803
1004.275834	2556.530432
1004.570246	2550.055070
1004.864623	2550.402910
1005.158964	2549.760163
1005.453270	2546.637168
1005.747540	2544.507280
1006.041775	2543.272198
1006.335974	2542.140459
1006.630138	2541.326312
1006.924266	2540.681045
1007.218359	2539.153575
1007.512416	2536.176774
1007.806438	2534.639222
1008.100425	2536.529654
1008.394376	2530.868439
1008.688292	2539.380427
1008.982172	2532.988244
1009.276017	2537.923533
1009.569827	2537.016126
1009.863602	2534.732483
1010.157341	2534.614016
1010.451045	2533.905734
1010.744714	2530.911288
1011.038347	2529.575383
1011.331945	2527.047244
1011.625508	2529.842564
1011.919036	2527.165711
1012.212528	2526.835516
1012.505986	2528.713345
1012.799408	2525.965917
1013.092795	2526.903571
1013.386147	2527.513551
1013.679464	2525.671009
1013.972745	2524.698066
1014.265992	2526.583458
1014.559204	2521.799403
1014.852380	2524.277130
1015.145521	2527.667306
1015.438628	2522.333765
1015.731699	2528.972965
1016.024736	2526.500279
1016.317737	2526.555732
1016.610703	2525.877696
1016.903635	2527.584127
1017.196531	2531.410363
1017.489393	2529.098994
1017.782219	2530.071936
1018.075011	2533.315919
1018.367768	2531.112935
1018.660490	2536.779192
1018.953177	2536.779192
1019.245829	2536.779192
