Dividing Wavelength (nm)	Counts (n)	Blue Motor Position (mm): 0.500000	Red Motor Position (mm): 0.000000	
326.493990	2067.135217
326.888308	2067.135217
327.282561	2067.135217
327.676750	2041.576567
328.070874	2043.653522
328.464933	2049.954965
328.858929	2057.751109
329.252859	2066.895762
329.646726	2081.716754
330.040528	2096.633529
330.434265	2112.792947
330.827938	2135.740280
331.221547	2157.417241
331.615091	2174.284942
332.008571	2198.096832
332.401986	2218.271530
332.795338	2235.507235
333.188625	2257.839546
333.581847	2275.564243
333.975006	2293.356996
334.368100	2309.972639
334.761129	2326.968889
335.154095	2342.120077
335.546996	2359.015504
335.939833	2369.377596
336.332606	2384.133053
336.725315	2400.347924
337.117960	2407.188770
337.510540	2418.027251
337.903056	2421.934145
338.295508	2433.266659
338.687896	2440.190684
339.080220	2445.688062
339.472480	2448.783331
339.864676	2453.557303
340.256807	2457.930504
340.648875	2458.689198
341.040879	2461.693726
341.432818	2459.692387
341.824694	2462.578448
342.216506	2460.546863
342.608253	2462.928808
342.999937	2458.936214
343.391557	2462.094497
343.783113	2459.185752
344.174605	2456.929835
344.566033	2456.793724
344.957397	2455.152828
345.348697	2450.308280
345.739934	2450.240224
346.131106	2451.208126
346.522215	2445.277208
346.913260	2444.127825
347.304241	2443.127156
347.695159	2440.967022
348.086012	2442.701178
348.476802	2438.509459
348.867528	2436.220775
349.258191	2433.238933
349.648789	2433.485949
350.039324	2427.938159
350.429796	2433.674993
350.820203	2430.882193
351.210548	2431.056113
351.600828	2432.631474
351.991045	2432.901175
352.381198	2427.575196
352.771288	2430.869590
353.161314	2427.605443
353.551276	2431.671134
353.941175	2430.010074
354.331010	2430.577203
354.720782	2429.309353
355.110490	2429.831113
355.500135	2431.104004
355.889717	2431.555187
356.279235	2430.471339
356.668689	2432.124838
357.058080	2431.509817
357.447408	2434.325301
357.836672	2432.281113
358.225873	2433.065013
358.615010	2432.588624
359.004084	2434.879828
359.393095	2433.206165
359.782043	2434.526947
360.170927	2437.649942
360.559748	2434.068202
360.948505	2436.866043
361.337199	2437.410488
361.725830	2436.165322
362.114398	2439.714295
362.502903	2437.450817
362.891344	2437.274376
363.279722	2438.257401
363.668037	2438.791764
364.056289	2441.821497
364.444478	2442.038267
364.832603	2440.634305
365.220665	2440.737649
365.608665	2441.965170
365.996601	2437.980138
366.384474	2442.600355
366.772284	2442.255036
367.160031	2441.357711
367.547715	2444.427774
367.935336	2441.007351
368.322893	2439.638678
368.710388	2440.394851
369.097820	2441.546754
369.485189	2439.605910
369.872495	2444.780654
370.259738	2447.449945
370.646918	2442.131528
371.034035	2444.243772
371.421090	2445.614965
371.808081	2446.265274
372.195010	2442.454162
372.581875	2443.840479
372.968678	2445.030192
373.355418	2448.400203
373.742096	2444.268977
374.128710	2445.309976
374.515262	2446.867692
374.901751	2446.308124
375.288177	2446.091354
375.674540	2445.776282
376.060841	2448.062446
376.447079	2445.839297
376.833254	2448.790892
377.219367	2451.734926
377.605417	2448.190995
377.991404	2446.913062
378.377329	2450.464555
378.763191	2450.399020
379.148991	2450.388938
379.534727	2448.309462
379.920402	2450.565378
380.306013	2451.699638
380.691563	2450.031016
381.077049	2451.709720
381.462474	2451.729885
381.847835	2449.685697
382.233134	2452.319700
382.618371	2452.912036
383.003545	2453.579988
383.388657	2450.648558
383.773706	2451.518157
384.158693	2453.239711
384.543618	2450.827518
384.928480	2451.669391
385.313280	2452.496140
385.698017	2453.033023
386.082692	2451.606377
386.467305	2453.224587
386.851856	2454.043775
387.236344	2454.210133
387.620770	2451.530759
388.005133	2449.499174
388.389435	2450.368773
388.773674	2451.074535
389.157851	2456.027469
389.541965	2453.963116
389.926018	2455.782973
390.310008	2454.943621
390.693936	2456.513940
391.077802	2456.506378
391.461606	2455.452777
391.845348	2454.474793
392.229027	2455.629217
392.612645	2456.980247
392.996200	2457.408745
393.379694	2455.112499
393.763125	2458.870679
394.146494	2457.045782
394.529801	2456.289609
394.913047	2456.319856
395.296230	2454.424382
395.679351	2457.655761
396.062410	2459.079887
396.445408	2459.712552
396.828343	2457.592747
397.211217	2458.059054
397.594028	2460.869497
397.976778	2455.656944
398.359466	2460.178859
398.742092	2460.889662
399.124656	2460.753550
399.507158	2459.828499
399.889598	2459.493262
400.271977	2459.142902
400.654294	2459.155505
401.036549	2461.005608
401.418742	2459.069805
401.800874	2459.888993
402.182944	2461.918057
402.564952	2461.968468
402.946898	2461.119034
403.328783	2463.642132
403.710606	2461.040896
404.092367	2460.325052
404.474067	2463.528706
404.855705	2462.533078
405.237282	2461.033334
405.618797	2462.767491
406.000250	2466.679427
406.381642	2461.489559
406.762972	2461.119034
407.144240	2459.921760
407.525447	2461.630711
407.906593	2457.822119
408.287677	2464.791515
408.668700	2465.519961
409.049661	2464.496607
409.430560	2463.868983
409.811399	2465.051134
410.192176	2465.066258
410.572891	2466.213120
410.953545	2465.557770
411.334138	2469.111783
411.714669	2466.354272
412.095139	2466.707153
412.475547	2465.111628
412.855894	2466.870991
413.236180	2465.840075
413.616405	2466.049282
413.996568	2464.388222
414.376670	2468.519448
414.756711	2464.930146
415.136691	2466.515589
415.516609	2466.669344
415.896466	2466.238326
416.276262	2465.870322
416.655997	2466.097173
417.035670	2466.261011
417.415283	2469.308388
417.794834	2469.378965
418.174324	2465.613223
418.553753	2467.080198
418.933121	2467.715384
419.312428	2467.465847
419.691674	2466.956690
420.070859	2466.228243
420.449983	2466.636577
420.829045	2468.383337
421.208047	2467.097842
421.586988	2466.056844
421.965867	2469.121866
422.344686	2468.111114
422.723444	2471.725622
423.102141	2470.956846
423.480777	2466.939046
423.859352	2470.130097
424.237866	2469.351238
424.616319	2470.835858
424.994712	2471.019860
425.373044	2472.239819
425.751314	2467.589355
426.129524	2466.752523
426.507673	2466.558439
426.885762	2463.511062
427.263789	2471.304685
427.641756	2467.833851
428.019662	2469.210086
428.397508	2469.429376
428.775292	2469.421814
429.153016	2471.143368
429.530679	2468.307719
429.908282	2472.000365
430.285824	2472.779223
430.663305	2470.785447
431.040726	2472.446507
431.418086	2472.791826
431.795385	2474.130252
432.172624	2471.821404
432.549802	2470.016671
432.926920	2473.749645
433.303977	2470.732514
433.680974	2470.558595
434.057910	2473.608493
434.434786	2473.212762
434.811601	2474.717547
435.188355	2472.529686
435.565050	2472.867443
435.941683	2473.502628
436.318257	2472.295272
436.694770	2473.830303
437.071222	2474.435242
437.447614	2472.290231
437.823946	2477.170068
438.200218	2475.123359
438.576429	2471.740745
438.952580	2471.130766
439.328670	2473.747124
439.704700	2474.241158
440.080670	2475.032619
440.456580	2473.169912
440.832429	2476.318113
441.208218	2473.550519
441.583947	2471.304685
441.959616	2476.413895
442.335224	2474.223513
442.710773	2475.912300
443.086261	2473.139665
443.461689	2474.672176
443.837057	2478.233751
444.212365	2475.201497
444.587612	2475.945068
444.962800	2472.822073
445.337927	2474.273925
445.712995	2471.798718
446.088002	2475.743421
446.462949	2475.370376
446.837837	2477.323823
447.212664	2473.059007
447.587431	2478.533700
447.962139	2476.517238
448.336786	2479.844400
448.711374	2477.926241
449.085901	2474.399954
449.460369	2479.204173
449.834776	2477.868268
450.209124	2476.466827
450.583412	2475.582104
450.957640	2477.238123
451.331808	2477.432208
451.705917	2476.275263
452.079965	2475.340129
452.453954	2473.497587
452.827883	2479.458752
453.201752	2472.189408
453.575562	2478.594194
453.949311	2475.657722
454.323001	2476.141673
454.696632	2477.936323
455.070202	2480.630820
455.443713	2477.926241
455.817164	2476.494553
456.190556	2476.764255
456.563888	2476.023205
456.937160	2479.110912
457.310373	2477.777527
457.683526	2475.377938
458.056619	2479.609986
458.429653	2476.613020
458.802628	2478.566467
459.175542	2479.204173
459.548398	2477.472537
459.921194	2478.899184
460.293930	2479.872126
460.666607	2476.827269
461.039224	2478.541262
461.411782	2477.903556
461.784280	2479.063021
462.156719	2480.237610
462.529099	2480.454380
462.901419	2480.446818
463.273680	2473.253091
463.645882	2476.416415
464.018024	2478.004379
464.390106	2471.133286
464.762130	2477.835500
465.134094	2480.126705
465.505999	2480.076293
465.877845	2481.104688
466.249631	2482.480923
466.621358	2480.635861
466.993026	2482.120481
467.364634	2484.923363
467.736184	2480.330871
468.107674	2480.217445
468.479105	2480.270378
468.850477	2481.714668
469.221790	2480.560244
469.593043	2479.524287
469.964238	2481.777682
470.335373	2478.959678
470.706449	2479.178968
471.077467	2479.715851
471.448425	2480.270377
471.819324	2480.146869
472.190164	2480.880357
472.560945	2479.776344
472.931667	2478.959678
473.302330	2480.630820
473.672934	2480.151910
474.043479	2482.075111
474.413965	2481.286170
474.784393	2480.101499
475.154761	2481.989411
475.525070	2477.452373
475.895321	2482.735502
476.265513	2479.907414
476.635645	2483.378249
477.005719	2481.848259
477.375734	2478.533700
477.745691	2482.284318
478.115588	2483.048053
478.485427	2481.949082
478.855207	2480.920686
479.224928	2482.022178
479.594591	2483.595018
479.964194	2480.217445
480.333739	2482.420430
480.703226	2482.334730
481.072653	2483.612663
481.442022	2483.597539
481.811333	2478.102681
482.180584	2478.054790
482.549777	2480.429174
482.918912	2477.041518
483.287988	2481.281129
483.657005	2483.587457
484.025964	2482.180975
484.394864	2481.079483
484.763706	2479.877168
485.132489	2483.161479
485.501213	2483.264823
485.869879	2485.193064
486.238487	2481.961685
486.607036	2481.167703
486.975527	2482.150728
487.343959	2481.082003
487.712333	2483.209370
488.080648	2483.980667
488.448905	2481.381952
488.817104	2483.373208
489.185244	2486.496202
489.553326	2481.828094
489.921350	2484.288177
490.289315	2482.760708
490.657222	2485.422437
491.025070	2484.328506
491.392861	2483.327837
491.760593	2482.730461
492.128267	2483.153917
492.495883	2482.405306
492.863440	2481.901191
493.230939	2483.315234
493.598380	2484.580564
493.965763	2481.802888
494.333088	2487.315390
494.700354	2484.653661
495.067563	2485.573671
495.434713	2482.090234
495.801805	2483.968064
496.168839	2484.457056
496.535815	2481.364308
496.902733	2483.642909
497.269593	2482.919504
497.636395	2487.781697
498.003139	2484.822539
498.369825	2484.744402
498.736453	2484.956130
499.103023	2485.929073
499.469535	2485.356902
499.835989	2486.019813
500.202385	2482.899339
500.568723	2479.204173
500.935003	2481.838176
501.301226	2480.711478
501.667390	2486.642396
502.033497	2484.353712
502.399546	2483.466469
502.765537	2485.190544
503.131470	2484.860348
503.497345	2484.096613
503.863163	2484.164669
504.228923	2484.010914
504.594625	2488.116933
504.960269	2483.894967
505.325856	2486.614670
505.691385	2486.458394
506.056856	2485.031747
506.422270	2484.068887
506.787625	2484.313383
507.152924	2485.220791
507.518164	2486.072746
507.883347	2485.384628
508.248472	2483.645430
508.613540	2484.051243
508.978550	2485.185502
509.343503	2487.375884
509.708398	2485.220791
510.073236	2485.188023
510.438016	2485.427478
510.802738	2485.188023
511.167403	2484.278095
511.532010	2486.725575
511.896561	2488.537870
512.261053	2484.928404
512.625488	2485.326655
512.989866	2485.397231
513.354186	2481.399596
513.718449	2483.337920
514.082655	2486.410503
514.446803	2485.288846
514.810894	2487.862355
515.174927	2484.247848
515.538904	2487.524598
515.902822	2484.958651
516.266684	2487.055771
516.630488	2487.249855
516.994235	2489.465442
517.357925	2484.139463
517.721558	2484.880513
518.085133	2487.731285
518.448651	2485.598877
518.812112	2482.387662
519.175516	2481.223156
519.538863	2481.399596
519.902152	2487.534680
520.265385	2486.281953
520.628560	2483.204329
520.991678	2484.709113
521.354739	2486.075266
521.717743	2488.331183
522.080690	2487.824547
522.443580	2486.380256
522.806413	2487.786738
523.169189	2484.986377
523.531908	2486.309680
523.894569	2489.533498
524.257174	2483.015286
524.619722	2486.743219
524.982213	2485.606439
525.344647	2487.811944
525.707025	2486.604587
526.069345	2487.794300
526.431608	2486.556696
526.793815	2487.005359
527.155964	2487.920328
527.518057	2486.453353
527.880093	2484.895636
528.242072	2487.801861
528.603995	2485.021665
528.965860	2487.539721
529.327669	2486.135760
529.689421	2484.073928
530.051117	2486.130719
530.412755	2484.116778
530.774337	2486.201295
531.135862	2484.719196
531.497331	2490.945021
531.858743	2488.573158
532.220098	2487.759012
532.581396	2485.102323
532.942638	2486.402941
533.303824	2488.003508
533.664953	2486.077787
534.026025	2484.018475
534.387040	2487.713641
534.747999	2487.822026
535.108902	2482.672487
535.469748	2486.808754
535.830537	2489.989722
536.191270	2485.956799
536.551947	2486.176089
536.912567	2482.312045
537.273131	2483.632827
537.633638	2481.563433
537.994089	2487.398569
538.354483	2486.808754
538.714821	2485.440081
539.075103	2488.731954
539.435328	2487.454022
539.795497	2488.305977
540.155609	2488.621049
540.515665	2488.389156
540.875665	2489.203302
541.235609	2485.699700
541.595496	2487.010400
541.955328	2487.118785
542.315102	2486.455873
542.674821	2489.069712
543.034483	2488.711790
543.394090	2486.743219
543.753640	2490.622387
544.113134	2484.837663
544.472571	2486.450832
544.831953	2486.619711
545.191278	2487.920328
545.550548	2486.337406
545.909761	2488.686584
546.268918	2487.123826
546.628019	2485.334217
546.987064	2485.840852
547.346053	2488.414362
547.704986	2487.630462
548.063863	2488.328662
548.422684	2488.552993
548.781449	2487.466625
549.140158	2487.257417
549.498811	2488.759681
549.857408	2485.361943
550.215949	2488.505102
550.574434	2488.190030
550.932864	2485.298928
551.291237	2488.000987
551.649555	2487.436378
552.007817	2487.736326
552.366022	2487.547283
552.724173	2489.815802
553.082267	2488.648775
553.440305	2487.842191
553.798288	2488.006028
554.156215	2486.957468
554.514086	2486.886892
554.871902	2481.994452
555.229661	2483.605101
555.587365	2482.795996
555.945014	2489.707418
556.302606	2486.123157
556.660143	2487.635503
557.017625	2485.442601
557.375050	2486.095431
557.732421	2488.936121
558.089735	2488.311018
558.446994	2491.197078
558.804197	2487.771614
559.161345	2486.846563
559.518437	2484.368836
559.875474	2487.690956
560.232455	2485.571151
560.589381	2488.197592
560.946251	2488.202633
561.303065	2487.065853
561.659825	2487.355719
562.016528	2487.993425
562.373177	2490.594661
562.729770	2488.437047
563.086307	2489.180617
563.442789	2487.353199
563.799216	2489.538539
564.155587	2487.262458
564.511904	2487.900164
564.868164	2487.703559
565.224370	2486.501244
565.580520	2488.626090
565.936615	2486.276912
566.292654	2485.329175
566.648638	2487.678353
567.004567	2488.094248
567.360441	2488.618528
567.716260	2489.024341
568.072023	2488.696666
568.427732	2487.106182
568.783385	2487.690956
569.138982	2486.702890
569.494525	2486.463435
569.850013	2489.067191
570.205445	2486.670122
570.560823	2488.976450
570.916145	2484.509988
571.271412	2488.495020
571.626625	2487.297746
571.981782	2487.141470
572.336884	2485.724906
572.691931	2484.331027
573.046923	2486.256748
573.401860	2487.380925
573.756743	2487.627942
574.111570	2486.324803
574.466342	2488.323621
574.821059	2490.171204
575.175722	2487.494351
575.530330	2486.508805
575.884882	2490.246821
576.239380	2489.992243
576.593823	2491.340751
576.948211	2489.299084
577.302544	2488.905874
577.656823	2487.774135
578.011047	2489.389825
578.365216	2487.549804
578.719330	2489.830926
579.073389	2489.165493
579.427394	2489.624238
579.781344	2489.316728
580.135239	2486.985194
580.489080	2485.674494
580.842866	2489.077273
581.196597	2489.455360
581.550273	2490.531646
581.903895	2492.001143
582.257463	2489.790597
582.610975	2488.043837
582.964434	2488.459732
583.317837	2486.256748
583.671186	2487.461583
584.024481	2489.984681
584.377721	2489.178096
584.730906	2487.481748
585.084037	2487.504433
585.437113	2488.351347
585.790135	2487.930411
586.143103	2488.227839
586.496016	2487.310349
586.848874	2487.373363
587.201679	2488.573158
587.554428	2487.028044
587.907124	2489.198261
588.259765	2487.680874
588.612352	2488.326141
588.964884	2488.444608
589.317362	2490.272027
589.669786	2487.476707
590.022155	2487.978302
590.374470	2484.091572
590.726731	2486.813795
591.078937	2482.717858
591.431090	2489.994763
591.783188	2488.144660
592.135232	2486.657519
592.487222	2488.696666
592.839157	2490.622387
593.191038	2486.987715
593.542866	2488.061481
593.894639	2488.084166
594.246358	2491.194558
594.598022	2484.328506
594.949633	2490.030051
595.301190	2491.686070
595.652692	2487.335555
596.004141	2489.921667
596.355535	2490.045175
596.706876	2488.517705
597.058162	2487.713641
597.409395	2490.413179
597.760573	2489.223467
598.111698	2487.890082
598.462768	2489.389825
598.813785	2486.869248
599.164748	2487.900164
599.515657	2487.743888
599.866511	2487.317911
600.217312	2487.953096
600.568060	2487.872438
600.918753	2491.552480
601.269392	2489.009218
601.619978	2487.257417
601.970510	2488.421923
602.320988	2488.013590
602.671412	2487.315390
603.021783	2488.094248
603.372100	2489.959475
603.722363	2487.232211
604.072572	2490.438385
604.422728	2488.492499
604.772830	2487.547283
605.122878	2487.466625
605.472872	2486.528970
605.822813	2487.511995
606.172701	2486.181130
606.522534	2487.940493
606.872314	2488.747078
607.222041	2488.316059
607.571714	2485.586274
607.921333	2484.464618
608.270899	2485.155256
608.620411	2482.465800
608.969870	2488.260606
609.319276	2487.275061
609.668627	2488.147180
610.017926	2487.368322
610.367171	2487.605256
610.716362	2488.323621
611.065500	2488.495020
611.414585	2486.924701
611.763616	2488.288333
612.112594	2487.970740
612.461518	2486.718013
612.810389	2490.095586
613.159207	2483.940337
613.507971	2490.808910
613.856682	2485.596357
614.205340	2488.545432
614.553945	2488.021152
614.902496	2486.536532
615.250994	2487.078456
615.599439	2488.230359
615.947830	2487.945534
616.296169	2487.940493
616.644454	2487.890082
616.992686	2488.164824
617.340864	2488.984012
617.688990	2486.927221
618.037063	2484.772128
618.385082	2488.898312
618.733048	2487.126347
619.080961	2487.300267
619.428821	2489.246152
619.776628	2485.661892
620.124382	2490.662716
620.472083	2488.719351
620.819731	2485.976964
621.167326	2488.905874
621.514868	2489.692294
621.862357	2488.472335
622.209793	2487.658188
622.557176	2488.663899
622.904506	2488.384115
623.251783	2484.595687
623.599007	2488.815133
623.946179	2486.518888
624.293297	2487.111223
624.640363	2484.918321
624.987376	2486.982674
625.334336	2483.065697
625.681243	2483.539566
626.028097	2483.272385
626.374899	2488.497541
626.721647	2486.718013
627.068343	2486.236583
627.414987	2486.753301
627.761577	2488.016110
628.108115	2485.664412
628.454600	2487.922849
628.801032	2488.991574
629.147412	2487.295225
629.493739	2488.701707
629.840014	2487.524598
630.186236	2488.232880
630.532405	2488.452170
630.878521	2490.579537
631.224585	2488.676502
631.570597	2489.750267
631.916556	2488.076604
632.262462	2488.913436
632.608316	2485.309011
632.954117	2488.426964
633.299866	2488.447129
633.645562	2485.687097
633.991206	2489.873776
634.336797	2488.366471
634.682336	2486.806233
635.027823	2488.711790
635.373257	2487.564927
635.718639	2489.238590
636.063968	2489.478045
636.409245	2486.496203
636.754470	2486.455873
637.099642	2485.634165
637.444762	2486.735657
637.789829	2489.488127
638.134845	2487.847232
638.479808	2487.270020
638.824719	2489.538539
639.169577	2486.758343
639.514383	2489.031903
639.859137	2488.333703
640.203839	2487.683394
640.548489	2488.366471
640.893086	2485.215749
641.237632	2489.730103
641.582125	2489.074753
641.926566	2487.315390
642.270955	2485.142653
642.615292	2483.526963
642.959576	2485.349340
643.303809	2481.616366
643.647990	2486.775987
643.992118	2487.471666
644.336195	2488.283292
644.680219	2486.334886
645.024192	2487.171717
645.368112	2489.505771
645.711981	2486.675163
646.055797	2487.002838
646.399562	2489.362098
646.743274	2489.478045
647.086935	2487.368322
647.430544	2489.044506
647.774101	2488.830257
648.117606	2488.958806
648.461059	2487.635503
648.804460	2487.839670
649.147810	2484.404124
649.491108	2487.877479
649.834354	2488.273209
650.177548	2487.277581
650.520690	2486.927221
650.863781	2486.183651
651.206820	2489.944352
651.549807	2485.989567
651.892742	2487.504433
652.235626	2486.218939
652.578458	2487.080976
652.921238	2488.905874
653.263967	2486.067704
653.606644	2487.096100
653.949269	2486.874289
654.291843	2486.438229
654.634365	2489.984681
654.976836	2488.656337
655.319255	2484.540235
655.661622	2485.886223
656.003938	2486.123157
656.346203	2487.897643
656.688416	2487.993425
657.030577	2485.561068
657.372687	2485.808085
657.714746	2485.661892
658.056753	2488.931080
658.398708	2486.344968
658.740612	2486.125678
659.082465	2486.155925
659.424266	2483.358084
659.766016	2481.719709
660.107715	2486.889412
660.449362	2482.370018
660.790958	2489.382263
661.132503	2485.944196
661.473996	2491.071050
661.815438	2485.225832
662.156829	2487.970740
662.498168	2486.355050
662.839456	2490.821513
663.180693	2488.056440
663.521879	2487.428816
663.863013	2485.545945
664.204097	2488.379073
664.545129	2486.350009
664.886110	2487.469145
665.227040	2486.622231
665.567918	2486.218939
665.908746	2485.946717
666.249522	2489.513333
666.590248	2485.987046
666.930922	2486.828919
667.271545	2488.419403
667.612118	2489.979640
667.952639	2485.682056
668.293109	2487.844711
668.633528	2486.728096
668.973896	2487.597695
669.314213	2486.944865
669.654480	2486.513847
669.994695	2483.088382
670.334859	2488.182468
670.674973	2485.394710
671.015035	2488.842860
671.355047	2484.293218
671.695008	2488.505102
672.034918	2486.770945
672.374777	2486.990236
672.714585	2485.775318
673.054342	2488.923518
673.394049	2490.350165
673.733705	2488.416882
674.073310	2489.760350
674.412864	2488.414362
674.752368	2486.539052
675.091820	2487.718682
675.431223	2487.948055
675.770574	2487.733806
676.109875	2486.534011
676.449125	2486.448312
676.788324	2483.804226
677.127473	2483.637868
677.466571	2481.056798
677.805619	2486.763384
678.144616	2486.927221
678.483562	2490.201451
678.822458	2485.603918
679.161303	2486.992756
679.500098	2487.138950
679.838842	2486.357571
680.177535	2486.148363
680.516179	2486.796151
680.854771	2486.299597
681.193314	2486.554176
681.531805	2485.651809
681.870247	2487.310349
682.208638	2487.721203
682.546978	2488.368991
682.885268	2485.084679
683.223508	2486.428147
683.561697	2486.362612
683.899836	2486.627273
684.237925	2485.785400
684.575963	2488.679022
684.913951	2486.385297
685.251889	2488.777325
685.589776	2486.092910
685.927614	2486.458394
686.265401	2486.196254
686.603137	2485.026706
686.940824	2483.612662
687.278460	2488.764722
687.616046	2484.076449
687.953582	2484.693990
688.291068	2487.348157
688.628504	2486.597026
688.965889	2485.117447
689.303224	2485.069556
689.640510	2486.481079
689.977745	2487.980822
690.314930	2488.578199
690.652065	2485.694659
690.989150	2486.458394
691.326185	2487.864876
691.663170	2488.628611
692.000105	2486.581902
692.336990	2485.419916
692.673825	2489.203302
693.010610	2486.483600
693.347345	2486.571820
693.684030	2483.095944
694.020665	2482.180975
694.357251	2481.843218
694.693786	2487.237252
695.030272	2484.656181
695.366707	2484.620893
695.703093	2487.154073
696.039429	2488.696666
696.375716	2487.587612
696.711952	2486.604587
697.048139	2489.115082
697.384276	2485.354381
697.720363	2485.641727
698.056400	2484.396562
698.392388	2488.459732
698.728326	2487.822026
699.064214	2487.471666
699.400053	2488.290853
699.735842	2487.658188
700.071581	2485.913949
700.407270	2485.316572
700.742910	2484.610811
701.078501	2486.844042
701.414042	2484.817498
701.749533	2485.253558
702.084974	2484.101654
702.420366	2485.878661
702.755709	2487.567448
703.091002	2486.894454
703.426246	2485.069556
703.761440	2485.427478
704.096584	2488.711790
704.431679	2486.261789
704.766725	2486.337406
705.101721	2484.653661
705.436668	2485.268682
705.771565	2483.741212
706.106413	2487.403610
706.441212	2483.186685
706.775961	2487.393528
707.110661	2483.138794
707.445311	2485.767756
707.779913	2485.883702
708.114465	2488.003508
708.448967	2482.916983
708.783421	2484.799854
709.117825	2485.825729
709.452180	2487.511995
709.786485	2487.746409
710.120742	2485.036788
710.454949	2482.516212
710.789107	2483.587457
711.123216	2479.791468
711.457275	2487.701038
711.791286	2486.874289
712.125247	2486.279433
712.459159	2485.787920
712.793023	2488.041316
713.126837	2487.365802
713.460602	2487.045688
713.794318	2487.063332
714.127985	2485.024186
714.461602	2487.522077
714.795171	2486.579382
715.128691	2484.998980
715.462162	2486.902015
715.795584	2485.982005
716.128957	2486.080307
716.462281	2484.547797
716.795556	2487.690956
717.128782	2485.271202
717.461960	2484.575523
717.795088	2486.216418
718.128167	2485.273723
718.461198	2486.995277
718.794180	2486.919659
719.127113	2486.962509
719.459997	2487.693477
719.792833	2485.356902
720.125619	2483.869761
720.458357	2485.170379
720.791046	2485.608959
721.123686	2486.599546
721.456278	2485.306490
721.788821	2485.190544
722.121315	2485.208188
722.453761	2487.829588
722.786158	2486.377735
723.118506	2488.230359
723.450805	2485.029227
723.783056	2487.728765
724.115259	2485.777838
724.447412	2487.292705
724.779518	2484.948568
725.111574	2486.687766
725.443582	2485.513178
725.775542	2487.300267
726.107453	2485.830770
726.439315	2484.411685
726.771129	2489.762870
727.102895	2482.047384
727.434612	2483.794144
727.766281	2478.495891
728.097901	2487.446460
728.429473	2484.585605
728.760996	2486.675163
729.092471	2484.930924
729.423897	2485.984525
729.755276	2486.370174
730.086606	2488.558034
730.417887	2484.131901
730.749120	2484.842704
731.080305	2484.573002
731.411442	2488.578199
731.742530	2486.085348
732.073570	2486.486120
732.404562	2484.363794
732.735506	2486.276912
733.066401	2486.400421
733.397249	2482.304483
733.728048	2485.906388
734.058798	2486.077787
734.389501	2486.733137
734.720156	2488.331182
735.050762	2488.217757
735.381320	2484.956130
735.711831	2485.752632
736.042293	2485.558548
736.372707	2484.875472
736.703073	2485.442601
737.033391	2485.271202
737.363661	2486.556696
737.693883	2487.529639
738.024056	2487.028044
738.354182	2482.332209
738.684260	2483.700883
739.014290	2483.249699
739.344272	2486.370174
739.674207	2486.891933
740.004093	2484.759525
740.333931	2485.440081
740.663722	2487.615339
740.993464	2485.432519
741.323159	2484.643578
741.652806	2483.642909
741.982405	2486.574340
742.311956	2487.847232
742.641460	2485.734988
742.970915	2485.734988
743.300323	2485.876141
743.629683	2479.002527
743.958996	2482.473362
744.288260	2478.478247
744.617477	2484.767087
744.946647	2482.400265
745.275768	2486.536532
745.604842	2481.815491
745.933869	2484.313383
746.262847	2483.784062
746.591778	2483.902529
746.920662	2485.959320
747.249498	2486.576861
747.578286	2481.737353
747.907027	2483.118629
748.235720	2483.542086
748.564365	2484.492344
748.892963	2485.394710
749.221514	2485.286326
749.550017	2483.496716
749.878473	2485.974443
750.206881	2486.692808
750.535242	2485.273723
750.863555	2485.699700
751.191821	2486.760863
751.520039	2486.496202
751.848210	2484.192395
752.176334	2485.271202
752.504411	2484.625934
752.832440	2485.871099
753.160421	2483.627786
753.488356	2484.457056
753.816243	2487.184320
754.144082	2486.813795
754.471875	2484.467138
754.799620	2482.382621
755.127318	2484.404124
755.454969	2482.485965
755.782572	2483.511839
756.110129	2485.558548
756.437638	2485.041830
756.765100	2485.659371
757.092515	2483.282467
757.419882	2486.665081
757.747203	2484.716675
758.074477	2487.388487
758.401703	2485.104844
758.728882	2483.390852
759.056014	2487.098620
759.383099	2484.126860
759.710138	2478.715182
760.037129	2480.126705
760.364073	2483.272385
760.690970	2481.177785
761.017820	2484.121819
761.344623	2484.905718
761.671379	2487.073415
761.998088	2484.615852
762.324751	2486.029896
762.651366	2483.201808
762.977935	2486.730616
763.304456	2481.331540
763.630931	2486.276912
763.957359	2484.653661
764.283740	2484.288177
764.610074	2483.559730
764.936362	2484.154587
765.262602	2483.869761
765.588796	2485.790441
765.914943	2485.803044
766.241044	2482.407827
766.567097	2485.359422
766.893104	2483.763897
767.219064	2483.438743
767.544978	2484.978815
767.870845	2484.903198
768.196665	2484.394041
768.522438	2481.538228
768.848165	2485.271202
769.173846	2481.523104
769.499479	2486.891933
769.825066	2485.465287
770.150607	2485.009062
770.476101	2486.569299
770.801548	2483.862200
771.126949	2483.736171
771.452303	2484.787251
771.777611	2484.951089
772.102872	2486.014772
772.428087	2482.531335
772.753256	2484.237766
773.078378	2487.340596
773.403453	2485.586274
773.728482	2485.997128
774.053465	2486.289515
774.378401	2485.281284
774.703291	2482.599391
775.028135	2483.917652
775.352932	2484.545276
775.677683	2484.575523
776.002388	2482.027220
776.327046	2481.757518
776.651658	2484.003352
776.976224	2478.541262
777.300743	2484.172231
777.625216	2483.443784
777.949643	2487.527118
778.274024	2486.975112
778.598359	2482.690131
778.922647	2483.655512
779.246889	2483.453866
779.571086	2482.846407
779.895236	2486.778507
780.219339	2483.494195
780.543397	2484.956130
780.867409	2480.701396
781.191374	2485.689618
781.515294	2482.574185
781.839167	2483.554689
782.162995	2483.436222
782.486776	2483.831953
782.810511	2481.659215
783.134201	2485.303970
783.457844	2483.882364
783.781441	2484.197436
784.104993	2482.221304
784.428498	2485.021665
784.751958	2485.561068
785.075372	2484.172231
785.398739	2485.510657
785.722061	2483.663074
786.045337	2485.001500
786.368568	2485.054433
786.691752	2485.117447
787.014891	2483.380769
787.337983	2482.647282
787.661030	2486.496202
787.984031	2482.962354
788.306987	2485.261120
788.629897	2484.691469
788.952760	2484.094093
789.275579	2484.714155
789.598351	2484.373877
789.921078	2485.102323
790.243759	2484.126860
790.566395	2481.845738
790.888984	2483.305152
791.211529	2481.964205
791.534027	2484.401603
791.856480	2483.789103
792.178888	2480.630820
792.501249	2479.839359
792.823566	2480.527476
793.145836	2478.662249
793.468062	2483.436222
793.790241	2485.387149
794.112375	2483.017806
794.434464	2485.276243
794.756507	2482.029740
795.078505	2483.766418
795.400457	2485.603918
795.722364	2484.154587
796.044226	2484.121819
796.366042	2483.728609
796.687812	2484.567961
797.009538	2483.262302
797.331218	2482.135604
797.652852	2483.496716
797.974442	2485.326655
798.295986	2483.877323
798.617484	2483.337920
798.938938	2482.828763
799.260346	2485.099803
799.581709	2485.969402
799.903026	2484.356233
800.224299	2483.330358
800.545526	2483.093424
800.866708	2481.719709
801.187845	2481.780203
801.508936	2481.260964
801.829983	2482.944710
802.150984	2484.157107
802.471940	2486.513847
802.792851	2481.717189
803.113717	2483.889926
803.434538	2481.623927
803.755314	2480.222487
804.076045	2482.876654
804.396731	2484.184833
804.717372	2482.438074
805.037967	2485.442601
805.358518	2480.719040
805.679024	2484.136942
805.999485	2484.116778
806.319901	2484.308342
806.640272	2485.792962
806.960598	2483.393372
807.280879	2483.000162
807.601115	2480.199801
807.921306	2484.920842
808.241453	2478.384986
808.561554	2479.736015
808.881611	2481.941520
809.201623	2478.752990
809.521590	2483.408496
809.841513	2483.612663
810.161390	2483.685759
810.481223	2483.625265
810.801011	2483.854638
811.120755	2483.766418
811.440453	2483.872282
811.760107	2482.392703
812.079716	2484.411685
812.399281	2482.947230
812.718801	2482.677528
813.038276	2482.289360
813.357707	2482.420430
813.677093	2485.412354
813.996434	2483.688280
814.315731	2484.106696
814.634983	2483.007724
814.954191	2483.494195
815.273354	2482.070069
815.592473	2484.154587
815.911547	2482.153248
816.230577	2485.157776
816.549562	2482.448156
816.868502	2483.148876
817.187399	2483.889926
817.506250	2483.060656
817.825058	2479.451190
818.143821	2484.532673
818.462539	2484.850266
818.781213	2482.899339
819.099843	2482.843887
819.418429	2483.204329
819.736970	2485.941676
820.055466	2484.351192
820.373919	2484.051243
820.692327	2480.522435
821.010691	2482.785913
821.329011	2481.530666
821.647286	2483.645430
821.965517	2485.251038
822.283704	2481.255923
822.601847	2481.944041
822.919945	2481.840697
823.237999	2483.521922
823.556010	2484.681387
823.873976	2480.915645
824.191897	2481.082003
824.509775	2477.820377
824.827609	2480.804740
825.145398	2477.422126
825.463144	2481.684421
825.780845	2480.424133
826.098502	2483.332878
826.416116	2481.883547
826.733685	2481.792806
827.051210	2482.359936
827.368692	2482.264154
827.686129	2482.954792
828.003522	2483.007724
828.320872	2480.852631
828.638177	2485.407313
828.955439	2482.128043
829.272656	2482.246510
829.589830	2484.746922
829.906960	2483.284988
830.224046	2481.611324
830.541088	2483.146356
830.858086	2482.463279
831.175041	2480.998824
831.491952	2481.674339
831.808819	2482.420430
832.125642	2481.099647
832.442421	2483.496716
832.759157	2480.930769
833.075849	2483.995790
833.392497	2483.728609
833.709101	2481.601242
834.025662	2484.688949
834.342179	2483.884885
834.658653	2482.241469
834.975083	2481.127374
835.291469	2486.730616
835.607811	2482.765749
835.924110	2483.617704
836.240366	2483.249699
836.556578	2482.753146
836.872746	2481.974288
837.188871	2482.662405
837.504952	2482.619555
837.820990	2483.252220
838.136984	2482.034781
838.452935	2482.445635
838.768842	2481.107209
839.084706	2480.444297
839.400526	2482.090234
839.716303	2481.888588
840.032037	2479.408340
840.347727	2477.943885
840.663373	2480.474544
840.978977	2475.506487
841.294537	2483.111068
841.610054	2479.224338
841.925527	2481.818012
842.240957	2484.998980
842.556344	2484.169710
842.871687	2480.726602
843.186987	2485.044350
843.502244	2481.021509
843.817458	2484.230204
844.132629	2480.784575
844.447756	2482.090234
844.762840	2479.862044
845.077881	2482.518732
845.392879	2483.496716
845.707833	2484.746922
846.022745	2481.107209
846.337613	2483.169041
846.652438	2480.308186
846.967221	2481.691983
847.281960	2480.169554
847.596656	2482.589308
847.911309	2482.606952
848.225919	2481.639051
848.540485	2482.496047
848.855009	2482.581747
849.169490	2485.886223
849.483928	2481.386993
849.798323	2481.470172
850.112675	2482.687611
850.426984	2482.397744
850.741251	2480.262816
851.055474	2480.802219
851.369654	2483.095944
851.683792	2480.124184
851.997887	2481.714668
852.311938	2483.000162
852.625947	2479.340285
852.939914	2482.223825
853.253837	2482.652323
853.567718	2483.002683
853.881555	2482.521253
854.195350	2479.925058
854.509103	2481.697024
854.822812	2480.391365
855.136479	2483.758856
855.450103	2481.092086
855.763685	2477.757362
856.077224	2478.324492
856.390720	2476.965901
856.704173	2478.667291
857.017584	2482.080152
857.330953	2484.590646
857.644278	2480.300624
857.957561	2485.228352
858.270802	2482.952271
858.584000	2482.433033
858.897155	2482.133084
859.210268	2481.674339
859.523339	2480.154431
859.836367	2480.545120
860.149352	2482.566623
860.462295	2482.105358
860.775195	2481.845738
861.088054	2483.554689
861.400869	2481.266005
861.713642	2481.076962
862.026373	2478.339616
862.339062	2483.080821
862.651708	2482.175934
862.964312	2482.415388
863.276873	2480.845069
863.589392	2482.387662
863.901869	2482.410347
864.214303	2481.132415
864.526696	2480.822384
864.839045	2483.174082
865.151353	2481.850779
865.463619	2482.828763
865.775842	2480.716520
866.088023	2480.552682
866.400162	2483.645430
866.712258	2481.145018
867.024313	2481.099647
867.336325	2480.348515
867.648296	2485.273723
867.960224	2481.669298
868.272110	2482.538897
868.583954	2480.567806
868.895755	2481.303814
869.207515	2483.942858
869.519233	2479.209215
869.830909	2481.298773
870.142542	2480.003196
870.454134	2481.865903
870.765684	2485.671974
871.077191	2481.276088
871.388657	2478.974801
871.700081	2476.161837
872.011463	2478.127887
872.322803	2479.793988
872.634101	2480.925727
872.945357	2479.378093
873.256571	2480.555203
873.567744	2481.412199
873.878874	2479.993114
874.189963	2485.661892
874.501010	2481.855820
874.812015	2480.892960
875.122979	2481.384472
875.433900	2481.747436
875.744780	2480.290542
876.055618	2480.522435
876.366415	2483.471510
876.677169	2480.015799
876.987882	2480.961016
877.298554	2482.117960
877.609183	2481.475213
877.919771	2479.146200
878.230317	2478.924389
878.540822	2481.092086
878.851285	2483.673156
879.161707	2481.036633
879.472087	2483.645430
879.782425	2478.810963
880.092722	2480.378762
880.402977	2481.349184
880.713191	2481.583598
881.023363	2479.400778
881.333494	2482.586788
881.643583	2483.894967
881.953631	2481.092086
882.263637	2479.751139
882.573602	2484.404124
882.883526	2480.782055
883.193408	2482.712817
883.503248	2477.830459
883.813048	2481.659215
884.122806	2480.416571
884.432522	2481.737353
884.742197	2481.916314
885.051831	2482.962354
885.361424	2482.556541
885.670975	2481.276088
885.980485	2481.024030
886.289954	2480.855151
886.599382	2482.387662
886.908768	2478.843731
887.218113	2477.356591
887.527417	2478.291725
887.836680	2475.851806
888.145901	2480.905563
888.455082	2479.655357
888.764221	2478.894143
889.073319	2482.901860
889.382376	2479.768783
889.691392	2480.552682
890.000366	2481.122333
890.309300	2481.422281
890.618193	2481.533187
890.927044	2479.499081
891.235855	2481.210553
891.544625	2481.795327
891.853353	2482.460759
892.162041	2481.979329
892.470687	2480.615697
892.779293	2482.624596
893.087858	2481.666777
893.396381	2481.565954
893.704864	2481.540748
894.013306	2479.108392
894.321707	2478.163175
894.630068	2481.525625
894.938387	2480.262816
895.246665	2481.772641
895.554903	2478.752990
895.863100	2480.096458
896.171256	2482.614514
896.479371	2479.244503
896.787446	2479.925058
897.095480	2480.524956
897.403473	2479.972949
897.711425	2481.981849
898.019336	2479.461272
898.327207	2481.623927
898.635038	2480.759369
898.942827	2481.364308
899.250576	2481.346664
899.558284	2480.713999
899.865952	2480.519915
900.173579	2477.356591
900.481165	2479.496560
900.788711	2481.737353
901.096216	2483.317755
901.403681	2479.315079
901.711105	2482.556541
902.018489	2479.299955
902.325832	2479.859523
902.633135	2475.846765
902.940397	2479.063021
903.247619	2476.897846
903.554800	2479.244503
903.861941	2478.092599
904.169041	2478.460603
904.476101	2479.864565
904.783121	2477.817856
905.090100	2480.663588
905.397039	2481.520584
905.703938	2482.463279
906.010796	2481.371870
906.317614	2479.531848
906.624391	2480.416571
906.931129	2480.023361
907.237826	2480.955974
907.544483	2481.213073
907.851099	2481.591160
908.157675	2478.720223
908.464211	2481.691983
908.770707	2478.936992
909.077163	2480.903042
909.383578	2479.057980
909.689954	2480.595532
909.996289	2480.169554
910.302584	2479.844400
910.608839	2477.840541
910.915054	2478.483288
911.221229	2479.294914
911.527363	2477.870788
911.833458	2481.870944
912.139513	2479.715851
912.445527	2477.467496
912.751502	2481.031592
913.057436	2480.784575
913.363331	2479.153762
913.669186	2480.376242
913.975000	2480.250213
914.280775	2480.903042
914.586510	2480.766931
914.892205	2482.503609
915.197859	2477.772486
915.503475	2482.241469
915.809050	2479.678042
916.114585	2478.410192
916.420081	2479.552013
916.725536	2479.332723
917.030952	2482.002014
917.336328	2479.483958
917.641665	2477.643936
917.946961	2477.096971
918.252218	2476.794502
918.557435	2474.662094
918.862612	2481.334061
919.167750	2479.491519
919.472848	2481.127374
919.777906	2481.346664
920.082925	2478.672332
920.387904	2480.756849
920.692843	2480.136787
920.997743	2479.133597
921.302603	2480.421612
921.607423	2479.930100
921.912204	2480.494709
922.216946	2477.522949
922.521647	2478.233751
922.826310	2478.616879
923.130932	2481.157621
923.435516	2478.531179
923.740059	2480.315748
924.044564	2479.403299
924.349028	2479.249544
924.653454	2476.527321
924.957840	2481.893629
925.262186	2481.233238
925.566493	2479.226859
925.870761	2481.381952
926.174989	2480.401447
926.479178	2482.231386
926.783328	2480.255254
927.087438	2482.896819
927.391509	2480.212404
927.695541	2478.828608
927.999533	2481.056797
928.303486	2479.738536
928.607400	2478.483288
928.911275	2480.570326
929.215110	2477.336426
929.518906	2478.238793
929.822663	2479.960347
930.126381	2478.402630
930.430060	2479.889770
930.733699	2479.108392
931.037299	2479.262147
931.340861	2480.608135
931.644383	2479.627630
931.947866	2480.779534
932.251309	2481.732312
932.554714	2479.241982
932.858080	2477.177630
933.161407	2477.757362
933.464694	2478.500933
933.767943	2474.384830
934.071153	2478.359780
934.374323	2479.930100
934.677455	2479.133597
934.980548	2479.531848
935.283602	2478.279122
935.586617	2478.521097
935.889593	2481.263485
936.192530	2478.052270
936.495428	2480.928248
936.798287	2480.189719
937.101108	2479.947744
937.403890	2477.182671
937.706632	2478.843731
938.009336	2480.199801
938.312002	2477.591004
938.614628	2478.508494
938.917216	2478.538741
939.219765	2481.087044
939.522275	2477.275932
939.824747	2479.388176
940.127179	2481.160141
940.429573	2480.262816
940.731929	2478.274081
941.034246	2479.342805
941.336524	2479.804071
941.638763	2479.983032
941.940964	2482.932107
942.243126	2478.415233
942.545250	2476.726446
942.847335	2475.821559
943.149381	2481.021509
943.451389	2479.325161
943.753359	2479.284832
944.055290	2478.170737
944.357182	2479.854482
944.659036	2478.750470
944.960851	2481.129894
945.262628	2479.181488
945.564367	2478.425315
945.866067	2480.018320
946.167729	2475.970273
946.469352	2476.998669
946.770937	2480.487147
947.072484	2478.213587
947.373992	2477.636375
947.675462	2475.698051
947.976893	2478.841210
948.278286	2474.465489
948.579641	2478.785758
948.880958	2471.811321
949.182236	2479.461272
949.483476	2476.610500
949.784678	2479.042857
950.085841	2478.778196
950.386967	2480.691314
950.688054	2478.732826
950.989103	2477.888432
951.290114	2481.608804
951.591087	2479.057980
951.892021	2479.110912
952.192917	2478.692496
952.493776	2478.027064
952.794596	2479.667960
953.095378	2480.151910
953.396122	2477.686786
953.696828	2479.052939
953.997496	2477.830459
954.298126	2481.563433
954.598718	2478.243834
954.899272	2480.761890
955.199788	2478.006899
955.500266	2480.739205
955.800706	2478.054790
956.101108	2476.247537
956.401472	2481.142497
956.701798	2477.286014
957.002087	2478.294245
957.302337	2481.812971
957.602550	2480.930769
957.902724	2477.485140
958.202861	2478.818525
958.502960	2476.696199
958.803022	2478.697538
959.103045	2477.739718
959.403031	2478.984883
959.702979	2476.665953
960.002889	2479.977991
960.302762	2478.332054
960.602596	2480.305666
960.902393	2478.558906
961.202153	2480.371201
961.501875	2478.107723
961.801559	2480.587970
962.101205	2479.335243
962.400814	2480.620738
962.700385	2475.493884
962.999918	2475.539255
963.299414	2475.687969
963.598873	2477.792650
963.898293	2473.986579
964.197677	2480.898001
964.497022	2478.253916
964.796331	2478.427836
965.095601	2478.795840
965.394835	2479.322641
965.694030	2479.284832
965.993189	2479.975470
966.292309	2477.016313
966.591393	2479.118474
966.890439	2478.168216
967.189447	2479.516725
967.488419	2479.373052
967.787353	2477.865747
968.086249	2478.952116
968.385108	2478.218628
968.683930	2477.613689
968.982714	2479.730974
969.281462	2477.790130
969.580172	2477.177630
969.878844	2475.188894
970.177480	2479.940182
970.476078	2474.561271
970.774639	2476.025726
971.073162	2476.797023
971.371649	2478.906745
971.670098	2477.364152
971.968510	2478.674852
972.266885	2476.739049
972.565223	2478.558906
972.863524	2478.430356
973.161788	2476.129070
973.460014	2477.684266
973.758204	2478.195943
974.056356	2479.352888
974.354471	2478.926910
974.652550	2479.264667
974.950591	2478.160655
975.248595	2477.187712
975.546563	2479.257106
975.844493	2479.723412
976.142386	2479.408340
976.440243	2478.095120
976.738062	2478.415233
977.035845	2477.964050
977.333590	2478.584112
977.631299	2479.463793
977.928971	2477.086889
978.226606	2471.513893
978.524204	2475.703092
978.821765	2474.672176
979.119290	2480.373721
979.416777	2475.541775
979.714228	2476.693679
980.011642	2475.854327
980.309020	2477.366673
980.606360	2475.597228
980.903664	2478.263998
981.200931	2476.678555
981.498162	2477.850624
981.795356	2477.288535
982.092513	2476.907928
982.389633	2477.979173
982.686717	2478.248875
982.983764	2475.486322
983.280775	2478.586632
983.577749	2478.566467
983.874686	2479.017651
984.171587	2475.826600
984.468451	2478.412712
984.765279	2477.074286
985.062070	2478.115284
985.358824	2476.779378
985.655543	2478.470686
985.952224	2476.668473
986.248869	2477.364152
986.545478	2479.373052
986.842050	2478.004379
987.138586	2477.054121
987.435086	2480.081334
987.731549	2476.025726
988.027975	2476.512197
988.324366	2479.327682
988.620719	2477.885912
988.917037	2478.047229
989.213318	2478.838690
989.509563	2480.388845
989.805772	2478.087558
990.101944	2477.389358
990.398080	2480.416571
990.694180	2478.430356
990.990244	2479.927579
991.286271	2476.126549
991.582262	2478.563947
991.878217	2477.727115
992.174136	2479.098309
992.470019	2477.313741
992.765865	2476.799543
993.061676	2475.695530
993.357450	2474.914152
993.653188	2473.908441
993.948890	2477.361632
994.244556	2478.667291
994.540186	2479.549493
994.835780	2478.611838
995.131337	2478.705099
995.426859	2476.106384
995.722345	2475.856847
996.017795	2478.778196
996.313208	2476.734008
996.608586	2476.807105
996.903928	2476.151755
997.199234	2478.775675
997.494504	2478.284163
997.789738	2477.177630
998.084936	2480.411530
998.380099	2478.450521
998.675225	2482.599391
998.970316	2476.915490
999.265371	2479.612507
999.560390	2476.073617
999.855373	2477.606128
1000.150320	2476.061014
1000.445232	2477.578401
1000.740108	2478.168216
1001.034948	2478.826087
1001.329752	2476.497074
1001.624521	2477.951447
1001.919254	2477.878350
1002.213951	2479.897332
1002.508613	2478.213587
1002.803239	2476.943216
1003.097829	2477.492702
1003.392384	2477.943885
1003.686903	2477.081848
1003.981386	2476.416415
1004.275834	2476.308031
1004.570246	2476.338277
1004.864623	2480.005717
1005.158964	2477.810294
1005.453270	2477.679224
1005.747540	2475.783751
1006.041775	2479.720892
1006.335974	2479.320120
1006.630138	2477.089409
1006.924266	2478.788278
1007.218359	2478.556385
1007.512416	2473.797536
1007.806438	2472.612865
1008.100425	2474.404995
1008.394376	2472.060858
1008.688292	2477.553196
1008.982172	2478.281642
1009.276017	2475.204018
1009.569827	2478.528659
1009.863602	2477.543113
1010.157341	2477.991776
1010.451045	2474.382310
1010.744714	2477.044039
1011.038347	2476.237454
1011.331945	2475.902218
1011.625508	2478.468165
1011.919036	2476.587815
1012.212528	2477.613689
1012.505986	2476.834831
1012.799408	2479.045377
1013.092795	2476.895325
1013.386147	2477.671663
1013.679464	2476.837352
1013.972745	2475.942547
1014.265992	2479.269708
1014.559204	2479.287352
1014.852380	2476.620582
1015.145521	2475.629995
1015.438628	2475.937506
1015.731699	2478.450521
1016.024736	2476.676035
1016.317737	2475.093113
1016.610703	2476.562609
1016.903635	2479.035295
1017.196531	2478.780717
1017.489393	2481.260964
1017.782219	2476.630664
1018.075011	2477.331385
1018.367768	2477.628813
1018.660490	2475.506487
1018.953177	2475.506487
1019.245829	2475.506487
