Dividing Wavelength (nm)	Counts (n)	Blue Motor Position (mm): 16.000000	Red Motor Position (mm): 0.000000	
326.493990	2070.018757
326.888308	2070.018757
327.282561	2070.018757
327.676750	2043.265353
328.070874	2046.385828
328.464933	2050.494368
328.858929	2056.286654
329.252859	2069.292831
329.646726	2083.060222
330.040528	2099.874991
330.434265	2117.839142
330.827938	2138.195322
331.221547	2158.014618
331.615091	2178.433812
332.008571	2199.843592
332.401986	2217.953937
332.795338	2239.139386
333.188625	2260.624784
333.581847	2276.270005
333.975006	2295.282717
334.368100	2312.551189
334.761129	2329.731441
335.154095	2345.346415
335.546996	2385.569782
335.939833	2468.307719
336.332606	2478.412712
336.725315	2490.307315
337.117960	2503.522700
337.510540	2510.630727
337.903056	2520.541635
338.295508	2527.286699
338.687896	2535.395395
339.080220	2537.369007
339.472480	2544.018288
339.864676	2545.192877
340.256807	2552.376522
340.648875	2549.840821
341.040879	2554.045143
341.432818	2556.112017
341.824694	2553.883827
342.216506	2555.159238
342.608253	2552.074052
342.999937	2553.498178
343.391557	2554.685370
343.783113	2551.292673
344.174605	2549.913918
344.566033	2547.542055
344.957397	2545.883515
345.348697	2544.000644
345.739934	2543.244471
346.131106	2539.088040
346.522215	2538.047042
346.913260	2537.232895
347.304241	2538.122659
347.695159	2536.224665
348.086012	2536.199459
348.476802	2529.068747
348.867528	2527.488345
349.258191	2523.571368
349.648789	2523.253776
350.039324	2522.139681
350.429796	2526.651513
350.820203	2524.992974
351.210548	2524.745957
351.600828	2521.542304
351.991045	2521.302849
352.381198	2521.549866
352.771288	2522.910977
353.161314	2520.158507
353.551276	2521.953158
353.941175	2516.856552
354.331010	2518.981398
354.720782	2524.811492
355.110490	2525.512213
355.500135	2520.473579
355.889717	2520.171110
356.279235	2522.948786
356.668689	2523.314270
357.058080	2522.346368
357.447408	2524.730834
357.836672	2524.534229
358.225873	2524.420803
358.615010	2523.092459
359.004084	2521.806965
359.393095	2525.431554
359.782043	2525.013138
360.170927	2528.675537
360.559748	2528.002543
360.948505	2525.436595
361.337199	2528.352903
361.725830	2527.901720
362.114398	2526.651513
362.502903	2527.100176
362.891344	2530.712163
363.279722	2528.557070
363.668037	2529.545136
364.056289	2528.224353
364.444478	2531.619571
364.832603	2532.542102
365.220665	2532.037986
365.608665	2532.869777
365.996601	2532.955476
366.384474	2536.254912
366.772284	2530.031607
367.160031	2531.627132
367.547715	2531.571680
367.935336	2532.678213
368.322893	2532.600075
368.710388	2528.453726
369.097820	2531.420445
369.485189	2531.052441
369.872495	2536.073430
370.259738	2536.416228
370.646918	2534.364479
371.034035	2539.740869
371.421090	2538.838503
371.808081	2534.989582
372.195010	2538.029398
372.581875	2536.000333
372.968678	2536.590148
373.355418	2536.509490
373.742096	2535.516382
374.128710	2538.599048
374.515262	2538.851106
374.901751	2535.455889
375.288177	2541.583411
375.674540	2539.443441
376.060841	2539.037628
376.447079	2538.619213
376.833254	2540.323123
377.219367	2541.999306
377.605417	2538.283976
377.991404	2537.479912
378.377329	2539.065355
378.763191	2539.229192
379.148991	2542.672300
379.534727	2541.086857
379.920402	2541.948895
380.306013	2541.008720
380.691563	2541.323792
381.077049	2540.101312
381.462474	2538.641898
381.847835	2542.195911
382.233134	2543.473844
382.618371	2542.442928
383.003545	2541.505273
383.388657	2544.214893
383.773706	2540.151723
384.158693	2538.692309
384.543618	2542.019471
384.928480	2545.510470
385.313280	2543.098278
385.698017	2541.837989
386.082692	2545.633978
386.467305	2543.952753
386.851856	2547.153886
387.236344	2541.404450
387.620770	2542.833617
388.005133	2541.139790
388.389435	2545.492826
388.773674	2541.795140
389.157851	2548.283105
389.541965	2543.178936
389.926018	2549.314021
390.310008	2547.421067
390.693936	2544.673638
391.077802	2545.606252
391.461606	2548.278063
391.845348	2550.168496
392.229027	2545.492826
392.612645	2546.276725
392.996200	2546.455686
393.379694	2548.157076
393.763125	2548.484751
394.146494	2548.726726
394.529801	2551.683363
394.913047	2547.312682
395.296230	2550.513815
395.679351	2550.218908
396.062410	2550.264278
396.445408	2550.440718
396.828343	2549.276212
397.211217	2548.172199
397.594028	2554.972716
397.976778	2552.507592
398.359466	2551.310318
398.742092	2551.307797
399.124656	2551.048178
399.507158	2552.671429
399.889598	2552.719320
400.271977	2552.941131
400.654294	2553.704866
401.036549	2551.917777
401.418742	2554.466080
401.800874	2551.562375
402.182944	2551.937941
402.564952	2552.172355
402.946898	2551.769063
403.328783	2550.927190
403.710606	2554.703014
404.092367	2554.042623
404.474067	2552.933569
404.855705	2555.963303
405.237282	2555.617983
405.618797	2554.357695
406.000250	2553.384752
406.381642	2554.337530
406.762972	2551.552293
407.144240	2551.953065
407.525447	2555.151677
407.906593	2551.595143
408.287677	2552.966337
408.668700	2554.440874
409.049661	2555.315514
409.430560	2557.513457
409.811399	2554.345092
410.192176	2559.045968
410.572891	2553.667057
410.953545	2557.689898
411.334138	2557.755433
411.714669	2557.284085
412.095139	2557.024465
412.475547	2558.526729
412.855894	2557.992367
413.236180	2557.266441
413.616405	2556.593447
413.996568	2556.558159
414.376670	2558.534291
414.756711	2554.655123
415.136691	2558.312480
415.516609	2558.204095
415.896466	2557.667212
416.276262	2557.707542
416.655997	2560.099569
417.035670	2559.368602
417.415283	2558.294836
417.794834	2559.257697
418.174324	2556.359033
418.553753	2556.510268
418.933121	2559.071174
419.312428	2557.485731
419.691674	2557.049671
420.070859	2560.041596
420.449983	2557.624363
420.829045	2560.911195
421.208047	2558.428427
421.586988	2560.770043
421.965867	2560.959086
422.344686	2562.400856
422.723444	2560.424724
423.102141	2559.890361
423.480777	2559.565207
423.859352	2561.090156
424.237866	2561.679971
424.616319	2561.092677
424.994712	2560.225598
425.373044	2558.599826
425.751314	2556.795093
426.129524	2558.667882
426.507673	2557.170659
426.885762	2556.444733
427.263789	2559.353478
427.641756	2563.565363
428.019662	2560.618808
428.397508	2562.027811
428.775292	2562.274827
429.153016	2560.865825
429.530679	2563.976217
429.908282	2560.780125
430.285824	2561.654765
430.663305	2561.712738
431.040726	2560.530588
431.418086	2559.615618
431.795385	2561.982440
432.172624	2561.440516
432.549802	2561.390105
432.926920	2560.800290
433.303977	2560.752399
433.680974	2562.761298
434.057910	2562.985630
434.434786	2560.946483
434.811601	2562.491597
435.188355	2562.733572
435.565050	2559.292985
435.941683	2560.858263
436.318257	2561.148129
436.694770	2560.429765
437.071222	2564.389591
437.447614	2563.462019
437.823946	2560.323901
438.200218	2564.976886
438.576429	2561.806000
438.952580	2562.857080
439.328670	2564.215671
439.704700	2563.615774
440.080670	2562.138716
440.456580	2560.777604
440.832429	2563.875393
441.208218	2564.876063
441.583947	2565.591906
441.959616	2562.620146
442.335224	2564.734910
442.710773	2565.022256
443.086261	2567.704150
443.461689	2562.897410
443.837057	2565.367575
444.212365	2561.077553
444.587612	2562.970506
444.962800	2557.798283
445.337927	2561.715259
445.712995	2558.577141
446.088002	2566.214489
446.462949	2565.067626
446.837837	2566.287586
447.212664	2564.200548
447.587431	2566.844633
447.962139	2564.283727
448.336786	2565.314643
448.711374	2566.401012
449.085901	2563.288099
449.460369	2562.872204
449.834776	2561.929508
450.209124	2566.164077
450.583412	2564.868501
450.957640	2568.004098
451.331808	2564.245918
451.705917	2568.455282
452.079965	2564.049313
452.453954	2563.383881
452.827883	2567.411763
453.201752	2563.938408
453.575562	2565.042421
453.949311	2568.823286
454.323001	2565.249108
454.696632	2567.837740
455.070202	2567.134499
455.443713	2566.453944
455.817164	2567.668862
456.190556	2566.272462
456.563888	2569.970148
456.937160	2567.913358
457.310373	2563.706515
457.683526	2566.816907
458.056619	2567.762123
458.429653	2565.783470
458.802628	2566.033007
459.175542	2570.010478
459.548398	2567.603327
459.921194	2566.605178
460.293930	2566.907647
460.666607	2566.859757
461.039224	2567.636094
461.411782	2571.437124
461.784280	2571.563153
462.156719	2568.044428
462.529099	2570.383523
462.901419	2568.490570
463.273680	2566.048131
463.645882	2565.549057
464.018024	2568.636763
464.390106	2565.937225
464.762130	2571.636250
465.134094	2570.456620
465.505999	2571.608523
465.877845	2572.568863
466.249631	2573.751014
466.621358	2573.771178
466.993026	2572.911662
467.364634	2577.794019
467.736184	2571.200190
468.107674	2570.184397
468.479105	2570.789336
468.850477	2573.093143
469.221790	2572.755386
469.593043	2573.163719
469.964238	2573.181363
470.335373	2570.912844
470.706449	2572.959553
471.077467	2571.212793
471.448425	2576.498443
471.819324	2574.214800
472.190164	2574.401323
472.560945	2574.088771
472.931667	2574.146744
473.302330	2575.601117
473.672934	2572.082392
474.043479	2573.004923
474.413965	2573.940057
474.784393	2573.977866
475.154761	2573.655232
475.525070	2573.877043
475.895321	2572.894018
476.265513	2572.611713
476.635645	2576.939544
477.005719	2575.795202
477.375734	2576.901735
477.745691	2579.326530
478.115588	2578.522466
478.485427	2577.226889
478.855207	2582.681418
479.224928	2580.312076
479.594591	2582.557910
479.964194	2581.222004
480.333739	2580.811150
480.703226	2581.469020
481.072653	2583.160327
481.442022	2581.363156
481.811333	2581.378280
482.180584	2578.209914
482.549777	2581.174113
482.918912	2580.072621
483.287988	2583.329206
483.657005	2587.036975
484.025964	2583.011613
484.394864	2583.334247
484.763706	2586.406831
485.132489	2581.496747
485.501213	2586.066553
485.869879	2586.169896
486.238487	2586.999166
486.607036	2588.393045
486.975527	2586.164855
487.343959	2585.275092
487.712333	2588.367839
488.080648	2588.267016
488.448905	2589.549990
488.817104	2591.405135
489.185244	2593.519899
489.553326	2594.371854
489.921350	2594.576020
490.289315	2597.479725
490.657222	2602.699840
491.025070	2603.705550
491.392861	2604.176898
491.760593	2602.581373
492.128267	2601.618512
492.495883	2602.525920
492.863440	2600.010384
493.230939	2602.840992
493.598380	2600.227154
493.965763	2602.379727
494.333088	2601.308481
494.700354	2603.894593
495.067563	2603.266970
495.434713	2607.264605
495.801805	2603.261928
496.168839	2604.617999
496.535815	2608.056066
496.902733	2607.952722
497.269593	2610.153186
497.636395	2608.769389
498.003139	2611.841972
498.369825	2611.899946
498.736453	2612.714092
499.103023	2611.877260
499.469535	2614.339864
499.835989	2616.784824
500.202385	2613.949175
500.568723	2609.777620
500.935003	2612.850203
501.301226	2616.094186
501.667390	2622.130967
502.033497	2619.418827
502.399546	2620.764815
502.765537	2622.299846
503.131470	2626.814199
503.497345	2624.492748
503.863163	2623.378653
504.228923	2625.790845
504.594625	2627.519961
504.960269	2628.465177
505.325856	2633.256794
505.691385	2633.521454
506.056856	2635.684109
506.422270	2634.106228
506.787625	2636.944398
507.152924	2634.890128
507.518164	2639.659059
507.883347	2638.718884
508.248472	2639.704430
508.613540	2642.875315
508.978550	2646.290697
509.343503	2646.779689
509.708398	2647.838331
510.073236	2651.455359
510.438016	2652.113230
510.802738	2651.578868
511.167403	2655.246307
511.532010	2657.038437
511.896561	2658.497851
512.261053	2663.544046
512.625488	2663.763336
512.989866	2665.933553
513.354186	2668.539830
513.718449	2667.070333
514.082655	2670.994872
514.446803	2674.042249
514.810894	2675.400840
515.174927	2679.874864
515.538904	2680.782272
515.902822	2682.080369
516.266684	2684.066583
516.630488	2685.836028
516.994235	2692.606298
517.357925	2692.800382
517.721558	2698.496886
518.085133	2703.412011
518.448651	2700.072247
518.812112	2702.411342
519.175516	2708.601879
519.538863	2709.534493
519.902152	2719.231152
520.265385	2724.179045
520.628560	2727.223902
520.991678	2728.791700
521.354739	2735.304871
521.717743	2738.677403
522.080690	2744.142014
522.443580	2750.718199
522.806413	2757.780856
523.169189	2758.269847
523.531908	2766.549943
523.894569	2772.075047
524.257174	2776.538989
524.619722	2786.752367
524.982213	2789.078859
525.344647	2797.444654
525.707025	2805.903710
526.069345	2815.653302
526.431608	2820.649085
526.793815	2830.680981
527.155964	2834.940756
527.518057	2844.395440
527.880093	2853.164527
528.242072	2864.983513
528.603995	2871.920140
528.965860	2884.107130
529.327669	2893.556773
529.689421	2904.491035
530.051117	2917.673653
530.412755	2924.854776
530.774337	2938.929678
531.135862	2951.789661
531.497331	2966.076291
531.858743	2979.702530
532.220098	3000.706498
532.581396	3009.581449
532.942638	3022.731299
533.303824	3039.866181
533.664953	3058.619273
534.026025	3070.488670
534.387040	3092.319387
534.747999	3113.517438
535.108902	3139.000471
535.469748	3148.908859
535.830537	3170.578259
536.191270	3198.478525
536.551947	3210.806667
536.912567	3238.013774
537.273131	3264.822630
537.633638	3279.759569
537.994089	3313.623520
538.354483	3336.122189
538.714821	3370.200389
539.075103	3407.938467
539.435328	3433.050975
539.795497	3458.972588
540.155609	3493.567506
540.515665	3536.001419
540.875665	3552.105385
541.235609	3591.822115
541.595496	3632.995739
541.955328	3679.419725
542.315102	3705.248077
542.674821	3738.721338
543.034483	3774.047224
543.394090	3812.717915
543.753640	3856.018906
544.113134	3931.411883
544.472571	3950.159934
544.831953	4027.957540
545.191278	4052.328999
545.550548	4089.384000
545.909761	4155.657529
546.268918	4214.931416
546.628019	4279.548926
546.987064	4311.804749
547.346053	4339.987319
547.704986	4432.805044
548.063863	4473.494717
548.422684	4538.596178
548.781449	4580.117642
549.140158	4662.595960
549.498811	4717.035380
549.857408	4745.525461
550.215949	4852.801215
550.574434	4914.149537
550.932864	4976.556501
551.291237	5086.133541
551.649555	5138.180934
552.007817	5220.165219
552.366022	5278.829127
552.724173	5352.782853
553.082267	5463.254699
553.440305	5563.213218
553.798288	5601.364670
554.156215	5700.496440
554.514086	5793.740142
554.871902	5854.339852
555.229661	5956.002282
555.587365	6018.678947
555.945014	6126.221882
556.302606	6214.177414
556.660143	6313.460418
557.017625	6428.854951
557.375050	6498.317009
557.732421	6628.545137
558.089735	6737.812146
558.446994	6825.460168
558.804197	6974.612787
559.161345	7064.302475
559.518437	7100.170285
559.875474	7237.796305
560.232455	7362.385902
560.589381	7480.548028
560.946251	7570.154537
561.303065	7770.316071
561.659825	7843.937082
562.016528	7936.666587
562.373177	8004.671752
562.729770	8205.642391
563.086307	8266.065661
563.442789	8451.340668
563.799216	8561.988954
564.155587	8672.077671
564.511904	8800.811097
564.868164	8932.922095
565.224370	9113.125701
565.580520	9202.371768
565.936615	9363.731541
566.292654	9444.846227
566.648638	9650.192588
567.004567	9777.065827
567.360441	9938.642369
567.716260	10029.274754
568.072023	10237.741589
568.427732	10379.546726
568.783385	10439.624677
569.138982	10664.490385
569.494525	10842.344814
569.850013	10915.958263
570.205445	11093.726991
570.560823	11211.377440
570.916145	11333.264978
571.271412	11530.719412
571.626625	11628.991666
571.981782	11796.988117
572.336884	11872.766742
572.691931	12096.435177
573.046923	12182.344000
573.401860	12311.165645
573.756743	12487.454795
574.111570	12690.799818
574.466342	12844.088703
574.821059	13058.473853
575.175722	13099.710492
575.530330	13298.364721
575.884882	13376.081669
576.239380	13517.763298
576.593823	13716.667064
576.948211	13866.984189
577.302544	13922.215071
577.656823	14086.203805
578.011047	14344.152086
578.365216	14471.821828
578.719330	14563.661568
579.073389	14739.028187
579.427394	14932.033803
579.781344	15084.001907
580.135239	15189.082238
580.489080	15389.268978
580.842866	15413.978193
581.196597	15745.328195
581.550273	15928.717810
581.903895	16085.328816
582.257463	16416.015905
582.610975	16419.413643
582.964434	16717.492029
583.317837	16729.011065
583.671186	16901.597488
584.024481	17187.163730
584.377721	17214.433851
584.730906	17478.310529
585.084037	17726.431080
585.437113	17807.754974
585.790135	18044.031334
586.143103	18071.271209
586.496016	18329.595055
586.848874	18563.376044
587.201679	18783.440054
587.554428	18758.826620
587.907124	19052.274706
588.259765	19150.191558
588.612352	19396.119207
588.964884	19371.954436
589.317362	19679.207722
589.669786	19867.343583
590.022155	19999.101701
590.374470	20384.525639
590.726731	20397.589789
591.078937	20280.914804
591.431090	20620.776793
591.783188	20588.957030
592.135232	20688.270282
592.487222	20990.386632
592.839157	21251.815829
593.191038	21266.810741
593.542866	21349.541117
593.894639	21221.014379
594.246358	21558.423847
594.598022	21746.796643
594.949633	21705.287782
595.301190	21877.596941
595.652692	22020.947192
596.004141	22460.419861
596.355535	22060.593346
596.706876	22236.731262
597.058162	22257.105085
597.409395	22693.961395
597.760573	22990.633299
598.111698	22951.576959
598.462768	23087.468823
598.813785	23276.562504
599.164748	23229.846131
599.515657	23531.319734
599.866511	23416.663731
600.217312	23977.388753
600.568060	23540.179562
600.918753	24167.838504
601.269392	24281.551811
601.619978	24285.557008
601.970510	24575.647685
602.320988	24812.949920
602.671412	25128.715194
603.021783	25208.549427
603.372100	25101.359373
603.722363	25327.339176
604.072572	25509.839028
604.422728	25656.677757
604.772830	25672.005385
605.122878	25925.759426
605.472872	25984.181358
605.822813	26298.835057
606.172701	26290.277699
606.522534	26644.796843
606.872314	26921.231035
607.222041	26969.096791
607.571714	27329.322521
607.921333	27144.959963
608.270899	27403.240960
608.620411	27832.888420
608.969870	27816.602972
609.319276	27962.355333
609.668627	28119.198232
610.017926	28520.106074
610.367171	28774.724672
610.716362	28932.507747
611.065500	29008.387194
611.414585	29293.769434
611.763616	29547.967096
612.112594	29608.521436
612.461518	29827.970425
612.810389	30230.393133
613.159207	30211.236749
613.507971	30318.721711
613.856682	30818.471456
614.205340	30813.556331
614.553945	31448.608125
614.902496	31086.126478
615.250994	31519.353158
615.599439	31691.674919
615.947830	31891.559190
616.296169	32011.387417
616.644454	32174.236851
616.992686	32395.649369
617.340864	32853.181971
617.688990	32576.989755
618.037063	33183.579194
618.385082	33175.077288
618.733048	33576.262394
619.080961	33580.877570
619.428821	33735.577979
619.776628	33874.219792
620.124382	33850.233982
620.472083	34067.255655
620.819731	34254.474027
621.167326	34048.215217
621.514868	34171.821789
621.862357	33862.284860
622.209793	34056.328954
622.557176	33834.445088
622.904506	33767.982516
623.251783	33598.934983
623.599007	33455.095741
623.946179	33522.662326
624.293297	33406.756116
624.640363	33075.111208
624.987376	33050.039029
625.334336	33001.681761
625.681243	32756.170007
626.028097	32780.720426
626.374899	32726.671695
626.721647	32774.527368
627.068343	32668.486697
627.414987	32517.584798
627.761577	32394.482342
628.108115	32749.840838
628.454600	32197.935315
628.801032	32465.630667
629.147412	32461.907774
629.493739	32448.654581
629.840014	32158.238749
630.186236	32567.010791
630.532405	32179.189784
630.878521	32464.612353
631.224585	32330.580676
631.570597	32119.386576
631.916556	32317.254385
632.262462	32306.201656
632.608316	32306.859526
632.954117	32275.203601
633.299866	32294.430561
633.645562	32290.717752
633.991206	31923.878027
634.336797	31648.260502
634.682336	31616.803702
635.027823	31495.132934
635.373257	31471.754583
635.718639	31246.392321
636.063968	31221.544473
636.409245	30748.520405
636.754470	30744.921021
637.099642	30605.780134
637.444762	30170.784010
637.789829	30336.670739
638.134845	30053.831761
638.479808	30030.287052
638.824719	30057.385775
639.169577	29663.666618
639.514383	29807.984770
639.859137	29512.225315
640.203839	29697.036536
640.548489	29506.062505
640.893086	29535.843121
641.237632	29331.111781
641.582125	29444.162177
641.926566	29289.244998
642.270955	29377.714728
642.615292	29361.514980
642.959576	29296.786565
643.303809	29337.970271
643.647990	29472.314500
643.992118	29479.190634
644.336195	29366.266267
644.680219	29461.231524
645.024192	29681.613126
645.368112	30174.096048
645.711981	30216.855115
646.055797	30887.870500
646.399562	30719.697608
646.743274	31532.578625
647.086935	31936.231375
647.430544	31945.444083
647.774101	31997.773781
648.117606	32332.899606
648.461059	32508.228417
648.804460	32191.959027
649.147810	31773.949071
649.491108	31539.933668
649.834354	31471.295838
650.177548	30772.859096
650.520690	30333.635964
650.863781	30355.368378
651.206820	30242.033158
651.549807	29879.836336
651.892742	29356.892242
652.235626	29314.775922
652.578458	29206.796927
652.921238	28583.705271
653.263967	28873.611946
653.606644	28595.420912
653.949269	28553.672597
654.291843	28213.273724
654.634365	28567.172807
654.976836	28180.896914
655.319255	28280.981462
655.661622	28176.062447
656.003938	28089.319313
656.346203	27937.585623
656.688416	28186.308592
657.030577	28011.080605
657.372687	27867.911836
657.714746	28033.475931
658.056753	28229.176044
658.398708	27666.565631
658.740612	27750.147962
659.082465	27978.630698
659.424266	27900.669254
659.766016	27902.421055
660.107715	27785.801522
660.449362	27902.857115
660.790958	27896.442246
661.132503	27827.421288
661.473996	27937.346169
661.815438	28030.017700
662.156829	28168.150356
662.498168	27988.130752
662.839456	27993.290373
663.180693	28133.658782
663.521879	28206.737868
663.863013	28172.268979
664.204097	28176.785853
664.545129	28587.854140
664.886110	28545.992399
665.227040	28657.976590
665.567918	28660.139245
665.908746	28740.507841
666.249522	28856.935809
666.590248	28900.486337
666.930922	29009.392904
667.271545	29042.793069
667.612118	29117.810480
667.952639	28941.173490
668.293109	28984.315685
668.633528	28866.725730
668.973896	28846.009108
669.314213	28844.776546
669.654480	28675.562656
669.994695	28666.415482
670.334859	28614.438665
670.674973	28445.164281
671.015035	28650.351845
671.355047	28588.890097
671.695008	28525.016158
672.034918	28453.114180
672.374777	28559.157372
672.714585	28448.977914
673.054342	28591.156096
673.394049	28457.200036
673.733705	28676.331432
674.073310	28421.475899
674.412864	28495.469955
674.752368	28240.115348
675.091820	28478.461102
675.431223	28099.696528
675.770574	27911.583352
676.109875	27767.693698
676.449125	27590.161903
676.788324	27488.635585
677.127473	27051.973360
677.466571	26965.699053
677.805619	26703.720370
678.144616	26642.808108
678.483562	26611.134538
678.822458	26301.322867
679.161303	26261.371723
679.500098	26188.640476
679.838842	26101.037825
680.177535	26183.135536
680.516179	26401.818269
680.854771	26467.126417
681.193314	27139.417214
681.531805	28076.681140
681.870247	28817.909717
682.208638	29609.988412
682.546978	29965.520828
682.885268	30151.194086
683.223508	29765.331568
683.561697	29526.395999
683.899836	29365.462203
684.237925	28965.108888
684.575963	28806.844384
684.913951	28440.531460
685.251889	28564.218691
685.589776	28565.985615
685.927614	28587.894470
686.265401	28749.723070
686.603137	28854.211066
686.940824	29320.757251
687.278460	29655.257973
687.616046	29829.467647
687.953582	30494.421046
688.291068	30416.386505
688.628504	30781.093821
688.965889	30829.342704
689.303224	30592.179101
689.640510	30339.536635
689.977745	29761.470044
690.314930	29055.501818
690.652065	28652.496856
690.989150	27997.761877
691.326185	27183.330706
691.663170	26584.585302
692.000105	25891.963531
692.336990	25304.424612
692.673825	24892.590069
693.010610	24401.768207
693.347345	23908.226642
693.684030	23295.378610
694.020665	23106.342903
694.357251	22453.732770
694.693786	22451.582718
695.030272	22224.531669
695.366707	21740.961507
695.703093	21468.005712
696.039429	21529.207840
696.375716	21288.270933
696.711952	21285.095006
697.048139	21169.682830
697.384276	21004.350628
697.720363	21117.406064
698.056400	21020.873009
698.392388	20863.425172
698.728326	20860.196313
699.064214	20703.726459
699.400053	20730.855429
699.735842	20355.954899
700.071581	20170.979841
700.407270	19941.786302
700.742910	19766.772564
701.078501	19521.553197
701.414042	19331.494135
701.749533	19040.937151
702.084974	18740.038240
702.420366	18958.511765
702.755709	18568.281087
703.091002	18260.624509
703.426246	18320.286565
703.761440	18254.330628
704.096584	18029.043984
704.431679	17956.751317
704.766725	17909.982012
705.101721	17828.322882
705.436668	17948.650183
705.771565	17667.963778
706.106413	17961.374055
706.441212	18032.542544
706.775961	18123.011091
707.110661	18194.416515
707.445311	18555.395898
707.779913	18437.251416
708.114465	18725.489470
708.448967	19039.903715
708.783421	19641.111722
709.117825	19965.993923
709.452180	20181.261275
709.786485	20628.504882
710.120742	21345.351918
710.454949	21439.966814
710.789107	21954.860185
711.123216	22643.504486
711.457275	22864.818702
711.791286	23427.343415
712.125247	23596.756431
712.459159	23375.122103
712.793023	24120.212203
713.126837	23142.447647
713.460602	23431.227624
713.794318	23119.444862
714.127985	22845.024611
714.461602	21982.465544
714.795171	21966.918625
715.128691	20997.610605
715.462162	20499.305150
715.795584	20076.690100
716.128957	19811.147321
716.462281	19436.372821
716.795556	19160.503238
717.128782	18694.320016
717.461960	18097.926310
717.795088	18069.360612
718.128167	17739.636383
718.461198	17302.318807
718.794180	17167.215884
719.127113	16854.505549
719.459997	16670.425296
719.792833	16286.473375
720.125619	16333.240159
720.458357	16002.195148
720.791046	15859.623755
721.123686	15721.975049
721.456278	15494.888713
721.788821	15485.431508
722.121315	15237.111831
722.453761	15343.288614
722.786158	15213.488984
723.118506	15300.569876
723.450805	15192.185068
723.783056	15356.241858
724.115259	15240.413787
724.447412	15223.936776
724.779518	15434.450319
725.111574	15473.741072
725.443582	15727.069135
725.775542	15684.090778
726.107453	16179.089236
726.439315	16081.396716
726.771129	16476.492107
727.102895	16868.424175
727.434612	17157.466292
727.766281	17328.043815
728.097901	17641.734654
728.429473	17738.842401
728.760996	17769.931197
729.092471	17892.549702
729.423897	17780.759595
729.755276	17627.369886
730.086606	17718.271973
730.417887	18249.546573
730.749120	18788.667730
731.080305	19008.736781
731.411442	19413.654861
731.742530	19529.684578
732.073570	19668.838068
732.404562	19989.639455
732.735506	19892.433406
733.066401	19758.951214
733.397249	19349.652372
733.728048	18753.062061
734.058798	17918.647756
734.389501	17176.272317
734.720156	16664.259965
735.050762	16082.349494
735.381320	15689.121850
735.711831	15393.475821
736.042293	15019.785168
736.372707	15030.419482
736.703073	14823.754860
737.033391	15009.675134
737.363661	14994.186189
737.693883	15094.812661
738.024056	15275.515341
738.354182	15478.111753
738.684260	15824.444063
739.014290	16094.642347
739.344272	16318.267932
739.674207	16656.398285
740.004093	16839.649269
740.333931	16918.724808
740.663722	17008.895927
740.993464	17065.379535
741.323159	16919.564160
741.652806	16648.720608
741.982405	16493.027092
742.311956	16154.097716
742.641460	16047.409257
742.970915	15712.263267
743.300323	15381.039294
743.629683	15167.349824
743.958996	14875.330905
744.288260	14566.401436
744.617477	14254.207819
744.946647	14216.769690
745.275768	13908.624120
745.604842	13710.854613
745.933869	13530.159495
746.262847	13485.938493
746.591778	13396.853743
746.920662	13279.621711
747.249498	13267.903548
747.578286	13408.072831
747.907027	13569.430083
748.235720	13828.189990
748.564365	13906.186722
748.892963	13850.000542
749.221514	13963.376092
749.550017	13840.056866
749.878473	13813.626096
750.206881	13605.882667
750.535242	13540.219117
750.863555	13456.266262
751.191821	13355.518802
751.520039	13369.661759
751.848210	13289.381384
752.176334	13327.681551
752.504411	13251.391249
752.832440	13083.893871
753.160421	13211.982029
753.488356	13094.190428
753.816243	13014.411648
754.144082	12837.164679
754.471875	12782.546297
754.799620	12740.051891
755.127318	12715.667830
755.454969	12711.503837
755.782572	12676.356912
756.110129	12682.025690
756.437638	12600.648864
756.765100	12595.519490
757.092515	12627.719860
757.419882	12657.298830
757.747203	12662.410560
758.074477	12747.457346
758.401703	12723.433727
758.728882	12913.762491
759.056014	12941.587139
759.383099	13118.564407
759.710138	13239.133683
760.037129	13372.638561
760.364073	13438.586935
760.690970	13459.837919
761.017820	13473.285197
761.344623	13658.534998
761.671379	13983.671777
761.998088	14516.869578
762.324751	15912.276087
762.651366	18829.947219
762.977935	23091.988217
763.304456	26331.274883
763.630931	27913.549402
763.957359	27139.467626
764.283740	25127.054134
764.610074	22981.952432
764.936362	20389.612163
765.262602	18500.807763
765.588796	16553.778037
765.914943	15237.164763
766.241044	14091.723869
766.567097	13283.470632
766.893104	12545.939742
767.219064	12082.272055
767.544978	11597.320617
767.870845	11209.507172
768.196665	10976.835237
768.522438	10745.030380
768.848165	10547.452437
769.173846	10343.595737
769.499479	10210.738648
769.825066	10046.190346
770.150607	9830.930556
770.476101	9747.824614
770.801548	9623.635789
771.126949	9476.681113
771.452303	9367.421665
771.777611	9164.593361
772.102872	9153.961568
772.428087	9022.412658
772.753256	8871.374648
773.078378	8790.965723
773.403453	8613.436449
773.728482	8496.017894
774.053465	8418.303466
774.378401	8315.073238
774.703291	8200.545785
775.028135	8083.528001
775.352932	8054.773259
775.677683	7950.940614
776.002388	7838.238058
776.327046	7850.155345
776.651658	7745.052329
776.976224	7650.480283
777.300743	7647.112792
777.625216	7562.542395
777.949643	7516.501537
778.274024	7534.374948
778.598359	7451.352185
778.922647	7469.427242
779.246889	7418.441012
779.571086	7420.762464
779.895236	7429.667662
780.219339	7438.512366
780.543397	7441.249713
780.867409	7521.288113
781.191374	7529.709360
781.515294	7494.559915
781.839167	7587.823782
782.162995	7561.849236
782.486776	7515.342072
782.810511	7463.980276
783.134201	7383.180662
783.457844	7374.509877
783.781441	7328.973134
784.104993	7258.928822
784.428498	7244.495999
784.751958	7224.275931
785.075372	7194.210489
785.398739	7136.552292
785.722061	7174.476892
786.045337	7172.493198
786.368568	7316.637431
786.691752	7316.347565
787.014891	7606.188705
787.337983	7915.909636
787.661030	8463.799880
787.984031	9076.237058
788.306987	9506.877625
788.629897	9764.392366
788.952760	9764.566286
789.275579	9582.338657
789.598351	9215.362821
789.921078	8877.620637
790.243759	8480.128177
790.566395	8190.632356
790.888984	7939.706402
791.211529	7729.936429
791.534027	7505.216914
791.856480	7301.080430
792.178888	7222.617391
792.501249	7123.364634
792.823566	6975.265616
793.145836	6967.282949
793.468062	6933.537465
793.790241	6880.265072
794.112375	6934.898577
794.434464	7074.296563
794.756507	7107.300997
795.078505	7241.302428
795.400457	7519.667382
795.722364	7851.581992
796.044226	8140.167885
796.366042	8426.137419
796.687812	8398.932833
797.009538	8493.698963
797.331218	8408.228720
797.652852	8334.060744
797.974442	8186.332251
798.295986	8108.517001
798.617484	7925.051768
798.938938	7790.697456
799.260346	7689.662651
799.581709	7487.025910
799.903026	7413.828357
800.224299	7309.834394
800.545526	7141.598487
800.866708	7047.487707
801.187845	6978.691080
801.508936	6871.652260
801.829983	6836.165058
802.150984	6689.291041
802.471940	6647.658672
802.792851	6632.782227
803.113717	6594.290496
803.434538	6567.756383
803.755314	6509.311766
804.076045	6509.278998
804.396731	6451.202386
804.717372	6478.681715
805.037967	6477.043340
805.358518	6511.013155
805.679024	6595.039108
805.999485	6598.588080
806.319901	6639.219780
806.640272	6661.713408
806.960598	6750.455360
807.280879	6748.554845
807.601115	6827.610220
807.921306	6775.542662
808.241453	6786.093797
808.561554	6807.233876
808.881611	6774.153824
809.201623	6782.209588
809.521590	6734.210242
809.841513	6715.988991
810.161390	6749.963848
810.481223	6625.185208
810.801011	6612.065605
811.120755	6587.878149
811.440453	6513.601788
811.760107	6479.435368
812.079716	6449.871521
812.399281	6384.880966
812.718801	6376.734461
813.038276	6331.202759
813.357707	6268.800837
813.677093	6312.694163
813.996434	6218.306119
814.315731	6257.047386
814.634983	6245.755202
814.954191	6245.966930
815.273354	6346.386715
815.592473	6396.568881
815.911547	6513.727817
816.230577	6593.897286
816.549562	6736.622434
816.868502	6832.744635
817.187399	6920.760661
817.506250	7055.775363
817.825058	7087.832061
818.143821	7326.502969
818.462539	7565.221768
818.781213	7882.189357
819.099843	8355.223508
819.418429	9257.761446
819.736970	10138.337597
820.055466	11224.068545
820.373919	12576.037951
820.692327	14562.580241
821.010691	17839.579778
821.329011	25197.569794
821.647286	36728.553867
821.965517	50559.476162
822.283704	58090.743239
822.601847	61301.028146
822.919945	59077.387787
823.237999	55169.369379
823.556010	49142.213732
823.873976	42562.172057
824.191897	36145.627604
824.509775	31361.489425
824.827609	26774.278880
825.145398	23996.623275
825.463144	22351.631761
825.780845	22235.337382
826.098502	23466.573674
826.416116	26732.722128
826.733685	30403.828990
827.051210	32180.366894
827.368692	31253.578486
827.686129	27775.310881
828.003522	23829.987935
828.320872	20150.157355
828.638177	17294.449566
828.955439	15115.824190
829.272656	13318.589830
829.589830	11848.244049
829.906960	10566.873482
830.224046	9609.679355
830.541088	8838.660080
830.858086	8354.202674
831.175041	7950.202085
831.491952	7793.986809
831.808819	7788.479349
832.125642	8080.959533
832.442421	8772.046273
832.759157	10240.143699
833.075849	12764.143565
833.392497	15858.708786
833.709101	18303.968350
834.025662	18657.837185
834.342179	17337.410279
834.658653	15302.639270
834.975083	13399.417170
835.291469	11778.396342
835.607811	10463.847421
835.924110	9558.078104
836.240366	8705.550933
836.556578	7905.345898
836.872746	7258.434789
837.188871	6753.449806
837.504952	6330.610424
837.820990	6008.402555
838.136984	5780.328152
838.452935	5666.816491
838.768842	5648.582638
839.084706	5928.638898
839.400526	6882.752881
839.716303	8365.749437
840.032037	9585.106250
840.347727	9807.166557
840.663373	9023.105817
840.978977	7997.795618
841.294537	7170.375914
841.610054	6565.641619
841.925527	6134.345702
842.240957	5782.901661
842.556344	5456.812104
842.871687	5182.926216
843.186987	4901.725613
843.502244	4677.938712
843.817458	4506.080736
844.132629	4366.828943
844.447756	4272.080457
844.762840	4196.400134
845.077881	4119.835090
845.392879	4057.407961
845.707833	4013.290303
846.022745	3968.189620
846.337613	3941.370682
846.652438	3900.184455
846.967221	3883.651991
847.281960	3849.752752
847.596656	3831.332376
847.911309	3812.390240
848.225919	3789.021972
848.540485	3773.527985
848.855009	3760.794031
849.169490	3741.955239
849.483928	3728.419741
849.798323	3719.320458
850.112675	3702.200699
850.426984	3706.357131
850.741251	3693.325748
851.055474	3688.471117
851.369654	3693.406407
851.683792	3688.735777
851.997887	3693.146787
852.311938	3698.361861
852.625947	3701.124413
852.939914	3691.518494
853.253837	3699.279351
853.567718	3697.149463
853.881555	3688.554296
854.195350	3701.562993
854.509103	3694.999411
854.822812	3696.678115
855.136479	3688.173689
855.450103	3698.550904
855.763685	3680.254036
856.077224	3685.872402
856.390720	3701.074002
856.704173	3718.123184
857.017584	3731.477200
857.330953	3741.652769
857.644278	3762.548352
857.957561	3768.451543
858.270802	3767.571862
858.584000	3775.252060
858.897155	3767.392901
859.210268	3750.643667
859.523339	3727.572827
859.836367	3728.815471
860.149352	3720.432032
860.462295	3715.579922
860.775195	3704.229764
861.088054	3699.380174
861.400869	3695.737940
861.713642	3694.951520
862.026373	3701.840257
862.339062	3708.970969
862.651708	3725.805902
862.964312	3755.425202
863.276873	3767.791152
863.589392	3815.241013
863.901869	3861.390256
864.214303	3903.100762
864.526696	3933.231739
864.839045	3982.927434
865.151353	4006.197400
865.463619	4015.047145
865.775842	4025.981408
866.088023	4039.390877
866.400162	4030.780587
866.712258	4041.752658
867.024313	4043.201990
867.336325	4039.784087
867.648296	4047.466806
867.960224	4044.663924
868.272110	4053.264133
868.583954	4054.557189
868.895755	4069.032862
869.207515	4063.588416
869.519233	4104.731793
869.830909	4113.291672
870.142542	4133.312615
870.454134	4148.168895
870.765684	4172.981454
871.077191	4209.292885
871.388657	4233.402204
871.700081	4262.391359
872.011463	4305.755364
872.322803	4336.327442
872.634101	4368.374057
872.945357	4405.497114
873.256571	4456.551399
873.567744	4485.626254
873.878874	4504.008822
874.189963	4538.959141
874.501010	4550.752921
874.812015	4550.342067
875.122979	4591.729940
875.433900	4593.774127
875.744780	4600.526753
876.055618	4620.983755
876.366415	4623.227069
876.677169	4633.604284
876.987882	4681.981717
877.298554	4725.227255
877.609183	4791.916679
877.919771	4882.236512
878.230317	5010.254094
878.540822	5189.691444
878.851285	5463.204287
879.161707	5843.700497
879.472087	6480.990564
879.782425	7479.446536
880.092722	9278.664590
880.402977	12075.751322
880.713191	15535.603592
881.023363	19167.056738
881.333494	21588.882498
881.643583	23016.290251
881.953631	23250.981168
882.263637	22600.581582
882.573602	21328.895071
882.883526	19908.897815
883.193408	18367.774234
883.503248	16780.869415
883.813048	15337.609754
884.122806	13992.531605
884.432522	12560.523800
884.742197	11365.477951
885.051831	10310.157764
885.361424	9330.628804
885.670975	8521.697532
885.980485	7839.042122
886.289954	7269.386696
886.599382	6810.727396
886.908768	6444.835408
887.218113	6085.305357
887.527417	5802.307583
887.836680	5541.692532
888.145901	5328.842414
888.455082	5169.307539
888.764221	5019.890259
889.073319	4888.396802
889.382376	4812.603054
889.691392	4748.857664
890.000366	4722.036205
890.309300	4698.413358
890.618193	4703.154563
890.927044	4687.436245
891.235855	4703.136919
891.544625	4725.335640
891.853353	4774.696098
892.162041	4869.505078
892.470687	5027.719171
892.779293	5236.344802
893.087858	5547.376433
893.396381	6025.683631
893.704864	6699.486774
894.013306	7707.848613
894.321707	8818.003952
894.630068	9706.398932
894.938387	10036.455878
895.246665	9923.231562
895.554903	9409.558150
895.863100	8765.729707
896.171256	8245.606138
896.479371	7764.899352
896.787446	7288.427134
897.095480	6872.310131
897.403473	6569.500622
897.711425	6264.357059
898.019336	6013.199213
898.327207	5749.027628
898.635038	5529.906314
898.942827	5291.981497
899.250576	5104.712714
899.558284	4911.107200
899.865952	4793.166886
900.173579	4651.520545
900.481165	4545.943660
900.788711	4455.865802
901.096216	4384.825862
901.403681	4317.344977
901.711105	4289.011172
902.018489	4269.101135
902.325832	4315.487312
902.633135	4403.788163
902.940397	4658.832738
903.247619	5260.270119
903.554800	6433.971722
903.861941	8157.307808
904.169041	9699.371564
904.476101	10529.689932
904.783121	10404.334079
905.090100	9785.474472
905.397039	9013.401595
905.703938	8302.387175
906.010796	7644.546845
906.317614	7119.911443
906.624391	6611.758094
906.931129	6210.381425
907.237826	5827.722560
907.544483	5474.473787
907.851099	5121.608141
908.157675	4777.665337
908.464211	4459.467707
908.770707	4219.223958
909.077163	4023.055018
909.383578	3873.965414
909.689954	3753.204573
909.996289	3684.891898
910.302584	3617.794140
910.608839	3584.119232
910.915054	3550.371228
911.221229	3538.484187
911.527363	3541.357645
911.833458	3556.811302
912.139513	3574.535999
912.445527	3595.545007
912.751502	3666.627797
913.057436	3749.592587
913.363331	3865.614742
913.669186	4035.330228
913.975000	4248.598762
914.280775	4604.302577
914.586510	5091.701496
914.892205	5768.612511
915.197859	6682.256110
915.503475	7788.539843
915.809050	8825.240528
916.114585	9519.460345
916.420081	9875.660714
916.725536	9926.624259
917.030952	9557.805882
917.336328	9210.263694
917.641665	8845.402623
917.946961	8403.258143
918.252218	8010.184254
918.557435	7530.054679
918.862612	7134.298896
919.167750	6784.974661
919.472848	6394.784312
919.777906	6041.689294
920.082925	5697.824628
920.387904	5340.555535
920.692843	5080.769754
920.997743	4835.472249
921.302603	4609.850367
921.607423	4448.712405
921.912204	4287.844145
922.216946	4175.605375
922.521647	4062.020617
922.826310	3963.634938
923.130932	3870.267727
923.435516	3780.257926
923.740059	3713.109756
924.044564	3636.355668
924.349028	3582.092688
924.653454	3523.264944
924.957840	3455.562248
925.262186	3412.760331
925.566493	3352.367308
925.870761	3300.612302
926.174989	3264.749533
926.479178	3233.607805
926.783328	3192.567772
927.087438	3164.334790
927.391509	3130.233905
927.695541	3104.289606
927.999533	3078.415884
928.303486	3056.287739
928.607400	3044.365411
928.911275	3033.105993
929.215110	3010.007427
929.518906	3005.538444
929.822663	3004.568022
930.126381	2997.891013
930.430060	3005.147754
930.733699	3009.097498
931.037299	3019.073942
931.340861	3013.385000
931.644383	3023.671474
931.947866	3027.701877
932.251309	3016.891122
932.554714	3015.845083
932.858080	3016.366842
933.161407	3005.440141
933.464694	2997.417145
933.767943	2994.490755
934.071153	2989.832729
934.374323	2980.327633
934.677455	2974.424442
934.980548	2966.887917
935.283602	2962.086218
935.586617	2958.219653
935.889593	2966.151909
936.192530	2966.840026
936.495428	2978.716985
936.798287	2995.027638
937.101108	3022.748943
937.403890	3066.173442
937.706632	3120.454066
938.009336	3192.678677
938.312002	3265.891355
938.614628	3324.507371
938.917216	3375.549054
939.219765	3407.741862
939.522275	3442.021708
939.824747	3448.015640
940.127179	3446.059673
940.429573	3440.716049
940.731929	3441.772171
941.034246	3432.027621
941.336524	3420.158224
941.638763	3406.002664
941.940964	3397.503279
942.243126	3357.305118
942.545250	3335.116479
942.847335	3299.783032
943.149381	3269.515944
943.451389	3239.269021
943.753359	3206.937581
944.055290	3177.361131
944.357182	3155.094355
944.659036	3141.684886
944.960851	3132.837661
945.262628	3119.695372
945.564367	3117.114302
945.866067	3112.133642
946.167729	3110.124742
946.469352	3108.496449
946.770937	3107.498301
947.072484	3090.595312
947.373992	3096.037238
947.675462	3086.786720
947.976893	3070.561767
948.278286	3067.806776
948.579641	3057.139694
948.880958	3050.135011
949.182236	3052.179199
949.483476	3045.550082
949.784678	3045.610576
950.085841	3045.048487
950.386967	3053.021072
950.688054	3067.837023
950.989103	3083.111719
951.290114	3102.910851
951.591087	3127.068060
951.892021	3156.256341
952.192917	3181.245340
952.493776	3209.057386
952.794596	3214.322871
953.095378	3226.658575
953.396122	3220.221021
953.696828	3218.348233
953.997496	3205.324412
954.298126	3183.839014
954.598718	3171.092457
954.899272	3148.079589
955.199788	3122.999849
955.500266	3093.730910
955.800706	3060.343348
956.101108	3026.769263
956.401472	2997.155005
956.701798	2965.012608
957.002087	2925.759663
957.302337	2904.138155
957.602550	2874.715460
957.902724	2846.469875
958.202861	2825.342399
958.502960	2804.104018
958.803022	2783.397479
959.103045	2766.348297
959.403031	2747.617889
959.702979	2734.435272
960.002889	2724.010166
960.302762	2711.044318
960.602596	2699.658872
960.902393	2690.685618
961.202153	2684.641275
961.501875	2677.828156
961.801559	2668.774243
962.101205	2663.629746
962.400814	2659.127995
962.700385	2653.295380
962.999918	2645.519401
963.299414	2640.800881
963.598873	2640.329533
963.898293	2631.701598
964.197677	2633.710498
964.497022	2633.103039
964.796331	2628.762605
965.095601	2625.826133
965.394835	2624.946452
965.694030	2623.509723
965.993189	2625.034672
966.292309	2621.110134
966.591393	2619.648199
966.890439	2619.857407
967.189447	2617.833384
967.488419	2621.936883
967.787353	2619.577623
968.086249	2622.914867
968.385108	2624.180196
968.683930	2624.908643
968.982714	2625.405197
969.281462	2631.525157
969.580172	2635.769809
969.878844	2643.654174
970.177480	2648.823877
970.476078	2656.950217
970.774639	2661.832574
971.073162	2669.419511
971.371649	2677.356808
971.670098	2683.154135
971.968510	2687.005576
972.266885	2690.045392
972.565223	2697.334900
972.863524	2695.273068
973.161788	2699.069057
973.460014	2702.345807
973.758204	2705.022660
974.056356	2705.229347
974.354471	2708.488453
974.652550	2711.525748
974.950591	2710.073896
975.248595	2706.729091
975.546563	2705.178936
975.844493	2701.100642
976.142386	2697.957483
976.440243	2693.649817
976.738062	2689.427851
977.035845	2681.094823
977.333590	2679.252282
977.631299	2674.485871
977.928971	2667.234171
978.226606	2660.345434
978.524204	2657.320742
978.821765	2655.332007
979.119290	2656.894764
979.416777	2652.972747
979.714228	2656.718324
980.011642	2656.713283
980.309020	2664.915240
980.606360	2676.933351
980.903664	2694.630321
981.200931	2724.279868
981.498162	2760.152718
981.795356	2828.001608
982.092513	2904.697723
982.389633	2995.045282
982.686717	3087.908377
982.983764	3165.032990
983.280775	3220.936865
983.577749	3236.269535
983.874686	3230.326014
984.171587	3201.379709
984.468451	3168.488701
984.765279	3132.787249
985.062070	3086.416195
985.358824	3048.093344
985.655543	2995.627535
985.952224	2954.315279
986.248869	2891.600805
986.545478	2837.136179
986.842050	2784.239352
987.138586	2740.204873
987.435086	2700.543595
987.731549	2670.954542
988.027975	2646.625934
988.324366	2631.000877
988.620719	2615.779113
988.917037	2604.708740
989.213318	2594.344127
989.509563	2587.780545
989.805772	2586.941193
990.101944	2577.032805
990.398080	2579.155131
990.694180	2577.610017
990.990244	2577.564647
991.286271	2576.112794
991.582262	2576.382496
991.878217	2577.302507
992.174136	2581.348033
992.470019	2585.872468
992.765865	2584.095462
993.061676	2591.548807
993.357450	2598.712287
993.653188	2600.186825
993.948890	2617.233486
994.244556	2634.113790
994.540186	2655.397542
994.835780	2681.354443
995.131337	2715.301573
995.426859	2750.473703
995.722345	2792.831998
996.017795	2839.157682
996.313208	2877.790564
996.608586	2905.216962
996.903928	2918.626431
997.199234	2926.127668
997.494504	2925.731937
997.789738	2913.209711
998.084936	2892.062071
998.380099	2863.763553
998.675225	2841.307734
998.970316	2810.506284
999.265371	2778.026129
999.560390	2742.395254
999.855373	2717.116388
1000.150320	2689.616894
1000.445232	2666.074705
1000.740108	2647.722385
1001.034948	2628.356792
1001.329752	2614.360029
1001.624521	2602.062134
1001.919254	2590.502768
1002.213951	2584.264340
1002.508613	2572.289079
1002.803239	2570.406208
1003.097829	2561.387584
1003.392384	2559.771894
1003.686903	2553.029351
1003.981386	2551.340564
1004.275834	2547.388300
1004.570246	2547.428629
1004.864623	2541.636343
1005.158964	2540.514687
1005.453270	2539.264480
1005.747540	2537.820190
1006.041775	2535.639891
1006.335974	2534.608975
1006.630138	2534.543440
1006.924266	2533.847761
1007.218359	2530.071936
1007.512416	2532.993285
1007.806438	2525.736544
1008.100425	2528.872142
1008.394376	2529.146885
1008.688292	2530.739889
1008.982172	2528.854498
1009.276017	2527.480783
1009.569827	2525.673530
1009.863602	2529.081350
1010.157341	2528.027748
1010.451045	2525.739065
1010.744714	2525.146729
1011.038347	2528.995650
1011.331945	2523.132788
1011.625508	2521.713703
1011.919036	2522.167407
1012.212528	2519.160359
1012.505986	2521.166738
1012.799408	2520.448374
1013.092795	2520.400483
1013.386147	2521.265041
1013.679464	2520.193795
1013.972745	2519.359484
1014.265992	2518.131963
1014.559204	2518.252951
1014.852380	2518.731861
1015.145521	2518.547859
1015.438628	2517.917714
1015.731699	2519.803106
1016.024736	2520.400483
1016.317737	2519.533404
1016.610703	2522.454753
1016.903635	2524.216636
1017.196531	2525.040865
1017.489393	2529.968593
1017.782219	2526.515402
1018.075011	2529.363654
1018.367768	2529.189734
1018.660490	2529.938346
1018.953177	2529.938346
1019.245829	2529.938346
