Dividing Wavelength (nm)	Counts (n)	Blue Motor Position (mm): 42.500000	Red Motor Position (mm): 0.000000	
326.493990	2064.294527
326.888308	2064.294527
327.282561	2064.294527
327.676750	2042.241999
328.070874	2042.085723
328.464933	2045.624613
328.858929	2055.205326
329.252859	2065.809393
329.646726	2078.830694
330.040528	2096.051275
330.434265	2113.216404
330.827938	2134.240536
331.221547	2155.380615
331.615091	2174.453821
332.008571	2194.716738
332.401986	2215.869420
332.795338	2235.567729
333.188625	2254.633373
333.581847	2272.022833
333.975006	2288.789710
334.368100	2309.382824
334.761129	2323.485452
335.154095	2340.456496
335.546996	2391.916595
335.939833	2498.433655
336.332606	2505.420694
336.725315	2521.179341
337.117960	2532.983203
337.510540	2538.767927
337.903056	2551.388455
338.295508	2557.216029
338.687896	2562.179045
339.080220	2569.748338
339.472480	2574.534913
339.864676	2580.264185
340.256807	2580.186047
340.648875	2580.382652
341.040879	2583.132601
341.432818	2585.748960
341.824694	2587.793148
342.216506	2584.796182
342.608253	2587.762901
342.999937	2585.534711
343.391557	2585.927921
343.783113	2583.036819
344.174605	2582.890626
344.566033	2581.216963
344.957397	2581.627817
345.348697	2576.243864
345.739934	2576.536251
346.131106	2577.385686
346.522215	2572.896538
346.913260	2574.008113
347.304241	2570.423852
347.695159	2568.079716
348.086012	2567.653738
348.476802	2563.701474
348.867528	2560.671740
349.258191	2560.633932
349.648789	2559.494631
350.039324	2552.807540
350.429796	2560.477656
350.820203	2556.343910
351.210548	2556.779969
351.600828	2555.683518
351.991045	2553.583878
352.381198	2551.678322
352.771288	2554.309804
353.161314	2553.442726
353.551276	2551.602704
353.941175	2550.518856
354.331010	2554.960113
354.720782	2556.472459
355.110490	2558.803993
355.500135	2553.755277
355.889717	2554.156049
356.279235	2551.511964
356.668689	2557.279044
357.058080	2553.699824
357.447408	2556.774928
357.836672	2555.242418
358.225873	2556.926163
358.615010	2557.871379
359.004084	2557.856256
359.393095	2560.593602
359.782043	2559.217367
360.170927	2560.114693
360.559748	2559.940773
360.948505	2560.291133
361.337199	2562.607543
361.725830	2566.471588
362.114398	2564.036710
362.502903	2563.245249
362.891344	2566.758933
363.279722	2560.981771
363.668037	2563.872873
364.056289	2561.274158
364.444478	2562.274827
364.832603	2566.413614
365.220665	2567.661300
365.608665	2566.711043
365.996601	2566.355641
366.384474	2569.017370
366.772284	2570.559963
367.160031	2572.437793
367.547715	2571.540468
367.935336	2566.499314
368.322893	2568.639284
368.710388	2567.308419
369.097820	2567.643656
369.485189	2565.584345
369.872495	2575.613720
370.259738	2571.953842
370.646918	2572.188256
371.034035	2573.889646
371.421090	2575.807805
371.808081	2571.971487
372.195010	2575.679255
372.581875	2572.107598
372.968678	2573.834193
373.355418	2575.717064
373.742096	2575.046590
374.128710	2577.819225
374.515262	2578.759400
374.901751	2575.782599
375.288177	2578.799729
375.674540	2578.235120
376.060841	2579.031622
376.447079	2580.528845
376.833254	2579.757549
377.219367	2583.780389
377.605417	2580.934658
377.991404	2581.826942
378.377329	2583.926583
378.763191	2579.654205
379.148991	2581.761407
379.534727	2583.702252
379.920402	2584.833991
380.306013	2583.092272
380.691563	2586.479927
381.077049	2581.312745
381.462474	2584.783579
381.847835	2587.258786
382.233134	2587.543611
382.618371	2588.887078
383.003545	2586.033785
383.388657	2586.994125
383.773706	2587.203333
384.158693	2588.793817
384.543618	2592.652820
384.928480	2590.578385
385.313280	2594.202975
385.698017	2596.174066
386.082692	2596.690784
386.467305	2602.160436
386.851856	2600.443923
387.236344	2604.859974
387.620770	2604.416353
388.005133	2604.020622
388.389435	2612.782147
388.773674	2612.446911
389.157851	2624.616256
389.541965	2629.614560
389.926018	2632.689664
390.310008	2641.552012
390.693936	2647.714823
391.077802	2657.373674
391.461606	2663.695281
391.845348	2674.553926
392.229027	2685.094979
392.612645	2700.120138
392.996200	2712.294524
393.379694	2725.855228
393.763125	2742.549009
394.146494	2758.174066
394.529801	2773.358021
394.913047	2795.952472
395.296230	2810.634833
395.679351	2827.197544
396.062410	2850.704444
396.445408	2861.457226
396.828343	2888.734909
397.211217	2909.285173
397.594028	2923.377718
397.976778	2952.266050
398.359466	2981.209835
398.742092	3000.250273
399.124656	3026.660878
399.507158	3065.724779
399.889598	3089.392997
400.271977	3137.104997
400.654294	3149.571771
401.036549	3197.026672
401.418742	3221.814026
401.800874	3271.726490
402.182944	3309.560350
402.564952	3380.083572
402.946898	3398.519071
403.328783	3423.697114
403.710606	3476.306596
404.092367	3541.052655
404.474067	3606.638067
404.855705	3621.043164
405.237282	3632.035400
405.618797	3718.695355
406.000250	3793.493475
406.381642	3877.995816
406.762972	3906.937081
407.144240	3909.339190
407.525447	3982.836693
407.906593	4019.024616
408.287677	4110.556846
408.668700	4158.510822
409.049661	4215.576684
409.430560	4270.008542
409.811399	4279.649749
410.192176	4347.332281
410.572891	4436.104479
410.953545	4547.234195
411.334138	4487.128518
411.714669	4599.700004
412.095139	4552.653436
412.475547	4669.711548
412.855894	4691.633006
413.236180	4794.646464
413.616405	4754.523921
413.996568	4865.285632
414.376670	4884.381523
414.756711	4896.485334
415.136691	4975.558352
415.516609	5072.313218
415.896466	5118.449858
416.276262	5209.979568
416.655997	5320.675745
417.035670	5426.151807
417.415283	5571.299229
417.794834	5649.227905
418.174324	5617.831599
418.553753	5632.955061
418.933121	5799.449249
419.312428	5820.370037
419.691674	5758.389051
420.070859	5987.307847
420.449983	5872.611515
420.829045	6068.079734
421.208047	6004.954406
421.586988	6162.868550
421.965867	6237.485189
422.344686	6324.697150
422.723444	6493.507749
423.102141	6119.756603
423.480777	6504.769686
423.859352	6327.517676
424.237866	6688.126534
424.616319	6687.622419
424.994712	6853.720876
425.373044	6772.528052
425.751314	7079.277223
426.129524	6806.268495
426.507673	7070.782878
426.885762	7121.615353
427.263789	7158.327556
427.641756	7246.446925
428.019662	7317.940569
428.397508	7363.003443
428.775292	7351.716300
429.153016	7521.973709
429.530679	7448.514016
429.908282	7503.906214
430.285824	7442.096627
430.663305	7727.879638
431.040726	7611.411340
431.418086	7619.872917
431.795385	7750.428719
432.172624	7942.100950
432.549802	7817.231570
432.926920	7961.272458
433.303977	7902.999241
433.680974	7949.055222
434.057910	8137.039849
434.434786	8191.189403
434.811601	8149.504102
435.188355	8487.480700
435.565050	8385.122592
435.941683	8390.793890
436.318257	8721.828819
436.694770	8674.484822
437.071222	8903.877487
437.447614	8674.371396
437.823946	8639.703381
438.200218	8795.762381
438.576429	8674.227723
438.952580	8835.610182
439.328670	8844.096964
439.704700	8920.770393
440.080670	8816.479003
440.456580	9081.366432
440.832429	9054.756701
441.208218	8791.921022
441.583947	8909.420236
441.959616	9025.170169
442.335224	9057.151249
442.710773	9145.225248
443.086261	9319.830653
443.461689	9041.042242
443.837057	9206.810504
444.212365	9422.753370
444.587612	9405.875587
444.962800	9297.026993
445.337927	9433.329711
445.712995	8976.757448
446.088002	9639.616247
446.462949	9694.307725
446.837837	9691.414102
447.212664	9710.620899
447.587431	10535.603205
447.962139	11547.559387
448.336786	12454.694857
448.711374	12231.338974
449.085901	11035.405883
449.460369	10943.490524
449.834776	10729.407844
450.209124	11650.192238
450.583412	11469.023251
450.957640	11777.647731
451.331808	11367.403672
451.705917	10801.773608
452.079965	10685.796822
452.453954	10881.791842
452.827883	10830.732516
453.201752	10792.117277
453.575562	10797.647423
453.949311	11134.472117
454.323001	11203.019207
454.696632	11125.012392
455.070202	11711.787576
455.443713	11770.660692
455.817164	11937.106989
456.190556	12253.338569
456.563888	12118.991819
456.937160	12368.660005
457.310373	11852.178670
457.683526	11859.377438
458.056619	11876.474511
458.429653	11949.926643
458.802628	12086.420924
459.175542	12138.546455
459.548398	12687.026514
459.921194	13254.471394
460.293930	13549.499882
460.666607	14395.032452
461.039224	15196.747312
461.411782	15529.292067
461.784280	15194.705645
462.156719	15108.217089
462.529099	15016.531104
462.901419	14382.903436
463.273680	13989.663189
463.645882	14199.198748
464.018024	14096.114714
464.390106	14464.688595
464.762130	15534.181986
465.134094	17083.406701
465.505999	19389.003618
465.877845	21621.685287
466.249631	22833.198064
466.621358	22330.380777
466.993026	21500.349755
467.364634	20747.803788
467.736184	19949.547159
468.107674	19341.072328
468.479105	19208.721875
468.850477	18937.495195
469.221790	18510.345627
469.593043	17834.115167
469.964238	17457.263712
470.335373	17519.055655
470.706449	18226.382472
471.077467	19099.490153
471.448425	21565.917522
471.819324	23419.925357
472.190164	23319.432476
472.560945	21562.701266
472.931667	20006.252578
473.302330	19675.784778
473.672934	19129.348907
474.043479	19549.904646
474.413965	19346.519294
474.784393	19156.389657
475.154761	19831.868984
475.525070	19960.398242
475.895321	19784.217477
476.265513	20319.383849
476.635645	20897.752909
477.005719	20965.271603
477.375734	21327.463383
477.745691	21959.467800
478.115588	22587.996341
478.485427	23774.376446
478.855207	25586.794762
479.224928	27394.381132
479.594591	28798.176120
479.964194	28421.309541
480.333739	28861.435039
480.703226	29068.462625
481.072653	29510.985192
481.442022	30033.679749
481.811333	30427.252712
482.180584	29992.836320
482.549777	29757.908469
482.918912	29535.959068
483.287988	29478.361364
483.657005	29322.332612
484.025964	28951.384347
484.394864	29129.213570
484.763706	29071.328521
485.132489	28521.131949
485.501213	28594.483258
485.869879	28769.590257
486.238487	28694.053608
486.607036	28969.401431
486.975527	28649.320929
487.343959	29005.783438
487.712333	29332.772841
488.080648	29295.576688
488.448905	29727.464941
488.817104	29597.627503
489.185244	30421.669634
489.553326	31384.393907
489.921350	33274.763585
490.289315	35791.126104
490.657222	36679.954623
491.025070	37241.582012
491.392861	36957.460060
491.760593	36165.767013
492.128267	35158.526831
492.495883	34161.411806
492.863440	33247.296858
493.230939	32297.417445
493.598380	31730.544736
493.965763	31572.146641
494.333088	31078.022823
494.700354	30879.197195
495.067563	30841.368377
495.434713	30726.331767
495.801805	30989.963948
496.168839	30837.837048
496.535815	30677.770332
496.902733	30802.768262
497.269593	30626.471550
497.636395	30780.526691
498.003139	31026.519875
498.369825	30787.150767
498.736453	31182.354543
499.103023	31016.671981
499.469535	31103.624323
499.835989	31218.756715
500.202385	31086.446592
500.568723	31120.159308
500.935003	31425.272624
501.301226	31284.566458
501.667390	32002.572959
502.033497	32199.780377
502.399546	31995.124655
502.765537	31599.320981
503.131470	32051.875444
503.497345	32482.579026
503.863163	31439.980190
504.228923	32178.665504
504.594625	32581.138625
504.960269	32049.576678
505.325856	32718.252968
505.691385	32367.093753
506.056856	32691.358412
506.422270	33173.456557
506.787625	32687.282639
507.152924	33130.374857
507.518164	33312.549554
507.883347	32882.907135
508.248472	33005.618902
508.613540	33682.066131
508.978550	33903.816406
509.343503	33742.552415
509.708398	34095.546610
510.073236	34686.158113
510.438016	34784.009429
510.802738	34450.721105
511.167403	34966.050536
511.532010	35213.790480
511.896561	35723.647739
512.261053	36457.291899
512.625488	36240.229897
512.989866	36157.156723
513.354186	36207.096913
513.718449	36176.456780
514.082655	37022.039762
514.446803	36711.444191
514.810894	37332.496701
515.174927	37318.328538
515.538904	37319.447674
515.902822	37946.955381
516.266684	37637.655387
516.630488	37971.231058
516.994235	37985.316042
517.357925	38545.340343
517.721558	38800.662182
518.085133	39173.112711
518.448651	39344.118732
518.812112	39239.156867
519.175516	39392.838963
519.538863	39833.340027
519.902152	39897.385366
520.265385	40442.941556
520.628560	40442.394591
520.991678	40386.508359
521.354739	40597.367222
521.717743	40962.014044
522.080690	40873.319983
522.443580	41535.820860
522.806413	41548.461553
523.169189	41670.843125
523.531908	41911.654003
523.894569	41762.766044
524.257174	41937.883126
524.619722	42295.192549
524.982213	42432.604321
525.344647	42471.963129
525.707025	42589.265738
526.069345	43026.495093
526.431608	42925.286368
526.793815	43316.895802
527.155964	42879.800037
527.518057	43110.659677
527.880093	42984.265348
528.242072	43615.448056
528.603995	43318.214064
528.965860	43255.605453
529.327669	43485.623221
529.689421	43526.242318
530.051117	43477.791789
530.412755	43757.963996
530.774337	43808.947705
531.135862	43732.491046
531.497331	43913.092903
531.858743	43908.475206
532.220098	44297.133044
532.581396	44018.889078
532.942638	43789.277123
533.303824	44037.538827
533.664953	44086.450622
534.026025	43769.558650
534.387040	44343.912431
534.747999	44402.750258
535.108902	44735.700826
535.469748	44056.463318
535.830537	44332.925236
536.191270	44572.453141
536.551947	44331.906923
536.912567	44596.239825
537.273131	44722.994597
537.633638	44343.879663
537.994089	44522.701993
538.354483	44296.339062
538.714821	44921.850473
539.075103	45208.528289
539.435328	45086.192088
539.795497	44850.218197
540.155609	44983.418084
540.515665	45547.432459
540.875665	44839.072206
541.235609	45118.205935
541.595496	45274.990861
541.955328	45845.581421
542.315102	45259.527122
542.674821	45158.925856
543.034483	45076.681951
543.394090	45085.607314
543.753640	45087.031440
544.113134	46135.747716
544.472571	45251.277273
544.831953	46344.113728
545.191278	45622.913656
545.550548	45317.457541
545.909761	45954.001517
546.268918	46074.510299
546.628019	46487.088413
546.987064	45941.534743
547.346053	45278.756603
547.704986	46149.986455
548.063863	45788.092102
548.422684	45993.531725
548.781449	45570.553711
549.140158	46103.849815
549.498811	45860.059615
549.857408	45274.101097
550.215949	46110.267204
550.574434	45949.116639
550.932864	45881.716412
551.291237	46579.918740
551.649555	46340.511823
552.007817	46505.864190
552.366022	46229.107364
552.724173	46282.334387
553.082267	46673.333841
553.440305	47037.247176
553.798288	46299.058415
554.156215	46688.651387
554.514086	46894.569919
554.871902	46483.032804
555.229661	46648.032290
555.587365	46336.345310
555.945014	46465.398848
556.302606	46478.878893
556.660143	46588.955008
557.017625	46823.179619
557.375050	46493.722571
557.732421	46890.975576
558.089735	46963.999210
558.446994	46812.038669
558.804197	47302.915983
559.161345	47144.207857
559.518437	46529.839918
559.875474	46769.156094
560.232455	46991.990217
560.589381	47014.554422
560.946251	46856.978035
561.303065	47497.416302
561.659825	47152.838313
562.016528	46995.680342
562.373177	46572.717452
562.729770	47215.993888
563.086307	46721.199597
563.442789	47264.192360
563.799216	47111.755430
564.155587	47014.594751
564.511904	46965.892164
564.868164	47017.778240
565.224370	47332.489913
565.580520	47042.318577
565.936615	47259.430990
566.292654	46913.469205
566.648638	47267.973226
567.004567	47199.151393
567.360441	47286.244888
567.716260	47007.224584
568.072023	47410.151408
568.427732	47316.670772
568.783385	46858.402161
569.138982	47271.418854
569.494525	47420.616843
569.850013	47031.974129
570.205445	47158.315527
570.560823	46919.359793
570.916145	46783.268804
571.271412	47013.498300
571.626625	46661.542583
571.981782	46733.991525
572.336884	46340.020311
572.691931	46688.026284
573.046923	46325.340471
573.401860	46166.239135
573.756743	46176.812955
574.111570	46320.732856
574.466342	46249.786178
574.821059	46418.876560
575.175722	45889.136990
575.530330	45970.715462
575.884882	45633.424461
576.239380	45546.862809
576.593823	45632.728782
576.948211	45571.471201
577.302544	45109.446931
577.656823	45107.175891
578.011047	45372.668258
578.365216	45207.691457
578.719330	44929.172748
579.073389	44904.334983
579.427394	44965.083408
579.781344	44870.287030
580.135239	44642.164737
580.489080	44696.450402
580.842866	44203.987644
581.196597	44680.031364
581.550273	44670.001988
581.903895	44605.303820
582.257463	45045.739349
582.610975	44468.328108
582.964434	44801.860929
583.317837	44301.037418
583.671186	44266.881080
584.024481	44561.284464
584.377721	44101.579124
584.730906	44328.557076
585.084037	44476.618285
585.437113	44185.610118
585.790135	44308.329447
586.143103	43881.094179
586.496016	44058.424327
586.848874	44130.548115
587.201679	44185.201784
587.554428	43672.675235
587.907124	43947.211432
588.259765	43740.075462
588.612352	43860.997619
588.964884	43352.277140
589.317362	43653.460877
589.669786	43637.503104
590.022155	43527.230384
590.374470	43991.026621
590.726731	43576.023712
591.078937	42913.263216
591.431090	43265.957463
591.783188	42779.102989
592.135232	42593.233126
592.487222	42853.616284
592.839157	42997.261442
593.191038	42656.479442
593.542866	42467.347953
593.894639	41840.581295
594.246358	42131.712971
594.598022	42150.997905
594.949633	41730.026271
595.301190	41740.209402
595.652692	41703.298073
596.004141	42197.963815
596.355535	41091.644795
596.706876	41086.762437
597.058162	40803.338686
597.409395	41312.538074
597.760573	41542.369319
598.111698	41142.016004
598.462768	41042.244007
598.813785	41082.641294
599.164748	40694.840452
599.515657	40963.423047
599.866511	40483.532927
600.217312	41160.209528
600.568060	40109.494435
600.918753	40924.646491
601.269392	40834.056957
601.619978	40577.989026
601.970510	40783.683227
602.320988	40928.187902
602.671412	41174.029851
603.021783	41042.864069
603.372100	40621.451334
603.722363	40716.010778
604.072572	40762.144897
604.422728	40762.228076
604.772830	40543.600795
605.122878	40727.965874
605.472872	40570.875958
605.822813	40823.100009
606.172701	40572.201782
606.522534	40904.189489
606.872314	41088.680596
607.222041	40943.069388
607.571714	41270.835129
607.921333	40763.697572
608.270899	40954.185132
608.620411	41339.636796
608.969870	41107.176590
609.319276	41110.937290
609.668627	41160.408654
610.017926	41544.237066
610.367171	41690.554036
610.716362	41717.458674
611.065500	41641.566624
611.414585	41878.210988
611.763616	42018.534026
612.112594	41928.463730
612.461518	42065.341139
612.810389	42418.511775
613.159207	42221.342166
613.507971	42188.693133
613.856682	42707.725292
614.205340	42544.064232
614.553945	43229.908172
614.902496	42569.267481
615.250994	42996.820341
615.599439	43047.531828
615.947830	43148.813650
616.296169	43176.640820
616.644454	43198.302658
616.992686	43353.275289
617.340864	43804.057786
617.688990	43295.039879
618.037063	43972.976769
618.385082	43789.849294
618.733048	44147.567050
619.080961	44018.447977
619.428821	44072.663066
619.776628	44108.165392
620.124382	43925.910036
620.472083	44060.171087
620.819731	44153.195499
621.167326	43743.185853
621.514868	43738.303496
621.862357	43184.426882
622.209793	43273.768731
622.557176	42862.886966
622.904506	42615.656178
623.251783	42257.686364
623.599007	41937.822632
623.946179	41854.968748
624.293297	41604.869544
624.640363	41085.431572
624.987376	40928.311410
625.334336	40725.967056
625.681243	40320.239871
626.028097	40219.431918
626.374899	40057.076517
626.721647	40006.632211
627.068343	39792.363008
627.414987	39516.168271
627.761577	39248.399823
628.108115	39580.700082
628.454600	38831.839198
628.801032	39076.693082
629.147412	38970.377668
629.493739	38847.514666
629.840014	38417.821836
630.186236	38833.006225
630.532405	38256.119264
630.878521	38526.118423
631.224585	38293.116293
631.570597	37971.989751
631.916556	38128.326014
632.262462	38030.280613
632.608316	37984.738829
632.954117	37840.597118
633.299866	37800.875346
633.645562	37724.453974
633.991206	37209.074131
634.336797	36796.085164
634.682336	36698.190998
635.027823	36462.128886
635.373257	36354.878338
635.718639	36010.892685
636.063968	35909.220174
636.409245	35258.273622
636.754470	35213.230912
637.099642	34985.988299
637.444762	34419.009726
637.789829	34558.127928
638.134845	34160.257382
638.479808	34066.718772
638.824719	34028.158986
639.169577	33519.241903
639.514383	33640.310253
639.859137	33252.675770
640.203839	33423.465021
640.548489	33130.271513
640.893086	33108.017339
641.237632	32829.884279
641.582125	32910.182298
641.926566	32709.211659
642.270955	32738.825917
642.615292	32680.693851
642.959576	32559.764132
643.303809	32558.834039
643.647990	32650.540190
643.992118	32641.937461
644.336195	32448.914200
644.680219	32522.595705
645.024192	32707.840465
645.368112	33225.277098
645.711981	33240.556836
646.055797	33942.371151
646.399562	33729.616814
646.743274	34603.284064
647.086935	35007.902195
647.430544	34984.107949
647.774101	35022.695461
648.117606	35323.823745
648.461059	35473.820757
648.804460	35094.083241
649.147810	34593.322744
649.491108	34269.562200
649.834354	34164.595295
650.177548	33368.445868
650.520690	32838.164374
650.863781	32820.767352
651.206820	32644.977276
651.549807	32214.568602
651.892742	31634.946815
652.235626	31563.889231
652.578458	31407.608421
652.921238	30713.401207
653.263967	30993.391933
653.606644	30684.583451
653.949269	30596.842168
654.291843	30212.539887
654.634365	30562.678269
654.976836	30116.483221
655.319255	30201.666118
655.661622	30067.984801
656.003938	29936.554358
656.346203	29753.026111
656.688416	29999.606590
657.030577	29789.077923
657.372687	29615.952097
657.714746	29748.738610
658.056753	29931.974470
658.398708	29298.482913
658.740612	29378.576765
659.082465	29579.983464
659.424266	29483.546191
659.766016	29463.278232
660.107715	29315.451437
660.449362	29417.101263
660.790958	29399.036288
661.132503	29303.892071
661.473996	29401.675332
661.815438	29474.172166
662.156829	29593.125752
662.498168	29400.329344
662.839456	29379.940397
663.180693	29498.825928
663.521879	29562.813294
663.863013	29516.921150
664.204097	29492.474075
664.545129	29893.318902
664.886110	29836.023668
665.227040	29934.205180
665.567918	29945.598188
665.908746	29992.740538
666.249522	30066.742156
666.590248	30115.225453
666.930922	30217.394518
667.271545	30230.710726
667.612118	30283.731062
667.952639	30094.435735
668.293109	30130.379162
668.633528	29979.192437
668.973896	29946.858477
669.314213	29925.577246
669.654480	29726.345804
669.994695	29719.709125
670.334859	29639.935386
670.674973	29434.379818
671.015035	29629.197729
671.355047	29563.516535
671.695008	29490.044238
672.034918	29405.904860
672.374777	29490.974331
672.714585	29372.645848
673.054342	29500.950775
673.394049	29352.226654
673.733705	29573.288812
674.073310	29285.774164
674.412864	29352.541726
674.752368	29074.587627
675.091820	29312.983792
675.431223	28910.467822
675.770574	28709.555156
676.109875	28558.466734
676.449125	28345.871194
676.788324	28260.980684
677.127473	27768.482638
677.466571	27683.602210
677.805619	27381.727836
678.144616	27307.791753
678.483562	27261.962623
678.822458	26948.717926
679.161303	26893.179534
679.500098	26812.989900
679.838842	26712.403757
680.177535	26786.443184
680.516179	27000.203230
680.854771	27071.868273
681.193314	27763.428882
681.531805	28700.292036
681.870247	29464.760331
682.208638	30267.309503
682.546978	30618.604829
682.885268	30798.793312
683.223508	30394.384389
683.561697	30124.818769
683.899836	29969.203391
684.237925	29563.808922
684.575963	29407.253369
684.913951	29012.523461
685.251889	29159.566357
685.589776	29156.501335
685.927614	29140.931732
686.265401	29327.184722
686.603137	29413.330480
686.940824	29890.248839
687.278460	30201.809791
687.616046	30395.042259
687.953582	31077.564078
688.291068	30999.400988
688.628504	31359.672089
688.965889	31398.030228
689.303224	31148.001601
689.640510	30872.212677
689.977745	30275.443405
690.314930	29553.676203
690.652065	29132.795309
690.989150	28461.164903
691.326185	27623.534342
691.663170	27021.774328
692.000105	26307.783106
692.336990	25699.106628
692.673825	25265.494301
693.010610	24781.883810
693.347345	24272.046715
693.684030	23655.493435
694.020665	23449.700932
694.357251	22783.797277
694.693786	22787.401702
695.030272	22562.281415
695.366707	22055.786606
695.703093	21767.006628
696.039429	21835.253769
696.375716	21588.746387
696.711952	21601.729879
697.048139	21452.080707
697.384276	21289.828649
697.720363	21408.207545
698.056400	21297.193775
698.392388	21151.796816
698.728326	21140.184518
699.064214	20984.818677
699.400053	21003.924650
699.735842	20625.656630
700.071581	20429.338976
700.407270	20199.563184
700.742910	20030.712256
701.078501	19778.813360
701.414042	19558.852694
701.749533	19266.977448
702.084974	18963.610892
702.420366	19181.187092
702.755709	18768.898846
703.091002	18475.894381
703.426246	18530.038894
703.761440	18479.062746
704.096584	18239.698679
704.431679	18169.346857
704.766725	18128.768089
705.101721	18030.647071
705.436668	18151.110483
705.771565	17871.858286
706.106413	18180.301284
706.441212	18247.177231
706.775961	18336.783741
707.110661	18414.586389
707.445311	18770.358260
707.779913	18653.887441
708.114465	18943.816802
708.448967	19247.906763
708.783421	19853.218270
709.117825	20192.326607
709.452180	20419.468397
709.786485	20832.308650
710.120742	21581.514852
710.454949	21672.858039
710.789107	22194.640148
711.123216	22896.749370
711.457275	23127.666984
711.791286	23694.217059
712.125247	23867.695765
712.459159	23635.227997
712.793023	24392.865529
713.126837	23410.022011
713.460602	23674.606970
713.794318	23362.675494
714.127985	23085.202824
714.461602	22202.020397
714.795171	22190.231658
715.128691	21221.503371
715.462162	20701.977179
715.795584	20288.668098
716.128957	19997.692698
716.462281	19621.403331
716.795556	19351.232773
717.128782	18879.340444
717.461960	18287.332542
717.795088	18251.343745
718.128167	17914.844205
718.461198	17473.382801
718.794180	17338.572265
719.127113	17017.034870
719.459997	16828.742732
719.792833	16462.747401
720.125619	16493.556413
720.458357	16171.288051
720.791046	16025.502923
721.123686	15871.498193
721.456278	15642.501259
721.788821	15645.382278
722.121315	15379.368152
722.453761	15476.987575
722.786158	15357.721437
723.118506	15442.727894
723.450805	15326.776314
723.783056	15502.896586
724.115259	15386.617331
724.447412	15365.878024
724.779518	15576.525158
725.111574	15637.437420
725.443582	15877.958432
725.775542	15824.449104
726.107453	16335.591857
726.439315	16242.365799
726.771129	16633.713093
727.102895	17044.161318
727.434612	17322.775809
727.766281	17492.554309
728.097901	17822.192838
728.429473	17933.546886
728.760996	17958.924054
729.092471	18073.562413
729.423897	17950.810317
729.755276	17798.799364
730.086606	17883.248773
730.417887	18432.936189
730.749120	18978.764601
731.080305	19186.238328
731.411442	19600.795094
731.742530	19723.370750
732.073570	19857.525936
732.404562	20182.892088
732.735506	20083.044474
733.066401	19961.643407
733.397249	19514.114975
733.728048	18924.504141
734.058798	18075.084842
734.389501	17336.901122
734.720156	16804.570400
735.050762	16223.320320
735.381320	15821.666387
735.711831	15527.268044
736.042293	15152.304500
736.372707	15167.155739
736.703073	14950.945692
737.033391	15142.257481
737.363661	15121.490447
737.693883	15236.302726
738.024056	15420.801395
738.354182	15621.978722
738.684260	15970.153574
739.014290	16246.481901
739.344272	16475.314998
739.674207	16814.345197
740.004093	17000.946027
740.333931	17076.896051
740.663722	17154.902866
740.993464	17212.997123
741.323159	17080.606340
741.652806	16795.733257
741.982405	16635.568237
742.311956	16290.269364
742.641460	16184.765575
742.970915	15858.451687
743.300323	15509.813049
743.629683	15303.060206
743.958996	14994.980171
744.288260	14682.174054
744.617477	14379.430081
744.946647	14336.902907
745.275768	14022.039999
745.604842	13821.076922
745.933869	13647.084017
746.262847	13612.007669
746.591778	13517.062577
746.920662	13392.576324
747.249498	13392.309143
747.578286	13526.429041
747.907027	13693.666799
748.235720	13951.902426
748.564365	14034.426114
748.892963	13977.428308
749.221514	14089.077263
749.550017	13967.620743
749.878473	13943.851703
750.206881	13732.241709
750.535242	13658.008198
750.863555	13589.405656
751.191821	13479.216115
751.520039	13491.839164
751.848210	13403.440011
752.176334	13454.708545
752.504411	13375.708623
752.832440	13209.128736
753.160421	13320.671826
753.488356	13213.696021
753.816243	13125.891724
754.144082	12955.760343
754.471875	12896.733473
754.799620	12857.357020
755.127318	12831.321981
755.454969	12829.252588
755.782572	12787.411011
756.110129	12805.024802
756.437638	12711.440822
756.765100	12714.732696
757.092515	12739.467117
757.419882	12774.654371
757.747203	12770.508022
758.074477	12860.711908
758.401703	12843.766070
758.728882	13032.106098
759.056014	13075.752408
759.383099	13235.380544
759.710138	13361.283362
760.037129	13487.476045
760.364073	13562.672417
760.690970	13580.571033
761.017820	13586.275099
761.344623	13787.759936
761.671379	14103.222741
761.998088	14646.359177
762.324751	16054.847479
762.651366	18992.148864
762.977935	23304.845897
763.304456	26613.917255
763.630931	28206.692498
763.957359	27423.418178
764.283740	25365.525917
764.610074	23211.264438
764.936362	20594.141857
765.262602	18684.986319
765.588796	16705.791511
765.914943	15378.783378
766.241044	14221.669692
766.567097	13409.527204
766.893104	12661.155313
767.219064	12188.428673
767.544978	11699.197295
767.870845	11309.846298
768.196665	11075.069681
768.522438	10840.855153
768.848165	10639.360233
769.173846	10436.816754
769.499479	10300.902205
769.825066	10142.297423
770.150607	9914.565819
770.476101	9831.666564
770.801548	9711.283810
771.126949	9557.679853
771.452303	9442.111401
771.777611	9243.220237
772.102872	9235.207323
772.428087	9097.974513
772.753256	8947.503632
773.078378	8859.023821
773.403453	8683.942027
773.728482	8566.931805
774.053465	8485.151687
774.378401	8387.307932
774.703291	8270.287627
775.028135	8149.395717
775.352932	8118.899257
775.677683	8013.040067
776.002388	7903.216010
776.327046	7913.999038
776.651658	7820.503278
776.976224	7720.083494
777.300743	7721.190027
777.625216	7631.979248
777.949643	7587.349913
778.274024	7608.374045
778.598359	7512.120774
778.922647	7534.506018
779.246889	7482.025086
779.571086	7486.922567
779.895236	7496.904051
780.219339	7502.963518
780.543397	7504.062490
780.867409	7588.005263
781.191374	7597.633867
781.515294	7567.162613
781.839167	7659.153588
782.162995	7633.612582
782.486776	7578.096875
782.810511	7537.878550
783.134201	7448.486289
783.457844	7443.472862
783.781441	7387.140488
784.104993	7328.075809
784.428498	7303.321223
784.751958	7294.564739
785.075372	7255.394973
785.398739	7204.272632
785.722061	7241.960298
786.045337	7235.600883
786.368568	7380.599591
786.691752	7384.753502
787.014891	7676.442225
787.337983	7984.045871
787.661030	8540.163278
787.984031	9160.389039
788.306987	9605.190207
788.629897	9860.380977
788.952760	9858.548517
789.275579	9671.060444
789.598351	9306.297675
789.921078	8971.252508
790.243759	8561.643635
790.566395	8264.008870
790.888984	8014.444029
791.211529	7802.357645
791.534027	7570.429280
791.856480	7368.780606
792.178888	7295.101622
792.501249	7190.389295
792.823566	7041.332458
793.145836	7030.662856
793.468062	6995.677248
793.790241	6946.460463
794.112375	7000.657908
794.434464	7146.092676
794.756507	7169.481109
795.078505	7308.274157
795.400457	7590.853515
795.722364	7936.606093
796.044226	8221.169145
796.366042	8508.961056
796.687812	8480.743198
797.009538	8582.995442
797.331218	8495.745672
797.652852	8416.614680
797.974442	8271.452134
798.295986	8188.061367
798.617484	7999.829724
798.938938	7861.434927
799.260346	7756.334431
799.581709	7557.997795
799.903026	7479.933007
800.224299	7376.513736
800.545526	7208.267747
800.866708	7113.962882
801.187845	7041.382869
801.508936	6934.301200
801.829983	6903.552682
802.150984	6754.400063
802.471940	6707.547579
802.792851	6690.153078
803.113717	6660.667369
803.434538	6622.329394
803.755314	6572.832825
804.076045	6568.888122
804.396731	6510.612384
804.717372	6539.057094
805.037967	6536.521394
805.358518	6579.121664
805.679024	6653.271996
805.999485	6664.143245
806.319901	6701.057094
806.640272	6727.636577
806.960598	6815.239228
807.280879	6816.749054
807.601115	6901.561426
807.921306	6843.646130
808.241453	6852.203489
808.561554	6878.533435
808.881611	6842.199319
809.201623	6857.244643
809.521590	6803.654657
809.841513	6782.154136
810.161390	6815.697973
810.481223	6687.723242
810.801011	6674.041550
811.120755	6649.014742
811.440453	6571.905253
811.760107	6537.585077
812.079716	6511.701273
812.399281	6448.296160
812.718801	6438.503719
813.038276	6391.346245
813.357707	6331.820301
813.677093	6369.213059
813.996434	6270.411485
814.315731	6315.479401
814.634983	6303.544469
814.954191	6307.446322
815.273354	6407.513226
815.592473	6458.257480
815.911547	6581.659885
816.230577	6656.021946
816.549562	6795.382123
816.868502	6899.665952
817.187399	6993.635581
817.506250	7130.243288
817.825058	7156.159860
818.143821	7399.725729
818.462539	7644.393089
818.781213	7967.551216
819.099843	8444.918238
819.418429	9353.548410
819.736970	10256.048539
820.055466	11345.184786
820.373919	12725.273748
820.692327	14730.690119
821.010691	18036.701496
821.329011	25484.991181
821.647286	37148.839904
821.965517	51101.977413
822.283704	58553.296831
822.601847	61722.249317
822.919945	59559.821169
823.237999	55742.840958
823.556010	49782.697369
823.873976	43129.259015
824.191897	36620.713504
824.509775	31758.944076
824.827609	27109.223223
825.145398	24299.304234
825.463144	22636.986274
825.780845	22529.675232
826.098502	23777.065902
826.416116	27062.045585
826.733685	30807.065845
827.051210	32647.722185
827.368692	31720.865721
827.686129	28208.494711
828.003522	24183.095556
828.320872	20426.379819
828.638177	17526.224176
828.955439	15319.017978
829.272656	13481.754336
829.589830	11993.799805
829.906960	10687.384786
830.224046	9719.498371
830.541088	8938.285883
830.858086	8447.401006
831.175041	8041.625930
831.491952	7881.924697
831.808819	7869.730146
832.125642	8166.419694
832.442421	8867.964307
832.759157	10351.583446
833.075849	12926.183894
833.392497	16074.278607
833.709101	18563.376044
834.025662	18939.665412
834.342179	17587.948063
834.658653	15515.781775
834.975083	13586.917846
835.291469	11930.608941
835.607811	10598.113513
835.924110	9683.396147
836.240366	8813.255185
836.556578	8005.044797
836.872746	7351.209664
837.188871	6833.624316
837.504952	6398.287914
837.820990	6079.039203
838.136984	5842.873748
838.452935	5723.955449
838.768842	5707.740578
839.084706	5984.232743
839.400526	6951.725948
839.716303	8458.594888
840.032037	9695.744454
840.347727	9928.940669
840.663373	9137.802149
840.978977	8097.766740
841.294537	7256.884634
841.610054	6637.198277
841.925527	6202.313058
842.240957	5845.117062
842.556344	5512.902502
842.871687	5233.952775
843.186987	4948.068940
843.502244	4717.390782
843.817458	4552.124114
844.132629	4410.303854
844.447756	4315.071417
844.762840	4232.225094
845.077881	4159.882016
845.392879	4095.551852
845.707833	4047.676014
846.022745	4004.344776
846.337613	3973.500476
846.652438	3936.402625
846.967221	3914.287083
847.281960	3881.058317
847.596656	3865.145915
847.911309	3846.690251
848.225919	3822.094461
848.540485	3808.939570
848.855009	3793.906850
849.169490	3771.501441
849.483928	3760.214298
849.798323	3748.733070
850.112675	3730.806727
850.426984	3743.084457
850.741251	3723.136611
851.055474	3721.299111
851.369654	3725.584092
851.683792	3716.310889
851.997887	3724.588464
852.311938	3731.550297
852.625947	3728.938979
852.939914	3723.423957
853.253837	3735.091708
853.567718	3729.748085
853.881555	3720.973956
854.195350	3730.456367
854.509103	3730.040472
854.822812	3728.018969
855.136479	3720.726940
855.450103	3727.260275
855.763685	3711.889797
856.077224	3719.161662
856.390720	3733.919639
856.704173	3749.348091
857.017584	3763.274278
857.330953	3772.567645
857.644278	3797.755771
857.957561	3800.591420
858.270802	3802.766677
858.584000	3807.321360
858.897155	3800.825833
859.210268	3785.001651
859.523339	3765.530195
859.836367	3764.713528
860.149352	3757.411416
860.462295	3747.727360
860.775195	3736.961976
861.088054	3732.180441
861.400869	3725.770614
861.713642	3726.196592
862.026373	3740.551277
862.339062	3740.226123
862.651708	3758.893516
862.964312	3792.104637
863.276873	3802.577634
863.589392	3851.549923
863.901869	3896.174217
864.214303	3936.200979
864.526696	3975.582472
864.839045	4019.294317
865.151353	4045.054614
865.463619	4056.578691
865.775842	4064.095052
866.088023	4078.611054
866.400162	4073.090991
866.712258	4081.325716
867.024313	4080.521652
867.336325	4081.744131
867.648296	4088.496757
867.960224	4086.636571
868.272110	4095.360288
868.583954	4097.583437
868.895755	4107.993419
869.207515	4104.318418
869.519233	4141.822082
869.830909	4156.776665
870.142542	4176.664017
870.454134	4190.756563
870.765684	4225.555648
871.077191	4258.935648
871.388657	4278.412146
871.700081	4311.305675
872.011463	4348.101057
872.322803	4385.380389
872.634101	4414.815687
872.945357	4452.485709
873.256571	4508.321529
873.567744	4538.334038
873.878874	4555.796595
874.189963	4593.733798
874.501010	4605.283082
874.812015	4602.810396
875.122979	4642.701046
875.433900	4643.832785
875.744780	4648.838651
876.055618	4675.861756
876.366415	4676.575079
876.677169	4695.955795
876.987882	4731.390066
877.298554	4778.413949
877.609183	4851.659394
877.919771	4940.582827
878.230317	5071.446140
878.540822	5252.952884
878.851285	5534.715575
879.161707	5925.468013
879.472087	6563.385703
879.782425	7579.997390
880.092722	9412.391278
880.402977	12254.707243
880.713191	15782.554595
881.023363	19487.895933
881.333494	21958.154579
881.643583	23431.772069
881.953631	23660.723632
882.263637	23007.876565
882.573602	21711.329605
882.883526	20277.905235
883.193408	18699.242702
883.503248	17087.381651
883.813048	15607.382061
884.122806	14236.578904
884.432522	12792.999130
884.742197	11566.942623
885.051831	10487.213169
885.361424	9481.863419
885.670975	8666.935694
885.980485	7961.695915
886.289954	7388.889768
886.599382	6912.727582
886.908768	6536.246651
887.218113	6174.480848
887.527417	5885.461416
887.836680	5619.825376
888.145901	5398.896808
888.455082	5236.112909
888.764221	5086.047842
889.073319	4949.538437
889.382376	4876.643352
889.691392	4810.498372
890.000366	4778.020739
890.309300	4763.441722
890.618193	4764.036578
890.927044	4751.179115
891.235855	4765.871558
891.544625	4785.980721
891.853353	4835.018545
892.162041	4930.586219
892.470687	5089.037246
892.779293	5303.823167
893.087858	5631.551099
893.396381	6119.050841
893.704864	6803.987373
894.013306	7830.822520
894.321707	8965.177918
894.630068	9860.043219
894.938387	10210.335356
895.246665	10094.998797
895.554903	9577.300023
895.863100	8915.925845
896.171256	8385.732571
896.479371	7896.710401
896.787446	7410.029847
897.095480	6984.964796
897.403473	6673.008114
897.711425	6367.831783
898.019336	6103.909735
898.327207	5837.146997
898.635038	5611.479745
898.942827	5369.418661
899.250576	5170.527498
899.558284	4979.997088
899.865952	4853.237275
900.173579	4710.020615
900.481165	4601.769398
900.788711	4508.296323
901.096216	4437.069860
901.403681	4369.462946
901.711105	4342.785160
902.018489	4320.770441
902.325832	4367.796845
902.633135	4456.145586
902.940397	4717.090833
903.247619	5330.299307
903.554800	6526.199631
903.861941	8297.454406
904.169041	9869.518068
904.476101	10722.211597
904.783121	10595.166958
905.090100	9969.595054
905.397039	9167.527312
905.703938	8453.717572
906.010796	7778.906197
906.317614	7243.757470
906.624391	6721.821606
906.931129	6305.981867
907.237826	5923.083547
907.544483	5557.791457
907.851099	5194.185633
908.157675	4846.222509
908.464211	4519.717057
908.770707	4275.705046
909.077163	4074.545364
909.383578	3918.957712
909.689954	3802.426400
909.996289	3726.693145
910.302584	3658.052795
910.608839	3622.462248
910.915054	3590.292125
911.221229	3572.582552
911.527363	3580.398861
911.833458	3589.765325
912.139513	3608.742748
912.445527	3635.798621
912.751502	3707.899724
913.057436	3793.624545
913.363331	3911.418666
913.669186	4085.759410
913.975000	4306.861898
914.280775	4662.742153
914.586510	5162.065921
914.892205	5850.556467
915.197859	6779.928466
915.503475	7918.888957
915.809050	8978.569743
916.114585	9707.608809
916.420081	10069.331762
916.725536	10120.617941
917.030952	9754.153783
917.336328	9388.297083
917.641665	9014.094754
917.946961	8559.654899
918.252218	8169.290631
918.557435	7674.806371
918.862612	7266.288907
919.167750	6907.567961
919.472848	6502.891857
919.777906	6141.952803
920.082925	5793.112518
920.387904	5428.682466
920.692843	5155.877905
920.997743	4908.107714
921.302603	4671.203730
921.607423	4511.436962
921.912204	4348.511911
922.216946	4230.362388
922.521647	4114.214203
922.826310	4009.441382
923.130932	3918.995521
923.435516	3826.805420
923.740059	3754.958895
924.044564	3679.795291
924.349028	3620.002165
924.653454	3554.807443
924.957840	3492.027434
925.262186	3449.349025
925.566493	3389.593708
925.870761	3335.275276
926.174989	3296.327321
926.479178	3261.886158
926.783328	3222.237483
927.087438	3191.297401
927.391509	3162.073832
927.695541	3129.825571
927.999533	3104.216510
928.303486	3081.717840
928.607400	3068.326015
928.911275	3056.837225
929.215110	3038.121942
929.518906	3032.856456
929.822663	3028.357227
930.126381	3020.616535
930.430060	3029.642721
930.733699	3032.553987
931.037299	3043.707540
931.340861	3041.436500
931.644383	3049.272974
931.947866	3049.540155
932.251309	3044.372972
932.554714	3043.604196
932.858080	3038.094215
933.161407	3030.766898
933.464694	3024.047040
933.767943	3019.215094
934.071153	3014.461286
934.374323	3001.354286
934.677455	2999.899913
934.980548	2989.641165
935.283602	2983.700165
935.586617	2978.013744
935.889593	2988.138901
936.192530	2988.416165
936.495428	2997.719614
936.798287	3021.271885
937.101108	3048.070659
937.403890	3092.090014
937.706632	3147.945999
938.009336	3221.264540
938.312002	3294.305818
938.614628	3356.047350
938.917216	3412.752769
939.219765	3445.832821
939.522275	3479.784992
939.824747	3488.614573
940.127179	3485.254644
940.429573	3484.208604
940.731929	3480.889004
941.034246	3469.304433
941.336524	3458.344964
941.638763	3443.574384
941.940964	3433.731531
942.243126	3391.277454
942.545250	3370.177704
942.847335	3336.132272
943.149381	3302.227992
943.451389	3271.439144
943.753359	3234.885738
944.055290	3212.440000
944.357182	3187.128367
944.659036	3172.221675
944.960851	3162.275478
945.262628	3145.586739
945.564367	3146.859630
945.866067	3142.216727
946.167729	3139.290337
946.469352	3135.292702
946.770937	3134.216416
947.072484	3115.541462
947.373992	3122.830970
947.675462	3117.021040
947.976893	3098.441868
948.278286	3090.146649
948.579641	3083.091554
948.880958	3077.397571
949.182236	3081.695155
949.483476	3072.610996
949.784678	3070.836509
950.085841	3073.069741
950.386967	3084.661874
950.688054	3095.853235
950.989103	3114.119856
951.290114	3130.422948
951.591087	3154.733912
951.892021	3186.294056
952.192917	3210.237016
952.493776	3238.845564
952.794596	3247.904518
953.095378	3255.040271
953.396122	3250.989704
953.696828	3247.657501
953.997496	3236.677868
954.298126	3217.264385
954.598718	3197.487938
954.899272	3177.325843
955.199788	3148.187974
955.500266	3121.706793
955.800706	3087.517687
956.101108	3054.419992
956.401472	3020.636699
956.701798	2991.072853
957.002087	2948.437294
957.302337	2923.246648
957.602550	2897.524161
957.902724	2868.892928
958.202861	2840.659945
958.502960	2824.230825
958.803022	2803.862043
959.103045	2781.491923
959.403031	2764.969541
959.702979	2750.118302
960.002889	2741.697054
960.302762	2725.600650
960.602596	2715.732591
960.902393	2707.170192
961.202153	2698.186855
961.501875	2690.743592
961.801559	2682.753363
962.101205	2678.327230
962.400814	2670.989830
962.700385	2665.815086
962.999918	2659.027172
963.299414	2651.467962
963.598873	2651.755308
963.898293	2643.636530
964.197677	2646.535193
964.497022	2644.367497
964.796331	2640.916827
965.095601	2639.064203
965.394835	2634.829634
965.694030	2637.088071
965.993189	2635.905920
966.292309	2630.070785
966.591393	2629.793521
966.890439	2631.056330
967.189447	2634.133955
967.488419	2631.557925
967.787353	2633.604633
968.086249	2634.507000
968.385108	2635.633698
968.683930	2635.810138
968.982714	2639.606127
969.281462	2643.853299
969.580172	2650.338744
969.878844	2653.716317
970.177480	2661.366268
970.476078	2669.169974
970.774639	2678.307065
971.073162	2684.033816
971.371649	2690.753674
971.670098	2693.130578
971.968510	2700.475539
972.266885	2704.263966
972.565223	2711.180429
972.863524	2710.976263
973.161788	2716.198898
973.460014	2715.261243
973.758204	2718.739640
974.056356	2720.312480
974.354471	2724.544528
974.652550	2722.187789
974.950591	2724.615104
975.248595	2722.099569
975.546563	2716.579505
975.844493	2716.423229
976.142386	2710.583053
976.440243	2707.467620
976.738062	2702.290355
977.035845	2698.103676
977.333590	2693.362471
977.631299	2682.108095
977.928971	2679.108609
978.226606	2673.770027
978.524204	2670.498318
978.821765	2666.815755
979.119290	2666.510765
979.416777	2664.592606
979.714228	2669.994202
980.011642	2672.882784
980.309020	2677.750018
980.606360	2688.462470
980.903664	2708.690099
981.200931	2737.154975
981.498162	2776.231479
981.795356	2842.726818
982.092513	2921.991401
982.389633	3019.928417
982.686717	3115.012141
982.983764	3192.696321
983.280775	3248.179261
983.577749	3264.063936
983.874686	3257.865838
984.171587	3231.815675
984.468451	3195.925180
984.765279	3158.139212
985.062070	3115.251595
985.358824	3073.271387
985.655543	3020.306504
985.952224	2974.157261
986.248869	2913.839855
986.545478	2855.067563
986.842050	2799.877011
987.138586	2753.737850
987.435086	2714.419371
987.731549	2684.006090
988.027975	2659.019611
988.324366	2640.004378
988.620719	2624.412089
988.917037	2615.035543
989.213318	2607.060438
989.509563	2598.477873
989.805772	2595.077615
990.101944	2588.899681
990.398080	2588.196440
990.694180	2582.744432
990.990244	2586.109402
991.286271	2586.316090
991.582262	2584.531521
991.878217	2587.455391
992.174136	2590.530494
992.470019	2594.013932
992.765865	2596.773963
993.061676	2597.656165
993.357450	2606.914244
993.653188	2610.712754
993.948890	2629.964920
994.244556	2644.397744
994.540186	2664.743841
994.835780	2690.935156
995.131337	2727.029817
995.426859	2763.908378
995.722345	2810.498722
996.017795	2856.562265
996.313208	2896.536095
996.608586	2923.034920
996.903928	2942.549226
997.199234	2945.089968
997.494504	2944.595935
997.789738	2931.995571
998.084936	2913.345822
998.380099	2884.351626
998.675225	2858.989581
998.970316	2827.426917
999.265371	2795.907102
999.560390	2760.256062
999.855373	2731.851681
1000.150320	2700.959490
1000.445232	2676.812363
1000.740108	2657.391318
1001.034948	2635.232926
1001.329752	2625.304374
1001.624521	2610.690069
1001.919254	2597.656165
1002.213951	2594.250866
1002.508613	2582.331058
1002.803239	2577.678073
1003.097829	2571.071641
1003.392384	2565.765826
1003.686903	2559.265258
1003.981386	2555.512119
1004.275834	2552.983981
1004.570246	2553.223435
1004.864623	2550.468445
1005.158964	2545.268495
1005.453270	2546.969884
1005.747540	2540.885211
1006.041775	2543.693134
1006.335974	2542.571477
1006.630138	2536.852288
1006.924266	2541.036446
1007.218359	2537.663914
1007.512416	2535.090405
1007.806438	2533.802390
1008.100425	2534.067051
1008.394376	2529.696370
1008.688292	2536.632998
1008.982172	2533.162164
1009.276017	2535.513862
1009.569827	2532.937832
1009.863602	2531.798532
1010.157341	2530.838192
1010.451045	2532.446320
1010.744714	2530.066895
1011.038347	2529.018335
1011.331945	2529.789632
1011.625508	2525.524816
1011.919036	2526.790145
1012.212528	2524.720752
1012.505986	2523.281502
1012.799408	2524.400638
1013.092795	2523.107582
1013.386147	2523.959537
1013.679464	2522.631193
1013.972745	2523.825947
1014.265992	2519.493075
1014.559204	2520.952489
1014.852380	2523.223529
1015.145521	2521.501975
1015.438628	2523.679753
1015.731699	2523.767973
1016.024736	2522.921060
1016.317737	2523.629342
1016.610703	2527.052285
1016.903635	2526.049096
1017.196531	2527.944569
1017.489393	2527.800897
1017.782219	2530.533202
1018.075011	2530.719725
1018.367768	2532.988244
1018.660490	2530.828109
1018.953177	2530.828109
1019.245829	2530.828109
