Dividing Wavelength (nm)	Counts (n)	Blue Motor Position (mm): 10.500000	Red Motor Position (mm): 0.000000	
326.493990	2067.543550
326.888308	2067.543550
327.282561	2067.543550
327.676750	2041.264015
328.070874	2043.658563
328.464933	2049.952444
328.858929	2055.364123
329.252859	2067.193190
329.646726	2078.596280
330.040528	2097.447675
330.434265	2114.559872
330.827938	2136.030146
331.221547	2156.456901
331.615091	2178.093534
332.008571	2194.525175
332.401986	2216.600387
332.795338	2238.224417
333.188625	2257.363157
333.581847	2274.941661
333.975006	2293.404887
334.368100	2309.949954
334.761129	2329.136585
335.154095	2341.537824
335.546996	2373.861702
335.939833	2435.590631
336.332606	2446.855089
336.725315	2457.481842
337.117960	2470.518265
337.510540	2479.199132
337.903056	2489.551142
338.295508	2494.655310
338.687896	2501.501197
339.080220	2506.486898
339.472480	2515.480317
339.864676	2513.224400
340.256807	2519.130112
340.648875	2520.282016
341.040879	2521.985926
341.432818	2522.492562
341.824694	2523.379805
342.216506	2521.539783
342.608253	2523.636903
342.999937	2521.552386
343.391557	2521.905267
343.783113	2520.274454
344.174605	2517.521984
344.566033	2514.714061
344.957397	2514.167096
345.348697	2512.911849
345.739934	2511.964112
346.131106	2511.659122
346.522215	2507.447238
346.913260	2506.779285
347.304241	2506.255005
347.695159	2501.886845
348.086012	2501.445744
348.476802	2496.351658
348.867528	2496.757471
349.258191	2492.545587
349.648789	2495.093890
350.039324	2488.500061
350.429796	2494.995588
350.820203	2493.090032
351.210548	2492.291009
351.600828	2490.619866
351.991045	2488.472335
352.381198	2490.203971
352.771288	2490.151039
353.161314	2488.689104
353.551276	2489.808241
353.941175	2487.882520
354.331010	2489.556183
354.720782	2490.413179
355.110490	2492.855618
355.500135	2489.500730
355.889717	2492.129692
356.279235	2492.754795
356.668689	2493.268993
357.058080	2489.379743
357.447408	2494.103304
357.836672	2493.200937
358.225873	2490.367809
358.615010	2496.631442
359.004084	2493.223622
359.393095	2493.871411
359.782043	2492.134733
360.170927	2495.688747
360.559748	2492.961482
360.948505	2496.782677
361.337199	2496.172697
361.725830	2497.921978
362.114398	2495.973572
362.502903	2499.015908
362.891344	2497.972389
363.279722	2495.794611
363.668037	2500.480363
364.056289	2497.266628
364.444478	2499.361227
364.832603	2502.111177
365.220665	2501.236536
365.608665	2498.847029
365.996601	2500.606392
366.384474	2500.495487
366.772284	2498.123624
367.160031	2502.128821
367.547715	2503.767196
367.935336	2502.065806
368.322893	2500.669407
368.710388	2498.506752
369.097820	2502.315343
369.485189	2497.029693
369.872495	2503.603358
370.259738	2503.704181
370.646918	2505.975221
371.034035	2503.169819
371.421090	2503.512617
371.808081	2504.377175
372.195010	2504.493122
372.581875	2504.510766
372.968678	2503.782319
373.355418	2502.537154
373.742096	2503.857936
374.128710	2506.673421
374.515262	2505.899604
374.901751	2505.897083
375.288177	2506.988493
375.674540	2504.848523
376.060841	2508.952022
376.447079	2504.183091
376.833254	2508.455469
377.219367	2506.373472
377.605417	2506.721312
377.991404	2509.360356
378.377329	2508.226096
378.763191	2510.340860
379.148991	2508.102588
379.534727	2508.770541
379.920402	2509.481343
380.306013	2511.089472
380.691563	2507.749707
381.077049	2507.641322
381.462474	2508.493277
381.847835	2508.962105
382.233134	2510.048473
382.618371	2511.086951
383.003545	2508.261384
383.388657	2509.423370
383.773706	2509.176354
384.158693	2510.567712
384.543618	2511.991838
384.928480	2509.478823
385.313280	2509.050325
385.698017	2509.836745
386.082692	2511.873371
386.467305	2511.278515
386.851856	2512.029647
387.236344	2511.442352
387.620770	2510.229955
388.005133	2506.683503
388.389435	2511.545696
388.773674	2506.015550
389.157851	2515.649195
389.541965	2512.516118
389.926018	2515.631551
390.310008	2513.173989
390.693936	2516.728002
391.077802	2513.975532
391.461606	2514.386386
391.845348	2514.290604
392.229027	2515.687004
392.612645	2516.299504
392.996200	2516.627179
393.379694	2515.283712
393.763125	2516.226407
394.146494	2515.079545
394.529801	2515.550893
394.913047	2518.021058
395.296230	2515.712210
395.679351	2516.239010
396.062410	2516.241531
396.445408	2519.132632
396.828343	2516.768331
397.211217	2515.923938
397.594028	2519.631707
397.976778	2515.830677
398.359466	2520.876872
398.742092	2514.860255
399.124656	2516.667508
399.507158	2517.085924
399.889598	2519.616583
400.271977	2518.411747
400.654294	2518.084073
401.036549	2517.751356
401.418742	2521.365864
401.800874	2516.917045
402.182944	2519.127591
402.564952	2519.750174
402.946898	2519.946779
403.328783	2520.526512
403.710606	2520.256810
404.092367	2519.924094
404.474067	2520.400483
404.855705	2518.290760
405.237282	2519.230935
405.618797	2520.229083
406.000250	2523.082377
406.381642	2524.836698
406.762972	2517.358146
407.144240	2518.235307
407.525447	2520.652540
407.906593	2516.770852
408.287677	2521.723786
408.668700	2519.724968
409.049661	2522.926101
409.430560	2522.452232
409.811399	2524.251924
410.192176	2524.304856
410.572891	2522.553055
410.953545	2521.996008
411.334138	2524.594723
411.714669	2522.520288
412.095139	2524.577079
412.475547	2522.767304
412.855894	2525.633200
413.236180	2520.864269
413.616405	2523.972140
413.996568	2524.352747
414.376670	2523.649506
414.756711	2523.410052
415.136691	2524.375433
415.516609	2525.973478
415.896466	2524.473735
416.276262	2523.679753
416.655997	2526.001205
417.035670	2524.972809
417.415283	2525.265196
417.794834	2525.660927
418.174324	2524.110772
418.553753	2523.326872
418.933121	2524.115813
419.312428	2526.699404
419.691674	2525.222346
420.070859	2525.867614
420.449983	2526.797707
420.829045	2524.773684
421.208047	2524.667819
421.586988	2524.894671
421.965867	2527.347193
422.344686	2527.483304
422.723444	2527.173273
423.102141	2523.780576
423.480777	2526.467511
423.859352	2529.983716
424.237866	2526.379291
424.616319	2524.816533
424.994712	2528.211751
425.373044	2526.641431
425.751314	2525.020700
426.129524	2522.948786
426.507673	2525.849970
426.885762	2521.098682
427.263789	2525.277799
427.641756	2527.737882
428.019662	2528.330218
428.397508	2529.915661
428.775292	2525.832326
429.153016	2525.885258
429.530679	2528.088242
429.908282	2526.699404
430.285824	2526.593540
430.663305	2528.483973
431.040726	2524.740916
431.418086	2527.647141
431.795385	2528.534384
432.172624	2525.434075
432.549802	2529.114117
432.926920	2528.741072
433.303977	2524.526667
433.680974	2527.614374
434.057910	2524.456091
434.434786	2528.299971
434.811601	2526.908612
435.188355	2526.747295
435.565050	2526.681760
435.941683	2527.979858
436.318257	2527.611853
436.694770	2529.711494
437.071222	2526.117151
437.447614	2530.694519
437.823946	2529.431710
438.200218	2527.185876
438.576429	2528.599919
438.952580	2528.292409
439.328670	2530.571011
439.704700	2527.740403
440.080670	2525.920546
440.456580	2527.087573
440.832429	2527.377440
441.208218	2526.616225
441.583947	2530.366844
441.959616	2527.858870
442.335224	2527.009435
442.710773	2530.132430
443.086261	2529.751823
443.461689	2529.083870
443.837057	2529.867770
444.212365	2526.417100
444.587612	2527.410207
444.962800	2526.555732
445.337927	2527.823582
445.712995	2524.350227
446.088002	2530.182842
446.462949	2528.889786
446.837837	2530.545805
447.212664	2531.062523
447.587431	2532.658048
447.962139	2532.496731
448.336786	2529.366175
448.711374	2531.052441
449.085901	2529.872811
449.460369	2530.432379
449.834776	2532.637884
450.209124	2530.853315
450.583412	2532.655528
450.957640	2529.688809
451.331808	2531.291896
451.705917	2529.487162
452.079965	2530.394570
452.453954	2529.663603
452.827883	2531.768285
453.201752	2532.514375
453.575562	2533.472195
453.949311	2531.284334
454.323001	2528.761236
454.696632	2531.196114
455.070202	2530.124868
455.443713	2531.075126
455.817164	2532.315250
456.190556	2528.728469
456.563888	2533.353728
456.937160	2532.249715
457.310373	2527.989940
457.683526	2530.187883
458.056619	2529.829961
458.429653	2533.444468
458.802628	2531.188552
459.175542	2529.998840
459.548398	2534.732483
459.921194	2529.255269
460.293930	2530.472708
460.666607	2530.896165
461.039224	2532.053110
461.411782	2531.846423
461.784280	2530.500434
462.156719	2530.059333
462.529099	2533.061341
462.901419	2528.100845
463.273680	2528.617563
463.645882	2529.595547
464.018024	2529.358613
464.390106	2531.541433
464.762130	2532.816845
465.134094	2534.440096
465.505999	2530.747451
465.877845	2531.052441
466.249631	2533.588141
466.621358	2533.653676
466.993026	2532.158974
467.364634	2536.353214
467.736184	2534.442617
468.107674	2531.947246
468.479105	2533.144520
468.850477	2529.933305
469.221790	2533.038655
469.593043	2534.311547
469.964238	2532.889941
470.335373	2532.219468
470.706449	2532.615198
471.077467	2533.109232
471.448425	2534.646783
471.819324	2535.894469
472.190164	2535.022349
472.560945	2534.646783
472.931667	2532.882380
473.302330	2534.586290
473.672934	2536.585107
474.043479	2533.189890
474.413965	2532.902544
474.784393	2533.106711
475.154761	2533.091588
475.525070	2532.794159
475.895321	2532.446320
476.265513	2532.665610
476.635645	2534.291382
477.005719	2534.135106
477.375734	2534.714839
477.745691	2531.982534
478.115588	2535.823893
478.485427	2536.529654
478.855207	2534.780374
479.224928	2537.623585
479.594591	2536.247350
479.964194	2535.652494
480.333739	2537.381609
480.703226	2538.301620
481.072653	2539.816487
481.442022	2535.728111
481.811333	2534.377082
482.180584	2535.075282
482.549777	2535.221475
482.918912	2531.511186
483.287988	2538.430169
483.657005	2537.679038
484.025964	2536.002854
484.394864	2538.480581
484.763706	2538.775488
485.132489	2539.330015
485.501213	2535.914634
485.869879	2537.575694
486.238487	2537.187525
486.607036	2537.157278
486.975527	2534.334232
487.343959	2538.140303
487.712333	2537.021167
488.080648	2537.076620
488.448905	2537.913451
488.817104	2537.154758
489.185244	2539.133410
489.553326	2540.055942
489.921350	2539.992927
490.289315	2539.186343
490.657222	2541.606096
491.025070	2540.960829
491.392861	2541.560726
491.760593	2539.922351
492.128267	2540.348328
492.495883	2539.163657
492.863440	2539.105684
493.230939	2537.132072
493.598380	2540.635674
493.965763	2539.577032
494.333088	2537.883204
494.700354	2540.471837
495.067563	2540.136600
495.434713	2538.679707
495.801805	2540.086188
496.168839	2538.281455
496.535815	2538.674665
496.902733	2540.194573
497.269593	2540.328164
497.636395	2539.335057
498.003139	2538.261291
498.369825	2539.322454
498.736453	2540.461754
499.103023	2538.422608
499.469535	2541.729605
499.835989	2538.226003
500.202385	2538.732639
500.568723	2533.676361
500.935003	2534.344314
501.301226	2534.777853
501.667390	2539.309851
502.033497	2540.446631
502.399546	2538.346990
502.765537	2540.376055
503.131470	2539.753472
503.497345	2541.422094
503.863163	2539.151054
504.228923	2541.845551
504.594625	2540.897814
504.960269	2537.709284
505.325856	2538.861188
505.691385	2540.257588
506.056856	2540.572660
506.422270	2539.473688
506.787625	2543.148689
507.152924	2540.176929
507.518164	2542.069882
507.883347	2537.568132
508.248472	2540.718853
508.613540	2538.778009
508.978550	2542.213555
509.343503	2544.378731
509.708398	2544.298073
510.073236	2543.320089
510.438016	2542.057280
510.802738	2540.769265
511.167403	2542.216076
511.532010	2544.698844
511.896561	2545.465100
512.261053	2545.092054
512.625488	2545.092054
512.989866	2544.416540
513.354186	2546.780841
513.718449	2546.972405
514.082655	2547.859648
514.446803	2546.243958
514.810894	2547.630275
515.174927	2550.206305
515.538904	2550.183620
515.902822	2552.406768
516.266684	2549.445091
516.630488	2550.481048
516.994235	2550.660009
517.357925	2554.942469
517.721558	2554.282078
518.085133	2555.474311
518.448651	2551.506923
518.812112	2551.806871
519.175516	2554.544218
519.538863	2554.408107
519.902152	2555.005483
520.265385	2556.351471
520.628560	2559.928170
520.991678	2558.713252
521.354739	2558.930022
521.717743	2559.802141
522.080690	2561.047306
522.443580	2562.279868
522.806413	2563.136864
523.169189	2566.927812
523.531908	2565.652400
523.894569	2566.932853
524.257174	2568.372103
524.619722	2568.624160
524.982213	2570.345714
525.344647	2572.331929
525.707025	2576.392578
526.069345	2575.621282
526.431608	2576.304358
526.793815	2578.187229
527.155964	2579.510532
527.518057	2577.957857
527.880093	2582.051274
528.242072	2580.165882
528.603995	2578.187229
528.965860	2580.654874
529.327669	2581.844586
529.689421	2582.134453
530.051117	2585.743919
530.412755	2583.372056
530.774337	2586.169896
531.135862	2586.805082
531.497331	2590.724579
531.858743	2589.534867
532.220098	2591.437902
532.581396	2593.434199
532.942638	2597.368820
533.303824	2595.924529
533.664953	2596.209354
534.026025	2598.596341
534.387040	2601.159767
534.747999	2598.553491
535.108902	2602.281424
535.469748	2603.821497
535.830537	2604.428956
536.191270	2604.154213
536.551947	2603.435848
536.912567	2602.016763
537.273131	2606.306785
537.633638	2601.966352
537.994089	2608.910541
538.354483	2607.627568
538.714821	2613.896242
539.075103	2616.215173
539.435328	2613.674432
539.795497	2617.470421
540.155609	2617.659464
540.515665	2620.691718
540.875665	2619.207098
541.235609	2622.756070
541.595496	2623.660957
541.955328	2623.489558
542.315102	2622.924949
542.674821	2626.501648
543.034483	2627.404014
543.394090	2626.723458
543.753640	2627.043572
544.113134	2633.097997
544.472571	2631.222688
544.831953	2633.682771
545.191278	2635.202679
545.550548	2631.610857
545.909761	2635.124541
546.268918	2639.800212
546.628019	2641.909934
546.987064	2638.212248
547.346053	2638.633184
547.704986	2641.322640
548.063863	2643.039153
548.422684	2640.737866
548.781449	2640.826086
549.140158	2640.904224
549.498811	2642.991262
549.857408	2643.371869
550.215949	2649.769093
550.574434	2647.571150
550.932864	2647.999648
551.291237	2648.387817
551.649555	2648.337406
552.007817	2648.342447
552.366022	2648.433187
552.724173	2647.619041
553.082267	2651.059629
553.440305	2649.575009
553.798288	2651.878816
554.156215	2653.068528
554.514086	2653.759167
554.871902	2647.828249
555.229661	2651.246151
555.587365	2649.224649
555.945014	2653.973416
556.302606	2654.049033
556.660143	2654.114568
557.017625	2655.752943
557.375050	2654.293529
557.732421	2653.996101
558.089735	2655.752943
558.446994	2654.769918
558.804197	2656.506595
559.161345	2656.415855
559.518437	2654.938797
559.875474	2655.558858
560.232455	2658.240752
560.589381	2657.487100
560.946251	2656.269661
561.303065	2657.507264
561.659825	2657.882830
562.016528	2657.688746
562.373177	2657.257727
562.729770	2658.631442
563.086307	2657.754281
563.442789	2660.960455
563.799216	2657.716472
564.155587	2659.722852
564.511904	2658.951555
564.868164	2660.216885
565.224370	2657.633293
565.580520	2660.355516
565.936615	2658.255876
566.292654	2660.274858
566.648638	2660.297543
567.004567	2660.360557
567.360441	2661.872904
567.716260	2659.586740
568.072023	2662.636638
568.427732	2662.876093
568.783385	2662.923984
569.138982	2660.330311
569.494525	2662.341731
569.850013	2661.187307
570.205445	2663.274344
570.560823	2663.193686
570.916145	2663.901968
571.271412	2662.538336
571.626625	2663.385250
571.981782	2662.679488
572.336884	2661.222595
572.691931	2658.265958
573.046923	2661.313336
573.401860	2658.293684
573.756743	2663.407935
574.111570	2662.999602
574.466342	2666.092349
574.821059	2666.238543
575.175722	2661.441885
575.530330	2664.491783
575.884882	2666.117555
576.239380	2666.593944
576.593823	2661.028510
576.948211	2662.709735
577.302544	2663.004643
577.656823	2664.559839
578.011047	2665.353820
578.365216	2663.574293
578.719330	2667.826506
579.073389	2666.689726
579.427394	2670.092505
579.781344	2667.130827
580.135239	2666.039417
580.489080	2670.896569
580.842866	2670.551250
581.196597	2677.397137
581.550273	2672.124090
581.903895	2669.974038
582.257463	2676.333453
582.610975	2674.440500
582.964434	2677.215655
583.317837	2675.569719
583.671186	2680.885615
584.024481	2682.705472
584.377721	2681.530883
584.730906	2684.248065
585.084037	2686.577078
585.437113	2689.684949
585.790135	2689.881554
586.143103	2686.763601
586.496016	2691.179652
586.848874	2694.264838
587.201679	2697.697863
587.554428	2698.872452
587.907124	2701.503935
588.259765	2699.767257
588.612352	2707.313864
588.964884	2706.600541
589.317362	2711.825697
589.669786	2712.138249
590.022155	2717.116388
590.374470	2718.157386
590.726731	2720.274671
591.078937	2720.067984
591.431090	2727.922101
591.783188	2727.612070
592.135232	2732.761609
592.487222	2734.825962
592.839157	2742.710326
593.191038	2743.665625
593.542866	2747.587642
593.894639	2749.672160
594.246358	2751.141656
594.598022	2758.395876
594.949633	2760.419900
595.301190	2761.826382
595.652692	2767.991713
596.004141	2774.598145
596.355535	2775.097219
596.706876	2778.079062
597.058162	2781.875050
597.409395	2784.546862
597.760573	2795.702935
598.111698	2798.243677
598.462768	2801.964048
598.813785	2809.956798
599.164748	2813.815801
599.515657	2821.778304
599.866511	2826.277533
600.217312	2837.950325
600.568060	2834.499655
600.918753	2850.878364
601.269392	2857.167204
601.619978	2861.358923
601.970510	2869.586086
602.320988	2875.645553
602.671412	2889.745660
603.021783	2894.708676
603.372100	2902.991292
603.722363	2909.811973
604.072572	2920.393355
604.422728	2928.602874
604.772830	2933.359203
605.122878	2949.415278
605.472872	2955.341154
605.822813	2969.063175
606.172701	2976.045173
606.522534	2988.489261
606.872314	3003.348062
607.222041	3012.853158
607.571714	3025.531660
607.921333	3030.471991
608.270899	3044.259546
608.620411	3062.868966
608.969870	3074.851788
609.319276	3089.269488
609.668627	3107.200873
610.017926	3127.322638
610.367171	3140.548105
610.716362	3160.690036
611.065500	3175.158147
611.414585	3191.178934
611.763616	3212.636605
612.112594	3228.448184
612.461518	3250.551123
612.810389	3272.802777
613.159207	3288.349695
613.507971	3305.920637
613.856682	3337.594206
614.205340	3354.199767
614.553945	3387.176475
614.902496	3393.253586
615.250994	3423.588729
615.599439	3448.176957
615.947830	3475.063951
616.296169	3499.016994
616.644454	3528.749719
616.992686	3555.049419
617.340864	3595.532405
617.688990	3615.659211
618.037063	3660.704442
618.385082	3687.258719
618.733048	3726.632652
619.080961	3752.708020
619.428821	3783.514511
619.776628	3810.295641
620.124382	3833.961337
620.472083	3863.484855
620.819731	3891.702714
621.167326	3901.538005
621.514868	3926.194288
621.862357	3932.299126
622.209793	3956.849545
622.557176	3962.115030
622.904506	3977.856033
623.251783	3992.026716
623.599007	4004.145650
623.946179	4028.519629
624.293297	4045.394892
624.640363	4049.551323
624.987376	4065.340217
625.334336	4088.461469
625.681243	4100.507306
626.028097	4124.397334
626.374899	4152.239627
626.721647	4179.955891
627.068343	4205.007905
627.414987	4223.987849
627.761577	4245.100201
628.108115	4294.995021
628.454600	4291.526708
628.801032	4337.428934
629.147412	4367.275085
629.493739	4396.722985
629.840014	4415.234102
630.186236	4472.952793
630.532405	4480.527127
630.878521	4534.366650
631.224585	4559.857244
631.570597	4584.692489
631.916556	4632.051609
632.262462	4667.443029
632.608316	4702.589954
632.954117	4734.843256
633.299866	4770.050675
633.645562	4798.936486
633.991206	4801.630983
634.336797	4805.258093
634.682336	4828.162576
635.027823	4845.196634
635.373257	4873.164956
635.718639	4880.686357
636.063968	4902.983381
636.409245	4891.255137
636.754470	4920.065331
637.099642	4940.681129
637.444762	4933.641158
637.789829	4972.417713
638.134845	4980.599506
638.479808	5010.281820
638.824719	5042.943456
639.169577	5044.299526
639.514383	5087.146813
639.859137	5089.793419
640.203839	5138.881655
640.548489	5160.692207
640.893086	5195.448442
641.237632	5206.236511
641.582125	5250.575980
641.926566	5274.735710
642.270955	5315.072502
642.615292	5346.219271
642.959576	5377.058530
643.303809	5415.958593
643.647990	5469.339372
643.992118	5503.964537
644.336195	5536.374115
644.680219	5584.020580
645.024192	5649.570704
645.368112	5749.990488
645.711981	5799.547551
646.055797	5926.582108
646.399562	5963.528724
646.743274	6116.840295
647.086935	6225.010854
647.430544	6279.394821
647.774101	6338.167113
648.117606	6419.627118
648.461059	6487.639846
648.804460	6491.675289
649.147810	6473.683411
649.491108	6472.337423
649.834354	6500.882957
650.177548	6443.282733
650.520690	6419.760709
650.863781	6459.061544
651.206820	6477.897816
651.549807	6471.535880
651.892742	6439.234686
652.235626	6476.178782
652.578458	6501.629047
652.921238	6454.796728
653.263967	6535.732453
653.606644	6543.165635
653.949269	6578.065543
654.291843	6572.573206
654.634365	6665.511918
654.976836	6652.465412
655.319255	6711.041099
655.661622	6732.856692
656.003938	6761.533296
656.346203	6783.658920
656.688416	6866.006168
657.030577	6874.992025
657.372687	6896.452217
657.714746	6960.308512
658.056753	7037.095368
658.398708	6991.818245
658.740612	7044.364712
659.082465	7121.953111
659.424266	7157.183214
659.766016	7205.684155
660.107715	7229.117959
660.449362	7301.405585
660.790958	7347.660692
661.132503	7382.132102
661.473996	7442.731812
661.815438	7514.868203
662.156829	7583.006959
662.498168	7598.200997
662.839456	7646.379304
663.180693	7721.631128
663.521879	7782.853421
663.863013	7824.989905
664.204097	7875.333388
664.545129	8009.029829
664.886110	8051.667909
665.227040	8127.673385
665.567918	8178.435284
665.908746	8248.182168
666.249522	8322.687901
666.590248	8388.600988
666.930922	8460.210578
667.271545	8529.967544
667.612118	8591.946010
667.952639	8606.051159
668.293109	8667.656579
668.633528	8687.889250
668.973896	8732.032114
669.314213	8778.319989
669.654480	8788.026730
669.994695	8836.179832
670.334859	8876.239361
670.674973	8881.139362
671.015035	8978.597469
671.355047	9017.739508
671.695008	9052.326865
672.034918	9093.087114
672.374777	9166.690481
672.714585	9194.898257
673.054342	9282.314386
673.394049	9305.138210
673.733705	9413.243233
674.073310	9396.393177
674.412864	9470.299013
674.752368	9454.731929
675.091820	9560.306294
675.431223	9514.653605
675.770574	9512.823666
676.109875	9518.666363
676.449125	9507.911061
676.788324	9535.806286
677.127473	9457.532290
677.466571	9478.243871
677.805619	9460.037744
678.144616	9487.872475
678.483562	9525.098875
678.822458	9491.938165
679.161303	9525.224904
679.500098	9549.190550
679.838842	9574.421525
680.177535	9648.997834
680.516179	9758.350543
680.854771	9834.739147
681.193314	10086.937992
681.531805	10421.413509
681.870247	10720.212779
682.208638	11027.428257
682.546978	11192.727691
682.885268	11305.747840
683.223508	11239.991029
683.561697	11208.244363
683.899836	11214.255939
684.237925	11140.526543
684.575963	11141.751543
684.913951	11083.869015
685.251889	11182.337873
685.589776	11238.549259
685.927614	11304.220370
686.265401	11413.505024
686.603137	11504.898623
686.940824	11717.501724
687.278460	11892.238199
687.616046	12018.602282
687.953582	12299.878502
688.291068	12339.174296
688.628504	12523.723377
688.965889	12591.723501
689.303224	12562.293245
689.640510	12519.476204
689.977745	12362.918131
690.314930	12161.410608
690.652065	12055.932026
690.989150	11880.668751
691.326185	11631.802109
691.663170	11460.541510
692.000105	11253.806311
692.336990	11079.168139
692.673825	10968.542538
693.010610	10828.889974
693.347345	10681.879846
693.684030	10504.317804
694.020665	10464.805240
694.357251	10262.949879
694.693786	10305.968565
695.030272	10258.450649
695.366707	10113.136869
695.703093	10035.457729
696.039429	10100.105486
696.375716	10050.298886
696.711952	10079.603113
697.048139	10067.746319
697.384276	10039.278924
697.720363	10125.459969
698.056400	10120.393610
698.392388	10093.204146
698.728326	10128.837542
699.064214	10107.034552
699.400053	10153.665225
699.735842	10031.137460
700.071581	9996.393828
700.407270	9932.759343
700.742910	9891.217715
701.078501	9829.599691
701.414042	9781.817114
701.749533	9686.567033
702.084974	9590.669163
702.420366	9714.434532
702.755709	9583.803112
703.091002	9490.453546
703.426246	9537.023725
703.761440	9551.201970
704.096584	9480.404005
704.431679	9478.110280
704.766725	9491.217280
705.101721	9483.587494
705.436668	9568.611595
705.771565	9478.120363
706.106413	9638.726483
706.441212	9701.367861
706.775961	9765.624928
707.110661	9827.318569
707.445311	10016.376962
707.779913	10002.191155
708.114465	10156.929372
708.448967	10324.184774
708.783421	10633.825047
709.117825	10817.686010
709.452180	10949.376072
709.786485	11183.031032
710.120742	11546.042000
710.454949	11619.912548
710.789107	11879.078267
711.123216	12229.506515
711.457275	12364.359901
711.791286	12658.904438
712.125247	12776.234773
712.459159	12708.282539
712.793023	13107.572171
713.126837	12666.972804
713.460602	12837.779699
713.794318	12729.127711
714.127985	12644.451449
714.461602	12257.729414
714.795171	12286.267386
715.128691	11851.490552
715.462162	11645.776187
715.795584	11479.498769
716.128957	11373.732841
716.462281	11233.079607
716.795556	11132.286777
717.128782	10921.374982
717.461960	10660.946454
717.795088	10677.725935
718.128167	10539.343741
718.461198	10339.008287
718.794180	10304.859511
719.127113	10155.898456
719.459997	10085.196273
719.792833	9918.611345
720.125619	9961.304877
720.458357	9807.010281
720.791046	9755.771993
721.123686	9705.486483
721.456278	9610.533830
721.788821	9625.831212
722.121315	9514.527576
722.453761	9583.916538
722.786158	9541.167553
723.118506	9604.222306
723.450805	9558.423423
723.783056	9679.406074
724.115259	9635.754723
724.447412	9646.656218
724.779518	9779.029356
725.111574	9824.992077
725.443582	9980.070572
725.775542	9973.449016
726.107453	10268.989181
726.439315	10229.660619
726.771129	10465.783224
727.102895	10704.743999
727.434612	10872.947138
727.766281	10979.033180
728.097901	11170.778507
728.429473	11257.072979
728.760996	11295.479009
729.092471	11392.387630
729.423897	11359.226920
729.755276	11304.792541
730.086606	11373.924404
730.417887	11699.315762
730.749120	12026.317768
731.080305	12184.418435
731.411442	12458.188377
731.742530	12562.598234
732.073570	12671.177127
732.404562	12881.506668
732.735506	12845.417047
733.066401	12795.499542
733.397249	12576.910070
733.728048	12267.978080
734.058798	11818.067702
734.389501	11416.275138
734.720156	11142.971503
735.050762	10820.705661
735.381320	10606.643145
735.711831	10449.369227
736.042293	10244.837013
736.372707	10267.812072
736.703073	10163.923973
737.033391	10286.113981
737.363661	10295.661926
737.693883	10374.087156
738.024056	10496.443522
738.354182	10622.585794
738.684260	10835.181334
739.014290	11010.603406
739.344272	11155.650005
739.674207	11375.850125
740.004093	11500.137253
740.333931	11557.881149
740.663722	11635.235135
740.993464	11691.756552
741.323159	11636.518108
741.652806	11487.771302
741.982405	11415.861763
742.311956	11232.451983
742.641460	11204.551717
742.970915	11020.824345
743.300323	10834.319297
743.629683	10723.078675
743.958996	10549.657942
744.288260	10378.898938
744.617477	10194.702738
744.946647	10191.854486
745.275768	10016.563484
745.604842	9902.842615
745.933869	9803.607502
746.262847	9794.480493
746.591778	9748.384182
746.920662	9688.926293
747.249498	9694.353095
747.578286	9799.294795
747.907027	9916.526827
748.235720	10095.787738
748.564365	10158.615638
748.892963	10128.308221
749.221514	10218.345749
749.550017	10158.910546
749.878473	10159.127315
750.206881	10035.956803
750.535242	10008.079223
750.863555	9963.424682
751.191821	9910.721939
751.520039	9932.018293
751.848210	9893.035051
752.176334	9922.803064
752.504411	9891.290811
752.832440	9791.380183
753.160421	9884.102126
753.488356	9823.731788
753.816243	9779.357031
754.144082	9667.592130
754.471875	9641.761258
754.799620	9625.160738
755.127318	9626.000090
755.454969	9626.978074
755.782572	9615.554819
756.110129	9639.228078
756.437638	9584.718081
756.765100	9597.779711
757.092515	9618.438359
757.419882	9646.973811
757.747203	9658.129884
758.074477	9725.449453
758.401703	9714.663904
758.728882	9844.087967
759.056014	9873.160302
759.383099	9999.907512
759.710138	10090.302962
760.037129	10195.864724
760.364073	10250.132745
760.690970	10269.634449
761.017820	10297.605291
761.344623	10442.112486
761.671379	10695.548934
761.998088	11101.329051
762.324751	12095.394178
762.651366	14133.492349
762.977935	17124.565202
763.304456	19484.997270
763.630931	20672.194042
763.957359	20179.330513
764.283740	18760.306199
764.610074	17250.659583
764.936362	15420.675366
765.262602	14098.063120
765.588796	12725.755179
765.914943	11783.792897
766.241044	10978.881945
766.567097	10405.768288
766.893104	9892.800637
767.219064	9566.320390
767.544978	9219.778872
767.870845	8949.547820
768.196665	8789.453377
768.522438	8629.111917
768.848165	8492.955393
769.173846	8350.411727
769.499479	8266.589941
769.825066	8149.249524
770.150607	7995.028025
770.476101	7941.801002
770.801548	7857.986778
771.126949	7756.347034
771.452303	7679.562699
771.777611	7539.910135
772.102872	7540.540279
772.428087	7443.881195
772.753256	7336.003023
773.078378	7278.783407
773.403453	7156.379150
773.728482	7070.069555
774.053465	7013.197778
774.378401	6942.036850
774.703291	6864.173709
775.028135	6780.157839
775.352932	6757.540702
775.677683	6682.583785
776.002388	6604.919769
776.327046	6621.558097
776.651658	6548.955400
776.976224	6479.979812
777.300743	6482.729762
777.625216	6424.232212
777.949643	6393.473612
778.274024	6409.501961
778.598359	6347.021900
778.922647	6370.354881
779.246889	6334.229972
779.571086	6339.061918
779.895236	6343.115006
780.219339	6348.279668
780.543397	6359.803746
780.867409	6415.727786
781.191374	6428.607934
781.515294	6409.930459
781.839167	6483.745554
782.162995	6472.218956
782.486776	6437.876095
782.810511	6410.142187
783.134201	6347.183217
783.457844	6343.830850
783.781441	6310.876827
784.104993	6266.653305
784.428498	6260.261122
784.751958	6252.245687
785.075372	6221.666048
785.398739	6189.508528
785.722061	6223.435493
786.045337	6225.517490
786.368568	6338.583009
786.691752	6344.771025
787.014891	6568.878040
787.337983	6805.819832
787.661030	7232.470326
787.984031	7719.312197
788.306987	8070.446207
788.629897	8283.651726
788.952760	8300.927761
789.275579	8174.145262
789.598351	7894.726707
789.921078	7628.352138
790.243759	7311.886143
790.566395	7085.999601
790.888984	6891.020373
791.211529	6734.822742
791.534027	6559.415794
791.856480	6400.639612
792.178888	6337.128636
792.501249	6259.565443
792.823566	6140.271578
793.145836	6141.305015
793.468062	6117.911540
793.790241	6074.797072
794.112375	6117.765347
794.434464	6240.693883
794.756507	6258.095946
795.078505	6377.072218
795.400457	6589.062820
795.722364	6856.513675
796.044226	7078.659681
796.366042	7319.531053
796.687812	7299.404247
797.009538	7384.514047
797.331218	7320.849315
797.652852	7271.319978
797.974442	7158.093142
798.295986	7096.570901
798.617484	6954.468336
798.938938	6849.957655
799.260346	6770.942609
799.581709	6617.111800
799.903026	6556.940587
800.224299	6466.872812
800.545526	6336.415312
800.866708	6260.487974
801.187845	6205.441094
801.508936	6120.979082
801.829983	6092.947746
802.150984	5974.805785
802.471940	5933.750628
802.792851	5919.532054
803.113717	5901.512450
803.434538	5874.738882
803.755314	5831.253888
804.076045	5832.355381
804.396731	5783.940139
804.717372	5810.368388
805.037967	5807.184899
805.358518	5839.705383
805.679024	5902.470269
805.999485	5910.364716
806.319901	5940.495692
806.640272	5964.040401
806.960598	6028.942737
807.280879	6035.559251
807.601115	6103.556855
807.921306	6059.348456
808.241453	6071.941258
808.561554	6093.431697
808.881611	6070.267595
809.201623	6084.564308
809.521590	6040.149222
809.841513	6031.730495
810.161390	6062.673097
810.481223	5962.066790
810.801011	5947.006343
811.120755	5936.414878
811.440453	5875.139653
811.760107	5847.143605
812.079716	5828.839176
812.399281	5780.494510
812.718801	5774.011587
813.038276	5739.809878
813.357707	5692.226427
813.677093	5725.124997
813.996434	5644.196834
814.315731	5676.992060
814.634983	5671.834960
814.954191	5678.801834
815.273354	5767.190905
815.592473	5811.424510
815.911547	5911.756074
816.230577	5977.275951
816.549562	6104.239931
816.868502	6182.725655
817.187399	6265.803871
817.506250	6390.101080
817.825058	6413.933135
818.143821	6624.960876
818.462539	6828.537792
818.781213	7098.098371
819.099843	7507.026688
819.418429	8272.525900
819.736970	9025.495323
820.055466	9950.670563
820.373919	11105.614032
820.692327	12798.841827
821.010691	15538.809766
821.329011	21517.454390
821.647286	30572.344681
821.965517	41576.601274
822.283704	48926.870763
822.601847	53224.759407
822.919945	50768.868049
823.237999	46718.479895
823.556010	41386.789229
823.873976	35918.737872
824.191897	30620.898554
824.509775	26683.328902
824.827609	22930.439401
825.145398	20672.274700
825.463144	19349.357464
825.780845	19295.606161
826.098502	20300.121600
826.416116	23030.521428
826.733685	26104.851458
827.051210	27621.147355
827.368692	26891.042085
827.686129	24015.146995
828.003522	20705.284176
828.320872	17572.139005
828.638177	15175.629919
828.955439	13342.653778
829.272656	11770.451484
829.589830	10553.620289
829.906960	9467.886820
830.224046	8647.426429
830.541088	7979.612176
830.858086	7567.265956
831.175041	7223.189562
831.491952	7099.272959
831.808819	7092.003616
832.125642	7360.828186
832.442421	7977.812484
832.759157	9243.767203
833.075849	11391.782692
833.392497	14032.528120
833.709101	16083.017447
834.025662	16416.099084
834.342179	15340.009343
834.658653	13617.840284
834.975083	11956.417128
835.291469	10579.665410
835.607811	9445.176422
835.924110	8661.150970
836.240366	7913.815036
836.556578	7219.756536
836.872746	6663.876063
837.188871	6222.568415
837.504952	5849.659141
837.820990	5572.062963
838.136984	5373.522160
838.452935	5275.121358
838.768842	5260.864975
839.084706	5506.916132
839.400526	6333.617472
839.716303	7610.274560
840.032037	8682.013786
840.347727	8885.792347
840.663373	8211.306127
840.978977	7309.093344
841.294537	6603.414985
841.610054	6067.631072
841.925527	5691.003947
842.240957	5375.531060
842.556344	5096.793061
842.871687	4852.655022
843.186987	4610.379688
843.502244	4405.204727
843.817458	4258.822222
844.132629	4138.671361
844.447756	4055.610790
844.762840	3988.248372
845.077881	3917.667177
845.392879	3864.268754
845.707833	3825.250224
846.022745	3787.746560
846.337613	3765.278137
846.652438	3724.661560
846.967221	3711.380641
847.281960	3680.904345
847.596656	3663.572858
847.911309	3649.359325
848.225919	3629.242600
848.540485	3613.932616
848.855009	3606.824589
849.169490	3590.213987
849.483928	3576.892738
849.798323	3567.009556
850.112675	3559.488155
850.426984	3555.639234
850.741251	3546.789488
851.055474	3544.160526
851.369654	3545.992986
851.683792	3544.919220
851.997887	3551.034140
852.311938	3551.734860
852.625947	3554.313410
852.939914	3545.609858
853.253837	3554.726785
853.567718	3552.659912
853.881555	3543.711864
854.195350	3560.239287
854.509103	3556.191240
854.822812	3553.282494
855.136479	3546.542472
855.450103	3558.404307
855.763685	3543.984086
856.077224	3546.713871
856.390720	3560.140984
856.704173	3576.865012
857.017584	3585.964295
857.330953	3595.008125
857.644278	3611.497739
857.957561	3622.051394
858.270802	3624.723206
858.584000	3627.432826
858.897155	3621.103657
859.210268	3610.635702
859.523339	3589.621652
859.836367	3589.614090
860.149352	3586.324737
860.462295	3581.114705
860.775195	3567.561562
861.088054	3565.529978
861.400869	3561.668454
861.713642	3561.799524
862.026373	3566.233218
862.339062	3572.569949
862.651708	3585.659305
862.964312	3619.412350
863.276873	3623.372177
863.589392	3665.879186
863.901869	3708.262687
864.214303	3749.622834
864.526696	3775.602420
864.839045	3816.115653
865.151353	3839.400742
865.463619	3855.212322
865.775842	3859.628372
866.088023	3872.521123
866.400162	3868.765464
866.712258	3875.913820
867.024313	3881.267525
867.336325	3877.285014
867.648296	3880.768451
867.960224	3880.352556
868.272110	3891.057446
868.583954	3891.624576
868.895755	3904.446751
869.207515	3900.847367
869.519233	3932.276440
869.830909	3944.612144
870.142542	3962.888847
870.454134	3975.716063
870.765684	4000.730268
871.077191	4034.364847
871.388657	4053.221283
871.700081	4085.852672
872.011463	4122.393475
872.322803	4146.626302
872.634101	4173.049510
872.945357	4209.252556
873.256571	4256.878857
873.567744	4281.656128
873.878874	4298.662461
874.189963	4334.545394
874.501010	4340.282227
874.812015	4341.247608
875.122979	4381.594483
875.433900	4376.843195
875.744780	4392.430443
876.055618	4416.202004
876.366415	4410.228237
876.677169	4429.266154
876.987882	4466.845435
877.298554	4508.203062
877.609183	4573.047423
877.919771	4659.016741
878.230317	4770.839615
878.540822	4941.487714
878.851285	5190.563564
879.161707	5544.470208
879.472087	6120.646366
879.782425	7033.180912
880.092722	8643.307806
880.402977	11078.101935
880.713191	13930.038942
881.023363	16817.080023
881.333494	18774.393703
881.643583	20046.110461
881.953631	20390.317925
882.263637	20003.502628
882.573602	19002.261419
882.883526	17807.356723
883.193408	16490.433418
883.503248	15155.603935
883.813048	13899.403850
884.122806	12709.913353
884.432522	11479.828964
884.742197	10435.800962
885.051831	9506.434003
885.361424	8645.404926
885.670975	7938.735980
885.980485	7328.587486
886.289954	6825.800446
886.599382	6411.964565
886.908768	6075.548204
887.218113	5755.742445
887.527417	5499.737529
887.836680	5260.958236
888.145901	5072.618208
888.455082	4925.577832
888.764221	4789.577584
889.073319	4671.344882
889.382376	4606.250983
889.691392	4548.239905
890.000366	4520.463148
890.309300	4501.357175
890.618193	4504.291126
890.927044	4488.489629
891.235855	4508.513092
891.544625	4527.407337
891.853353	4567.161876
892.162041	4652.657325
892.470687	4803.024862
892.779293	4994.939068
893.087858	5278.970279
893.396381	5720.739193
893.704864	6329.516493
894.013306	7238.575164
894.321707	8254.899505
894.630068	9049.803767
894.938387	9368.054330
895.246665	9266.540615
895.554903	8796.241291
895.863100	8224.498827
896.171256	7743.182061
896.479371	7298.595141
896.787446	6874.112343
897.095480	6502.430591
897.403473	6218.258228
897.711425	5943.613646
898.019336	5710.959355
898.327207	5468.162262
898.635038	5266.619452
898.942827	5049.287748
899.250576	4876.033372
899.558284	4701.541394
899.865952	4596.135908
900.173579	4467.619253
900.481165	4365.621587
900.788711	4284.504380
901.096216	4216.942836
901.403681	4155.145852
901.711105	4129.960247
902.018489	4109.006691
902.325832	4161.389321
902.633135	4237.089808
902.940397	4470.961538
903.247619	5027.215056
903.554800	6089.600420
903.861941	7633.383209
904.169041	9033.125110
904.476101	9786.828021
904.783121	9677.235857
905.090100	9129.209502
905.397039	8437.835417
905.703938	7791.516644
906.010796	7185.373347
906.317614	6709.513629
906.624391	6253.029587
906.931129	5879.023862
907.237826	5532.361356
907.544483	5208.346234
907.851099	4882.468405
908.157675	4570.852001
908.464211	4282.649236
908.770707	4068.770722
909.077163	3879.901372
909.383578	3749.771548
909.689954	3638.790546
909.996289	3568.988209
910.302584	3511.997965
910.608839	3482.832369
910.915054	3450.339612
911.221229	3439.453240
911.527363	3443.453396
911.833458	3451.481433
912.139513	3477.302223
912.445527	3492.592043
912.751502	3561.728947
913.057436	3638.304074
913.363331	3743.497832
913.669186	3903.733427
913.975000	4099.458746
914.280775	4428.331020
914.586510	4879.852047
914.892205	5501.552345
915.197859	6328.362069
915.503475	7333.865574
915.809050	8277.922455
916.114585	8919.668901
916.420081	9249.725847
916.725536	9293.709914
917.030952	8969.067168
917.336328	8651.784507
917.641665	8322.975247
917.946961	7918.349554
918.252218	7557.090387
918.557435	7123.515868
918.862612	6755.050372
919.167750	6435.660508
919.472848	6070.423871
919.777906	5746.539819
920.082925	5433.136325
920.387904	5109.141368
920.692843	4871.050192
920.997743	4642.970748
921.302603	4435.141619
921.607423	4288.940596
921.912204	4141.806959
922.216946	4036.749313
922.521647	3930.673353
922.826310	3835.030062
923.130932	3754.938730
923.435516	3666.496727
923.740059	3606.532202
924.044564	3538.380843
924.349028	3487.213132
924.653454	3428.478648
924.957840	3367.735265
925.262186	3325.545849
925.566493	3273.924433
925.870761	3223.641444
926.174989	3190.868903
926.479178	3160.014521
926.783328	3120.438943
927.087438	3098.691405
927.391509	3063.163873
927.695541	3037.532127
927.999533	3018.438756
928.303486	2997.785149
928.607400	2985.474651
928.911275	2970.187352
929.215110	2954.476596
929.518906	2947.877726
929.822663	2947.920576
930.126381	2943.403702
930.430060	2948.437294
930.733699	2949.085082
931.037299	2959.842905
931.340861	2958.461628
931.644383	2966.797176
931.947866	2965.662917
932.251309	2961.745940
932.554714	2960.152936
932.858080	2956.714869
933.161407	2951.010803
933.464694	2943.801953
933.767943	2940.908331
934.071153	2933.180242
934.374323	2926.520878
934.677455	2920.776483
934.980548	2914.785072
935.283602	2907.684606
935.586617	2903.318967
935.889593	2912.148548
936.192530	2916.413364
936.495428	2922.261103
936.798287	2940.094184
937.101108	2967.807928
937.403890	3011.524814
937.706632	3059.183882
938.009336	3126.581589
938.312002	3191.834284
938.614628	3249.863006
938.917216	3299.856129
939.219765	3329.944255
939.522275	3359.929038
939.824747	3367.750389
940.127179	3366.016232
940.429573	3364.362733
940.731929	3361.920294
941.034246	3350.759180
941.336524	3340.795339
941.638763	3329.999708
941.940964	3319.693069
942.243126	3280.772841
942.545250	3264.439502
942.847335	3229.496744
943.149381	3198.750747
943.451389	3170.167405
943.753359	3140.890904
944.055290	3120.091103
944.357182	3093.425920
944.659036	3078.574681
944.960851	3072.369020
945.262628	3060.809654
945.564367	3059.496434
945.866067	3050.313972
946.167729	3049.053684
946.469352	3050.432439
946.770937	3044.541851
947.072484	3031.520551
947.373992	3035.785367
947.675462	3029.746064
947.976893	3015.950947
948.278286	3008.096829
948.579641	3005.997189
948.880958	2998.748009
949.182236	3000.827485
949.483476	2991.234170
949.784678	2989.845332
950.085841	2993.706856
950.386967	2997.270951
950.688054	3013.170751
950.989103	3030.696322
951.290114	3048.292469
951.591087	3070.100501
951.892021	3094.744182
952.192917	3121.807616
952.493776	3140.966521
952.794596	3150.630413
953.095378	3158.822288
953.396122	3153.740805
953.696828	3148.452635
953.997496	3142.970380
954.298126	3124.204685
954.598718	3105.378496
954.899272	3087.023654
955.199788	3064.250242
955.500266	3037.176725
955.800706	3006.125738
956.101108	2972.024853
956.401472	2947.461831
956.701798	2918.134918
957.002087	2881.011861
957.302337	2856.726103
957.602550	2830.181907
957.902724	2805.104687
958.202861	2782.308590
958.502960	2764.190683
958.803022	2746.012282
959.103045	2726.596278
959.403031	2711.540872
959.702979	2700.543595
960.002889	2689.964733
960.302762	2680.452076
960.602596	2668.486897
960.902393	2657.716472
961.202153	2651.669608
961.501875	2647.578712
961.801559	2640.667290
962.101205	2633.836527
962.400814	2627.341000
962.700385	2624.316307
962.999918	2617.213322
963.299414	2611.809205
963.598873	2611.302569
963.898293	2602.213368
964.197677	2607.199070
964.497022	2605.986672
964.796331	2599.294540
965.095601	2600.481732
965.394835	2598.124993
965.694030	2595.808582
965.993189	2593.961000
966.292309	2593.081318
966.591393	2593.408993
966.890439	2592.241966
967.189447	2590.170052
967.488419	2592.594847
967.787353	2591.543766
968.086249	2593.141812
968.385108	2595.206165
968.683930	2595.722883
968.982714	2599.836464
969.281462	2604.867536
969.580172	2610.443052
969.878844	2612.734257
970.177480	2621.755401
970.476078	2629.987606
970.774639	2635.084212
971.073162	2639.394399
971.371649	2649.585091
971.670098	2652.869403
971.968510	2656.393169
972.266885	2661.716628
972.565223	2666.339366
972.863524	2666.853564
973.161788	2671.498987
973.460014	2672.930675
973.758204	2675.725994
974.056356	2677.475275
974.354471	2679.864782
974.652550	2678.866633
974.950591	2680.250430
975.248595	2678.017199
975.546563	2674.634585
975.844493	2672.615602
976.142386	2670.838596
976.440243	2666.505724
976.738062	2663.271824
977.035845	2656.430978
977.333590	2649.214566
977.631299	2646.832621
977.928971	2640.180819
978.226606	2630.892493
978.524204	2629.349900
978.821765	2625.838736
979.119290	2627.504837
979.416777	2627.182203
979.714228	2630.698408
980.011642	2632.906434
980.309020	2635.631177
980.606360	2648.140801
980.903664	2666.309119
981.200931	2695.131916
981.498162	2729.429406
981.795356	2790.346709
982.092513	2860.489324
982.389633	2950.317644
982.686717	3032.450643
982.983764	3102.953701
983.280775	3151.827687
983.577749	3169.000378
983.874686	3162.819923
984.171587	3139.328146
984.468451	3106.225409
984.765279	3074.330029
985.062070	3032.793442
985.358824	2996.144253
985.655543	2946.327571
985.952224	2903.205541
986.248869	2847.460462
986.545478	2799.037659
986.842050	2749.354567
987.138586	2706.368648
987.435086	2673.545695
987.731549	2643.913793
988.027975	2622.337655
988.324366	2604.315530
988.620719	2591.548808
988.917037	2579.704617
989.213318	2573.753534
989.509563	2565.574262
989.805772	2562.720969
990.101944	2558.672923
990.398080	2558.967830
990.694180	2554.526574
990.990244	2555.590257
991.286271	2555.565051
991.582262	2555.365926
991.878217	2559.567728
992.174136	2557.087480
992.470019	2559.580330
992.765865	2566.229612
993.061676	2567.789849
993.357450	2574.723957
993.653188	2579.175295
993.948890	2596.685743
994.244556	2610.001951
994.540186	2628.351751
994.835780	2656.748571
995.131337	2688.953982
995.426859	2721.618138
995.722345	2760.311515
996.017795	2803.257104
996.313208	2841.471571
996.608586	2866.241281
996.903928	2881.894063
997.199234	2885.624517
997.494504	2883.587891
997.789738	2872.867877
998.084936	2855.417923
998.380099	2829.448419
998.675225	2805.003864
998.970316	2779.278856
999.265371	2747.547313
999.560390	2715.785523
999.855373	2691.900537
1000.150320	2662.999602
1000.445232	2637.748462
1000.740108	2621.279012
1001.034948	2606.563884
1001.329752	2592.214240
1001.624521	2580.478434
1001.919254	2566.617781
1002.213951	2564.245918
1002.508613	2553.369629
1002.803239	2547.531973
1003.097829	2542.415202
1003.392384	2541.664070
1003.686903	2534.180477
1003.981386	2531.722914
1004.275834	2529.461957
1004.570246	2527.458098
1004.864623	2525.872655
1005.158964	2524.816533
1005.453270	2522.737058
1005.747540	2521.259999
1006.041775	2516.861593
1006.335974	2522.517767
1006.630138	2514.409071
1006.924266	2517.683301
1007.218359	2516.654905
1007.512416	2511.790192
1007.806438	2510.078720
1008.100425	2515.618948
1008.394376	2509.723319
1008.688292	2514.386386
1008.982172	2512.805984
1009.276017	2515.646675
1009.569827	2512.624503
1009.863602	2513.690707
1010.157341	2508.631909
1010.451045	2510.272805
1010.744714	2510.492095
1011.038347	2514.383866
1011.331945	2509.035201
1011.625508	2508.339522
1011.919036	2510.194667
1012.212528	2507.147289
1012.505986	2505.357680
1012.799408	2506.252484
1013.092795	2506.300375
1013.386147	2506.275170
1013.679464	2504.309120
1013.972745	2503.414315
1014.265992	2504.462875
1014.559204	2505.047649
1014.852380	2506.794408
1015.145521	2506.076044
1015.438628	2504.152844
1015.731699	2503.789881
1016.024736	2505.637464
1016.317737	2505.481188
1016.610703	2508.077382
1016.903635	2511.263391
1017.196531	2508.863802
1017.489393	2514.038547
1017.782219	2511.959071
1018.075011	2513.221880
1018.367768	2512.279184
1018.660490	2515.603825
1018.953177	2515.603825
1019.245829	2515.603825
