Dividing Wavelength (nm)	Counts (n)	Blue Motor Position (mm): 42.000000	Red Motor Position (mm): 0.000000	
326.493990	2067.316698
326.888308	2067.316698
327.282561	2067.316698
327.676750	2037.954498
328.070874	2038.635054
328.464933	2048.067052
328.858929	2055.689277
329.252859	2067.772923
329.646726	2080.920252
330.040528	2094.846440
330.434265	2111.063832
330.827938	2134.772378
331.221547	2154.906747
331.615091	2174.879798
332.008571	2194.409228
332.401986	2214.843545
332.795338	2235.686196
333.188625	2256.352406
333.581847	2274.046856
333.975006	2292.144598
334.368100	2309.912145
334.761129	2326.018632
335.154095	2341.996569
335.546996	2392.473642
335.939833	2495.250166
336.332606	2509.861951
336.725315	2523.430216
337.117960	2533.404139
337.510540	2539.622402
337.903056	2554.710576
338.295508	2560.396997
338.687896	2566.660631
339.080220	2569.408060
339.472480	2576.531210
339.864676	2573.962742
340.256807	2583.450194
340.648875	2582.794844
341.040879	2584.344999
341.432818	2587.140318
341.824694	2587.475555
342.216506	2586.807602
342.608253	2584.677715
342.999937	2586.406831
343.391557	2587.455391
343.783113	2585.194433
344.174605	2580.357446
344.566033	2578.938361
344.957397	2579.931468
345.348697	2576.364852
345.739934	2576.899214
346.131106	2575.795202
346.522215	2573.292269
346.913260	2573.269584
347.304241	2570.900241
347.695159	2570.139027
348.086012	2570.567525
348.476802	2564.205589
348.867528	2561.942111
349.258191	2557.178221
349.648789	2556.921122
350.039324	2553.586398
350.429796	2561.911864
350.820203	2557.067315
351.210548	2557.727706
351.600828	2555.738971
351.991045	2556.472459
352.381198	2554.561862
352.771288	2556.737120
353.161314	2554.496327
353.551276	2555.784342
353.941175	2550.511295
354.331010	2554.274516
354.720782	2556.618652
355.110490	2557.515978
355.500135	2553.097407
355.889717	2554.781152
356.279235	2553.296532
356.668689	2554.876934
357.058080	2556.278375
357.447408	2553.409958
357.836672	2556.288457
358.225873	2556.716955
358.615010	2558.730896
359.004084	2559.908005
359.393095	2561.052347
359.782043	2560.717111
360.170927	2558.539332
360.559748	2561.561504
360.948505	2561.006977
361.337199	2564.782801
361.725830	2562.110990
362.114398	2560.288612
362.502903	2563.613253
362.891344	2564.949159
363.279722	2561.770712
363.668037	2564.613923
364.056289	2569.967628
364.444478	2567.865467
364.832603	2564.606361
365.220665	2567.893193
365.608665	2565.160888
365.996601	2568.238512
366.384474	2567.777247
366.772284	2568.241033
367.160031	2568.092319
367.547715	2568.296485
367.935336	2567.358831
368.322893	2564.198027
368.710388	2567.941084
369.097820	2567.293296
369.485189	2569.594582
369.872495	2574.645819
370.259738	2571.457289
370.646918	2572.251271
371.034035	2574.839903
371.421090	2572.500808
371.808081	2573.559450
372.195010	2572.412587
372.581875	2577.504153
372.968678	2573.196487
373.355418	2573.672876
373.742096	2574.968452
374.128710	2578.119174
374.515262	2576.924420
374.901751	2577.239492
375.288177	2577.980542
375.674540	2580.697724
376.060841	2578.509863
376.447079	2579.276118
376.833254	2580.967426
377.219367	2581.768969
377.605417	2579.881057
377.991404	2577.448700
378.377329	2579.472723
378.763191	2581.418609
379.148991	2583.480441
379.534727	2583.951789
379.920402	2581.070769
380.306013	2582.333578
380.691563	2584.052612
381.077049	2581.990780
381.462474	2583.369535
381.847835	2583.213260
382.233134	2586.903384
382.618371	2586.205184
383.003545	2588.445977
383.388657	2588.176276
383.773706	2591.256421
384.158693	2590.288519
384.543618	2588.531677
384.928480	2592.236925
385.313280	2589.648292
385.698017	2592.582244
386.082692	2595.785897
386.467305	2593.083839
386.851856	2597.865373
387.236344	2598.251022
387.620770	2600.063316
388.005133	2597.462081
388.389435	2603.912237
388.773674	2603.208996
389.157851	2611.010182
389.541965	2612.973711
389.926018	2622.304887
390.310008	2623.449229
390.693936	2632.820734
391.077802	2638.118987
391.461606	2644.362456
391.845348	2648.080307
392.229027	2657.534991
392.612645	2666.288954
392.996200	2679.960564
393.379694	2691.640917
393.763125	2705.930068
394.146494	2716.766028
394.529801	2732.834706
394.913047	2749.977149
395.296230	2761.468460
395.679351	2775.513114
396.062410	2795.977678
396.445408	2805.654173
396.828343	2828.954386
397.211217	2851.049763
397.594028	2861.769777
397.976778	2888.311452
398.359466	2915.616862
398.742092	2932.280396
399.124656	2953.445680
399.507158	2993.038903
399.889598	3011.355935
400.271977	3053.855383
400.654294	3069.606468
401.036549	3112.577263
401.418742	3134.599544
401.800874	3183.914631
402.182944	3218.491906
402.564952	3276.412243
402.946898	3298.671458
403.328783	3323.191630
403.710606	3373.920761
404.092367	3433.817230
404.474067	3493.726303
404.855705	3513.608613
405.237282	3528.938762
405.618797	3612.246350
406.000250	3682.893080
406.381642	3761.797220
406.762972	3791.436684
407.144240	3796.729896
407.525447	3869.778736
407.906593	3907.085795
408.287677	3994.670802
408.668700	4043.302813
409.049661	4100.446812
409.430560	4153.396572
409.811399	4168.227646
410.192176	4235.693408
410.572891	4327.880988
410.953545	4435.746557
411.334138	4379.053741
411.714669	4496.805013
412.095139	4454.240030
412.475547	4568.170107
412.855894	4600.105817
413.236180	4701.806054
413.616405	4670.497968
413.996568	4777.554432
414.376670	4799.438081
414.756711	4818.549095
415.136691	4903.462291
415.516609	4998.114995
415.896466	5043.790370
416.276262	5137.460049
416.655997	5258.261219
417.035670	5357.690417
417.415283	5501.242314
417.794834	5587.297330
418.174324	5559.505449
418.553753	5579.647379
418.933121	5746.622998
419.312428	5773.295743
419.691674	5715.468667
420.070859	5942.038285
420.449983	5830.580894
420.829045	6032.655546
421.208047	5965.830011
421.586988	6133.350074
421.965867	6208.496034
422.344686	6297.394261
422.723444	6463.520445
423.102141	6099.748263
423.480777	6485.777139
423.859352	6309.729965
424.237866	6670.774883
424.616319	6670.936199
424.994712	6830.105591
425.373044	6754.967193
425.751314	7065.280459
426.129524	6798.323637
426.507673	7062.336425
426.885762	7106.307890
427.263789	7149.576113
427.641756	7234.791778
428.019662	7321.673544
428.397508	7361.228957
428.775292	7339.025195
429.153016	7514.875765
429.530679	7448.135929
429.908282	7501.804053
430.285824	7441.292563
430.663305	7722.036941
431.040726	7609.818336
431.418086	7616.286136
431.795385	7749.664985
432.172624	7934.559384
432.549802	7816.298956
432.926920	7955.664175
433.303977	7904.073006
433.680974	7941.238913
434.057910	8143.298442
434.434786	8192.588323
434.811601	8149.781365
435.188355	8487.006831
435.565050	8379.027837
435.941683	8391.970999
436.318257	8720.684477
436.694770	8668.611878
437.071222	8899.136282
437.447614	8673.824431
437.823946	8638.201117
438.200218	8787.260475
438.576429	8671.150099
438.952580	8834.168412
439.328670	8845.916821
439.704700	8919.505064
440.080670	8809.257550
440.456580	9079.067665
440.832429	9054.320641
441.208218	8796.518554
441.583947	8908.422087
441.959616	9032.119400
442.335224	9062.993946
442.710773	9144.874888
443.086261	9321.078338
443.461689	9037.168115
443.837057	9213.578253
444.212365	9420.517618
444.587612	9409.787522
444.962800	9308.596441
445.337927	9430.274772
445.712995	8972.227971
446.088002	9638.255135
446.462949	9698.980874
446.837837	9681.427577
447.212664	9709.597544
447.587431	10535.217557
447.962139	11542.349354
448.336786	12458.145527
448.711374	12225.758417
449.085901	11031.688032
449.460369	10943.462798
449.834776	10734.595191
450.209124	11645.352730
450.583412	11472.668005
450.957640	11781.587393
451.331808	11367.348219
451.705917	10805.491458
452.079965	10683.845896
452.453954	10884.110773
452.827883	10828.647999
453.201752	10799.046343
453.575562	10801.859307
453.949311	11137.821964
454.323001	11205.791841
454.696632	11128.042126
455.070202	11711.170035
455.443713	11769.697831
455.817164	11942.836260
456.190556	12246.197775
456.563888	12108.639810
456.937160	12372.352650
457.310373	11854.094308
457.683526	11866.535876
458.056619	11873.495189
458.429653	11945.245932
458.802628	12085.198445
459.175542	12138.337247
459.548398	12683.543077
459.921194	13255.361158
460.293930	13541.532338
460.666607	14406.818669
461.039224	15194.277147
461.411782	15536.321956
461.784280	15185.558472
462.156719	15120.300735
462.529099	15021.610066
462.901419	14386.298653
463.273680	13984.768228
463.645882	14204.794429
464.018024	14097.604375
464.390106	14465.696826
464.762130	15533.020000
465.134094	17076.490238
465.505999	19385.865500
465.877845	21632.879169
466.249631	22830.624555
466.621358	22341.408301
466.993026	21502.630877
467.364634	20757.555900
467.736184	19957.912953
468.107674	19352.631693
468.479105	19221.889368
468.850477	18933.316078
469.221790	18510.020472
469.593043	17833.666505
469.964238	17468.659240
470.335373	17506.740116
470.706449	18235.960664
471.077467	19107.127501
471.448425	21572.849109
471.819324	23430.640330
472.190164	23319.941633
472.560945	21576.851785
472.931667	20011.447487
473.302330	19690.406645
473.672934	19143.103696
474.043479	19554.280368
474.413965	19348.442495
474.784393	19171.865999
475.154761	19831.647173
475.525070	19955.946903
475.895321	19799.406474
476.265513	20327.815179
476.635645	20911.341339
477.005719	20959.431426
477.375734	21330.828354
477.745691	21963.218418
478.115588	22593.216456
478.485427	23778.285861
478.855207	25590.227788
479.224928	27401.965548
479.594591	28804.412027
479.964194	28431.979143
480.333739	28854.125366
480.703226	29075.706763
481.072653	29517.407622
481.442022	30025.752534
481.811333	30427.739183
482.180584	29988.175773
482.549777	29764.537586
482.918912	29523.373827
483.287988	29460.687079
483.657005	29316.820110
484.025964	28941.690208
484.394864	29135.230187
484.763706	29055.451407
485.132489	28525.535397
485.501213	28593.359080
485.869879	28763.245965
486.238487	28682.544654
486.607036	28952.856364
486.975527	28631.172775
487.343959	28986.627054
487.712333	29333.622276
488.080648	29282.401632
488.448905	29722.562418
488.817104	29593.589538
489.185244	30400.025440
489.553326	31364.080578
489.921350	33258.664660
490.289315	35766.910921
490.657222	36678.475045
491.025070	37212.232414
491.392861	36943.186033
491.760593	36150.686402
492.128267	35133.873068
492.495883	34129.589522
492.863440	33232.712800
493.230939	32270.469957
493.598380	31703.365355
493.965763	31558.752295
494.333088	31060.582952
494.700354	30859.798835
495.067563	30823.515130
495.434713	30699.659022
495.801805	30978.205457
496.168839	30821.239049
496.535815	30662.488074
496.902733	30781.587854
497.269593	30607.834404
497.636395	30751.535015
498.003139	31013.642248
498.369825	30766.270308
498.736453	31166.943736
499.103023	30997.099701
499.469535	31086.565059
499.835989	31202.851875
500.202385	31068.830279
500.568723	31105.560126
500.935003	31391.811965
501.301226	31248.502044
501.667390	31982.983036
502.033497	32178.426050
502.399546	31982.400782
502.765537	31574.142938
503.131470	32041.946892
503.497345	32453.620117
503.863163	31412.412640
504.228923	32181.886802
504.594625	32559.363361
504.960269	32042.302293
505.325856	32687.035623
505.691385	32347.758407
506.056856	32679.370548
506.422270	33164.069929
506.787625	32669.719259
507.152924	33124.491830
507.518164	33299.598830
507.883347	32876.449417
508.248472	33007.383306
508.613540	33667.290509
508.978550	33879.747417
509.343503	33716.608117
509.708398	34085.897842
510.073236	34667.689846
510.438016	34758.354998
510.802738	34430.407775
511.167403	34965.387624
511.532010	35207.486517
511.896561	35710.016459
512.261053	36445.422503
512.625488	36233.600780
512.989866	36150.852760
513.354186	36207.492644
513.718449	36158.742166
514.082655	37006.346650
514.446803	36706.899591
514.810894	37307.762279
515.174927	37332.932761
515.538904	37316.775863
515.902822	37944.651574
516.266684	37621.770711
516.630488	37956.243707
516.994235	37989.411979
517.357925	38545.645333
517.721558	38800.863828
518.085133	39144.826797
518.448651	39357.757573
518.812112	39242.269780
519.175516	39391.175382
519.538863	39821.737812
519.902152	39897.821426
520.265385	40420.644533
520.628560	40443.314601
520.991678	40379.614581
521.354739	40591.161561
521.717743	40948.841509
522.080690	40861.637109
522.443580	41543.599360
522.806413	41534.106868
523.169189	41671.029647
523.531908	41906.449011
523.894569	41757.772782
524.257174	41948.056175
524.619722	42277.271247
524.982213	42423.391612
525.344647	42462.705050
525.707025	42597.356790
526.069345	43016.183413
526.431608	42946.413844
526.793815	43299.823934
527.155964	42858.838919
527.518057	43116.381387
527.880093	42960.244250
528.242072	43583.814816
528.603995	43316.127026
528.965860	43252.646296
529.327669	43472.289369
529.689421	43519.474569
530.051117	43480.675329
530.412755	43756.290333
530.774337	43800.566787
531.135862	43751.458387
531.497331	43895.017846
531.858743	43888.139191
532.220098	44289.445284
532.581396	44009.696534
532.942638	43789.372905
533.303824	44029.586406
533.664953	44089.112351
534.026025	43763.973051
534.387040	44326.306201
534.747999	44396.411007
535.108902	44726.916615
535.469748	44043.290783
535.830537	44323.450388
536.191270	44562.133899
536.551947	44310.794571
536.912567	44576.382720
537.273131	44715.629472
537.633638	44330.094628
537.994089	44501.488818
538.354483	44274.697389
538.714821	44914.510552
539.075103	45187.201687
539.435328	45070.032669
539.795497	44835.122462
540.155609	44961.506709
540.515665	45537.365275
540.875665	44830.774467
541.235609	45100.876969
541.595496	45247.448517
541.955328	45821.792216
542.315102	45241.338639
542.674821	45143.598227
543.034483	45057.996914
543.394090	45073.163226
543.753640	45053.527932
544.113134	46101.566172
544.472571	45224.604528
544.831953	46326.507498
545.191278	45591.870230
545.550548	45304.595037
545.909761	45921.491116
546.268918	46051.376444
546.628019	46464.647716
546.987064	45905.256080
547.346053	45219.495319
547.704986	46132.818805
548.063863	45761.847856
548.422684	45983.603172
548.781449	45539.180090
549.140158	46079.067502
549.498811	45837.603795
549.857408	45242.654380
550.215949	46086.314161
550.574434	45905.550987
550.932864	45858.675818
551.291237	46568.417348
551.649555	46307.086453
552.007817	46484.545150
552.366022	46194.295677
552.724173	46263.609021
553.082267	46639.726989
553.440305	47022.887449
553.798288	46267.543642
554.156215	46653.953125
554.514086	46841.073194
554.871902	46439.182327
555.229661	46619.028012
555.587365	46317.299830
555.945014	46431.539938
556.302606	46461.078579
556.660143	46550.364976
557.017625	46790.644012
557.375050	46463.193343
557.732421	46848.944956
558.089735	46925.542768
558.446994	46802.447874
558.804197	47263.310158
559.161345	47122.621637
559.518437	46489.735018
559.875474	46748.288237
560.232455	46944.275696
560.589381	46995.982811
560.946251	46816.994123
561.303065	47470.012589
561.659825	47136.348699
562.016528	46957.879250
562.373177	46540.386012
562.729770	47189.769806
563.086307	46693.884105
563.442789	47228.420333
563.799216	47077.712518
564.155587	46994.961977
564.511904	46940.489789
564.868164	46987.886718
565.224370	47309.013259
565.580520	47019.635905
565.936615	47228.309427
566.292654	46874.110396
566.648638	47253.248015
567.004567	47195.337760
567.360441	47281.944783
567.716260	46967.424674
568.072023	47375.216212
568.427732	47288.528530
568.783385	46831.668922
569.138982	47234.144563
569.494525	47378.840802
569.850013	46995.672780
570.205445	47122.944271
570.560823	46888.447438
570.916145	46757.957170
571.271412	46989.671286
571.626625	46634.481669
571.981782	46732.317862
572.336884	46327.987077
572.691931	46658.134763
573.046923	46302.995556
573.401860	46140.995557
573.756743	46165.389700
574.111570	46305.027141
574.466342	46238.304950
574.821059	46377.660086
575.175722	45868.148146
575.530330	45943.382326
575.884882	45606.960924
576.239380	45500.663154
576.593823	45605.304905
576.948211	45543.765020
577.302544	45088.054794
577.656823	45075.517445
578.011047	45350.827459
578.365216	45201.057299
578.719330	44912.194142
579.073389	44872.737031
579.427394	44944.727229
579.781344	44857.598446
580.135239	44606.652328
580.489080	44673.787895
580.842866	44174.469168
581.196597	44659.869269
581.550273	44654.966747
581.903895	44592.358137
582.257463	45020.367222
582.610975	44446.313389
582.964434	44780.299914
583.317837	44279.529335
583.671186	44247.762504
584.024481	44526.308939
584.377721	44090.937249
584.730906	44304.891380
585.084037	44459.185975
585.437113	44164.507848
585.790135	44272.000371
586.143103	43871.079927
586.496016	44031.081108
586.848874	44119.838184
587.201679	44153.003935
587.554428	43675.578939
587.907124	43926.504893
588.259765	43700.978793
588.612352	43848.941699
588.964884	43327.852750
589.317362	43611.392448
589.669786	43613.398827
590.022155	43500.469419
590.374470	43975.179753
590.726731	43563.980396
591.078937	42903.889191
591.431090	43245.906273
591.783188	42756.553908
592.135232	42565.095926
592.487222	42837.655991
592.839157	42985.636542
593.191038	42631.243426
593.542866	42459.685399
593.894639	41816.663541
594.246358	42121.565128
594.598022	42126.911272
594.949633	41705.972405
595.301190	41707.386449
595.652692	41658.159582
596.004141	42164.528362
596.355535	41055.345966
596.706876	41075.316497
597.058162	40783.373196
597.409395	41291.380351
597.760573	41510.471418
598.111698	41122.408436
598.462768	41039.544470
598.813785	41056.502911
599.164748	40665.667295
599.515657	40959.490947
599.866511	40462.022323
600.217312	41141.947948
600.568060	40090.857289
600.918753	40900.068346
601.269392	40826.636378
601.619978	40555.634030
601.970510	40766.472727
602.320988	40902.110013
602.671412	41159.319764
603.021783	41019.533609
603.372100	40603.373757
603.722363	40702.324045
604.072572	40737.455846
604.422728	40746.108987
604.772830	40507.869097
605.122878	40717.790305
605.472872	40559.603938
605.822813	40819.908958
606.172701	40558.583105
606.522534	40877.171425
606.872314	41079.724986
607.222041	40915.930336
607.571714	41255.691503
607.921333	40763.221183
608.270899	40942.706425
608.620411	41318.668117
608.969870	41078.051323
609.319276	41090.805442
609.668627	41139.772690
610.017926	41530.888091
610.367171	41675.251614
610.716362	41708.742519
611.065500	41625.238326
611.414585	41865.850079
611.763616	42011.796524
612.112594	41912.344641
612.461518	42030.098433
612.810389	42414.141095
613.159207	42204.512274
613.507971	42175.646627
613.856682	42672.336392
614.205340	42527.556974
614.553945	43214.152045
614.902496	42554.401118
615.250994	42983.156294
615.599439	43044.169379
615.947830	43135.729336
616.296169	43154.724403
616.644454	43202.426322
616.992686	43356.988098
617.340864	43779.386379
617.688990	43281.723672
618.037063	43964.376561
618.385082	43788.858707
618.733048	44131.878980
619.080961	44020.603070
619.428821	44059.770315
619.776628	44105.082726
620.124382	43918.418882
620.472083	44047.868151
620.819731	44151.869675
621.167326	43728.178338
621.514868	43723.553080
621.862357	43177.162579
622.209793	43269.818987
622.557176	42849.764843
622.904506	42605.488171
623.251783	42245.262441
623.599007	41916.647266
623.946179	41855.240971
624.293297	41594.394027
624.640363	41057.422922
624.987376	40919.572570
625.334336	40708.779242
625.681243	40310.583541
626.028097	40213.536288
626.374899	40032.750429
626.721647	40009.397284
627.068343	39782.961256
627.414987	39498.219243
627.761577	39240.754913
628.108115	39570.743803
628.454600	38816.052825
628.801032	39061.357892
629.147412	38962.389959
629.493739	38834.216102
629.840014	38401.506141
630.186236	38815.397475
630.532405	38255.448791
630.878521	38516.570478
631.224585	38277.168602
631.570597	37955.273285
631.916556	38106.313816
632.262462	38022.232411
632.608316	37960.942063
632.954117	37835.276180
633.299866	37782.175186
633.645562	37708.846562
633.991206	37200.226906
634.336797	36782.922711
634.682336	36687.097938
635.027823	36459.008412
635.373257	36331.129463
635.718639	35999.262743
636.063968	35907.496099
636.409245	35258.855875
636.754470	35204.361002
637.099642	34976.145447
637.444762	34387.177360
637.789829	34545.164601
638.134845	34146.404291
638.479808	34064.790531
638.824719	34016.103067
639.169577	33500.740868
639.514383	33635.296826
639.859137	33249.131838
640.203839	33398.947369
640.548489	33121.288177
640.893086	33093.715586
641.237632	32818.670232
641.582125	32908.001999
641.926566	32670.104908
642.270955	32723.185737
642.615292	32659.359688
642.959576	32531.936963
643.303809	32532.985523
643.647990	32629.170738
643.992118	32600.965483
644.336195	32437.775771
644.680219	32489.997084
645.024192	32687.055787
645.368112	33214.988103
645.711981	33222.567478
646.055797	33918.425670
646.399562	33715.809094
646.743274	34581.279427
647.086935	34974.751567
647.430544	34969.375177
647.774101	34986.396633
648.117606	35303.278522
648.461059	35439.913956
648.804460	35077.770067
649.147810	34573.291719
649.491108	34261.861837
649.834354	34150.157430
650.177548	33338.498893
650.520690	32822.453618
650.863781	32813.568584
651.206820	32630.514206
651.549807	32207.911758
651.892742	31620.443416
652.235626	31536.331764
652.578458	31396.318757
652.921238	30687.164522
653.263967	30979.780817
653.606644	30672.242706
653.949269	30569.811501
654.291843	30188.007112
654.634365	30551.537319
654.976836	30096.119480
655.319255	30172.253506
655.661622	30045.206347
656.003938	29925.683110
656.346203	29732.395189
656.688416	29972.036519
657.030577	29773.709965
657.372687	29582.851881
657.714746	29737.461549
658.056753	29906.209132
658.398708	29290.805236
658.740612	29360.894918
659.082465	29556.773992
659.424266	29461.874271
659.766016	29455.890421
660.107715	29293.577870
660.449362	29389.644618
660.790958	29362.450114
661.132503	29294.558375
661.473996	29381.009122
661.815438	29460.034250
662.156829	29580.260728
662.498168	29370.074859
662.839456	29343.649131
663.180693	29468.415168
663.521879	29540.107937
663.863013	29490.213117
664.204097	29475.724841
664.545129	29868.284532
664.886110	29801.630396
665.227040	29916.677088
665.567918	29914.970658
665.908746	29969.213473
666.249522	30067.092516
666.590248	30104.679359
666.930922	30193.252433
667.271545	30207.798682
667.612118	30265.724060
667.952639	30074.949155
668.293109	30109.145822
668.633528	29951.554311
668.973896	29923.497770
669.314213	29902.024975
669.654480	29697.306238
669.994695	29695.274653
670.334859	29616.904875
670.674973	29410.946014
671.015035	29607.039337
671.355047	29541.370746
671.695008	29454.983013
672.034918	29365.303407
672.374777	29461.667583
672.714585	29341.917494
673.054342	29467.117071
673.394049	29329.095320
673.733705	29546.487518
674.073310	29263.585525
674.412864	29326.882253
674.752368	29051.789008
675.091820	29288.650142
675.431223	28891.550892
675.770574	28696.508650
676.109875	28532.784576
676.449125	28323.531321
676.788324	28222.158758
677.127473	27746.326767
677.466571	27647.951170
677.805619	27368.078912
678.144616	27291.755842
678.483562	27239.184170
678.822458	26921.473010
679.161303	26875.406946
679.500098	26785.639120
679.838842	26700.393208
680.177535	26754.005879
680.516179	26978.014592
680.854771	27051.375983
681.193314	27746.888856
681.531805	28665.629062
681.870247	29441.956672
682.208638	30238.116181
682.546978	30606.901791
682.885268	30772.218869
683.223508	30369.095440
683.561697	30108.760173
683.899836	29952.255032
684.237925	29538.068791
684.575963	29381.626663
684.913951	28971.067532
685.251889	29123.242323
685.589776	29128.099475
685.927614	29116.988772
686.265401	29291.735328
686.603137	29381.603978
686.940824	29852.288951
687.278460	30171.870378
687.616046	30353.477946
687.953582	31034.376513
688.291068	30971.848562
688.628504	31325.818220
688.965889	31360.823992
689.303224	31104.332605
689.640510	30840.115650
689.977745	30242.335627
690.314930	29526.751400
690.652065	29101.008314
690.989150	28424.666949
691.326185	27594.106606
691.663170	26984.608421
692.000105	26278.105833
692.336990	25679.983011
692.673825	25247.641055
693.010610	24739.122222
693.347345	24256.958542
693.684030	23627.935968
694.020665	23440.563841
694.357251	22759.088061
694.693786	22778.408283
695.030272	22530.529708
695.366707	22027.490609
695.703093	21750.600193
696.039429	21815.424391
696.375716	21576.488822
696.711952	21562.600443
697.048139	21440.014705
697.384276	21268.595309
697.720363	21392.123743
698.056400	21274.238881
698.392388	21116.602000
698.728326	21111.240733
699.064214	20959.391097
699.400053	20980.327009
699.735842	20600.254256
700.071581	20415.480844
700.407270	20180.636172
700.742910	20013.413537
701.078501	19752.508619
701.414042	19543.250323
701.749533	19251.826261
702.084974	18940.761863
702.420366	19163.109515
702.755709	18755.718749
703.091002	18456.609447
703.426246	18522.451957
703.761440	18447.835319
704.096584	18217.177325
704.431679	18142.976581
704.766725	18106.781097
705.101721	18019.382612
705.436668	18118.690822
705.771565	17845.737548
706.106413	18156.350762
706.441212	18225.598572
706.775961	18317.226584
707.110661	18390.290548
707.445311	18747.284898
707.779913	18633.891704
708.114465	18917.131454
708.448967	19223.779801
708.783421	19825.318004
709.117825	20158.011473
709.452180	20388.493027
709.786485	20812.345681
710.120742	21549.775747
710.454949	21650.041777
710.789107	22164.332731
711.123216	22860.231252
711.457275	23092.434359
711.791286	23642.056240
712.125247	23814.138547
712.459159	23603.231793
712.793023	24356.130641
713.126837	23375.716959
713.460602	23648.571931
713.794318	23336.726154
714.127985	23058.938413
714.461602	22181.974248
714.795171	22165.673678
715.128691	21193.061181
715.462162	20680.703510
715.795584	20256.591237
716.128957	19980.396500
716.462281	19610.345560
716.795556	19326.573969
717.128782	18853.819603
717.461960	18262.525024
717.795088	18228.474550
718.128167	17894.019198
718.461198	17447.728369
718.794180	17320.973597
719.127113	16995.312538
719.459997	16805.931511
719.792833	16430.468893
720.125619	16476.870194
720.458357	16149.913558
720.791046	16006.470046
721.123686	15858.373549
721.456278	15631.516585
721.788821	15613.229799
722.121315	15354.716909
722.453761	15451.025633
722.786158	15337.897100
723.118506	15419.853658
723.450805	15304.196986
723.783056	15485.421426
724.115259	15365.688981
724.447412	15342.807183
724.779518	15554.805347
725.111574	15603.712101
725.443582	15858.013107
725.775542	15805.494366
726.107453	16313.090667
726.439315	16214.931840
726.771129	16614.738190
727.102895	17020.241043
727.434612	17299.606666
727.766281	17467.988766
728.097901	17797.473541
728.429473	17900.439108
728.760996	17922.284948
729.092471	18035.504222
729.423897	17921.659845
729.755276	17770.427750
730.086606	17858.887397
730.417887	18403.684893
730.749120	18943.244631
731.080305	19171.911369
731.411442	19584.885213
731.742530	19682.479431
732.073570	19825.897737
732.404562	20144.813732
732.735506	20051.552386
733.066401	19920.918446
733.397249	19500.738273
733.728048	18899.542868
734.058798	18057.193787
734.389501	17305.850135
734.720156	16779.571318
735.050762	16204.864656
735.381320	15794.199661
735.711831	15507.630229
736.042293	15128.807682
736.372707	15147.127235
736.703073	14933.951962
737.033391	15124.300891
737.363661	15102.132417
737.693883	15217.524428
738.024056	15400.798097
738.354182	15596.578868
738.684260	15950.954339
739.014290	16225.724950
739.344272	16449.917665
739.674207	16780.345135
740.004093	16970.757077
740.333931	17035.581275
740.663722	17131.602653
740.993464	17186.034511
741.323159	17053.563070
741.652806	16769.604957
741.982405	16610.576717
742.311956	16260.234169
742.641460	16160.638613
742.970915	15834.649879
743.300323	15496.690925
743.629683	15283.634120
743.958996	14970.291120
744.288260	14667.690819
744.617477	14354.521739
744.946647	14320.619980
745.275768	14006.982073
745.604842	13811.007217
745.933869	13623.972848
746.262847	13587.222836
746.591778	13493.795132
746.920662	13372.880536
747.249498	13373.737532
747.578286	13506.529086
747.907027	13673.429087
748.235720	13931.107666
748.564365	14024.550494
748.892963	13953.336634
749.221514	14060.866966
749.550017	13945.154841
749.878473	13919.891099
750.206881	13709.309500
750.535242	13640.056649
750.863555	13560.386253
751.191821	13451.172176
751.520039	13467.974342
751.848210	13385.732958
752.176334	13426.193259
752.504411	13363.428373
752.832440	13187.847505
753.160421	13305.238334
753.488356	13192.505531
753.816243	13106.200977
754.144082	12928.858226
754.471875	12876.364691
754.799620	12847.113396
755.127318	12817.032831
755.454969	12809.254330
755.782572	12762.424532
756.110129	12787.126186
756.437638	12697.542361
756.765100	12697.050849
757.092515	12720.467008
757.419882	12749.514137
757.747203	12760.897062
758.074477	12846.039630
758.401703	12823.742607
758.728882	13004.868744
759.056014	13043.821739
759.383099	13214.497565
759.710138	13337.302593
760.037129	13472.629847
760.364073	13544.781362
760.690970	13564.517479
761.017820	13565.276173
761.344623	13761.258590
761.671379	14077.230552
761.998088	14620.855979
762.324751	16022.115267
762.651366	18949.079766
762.977935	23266.495319
763.304456	26550.444087
763.630931	28164.503082
763.957359	27376.752217
764.283740	25320.959596
764.610074	23179.232946
764.936362	20558.455529
765.262602	18660.614861
765.588796	16683.751586
765.914943	15350.303379
766.241044	14210.647209
766.567097	13385.206157
766.893104	12641.963640
767.219064	12171.177844
767.544978	11684.111642
767.870845	11293.369287
768.196665	11064.616848
768.522438	10832.315438
768.848165	10627.793306
769.173846	10424.029867
769.499479	10291.122367
769.825066	10123.677921
770.150607	9903.316484
770.476101	9816.154934
770.801548	9701.219147
771.126949	9541.827944
771.452303	9437.289537
771.777611	9233.389988
772.102872	9227.731292
772.428087	9085.709386
772.753256	8938.232950
773.078378	8848.480247
773.403453	8674.696551
773.728482	8555.344713
774.053465	8472.213565
774.378401	8377.928865
774.703291	8255.537211
775.028135	8145.531673
775.352932	8114.526056
775.677683	8005.102771
776.002388	7895.250987
776.327046	7904.370434
776.651658	7806.267060
776.976224	7710.157462
777.300743	7705.501956
777.625216	7619.769573
777.949643	7578.885816
778.274024	7593.230419
778.598359	7508.700351
778.922647	7524.300202
779.246889	7466.349618
779.571086	7481.284036
779.895236	7485.924418
780.219339	7490.025397
780.543397	7496.289031
780.867409	7576.745846
781.191374	7590.752692
781.515294	7561.917292
781.839167	7643.382338
782.162995	7622.184286
782.486776	7567.086995
782.810511	7522.550922
783.134201	7443.256092
783.457844	7437.118487
783.781441	7384.123357
784.104993	7316.158521
784.428498	7299.893238
784.751958	7277.329034
785.075372	7248.675115
785.398739	7192.093205
785.722061	7231.789771
786.045337	7230.859678
786.368568	7368.372272
786.691752	7374.479630
787.014891	7666.241450
787.337983	7975.435580
787.661030	8531.449644
787.984031	9139.894228
788.306987	9582.073996
788.629897	9841.832051
788.952760	9840.511269
789.275579	9664.819495
789.598351	9294.513978
789.921078	8955.272050
790.243759	8547.692241
790.566395	8257.105010
790.888984	8004.563367
791.211529	7794.652242
791.534027	7566.202273
791.856480	7364.578804
792.178888	7279.791638
792.501249	7185.484252
792.823566	7026.826537
793.145836	7022.382760
793.468062	6986.192317
793.790241	6931.994872
794.112375	6989.395970
794.434464	7133.210007
794.756507	7163.398957
795.078505	7301.675286
795.400457	7583.354799
795.722364	7918.140346
796.044226	8205.584418
796.366042	8491.173345
796.687812	8470.771795
797.009538	8572.424142
797.331218	8476.783371
797.652852	8405.186384
797.974442	8256.353878
798.295986	8170.422370
798.617484	7987.483938
798.938938	7851.082918
799.260346	7746.763801
799.581709	7551.230046
799.903026	7474.428067
800.224299	7369.009978
800.545526	7196.095881
800.866708	7101.879236
801.187845	7030.178905
801.508936	6929.476816
801.829983	6897.135293
802.150984	6742.664257
802.471940	6697.157761
802.792851	6688.613005
803.113717	6651.666389
803.434538	6619.687829
803.755314	6563.844448
804.076045	6565.679428
804.396731	6502.077710
804.717372	6531.172730
805.037967	6525.632502
805.358518	6567.705972
805.679024	6646.158928
805.999485	6649.027345
806.319901	6697.666918
806.640272	6716.084773
806.960598	6802.119625
807.280879	6807.105327
807.601115	6884.149281
807.921306	6829.364541
808.241453	6843.341140
808.561554	6865.570108
808.881611	6828.522669
809.201623	6843.091603
809.521590	6787.870804
809.841513	6769.125273
810.161390	6805.592980
810.481223	6676.899884
810.801011	6664.914541
811.120755	6640.096941
811.440453	6566.067597
811.760107	6535.956785
812.079716	6502.130642
812.399281	6436.441887
812.718801	6430.755466
813.038276	6386.307612
813.357707	6323.073899
813.677093	6362.273911
813.996434	6265.017451
814.315731	6304.845087
814.634983	6293.343694
814.954191	6303.567154
815.273354	6400.173306
815.592473	6453.773374
815.911547	6571.617907
816.230577	6647.872921
816.549562	6790.852647
816.868502	6888.724128
817.187399	6980.165617
817.506250	7120.009746
817.825058	7147.887327
818.143821	7388.693163
818.462539	7632.828683
818.781213	7952.964637
819.099843	8429.570445
819.418429	9336.652983
819.736970	10240.753678
820.055466	11331.563589
820.373919	12701.880274
820.692327	14699.997054
821.010691	18005.353081
821.329011	25430.327429
821.647286	37064.864364
821.965517	51042.252343
822.283704	58512.294606
822.601847	61669.302078
822.919945	59513.949190
823.237999	55666.701891
823.556010	49723.620087
823.873976	43056.936101
824.191897	36576.474858
824.509775	31718.314897
824.827609	27066.365854
825.145398	24257.475260
825.463144	22592.417433
825.780845	22487.105208
826.098502	23721.895514
826.416116	27009.524324
826.733685	30733.381820
827.051210	32561.586509
827.368692	31642.667342
827.686129	28138.173135
828.003522	24135.716271
828.320872	20386.100999
828.638177	17492.067838
828.955439	15287.883812
829.272656	13454.809368
829.589830	11970.086217
829.906960	10674.418938
830.224046	9702.353406
830.541088	8923.701824
830.858086	8437.313657
831.175041	8031.946915
831.491952	7875.227524
831.808819	7853.447219
832.125642	8147.812795
832.442421	8853.866720
832.759157	10331.438995
833.075849	12886.497410
833.392497	16041.276693
833.709101	18511.880658
834.025662	18886.856804
834.342179	17543.845529
834.658653	15483.967053
834.975083	13554.034400
835.291469	11904.233624
835.607811	10573.129554
835.924110	9661.177262
836.240366	8797.068040
836.556578	7992.948549
836.872746	7336.171902
837.188871	6816.202089
837.504952	6392.505711
837.820990	6070.368418
838.136984	5836.698335
838.452935	5723.791612
838.768842	5704.655392
839.084706	5973.933666
839.400526	6939.596932
839.716303	8441.540665
840.032037	9678.622175
840.347727	9913.892825
840.663373	9121.685580
840.978977	8077.632372
841.294537	7247.714776
841.610054	6629.626464
841.925527	6194.436256
842.240957	5834.598694
842.556344	5504.448487
842.871687	5226.363318
843.186987	4948.094146
843.502244	4713.824165
843.817458	4545.250501
844.132629	4406.260848
844.447756	4311.877846
844.762840	4230.591760
845.077881	4155.586953
845.392879	4093.583281
845.707833	4042.392884
846.022745	3998.920494
846.337613	3972.887976
846.652438	3930.217129
846.967221	3914.576949
847.281960	3880.846589
847.596656	3861.057539
847.911309	3839.070547
848.225919	3818.984069
848.540485	3804.054692
848.855009	3793.616983
849.169490	3771.645114
849.483928	3755.641971
849.798323	3749.574943
850.112675	3730.940317
850.426984	3739.603540
850.741251	3723.116447
851.055474	3720.311045
851.369654	3717.447669
851.683792	3715.753842
851.997887	3720.656364
852.311938	3722.607290
852.625947	3728.762539
852.939914	3717.989593
853.253837	3726.899833
853.567718	3729.304463
853.881555	3717.871126
854.195350	3732.535843
854.509103	3725.160635
854.822812	3724.969071
855.136479	3718.261816
855.450103	3725.395048
855.763685	3714.465827
856.077224	3717.092268
856.390720	3731.141964
856.704173	3747.082092
857.017584	3758.253289
857.330953	3772.983541
857.644278	3793.067497
857.957561	3796.717293
858.270802	3799.825164
858.584000	3802.842295
858.897155	3795.814926
859.210268	3784.033750
859.523339	3761.252776
859.836367	3758.190275
860.149352	3754.427053
860.462295	3745.221906
860.775195	3733.465936
861.088054	3728.558372
861.400869	3725.337075
861.713642	3723.371025
862.026373	3734.655648
862.339062	3737.282089
862.651708	3757.169441
862.964312	3786.501395
863.276873	3794.859628
863.589392	3849.823328
863.901869	3891.695152
864.214303	3936.586627
864.526696	3967.831698
864.839045	4013.902803
865.151353	4042.413049
865.463619	4053.133063
865.775842	4055.517528
866.088023	4079.616764
866.400162	4066.426585
866.712258	4078.447217
867.024313	4076.559305
867.336325	4076.634922
867.648296	4081.955860
867.960224	4085.429215
868.272110	4089.336109
868.583954	4093.031275
868.895755	4103.441258
869.207515	4101.112244
869.519233	4136.859066
869.830909	4146.543123
870.142542	4172.263090
870.454134	4184.014019
870.765684	4214.278587
871.077191	4250.257302
871.388657	4276.047845
871.700081	4307.151764
872.011463	4341.681147
872.322803	4378.751272
872.634101	4411.513731
872.945357	4447.542857
873.256571	4497.359540
873.567744	4527.573695
873.878874	4546.296541
874.189963	4588.438066
874.501010	4599.881485
874.812015	4593.617852
875.122979	4634.133605
875.433900	4635.063698
875.744780	4645.816479
876.055618	4670.190458
876.366415	4671.249100
876.677169	4682.576573
876.987882	4728.289756
877.298554	4773.831540
877.609183	4838.824616
877.919771	4937.056540
878.230317	5065.540428
878.540822	5248.894755
878.851285	5524.638309
879.161707	5914.180869
879.472087	6551.075205
879.782425	7569.819301
880.092722	9394.800172
880.402977	12234.570354
880.713191	15753.603249
881.023363	19476.734819
881.333494	21947.663938
881.643583	23419.486777
881.953631	23634.882678
882.263637	22994.961129
882.573602	21696.629600
882.883526	20253.574106
883.193408	18681.150001
883.503248	17072.064105
883.813048	15572.920733
884.122806	14212.222569
884.432522	12778.173096
884.742197	11541.658716
885.051831	10465.750457
885.361424	9467.763312
885.670975	8644.288311
885.980485	7952.689894
886.289954	7377.406020
886.599382	6902.776344
886.908768	6525.682913
887.218113	6165.857954
887.527417	5873.332400
887.836680	5608.147543
888.145901	5392.718874
888.455082	5230.794492
888.764221	5076.943518
889.073319	4942.334628
889.382376	4866.177917
889.691392	4803.402948
890.000366	4772.329276
890.309300	4754.516359
890.618193	4753.911421
890.927044	4741.210233
891.235855	4755.408643
891.544625	4783.190442
891.853353	4825.873892
892.162041	4919.470475
892.470687	5083.759158
892.779293	5297.138597
893.087858	5611.714159
893.396381	6106.153049
893.704864	6790.295599
894.013306	7818.958165
894.321707	8949.288201
894.630068	9835.951545
894.938387	10184.438949
895.246665	10073.699922
895.554903	9549.611486
895.863100	8901.082167
896.171256	8366.818162
896.479371	7882.859831
896.787446	7392.773978
897.095480	6975.011038
897.403473	6657.284755
897.711425	6350.154977
898.019336	6093.046049
898.327207	5823.772816
898.635038	5604.848107
898.942827	5363.205439
899.250576	5165.594729
899.558284	4968.694821
899.865952	4851.054455
900.173579	4707.593299
900.481165	4597.479376
900.788711	4509.216333
901.096216	4429.797996
901.403681	4363.252244
901.711105	4334.888192
902.018489	4317.171057
902.325832	4364.885578
902.633135	4451.404381
902.940397	4712.664700
903.247619	5318.336649
903.554800	6515.530029
903.861941	8275.815253
904.169041	9852.370583
904.476101	10699.952382
904.783121	10572.398587
905.090100	9948.598648
905.397039	9151.390579
905.703938	8430.722349
906.010796	7761.718383
906.317614	7230.511838
906.624391	6708.838115
906.931129	6301.354087
907.237826	5912.507206
907.544483	5548.271238
907.851099	5184.980486
908.157675	4840.309236
908.464211	4514.958208
908.770707	4271.034417
909.077163	4064.863828
909.383578	3913.896393
909.689954	3795.706542
909.996289	3718.690314
910.302584	3654.549193
910.608839	3621.819501
910.915054	3586.513780
911.221229	3573.787387
911.527363	3579.199066
911.833458	3589.571240
912.139513	3608.967080
912.445527	3631.412817
912.751502	3702.750185
913.057436	3789.301756
913.363331	3900.101276
913.669186	4079.722629
913.975000	4298.017193
914.280775	4658.129498
914.586510	5155.467051
914.892205	5843.125806
915.197859	6767.439008
915.503475	7904.211638
915.809050	8961.865880
916.114585	9675.708388
916.420081	10056.237365
916.725536	10104.420714
917.030952	9738.304395
917.336328	9374.229744
917.641665	9003.185697
917.946961	8545.050677
918.252218	8149.219277
918.557435	7656.179307
918.862612	7252.277020
919.167750	6897.188225
919.472848	6492.562532
919.777906	6134.330578
920.082925	5778.306650
920.387904	5416.981948
920.692843	5147.852388
920.997743	4903.590840
921.302603	4660.105630
921.607423	4502.930015
921.912204	4339.334490
922.216946	4227.884661
922.521647	4111.222278
922.826310	4010.134541
923.130932	3914.347577
923.435516	3819.276456
923.740059	3750.104264
924.044564	3676.301772
924.349028	3617.789099
924.653454	3555.971950
924.957840	3487.712206
925.262186	3442.629167
925.566493	3387.675549
925.870761	3328.114317
926.174989	3293.660551
926.479178	3260.250303
926.783328	3216.248592
927.087438	3192.819830
927.391509	3155.706855
927.695541	3127.728451
927.999533	3104.440841
928.303486	3084.150197
928.607400	3068.792322
928.911275	3054.740105
929.215110	3037.401057
929.518906	3026.272709
929.822663	3028.092566
930.126381	3022.990918
930.430060	3028.047196
930.733699	3029.887217
931.037299	3038.638660
931.340861	3039.011705
931.644383	3048.738612
931.947866	3048.713406
932.251309	3040.634957
932.554714	3040.007333
932.858080	3036.249153
933.161407	3030.096425
933.464694	3019.749456
933.767943	3016.432377
934.071153	3009.911645
934.374323	3005.755213
934.677455	2997.432268
934.980548	2989.225270
935.283602	2983.858962
935.586617	2978.001141
935.889593	2988.217039
936.192530	2989.825167
936.495428	3003.191787
936.798287	3018.287522
937.101108	3045.476985
937.403890	3088.593974
937.706632	3143.713950
938.009336	3218.696072
938.312002	3293.171559
938.614628	3352.279088
938.917216	3406.413518
939.219765	3443.939867
939.522275	3473.397850
939.824747	3482.713902
940.127179	3484.538800
940.429573	3474.595124
940.731929	3477.196359
941.034246	3460.913432
941.336524	3453.220632
941.638763	3437.963579
941.940964	3431.389915
942.243126	3388.283008
942.545250	3369.996223
942.847335	3334.619926
943.149381	3301.880152
943.451389	3270.267076
943.753359	3234.154771
944.055290	3211.416646
944.357182	3186.591484
944.659036	3167.296468
944.960851	3159.898574
945.262628	3146.857109
945.564367	3145.574136
945.866067	3138.629946
946.167729	3137.977117
946.469352	3135.388484
946.770937	3131.804224
947.072484	3115.813684
947.373992	3119.181175
947.675462	3115.546503
947.976893	3096.115375
948.278286	3088.253696
948.579641	3083.545258
948.880958	3073.906572
949.182236	3075.912951
949.483476	3068.348700
949.784678	3068.421797
950.085841	3071.943043
950.386967	3078.375555
950.688054	3095.006322
950.989103	3109.693723
951.290114	3130.604429
951.591087	3155.890857
951.892021	3180.554702
952.192917	3209.022098
952.493776	3234.832806
952.794596	3245.714136
953.095378	3253.270826
953.396122	3250.193202
953.696828	3245.588107
953.997496	3235.578897
954.298126	3212.485371
954.598718	3194.904347
954.899272	3173.088753
955.199788	3147.429280
955.500266	3120.552369
955.800706	3083.063828
956.101108	3048.549568
956.401472	3020.745084
956.701798	2989.754591
957.002087	2947.850000
957.302337	2923.080290
957.602550	2896.311763
957.902724	2866.115252
958.202861	2842.351252
958.502960	2820.512974
958.803022	2802.112762
959.103045	2780.677776
959.403031	2765.443409
959.702979	2750.309866
960.002889	2737.225551
960.302762	2726.669375
960.602596	2715.349464
960.902393	2708.007023
961.202153	2697.440765
961.501875	2689.465659
961.801559	2683.592715
962.101205	2678.702796
962.400814	2674.735408
962.700385	2668.507062
962.999918	2659.155722
963.299414	2653.378559
963.598873	2650.908394
963.898293	2642.892959
964.197677	2646.172230
964.497022	2644.632157
964.796331	2641.126035
965.095601	2640.188380
965.394835	2636.528503
965.694030	2635.172432
965.993189	2635.106897
966.292309	2633.564304
966.591393	2631.121865
966.890439	2629.433079
967.189447	2634.880045
967.488419	2632.056999
967.787353	2631.562966
968.086249	2633.405508
968.385108	2635.515231
968.683930	2634.043214
968.982714	2640.455562
969.281462	2642.903042
969.580172	2651.593991
969.878844	2654.381749
970.177480	2661.426762
970.476078	2668.862463
970.774639	2675.806653
971.073162	2685.100020
971.371649	2687.749146
971.670098	2693.009590
971.968510	2701.229192
972.266885	2703.394367
972.565223	2708.929554
972.863524	2710.013402
973.161788	2710.938454
973.460014	2716.100596
973.758204	2720.085628
974.056356	2719.200905
974.354471	2721.731564
974.652550	2723.863972
974.950591	2722.949003
975.248595	2719.258878
975.546563	2717.839794
975.844493	2713.811912
976.142386	2709.758824
976.440243	2705.675489
976.738062	2703.795139
977.035845	2695.996474
977.333590	2689.601770
977.631299	2685.553724
977.928971	2678.528876
978.226606	2670.699964
978.524204	2668.456651
978.821765	2664.242246
979.119290	2668.570077
979.416777	2667.826506
979.714228	2668.381033
980.011642	2672.560150
980.309020	2678.218845
980.606360	2689.062367
980.903664	2705.370500
981.200931	2738.488360
981.498162	2776.055038
981.795356	2844.029957
982.092513	2920.537028
982.389633	3017.768283
982.686717	3114.845782
982.983764	3189.885878
983.280775	3246.276225
983.577749	3264.580655
983.874686	3260.212495
984.171587	3229.542115
984.468451	3196.303267
984.765279	3157.872031
985.062070	3114.578601
985.358824	3074.488825
985.655543	3022.592667
985.952224	2971.276242
986.248869	2911.165523
986.545478	2854.031606
986.842050	2799.440951
987.138586	2751.060997
987.435086	2715.137735
987.731549	2683.070956
988.027975	2660.688232
988.324366	2641.209214
988.620719	2626.725979
988.917037	2614.922117
989.213318	2607.854420
989.509563	2597.439396
989.805772	2594.200454
990.101944	2589.769280
990.398080	2586.547983
990.694180	2586.401789
990.990244	2585.275092
991.286271	2586.353898
991.582262	2585.532190
991.878217	2588.128385
992.174136	2591.248859
992.470019	2592.279775
992.765865	2595.407811
993.061676	2597.812441
993.357450	2605.472474
993.653188	2613.871037
993.948890	2627.177162
994.244556	2642.618217
994.540186	2664.748882
994.835780	2692.006401
995.131337	2726.785321
995.426859	2761.939807
995.722345	2808.288176
996.017795	2857.157121
996.313208	2894.375960
996.608586	2924.602719
996.903928	2941.646860
997.199234	2944.583332
997.494504	2946.955195
997.789738	2932.592948
998.084936	2909.998496
998.380099	2885.032182
998.675225	2855.727954
998.970316	2828.135199
999.265371	2793.257976
999.560390	2759.215064
999.855373	2728.464025
1000.150320	2699.116948
1000.445232	2676.151972
1000.740108	2655.964671
1001.034948	2636.672176
1001.329752	2621.722634
1001.624521	2608.141765
1001.919254	2598.994592
1002.213951	2592.763726
1002.508613	2579.021540
1002.803239	2578.232600
1003.097829	2571.532906
1003.392384	2566.098542
1003.686903	2561.160732
1003.981386	2559.963458
1004.275834	2553.777962
1004.570246	2552.958775
1004.864623	2551.179247
1005.158964	2544.232537
1005.453270	2542.697506
1005.747540	2541.180119
1006.041775	2540.625592
1006.335974	2540.547454
1006.630138	2539.614841
1006.924266	2539.738349
1007.218359	2536.030580
1007.512416	2534.127545
1007.806438	2533.406660
1008.100425	2533.656197
1008.394376	2527.800897
1008.688292	2533.630991
1008.982172	2535.168543
1009.276017	2533.777184
1009.569827	2531.281813
1009.863602	2530.097142
1010.157341	2535.087884
1010.451045	2531.843902
1010.744714	2529.262831
1011.038347	2530.548325
1011.331945	2529.885414
1011.625508	2526.099507
1011.919036	2528.862059
1012.212528	2524.113293
1012.505986	2524.763601
1012.799408	2523.568848
1013.092795	2521.754032
1013.386147	2523.571368
1013.679464	2523.173117
1013.972745	2522.081708
1014.265992	2521.932993
1014.559204	2520.622293
1014.852380	2523.818385
1015.145521	2521.658251
1015.438628	2522.900895
1015.731699	2523.221008
1016.024736	2524.236801
1016.317737	2524.186389
1016.610703	2527.422810
1016.903635	2525.197141
1017.196531	2529.109076
1017.489393	2527.924405
1017.782219	2527.304343
1018.075011	2532.915147
1018.367768	2533.313398
1018.660490	2532.161495
1018.953177	2532.161495
1019.245829	2532.161495
