Dividing Wavelength (nm)	Counts (n)	Blue Motor Position (mm): 49.000000	Red Motor Position (mm): 0.000000	
326.493990	2067.178067
326.888308	2067.178067
327.282561	2067.178067
327.676750	2038.317461
328.070874	2043.008255
328.464933	2047.583102
328.858929	2053.453525
329.252859	2063.130020
329.646726	2078.225755
330.040528	2094.974989
330.434265	2110.978132
330.827938	2134.248098
331.221547	2152.832312
331.615091	2173.611948
332.008571	2192.775894
332.401986	2215.629965
332.795338	2235.968500
333.188625	2256.606984
333.581847	2275.745725
333.975006	2292.447068
334.368100	2309.536579
334.761129	2326.041317
335.154095	2339.874243
335.546996	2392.428272
335.939833	2498.068171
336.332606	2507.364059
336.725315	2520.387880
337.117960	2530.021525
337.510540	2541.686755
337.903056	2551.426264
338.295508	2557.037068
338.687896	2563.494786
339.080220	2567.467216
339.472480	2577.002558
339.864676	2579.981880
340.256807	2583.372056
340.648875	2582.391552
341.040879	2582.199988
341.432818	2586.038826
341.824694	2586.711820
342.216506	2589.040833
342.608253	2586.341296
342.999937	2584.748291
343.391557	2583.203177
343.783113	2585.441450
344.174605	2580.667477
344.566033	2578.456931
344.957397	2580.564133
345.348697	2576.816035
345.739934	2575.049111
346.131106	2574.857547
346.522215	2574.870150
346.913260	2571.376630
347.304241	2575.086920
347.695159	2566.295147
348.086012	2568.359500
348.476802	2565.838923
348.867528	2560.442368
349.258191	2558.834240
349.648789	2559.444219
350.039324	2552.981460
350.429796	2559.298026
350.820203	2559.413972
351.210548	2558.118396
351.600828	2554.143446
351.991045	2560.064281
352.381198	2555.378529
352.771288	2556.169990
353.161314	2554.556821
353.551276	2553.291491
353.941175	2552.789896
354.331010	2553.445246
354.720782	2556.227963
355.110490	2562.957903
355.500135	2556.548076
355.889717	2555.277706
356.279235	2554.680329
356.668689	2554.274516
357.058080	2554.980278
357.447408	2556.101934
357.836672	2559.043447
358.225873	2560.298695
358.615010	2560.472615
359.004084	2558.854404
359.393095	2560.855742
359.782043	2558.859445
360.170927	2561.478325
360.559748	2563.577965
360.948505	2562.869683
361.337199	2565.044941
361.725830	2565.596948
362.114398	2566.038048
362.502903	2566.373285
362.891344	2565.813717
363.279722	2563.272976
363.668037	2567.268090
364.056289	2568.480487
364.444478	2566.645507
364.832603	2569.617268
365.220665	2570.116342
365.608665	2570.922927
365.996601	2568.966959
366.384474	2569.566856
366.772284	2568.911506
367.160031	2571.537947
367.547715	2571.525344
367.935336	2568.611557
368.322893	2569.566856
368.710388	2568.858574
369.097820	2569.657597
369.485189	2567.976372
369.872495	2573.446024
370.259738	2575.321333
370.646918	2575.180181
371.034035	2575.447362
371.421090	2574.436611
371.808081	2573.778740
372.195010	2580.256623
372.581875	2577.763772
372.968678	2579.608835
373.355418	2578.787127
373.742096	2581.935327
374.128710	2583.266192
374.515262	2584.957499
374.901751	2588.501430
375.288177	2590.023858
375.674540	2589.247521
376.060841	2596.393356
376.447079	2598.127513
376.833254	2603.619850
377.219367	2606.538678
377.605417	2613.649226
377.991404	2614.390276
378.377329	2618.823970
378.763191	2624.341513
379.148991	2632.112452
379.534727	2637.909779
379.920402	2649.446459
380.306013	2652.171203
380.691563	2664.269972
381.077049	2670.389933
381.462474	2677.429904
381.847835	2689.306863
382.233134	2701.864377
382.618371	2710.293186
383.003545	2727.778428
383.388657	2735.972824
383.773706	2751.912952
384.158693	2765.975251
384.543618	2779.785492
384.928480	2796.481794
385.313280	2814.375369
385.698017	2832.087463
386.082692	2852.118488
386.467305	2865.162474
386.851856	2887.673746
387.236344	2915.097623
387.620770	2929.089346
388.005133	2950.037860
388.389435	2981.272850
388.773674	2992.111330
389.157851	3026.708769
389.541965	3053.000907
389.926018	3065.432393
390.310008	3096.148143
390.693936	3122.735188
391.077802	3150.443890
391.461606	3181.958664
391.845348	3201.046993
392.229027	3227.467680
392.612645	3269.420162
392.996200	3299.475522
393.379694	3336.275945
393.763125	3378.293962
394.146494	3406.912592
394.529801	3443.841565
394.913047	3488.521311
395.296230	3495.397445
395.679351	3525.465407
396.062410	3571.768405
396.445408	3557.033113
396.828343	3599.081377
397.211217	3629.426602
397.594028	3612.072430
397.976778	3658.670336
398.359466	3689.330634
398.742092	3703.319836
399.124656	3720.986559
399.507158	3782.118111
399.889598	3784.772279
400.271977	3852.759800
400.654294	3844.303265
401.036549	3906.070002
401.418742	3901.374167
401.800874	3971.426041
402.182944	4000.780680
402.564952	4080.743462
402.946898	4079.273966
403.328783	4075.130137
403.710606	4123.953713
404.092367	4196.178324
404.474067	4261.083179
404.855705	4241.568873
405.237282	4217.136921
405.618797	4312.286179
406.000250	4388.803333
406.381642	4476.597548
406.762972	4476.151405
407.144240	4440.765026
407.525447	4503.542515
407.906593	4519.313765
408.287677	4602.051702
408.668700	4627.217142
409.049661	4667.601826
409.430560	4701.387639
409.811399	4688.225186
410.192176	4736.784100
410.572891	4816.426769
410.953545	4921.809570
411.334138	4820.726874
411.714669	4925.335857
412.095139	4846.688816
412.475547	4950.362665
412.855894	4960.747442
413.236180	5053.852513
413.616405	4990.210466
413.996568	5091.852730
414.376670	5091.830045
414.756711	5088.084468
415.136691	5158.635416
415.516609	5242.051389
415.896466	5277.084887
416.276262	5350.438717
416.655997	5466.319720
417.035670	5562.283125
417.415283	5697.806984
417.794834	5770.235762
418.174324	5724.351180
418.553753	5726.808742
418.933121	5887.800511
419.312428	5901.227624
419.691674	5831.054763
420.070859	6051.390995
420.449983	5934.348005
420.829045	6123.144258
421.208047	6050.687754
421.586988	6209.534511
421.965867	6276.067660
422.344686	6361.144693
422.723444	6526.300454
423.102141	6148.549153
423.480777	6535.208173
423.859352	6355.296954
424.237866	6711.462035
424.616319	6707.464400
424.994712	6866.563216
425.373044	6782.847294
425.751314	7096.661642
426.129524	6819.158725
426.507673	7080.189672
426.885762	7123.795652
427.263789	7166.761407
427.641756	7250.240394
428.019662	7324.423493
428.397508	7370.232458
428.775292	7346.145825
429.153016	7515.417689
429.530679	7447.551155
429.908282	7501.161306
430.285824	7450.618697
430.663305	7718.210705
431.040726	7609.495702
431.418086	7619.509954
431.795385	7745.770693
432.172624	7928.583096
432.549802	7815.021024
432.926920	7946.678318
433.303977	7899.495639
433.680974	7935.428983
434.057910	8131.865105
434.434786	8183.226901
434.811601	8138.484140
435.188355	8473.788926
435.565050	8365.885548
435.941683	8375.617496
436.318257	8713.896563
436.694770	8665.183893
437.071222	8882.409733
437.447614	8662.688522
437.823946	8627.594530
438.200218	8778.841748
438.576429	8652.414651
438.952580	8827.201537
439.328670	8828.481990
439.704700	8908.033918
440.080670	8799.954100
440.456580	9068.206499
440.832429	9039.030822
441.208218	8786.058160
441.583947	8891.824088
441.959616	9013.683900
442.335224	9039.645842
442.710773	9124.145663
443.086261	9304.051841
443.461689	9019.861834
443.837057	9199.311788
444.212365	9400.151357
444.587612	9384.004541
444.962800	9282.306824
445.337927	9409.051514
445.712995	8964.089028
446.088002	9631.323549
446.462949	9683.857413
446.837837	9667.733282
447.212664	9694.403507
447.587431	10524.023675
447.962139	11517.446054
448.336786	12442.706993
448.711374	12219.547715
449.085901	11013.749086
449.460369	10933.635069
449.834776	10713.089629
450.209124	11626.821449
450.583412	11455.646549
450.957640	11769.501226
451.331808	11357.197856
451.705917	10792.921341
452.079965	10671.550521
452.453954	10868.485717
452.827883	10810.648559
453.201752	10786.140989
453.575562	10789.276587
453.949311	11130.779472
454.323001	11197.005110
454.696632	11107.786769
455.070202	11698.622603
455.443713	11756.086716
455.817164	11920.577045
456.190556	12232.816032
456.563888	12102.981115
456.937160	12355.225330
457.310373	11842.713903
457.683526	11853.065913
458.056619	11874.074922
458.429653	11941.785179
458.802628	12082.224164
459.175542	12130.389868
459.548398	12674.456397
459.921194	13247.880085
460.293930	13541.242472
460.666607	14392.032965
461.039224	15184.845148
461.411782	15523.416602
461.784280	15181.976732
462.156719	15108.310351
462.529099	15008.498025
462.901419	14371.921282
463.273680	13986.648579
463.645882	14187.493189
464.018024	14086.818826
464.390106	14453.474548
464.762130	15520.278484
465.134094	17069.997232
465.505999	19374.492657
465.877845	21616.266046
466.249631	22815.039828
466.621358	22319.731339
466.993026	21483.207311
467.364634	20726.257896
467.736184	19937.188770
468.107674	19324.295368
468.479105	19185.905612
468.850477	18910.391431
469.221790	18478.760277
469.593043	17805.005024
469.964238	17426.588290
470.335373	17487.581211
470.706449	18202.774748
471.077467	19072.835052
471.448425	21534.286802
471.819324	23396.078179
472.190164	23270.651751
472.560945	21520.378259
472.931667	19977.931375
473.302330	19640.002668
473.672934	19095.139637
474.043479	19508.128604
474.413965	19302.192429
474.784393	19124.368247
475.154761	19782.710172
475.525070	19911.327651
475.895321	19748.420244
476.265513	20266.918040
476.635645	20852.790858
477.005719	20911.069117
477.375734	21285.362187
477.745691	21905.040982
478.115588	22529.546683
478.485427	23709.501837
478.855207	25524.665061
479.224928	27332.145567
479.594591	28726.521159
479.964194	28353.125414
480.333739	28793.913824
480.703226	29001.233797
481.072653	29437.553224
481.442022	29952.544898
481.811333	30360.686796
482.180584	29920.546174
482.549777	29700.162051
482.918912	29469.662853
483.287988	29393.944723
483.657005	29254.922303
484.025964	28870.020124
484.394864	29077.284644
484.763706	28984.963473
485.132489	28451.206104
485.501213	28524.648153
485.869879	28697.716006
486.238487	28633.557241
486.607036	28901.141687
486.975527	28591.856817
487.343959	28931.063456
487.712333	29268.266237
488.080648	29235.425640
488.448905	29668.707772
488.817104	29549.519772
489.185244	30366.181653
489.553326	31318.175831
489.921350	33222.015472
490.289315	35721.011215
490.657222	36622.235933
491.025070	37167.358583
491.392861	36901.379744
491.760593	36098.109688
492.128267	35088.706850
492.495883	34095.980150
492.863440	33213.379975
493.230939	32261.262290
493.598380	31692.448737
493.965763	31533.125590
494.333088	31041.945806
494.700354	30838.638592
495.067563	30800.295576
495.434713	30687.018328
495.801805	30962.774485
496.168839	30798.153085
496.535815	30649.139098
496.902733	30774.094179
497.269593	30600.363414
497.636395	30735.035319
498.003139	31007.673522
498.369825	30761.221592
498.736453	31165.320485
499.103023	30991.435965
499.469535	31085.113206
499.835989	31194.168487
500.202385	31071.809601
500.568723	31096.143251
500.935003	31405.975087
501.301226	31272.815529
501.667390	31990.718686
502.033497	32186.222194
502.399546	31982.993118
502.765537	31581.624010
503.131470	32048.512994
503.497345	32468.705770
503.863163	31428.188931
504.228923	32177.231296
504.594625	32559.179358
504.960269	32042.198949
505.325856	32694.715821
505.691385	32353.328882
506.056856	32689.379759
506.422270	33175.803215
506.787625	32701.357541
507.152924	33130.730258
507.518164	33290.300421
507.883347	32897.816348
508.248472	33009.195601
508.613540	33676.359545
508.978550	33887.803181
509.343503	33741.869339
509.708398	34090.472689
510.073236	34666.600956
510.438016	34757.404740
510.802738	34439.519661
511.167403	34974.441537
511.532010	35235.142287
511.896561	35715.836471
512.261053	36452.379295
512.625488	36235.294607
512.989866	36142.978477
513.354186	36202.940482
513.718449	36151.556001
514.082655	37018.047168
514.446803	36707.403706
514.810894	37311.749832
515.174927	37309.143556
515.538904	37317.295101
515.902822	37937.747714
516.266684	37631.273286
516.630488	37980.907552
516.994235	37985.941145
517.357925	38532.112355
517.721558	38786.806571
518.085133	39157.444805
518.448651	39347.390440
518.812112	39238.680478
519.175516	39399.100076
519.538863	39818.156072
519.902152	39866.833453
520.265385	40398.362633
520.628560	40420.387434
520.991678	40377.121731
521.354739	40596.691707
521.717743	40949.040635
522.080690	40844.361075
522.443580	41515.928467
522.806413	41527.228213
523.169189	41654.293017
523.531908	41870.561037
523.894569	41718.045969
524.257174	41901.042374
524.619722	42244.657502
524.982213	42395.735842
525.344647	42440.919704
525.707025	42539.907801
526.069345	42978.957013
526.431608	42892.907037
526.793815	43276.082620
527.155964	42817.899709
527.518057	43079.661623
527.880093	42934.241978
528.242072	43582.413375
528.603995	43288.584682
528.965860	43202.418760
529.327669	43426.404787
529.689421	43477.252385
530.051117	43444.981439
530.412755	43699.416035
530.774337	43755.539201
531.135862	43701.056931
531.497331	43866.742014
531.858743	43849.312224
532.220098	44256.461015
532.581396	43982.300383
532.942638	43766.670069
533.303824	43984.042102
533.664953	44049.466197
534.026025	43733.572373
534.387040	44299.308302
534.747999	44348.885529
535.108902	44701.909971
535.469748	44022.364953
535.830537	44291.461746
536.191270	44534.100042
536.551947	44283.716013
536.912567	44545.291404
537.273131	44673.757648
537.633638	44315.182895
537.994089	44479.000231
538.354483	44245.640178
538.714821	44888.853600
539.075103	45178.316654
539.435328	45039.095108
539.795497	44812.865768
540.155609	44927.368015
540.515665	45489.108830
540.875665	44817.009596
541.235609	45080.553557
541.595496	45209.866715
541.955328	45772.736748
542.315102	45210.491818
542.674821	45108.738648
543.034483	45022.270257
543.394090	45030.462132
543.753640	45018.209608
544.113134	46062.963537
544.472571	45189.560948
544.831953	46315.689182
545.191278	45584.353870
545.550548	45286.015865
545.909761	45910.312357
546.268918	46053.307206
546.628019	46434.877182
546.987064	45885.033491
547.346053	45190.927100
547.704986	46093.742301
548.063863	45738.388846
548.422684	45938.038703
548.781449	45531.641045
549.140158	46047.850157
549.498811	45807.097253
549.857408	45209.309668
550.215949	46036.071501
550.574434	45878.192645
550.932864	45836.207395
551.291237	46548.900520
551.649555	46283.478729
552.007817	46461.338199
552.366022	46176.530650
552.724173	46227.337919
553.082267	46622.529093
553.440305	47000.550096
553.798288	46241.443068
554.156215	46630.284908
554.514086	46814.833989
554.871902	46430.546831
555.229661	46603.723068
555.587365	46305.508572
555.945014	46416.330777
556.302606	46442.494366
556.660143	46548.207362
557.017625	46769.198943
557.375050	46453.428628
557.732421	46864.577574
558.089735	46932.156762
558.446994	46797.530228
558.804197	47269.896426
559.161345	47115.800956
559.518437	46485.848289
559.875474	46703.878193
560.232455	46942.675130
560.589381	46996.260074
560.946251	46829.082810
561.303065	47477.508785
561.659825	47146.952766
562.016528	46938.251517
562.373177	46533.015845
562.729770	47165.957916
563.086307	46689.226079
563.442789	47228.541320
563.799216	47055.511276
564.155587	46965.438460
564.511904	46935.947710
564.868164	46993.885691
565.224370	47305.910429
565.580520	47043.788073
565.936615	47224.624344
566.292654	46862.760238
566.648638	47221.753407
567.004567	47162.792071
567.360441	47259.317564
567.716260	46974.497413
568.072023	47368.776138
568.427732	47278.284906
568.783385	46830.960640
569.138982	47239.319307
569.494525	47371.029534
569.850013	46994.546082
570.205445	47104.060108
570.560823	46890.272335
570.916145	46771.772453
571.271412	47000.111516
571.626625	46639.822771
571.981782	46708.788276
572.336884	46320.576580
572.691931	46643.616239
573.046923	46302.037737
573.401860	46154.178174
573.756743	46165.162848
574.111570	46317.998030
574.466342	46222.659729
574.821059	46383.028915
575.175722	45872.105452
575.530330	45949.061186
575.884882	45622.903573
576.239380	45528.679367
576.593823	45625.885416
576.948211	45554.694241
577.302544	45115.637467
577.656823	45105.028359
578.011047	45396.956537
578.365216	45229.139046
578.719330	44916.569864
579.073389	44906.094346
579.427394	44950.022961
579.781344	44853.394124
580.135239	44608.925889
580.489080	44676.673955
580.842866	44190.275706
581.196597	44661.094269
581.550273	44666.838664
581.903895	44604.698881
582.257463	45037.328184
582.610975	44462.198065
582.964434	44782.850737
583.317837	44299.774608
583.671186	44267.244043
584.024481	44549.087392
584.377721	44101.236326
584.730906	44305.266946
585.084037	44451.851097
585.437113	44176.165516
585.790135	44288.855469
586.143103	43855.885889
586.496016	44029.432651
586.848874	44133.406449
587.201679	44147.635106
587.554428	43651.799817
587.907124	43922.335858
588.259765	43689.389180
588.612352	43857.045354
588.964884	43323.406452
589.317362	43621.562976
589.669786	43629.527999
590.022155	43498.470602
590.374470	43953.719562
590.726731	43527.038821
591.078937	42890.497366
591.431090	43246.876696
591.783188	42731.940474
592.135232	42560.821027
592.487222	42820.727796
592.839157	42985.029083
593.191038	42617.962506
593.542866	42449.376239
593.894639	41836.021572
594.246358	42127.672486
594.598022	42120.524130
594.949633	41691.882380
595.301190	41688.109077
595.652692	41637.135449
596.004141	42123.392547
596.355535	41045.750130
596.706876	41060.339229
597.058162	40765.469538
597.409395	41251.328384
597.760573	41486.573828
598.111698	41088.438621
598.462768	41007.152536
598.813785	41033.338809
599.164748	40645.106949
599.515657	40911.612588
599.866511	40414.910220
600.217312	41092.703437
600.568060	40074.045041
600.918753	40894.455021
601.269392	40797.604373
601.619978	40511.833964
601.970510	40724.495039
602.320988	40867.870496
602.671412	41135.223049
603.021783	40994.516883
603.372100	40567.079969
603.722363	40669.022182
604.072572	40707.715559
604.422728	40703.690198
604.772830	40475.361216
605.122878	40656.452065
605.472872	40507.793480
605.822813	40770.288881
606.172701	40524.159586
606.522534	40861.783303
606.872314	41053.304299
607.222041	40886.535368
607.571714	41233.215518
607.921333	40726.410678
608.270899	40900.544735
608.620411	41283.884155
608.969870	41057.879146
609.319276	41059.699003
609.668627	41086.812849
610.017926	41492.091371
610.367171	41642.441264
610.716362	41663.551096
611.065500	41575.832498
611.414585	41808.063332
611.763616	41959.459265
612.112594	41859.447813
612.461518	41999.002075
612.810389	42380.405693
613.159207	42162.060717
613.507971	42133.656336
613.856682	42635.687203
614.205340	42468.822490
614.553945	43147.951613
614.902496	42516.322763
615.250994	42918.337138
615.599439	43004.308975
615.947830	43108.474337
616.296169	43114.800985
616.644454	43150.378929
616.992686	43305.109584
617.340864	43744.357922
617.688990	43248.273095
618.037063	43930.782312
618.385082	43726.086260
618.733048	44082.957102
619.080961	43976.288807
619.428821	44016.464283
619.776628	44060.445830
620.124382	43870.792581
620.472083	44008.521945
620.819731	44118.955982
621.167326	43682.112275
621.514868	43677.275288
621.862357	43127.083757
622.209793	43230.324067
622.557176	42790.589258
622.904506	42576.415837
623.251783	42210.100393
623.599007	41877.916081
623.946179	41806.586274
624.293297	41545.562890
624.640363	41013.088494
624.987376	40882.605789
625.334336	40678.053410
625.681243	40263.640317
626.028097	40151.512452
626.374899	40003.375626
626.721647	39978.825207
627.068343	39729.774562
627.414987	39443.250501
627.761577	39198.409221
628.108115	39523.702276
628.454600	38786.796489
628.801032	39017.860296
629.147412	38911.701157
629.493739	38792.561048
629.840014	38354.651137
630.186236	38780.384141
630.532405	38225.186744
630.878521	38476.208480
631.224585	38246.783047
631.570597	37906.542972
631.916556	38095.926519
632.262462	37992.774429
632.608316	37924.194572
632.954117	37798.175808
633.299866	37754.910105
633.645562	37674.549072
633.991206	37151.816706
634.336797	36730.003199
634.682336	36621.991437
635.027823	36401.181336
635.373257	36289.466847
635.718639	35954.971165
636.063968	35835.571437
636.409245	35190.444897
636.754470	35141.349099
637.099642	34935.223880
637.444762	34363.635172
637.789829	34509.480794
638.134845	34113.717449
638.479808	34042.387643
638.824719	33988.689272
639.169577	33490.192254
639.514383	33602.650314
639.859137	33203.005281
640.203839	33386.440266
640.548489	33085.616972
640.893086	33095.792541
641.237632	32804.877635
641.582125	32896.787952
641.926566	32654.300890
642.270955	32703.673951
642.615292	32639.512666
642.959576	32519.006403
643.303809	32519.949099
643.647990	32623.789307
643.992118	32585.907556
644.336195	32407.702768
644.680219	32476.814466
645.024192	32668.900072
645.368112	33193.099413
645.711981	33215.557754
646.055797	33899.728030
646.399562	33704.257290
646.743274	34569.495730
647.086935	34969.932224
647.430544	34942.193275
647.774101	35003.488665
648.117606	35297.582019
648.461059	35433.451197
648.804460	35063.942182
649.147810	34559.234462
649.491108	34243.229733
649.834354	34132.067249
650.177548	33330.233922
650.520690	32816.953719
650.863781	32785.380973
651.206820	32610.276494
651.549807	32218.518346
651.892742	31620.229167
652.235626	31538.849820
652.578458	31382.014483
652.921238	30702.557685
653.263967	30997.397129
653.606644	30684.686795
653.949269	30602.364752
654.291843	30205.751973
654.634365	30551.597812
654.976836	30093.077144
655.319255	30180.783138
655.661622	30037.579081
656.003938	29912.661809
656.346203	29732.876619
656.688416	29984.006739
657.030577	29754.301523
657.372687	29566.858820
657.714746	29704.925942
658.056753	29909.657282
658.398708	29289.151737
658.740612	29350.989051
659.082465	29543.974502
659.424266	29438.952144
659.766016	29433.865620
660.107715	29285.857343
660.449362	29383.806962
660.790958	29359.763179
661.132503	29290.001172
661.473996	29369.490085
661.815438	29452.711974
662.156829	29569.591126
662.498168	29356.993065
662.839456	29323.539968
663.180693	29464.493150
663.521879	29532.251299
663.863013	29487.039711
664.204097	29478.399173
664.545129	29861.574756
664.886110	29817.807459
665.227040	29921.982903
665.567918	29909.047302
665.908746	29964.139552
666.249522	30057.569777
666.590248	30106.226994
666.930922	30190.913337
667.271545	30203.362467
667.612118	30270.399730
667.952639	30073.638455
668.293109	30114.575144
668.633528	29959.536978
668.973896	29928.750652
669.314213	29907.386242
669.654480	29723.351359
669.994695	29722.169208
670.334859	29629.555651
670.674973	29421.222406
671.015035	29620.718508
671.355047	29540.112978
671.695008	29481.360851
672.034918	29384.674041
672.374777	29466.963316
672.714585	29342.668626
673.054342	29464.783017
673.394049	29327.131790
673.733705	29545.804441
674.073310	29257.989845
674.412864	29327.590535
674.752368	29051.678103
675.091820	29296.360587
675.431223	28886.358504
675.770574	28697.108547
676.109875	28530.173258
676.449125	28329.495006
676.788324	28217.825886
677.127473	27719.462458
677.466571	27634.093038
677.805619	27363.239404
678.144616	27295.990412
678.483562	27232.986071
678.822458	26913.946567
679.161303	26850.957350
679.500098	26781.611238
679.838842	26696.153598
680.177535	26749.703255
680.516179	26970.021842
680.854771	27037.361575
681.193314	27719.301141
681.531805	28658.001796
681.870247	29417.940615
682.208638	30231.686189
682.546978	30572.185885
682.885268	30751.285478
683.223508	30359.950787
683.561697	30104.855800
683.899836	29950.072212
684.237925	29538.207422
684.575963	29353.870070
684.913951	28980.842330
685.251889	29125.432704
685.589776	29128.013775
685.927614	29109.847977
686.265401	29283.598906
686.603137	29378.266734
686.940824	29849.029845
687.278460	30166.239410
687.616046	30362.554543
687.953582	31033.174198
688.291068	30966.111729
688.628504	31321.966779
688.965889	31350.441736
689.303224	31106.606166
689.640510	30836.914517
689.977745	30246.038354
690.314930	29513.026859
690.652065	29117.318967
690.989150	28431.785058
691.326185	27586.738960
691.663170	26969.704250
692.000105	26273.994772
692.336990	25658.926112
692.673825	25240.215435
693.010610	24731.182405
693.347345	24236.206632
693.684030	23618.435913
694.020665	23424.996758
694.357251	22748.597420
694.693786	22764.978650
695.030272	22515.544878
695.366707	22016.400071
695.703093	21740.754820
696.039429	21797.712297
696.375716	21560.619269
696.711952	21547.592928
697.048139	21414.203997
697.384276	21262.707242
697.720363	21375.429962
698.056400	21269.583376
698.392388	21111.482709
698.728326	21108.357193
699.064214	20973.516410
699.400053	20964.530553
699.735842	20595.679409
700.071581	20413.597973
700.407270	20171.478916
700.742910	19992.606174
701.078501	19735.714015
701.414042	19539.040960
701.749533	19246.621269
702.084974	18931.806253
702.420366	19156.583741
702.755709	18757.019367
703.091002	18450.892779
703.426246	18510.075925
703.761440	18442.975647
704.096584	18201.297690
704.431679	18135.891239
704.766725	18098.841279
705.101721	18009.322990
705.436668	18125.483777
705.771565	17842.009614
706.106413	18136.954923
706.441212	18216.900061
706.775961	18308.384401
707.110661	18372.603659
707.445311	18745.034023
707.779913	18629.677300
708.114465	18901.327437
708.448967	19209.760352
708.783421	19812.747887
709.117825	20157.058695
709.452180	20381.576564
709.786485	20805.744290
710.120742	21548.018905
710.454949	21647.720326
710.789107	22162.933810
711.123216	22863.805430
711.457275	23086.102670
711.791286	23648.551767
712.125247	23826.091123
712.459159	23587.808383
712.793023	24348.674774
713.126837	23362.531821
713.460602	23638.792093
713.794318	23315.981806
714.127985	23050.451630
714.461602	22165.963544
714.795171	22142.191983
715.128691	21185.282680
715.462162	20672.161274
715.795584	20242.483567
716.128957	19966.233378
716.462281	19602.204097
716.795556	19328.751748
717.128782	18858.754892
717.461960	18252.535978
717.795088	18216.050627
718.128167	17893.741935
718.461198	17444.257535
718.794180	17308.791648
719.127113	16983.813666
719.459997	16800.240048
719.792833	16419.940443
720.125619	16464.905015
720.458357	16134.364119
720.791046	15984.745194
721.123686	15829.885989
721.456278	15608.291989
721.788821	15606.091525
722.121315	15345.405898
722.453761	15442.861484
722.786158	15328.518033
723.118506	15409.506690
723.450805	15291.158042
723.783056	15473.773840
724.115259	15353.012999
724.447412	15341.095712
724.779518	15545.854778
725.111574	15595.184989
725.443582	15851.187384
725.775542	15797.630166
726.107453	16294.040147
726.439315	16214.750358
726.771129	16601.089266
727.102895	16998.196078
727.434612	17286.265252
727.766281	17462.889639
728.097901	17796.677038
728.429473	17900.381135
728.760996	17920.880987
729.092471	18042.075366
729.423897	17910.095438
729.755276	17760.105988
730.086606	17847.300305
730.417887	18392.334736
730.749120	18932.587632
731.080305	19161.637498
731.411442	19574.223173
731.742530	19679.842907
732.073570	19827.067285
732.404562	20138.754265
732.735506	20035.710560
733.066401	19911.483927
733.397249	19472.444797
733.728048	18887.620539
734.058798	18043.686015
734.389501	17288.695089
734.720156	16762.701096
735.050762	16184.110225
735.381320	15781.012002
735.711831	15494.911398
736.042293	15122.602022
736.372707	15134.683147
736.703073	14914.727522
737.033391	15096.589668
737.363661	15090.164717
737.693883	15202.307705
738.024056	15389.644544
738.354182	15584.159986
738.684260	15943.395129
739.014290	16206.377002
739.344272	16432.112309
739.674207	16784.075589
740.004093	16961.186447
740.333931	17028.243875
740.663722	17121.699306
740.993464	17171.992377
741.323159	17045.527471
741.652806	16759.817556
741.982405	16593.671208
742.311956	16238.085860
742.641460	16147.834082
742.970915	15813.832434
743.300323	15471.908613
743.629683	15271.149702
743.958996	14954.257730
744.288260	14650.046781
744.617477	14343.141335
744.946647	14311.389627
745.275768	13997.093849
745.604842	13800.766113
745.933869	13619.208957
746.262847	13583.157145
746.591778	13491.690450
746.920662	13366.430380
747.249498	13358.505686
747.578286	13496.842509
747.907027	13663.107325
748.235720	13921.337910
748.564365	14004.640457
748.892963	13946.364718
749.221514	14053.577458
749.550017	13927.160443
749.878473	13910.633020
750.206881	13700.794991
750.535242	13627.471408
750.863555	13551.556673
751.191821	13449.861476
751.520039	13457.710553
751.848210	13370.367521
752.176334	13418.921394
752.504411	13340.332326
752.832440	13171.020133
753.160421	13296.612920
753.488356	13183.764170
753.816243	13100.660749
754.144082	12925.679778
754.471875	12876.621790
754.799620	12829.721415
755.127318	12804.707210
755.454969	12797.576497
755.782572	12751.822985
756.110129	12780.297943
756.437638	12681.839167
756.765100	12689.791587
757.092515	12715.922408
757.419882	12747.190165
757.747203	12741.660019
758.074477	12827.896517
758.401703	12813.972850
758.728882	13003.162313
759.056014	13045.966750
759.383099	13209.998335
759.710138	13333.252026
760.037129	13463.802787
760.364073	13536.425649
760.690970	13565.568560
761.017820	13564.661152
761.344623	13750.775511
761.671379	14065.469540
761.998088	14611.111429
762.324751	16018.362128
762.651366	18945.306463
762.977935	23261.373507
763.304456	26522.992484
763.630931	28135.861766
763.957359	27358.593981
764.283740	25320.515975
764.610074	23153.462568
764.936362	20535.558608
765.262602	18644.097520
765.588796	16665.467321
765.914943	15342.547564
766.241044	14202.629253
766.567097	13379.154252
766.893104	12638.192857
767.219064	12167.772545
767.544978	11678.631908
767.870845	11284.466609
768.196665	11048.369210
768.522438	10822.596093
768.848165	10620.617223
769.173846	10414.673486
769.499479	10282.068455
769.825066	10113.537640
770.150607	9887.956088
770.476101	9809.697216
770.801548	9689.392600
771.126949	9537.663951
771.452303	9425.873844
771.777611	9225.382115
772.102872	9224.898164
772.428087	9078.245957
772.753256	8925.977905
773.078378	8845.684927
773.403453	8663.026280
773.728482	8545.345584
774.053465	8474.403947
774.378401	8373.074234
774.703291	8254.143332
775.028135	8135.348542
775.352932	8099.919313
775.677683	8001.876432
776.002388	7887.192703
776.327046	7902.958911
776.651658	7799.557284
776.976224	7701.174126
777.300743	7699.896193
777.625216	7620.263607
777.949643	7578.006134
778.274024	7586.636590
778.598359	7500.672314
778.922647	7516.892226
779.246889	7465.185111
779.571086	7473.656770
779.895236	7481.122719
780.219339	7489.680078
780.543397	7497.405646
780.867409	7574.132008
781.191374	7587.022238
781.515294	7550.635190
781.839167	7645.918038
782.162995	7613.999973
782.486776	7568.677479
782.810511	7521.767022
783.134201	7436.644619
783.457844	7425.596930
783.781441	7377.000207
784.104993	7313.953017
784.428498	7288.394367
784.751958	7275.746112
785.075372	7243.611276
785.398739	7191.810900
785.722061	7231.348670
786.045337	7224.835499
786.368568	7365.292127
786.691752	7372.621965
787.014891	7659.178794
787.337983	7971.163202
787.661030	8522.957820
787.984031	9146.432604
788.306987	9582.565509
788.629897	9848.292290
788.952760	9843.377165
789.275579	9669.283437
789.598351	9289.162793
789.921078	8949.472203
790.243759	8546.452118
790.566395	8247.925069
790.888984	8003.618151
791.211529	7789.152343
791.534027	7567.026501
791.856480	7357.037238
792.178888	7278.007069
792.501249	7177.856986
792.823566	7030.998092
793.145836	7015.463777
793.468062	6982.915567
793.790241	6929.519665
794.112375	6989.839592
794.434464	7127.979810
794.756507	7161.165726
795.078505	7296.462733
795.400457	7579.538645
795.722364	7917.616066
796.044226	8209.166158
796.366042	8494.939087
796.687812	8467.525292
797.009538	8563.697905
797.331218	8474.799677
797.652852	8399.159684
797.974442	8248.993794
798.295986	8172.247268
798.617484	7984.159297
798.938938	7847.813729
799.260346	7747.051146
799.581709	7547.431536
799.903026	7471.093344
800.224299	7363.442024
800.545526	7197.577980
800.866708	7102.128773
801.187845	7033.538834
801.508936	6929.504542
801.829983	6889.568521
802.150984	6744.927735
802.471940	6699.932916
802.792851	6679.276788
803.113717	6651.558004
803.434538	6617.832685
803.755314	6558.924282
804.076045	6562.077523
804.396731	6506.183730
804.717372	6528.684920
805.037967	6528.742893
805.358518	6567.587504
805.679024	6646.592468
805.999485	6661.063100
806.319901	6697.278749
806.640272	6714.627880
806.960598	6801.262629
807.280879	6807.702703
807.601115	6882.624332
807.921306	6829.989644
808.241453	6847.979002
808.561554	6868.461210
808.881611	6831.766651
809.201623	6846.617890
809.521590	6791.878521
809.841513	6771.696262
810.161390	6807.596839
810.481223	6679.448188
810.801011	6672.072980
811.120755	6639.991077
811.440453	6566.175981
811.760107	6537.375869
812.079716	6502.123081
812.399281	6438.402896
812.718801	6432.144303
813.038276	6381.294185
813.357707	6323.323436
813.677093	6361.739549
813.996434	6263.608448
814.315731	6308.981353
814.634983	6294.747655
814.954191	6307.600077
815.273354	6398.865126
815.592473	6457.408046
815.911547	6568.021044
816.230577	6648.031717
816.549562	6787.366689
816.868502	6885.152470
817.187399	6980.629404
817.506250	7122.326156
817.825058	7141.616131
818.143821	7391.992599
818.462539	7630.141748
818.781213	7948.319214
819.099843	8440.184594
819.418429	9337.169701
819.736970	10235.339479
820.055466	11340.652789
820.373919	12713.966440
820.692327	14716.348036
821.010691	18014.381788
821.329011	25460.292047
821.647286	37138.936558
821.965517	51189.058304
822.283704	58637.093410
822.601847	61798.025421
822.919945	59645.586320
823.237999	55786.141949
823.556010	49796.275717
823.873976	43135.048780
824.191897	36636.840155
824.509775	31772.643412
824.827609	27111.940405
825.145398	24311.115658
825.463144	22633.838073
825.780845	22509.061954
826.098502	23752.218054
826.416116	27063.925936
826.733685	30828.914206
827.051210	32666.389577
827.368692	31739.407085
827.686129	28206.069916
828.003522	24186.833571
828.320872	20432.794687
828.638177	17522.864247
828.955439	15321.122660
829.272656	13476.375425
829.589830	11991.828714
829.906960	10691.760507
830.224046	9722.240758
830.541088	8933.769009
830.858086	8440.794574
831.175041	8035.105198
831.491952	7874.715847
831.808819	7863.274948
832.125642	8158.994074
832.442421	8866.915747
832.759157	10336.434778
833.075849	12908.706213
833.392497	16051.217848
833.709101	18541.033651
834.025662	18923.145550
834.342179	17576.605467
834.658653	15510.614592
834.975083	13588.175614
835.291469	11935.113212
835.607811	10592.858110
835.924110	9676.172174
836.240366	8807.697313
836.556578	7996.961307
836.872746	7352.749737
837.188871	6830.130797
837.504952	6397.592235
837.820990	6072.841104
838.136984	5842.094890
838.452935	5723.985696
838.768842	5701.615576
839.084706	5980.807279
839.400526	6947.430885
839.716303	8448.782282
840.032037	9697.997849
840.347727	9929.059136
840.663373	9137.126634
840.978977	8098.447296
841.294537	7258.465036
841.610054	6641.422764
841.925527	6204.221135
842.240957	5842.170507
842.556344	5512.400908
842.871687	5234.393876
843.186987	4945.865956
843.502244	4719.946647
843.817458	4550.589083
844.132629	4408.128596
844.447756	4315.033608
844.762840	4233.172831
845.077881	4160.020648
845.392879	4096.091255
845.707833	4045.651990
846.022745	4004.697657
846.337613	3975.360662
846.652438	3931.752160
846.967221	3916.895880
847.281960	3884.897156
847.596656	3867.235473
847.911309	3847.975745
848.225919	3819.457938
848.540485	3804.382367
848.855009	3793.495996
849.169490	3769.273251
849.483928	3761.310749
849.798323	3750.315992
850.112675	3733.198754
850.426984	3738.928026
850.741251	3727.129205
851.055474	3720.197619
851.369654	3727.981160
851.683792	3717.800550
851.997887	3725.435378
852.311938	3727.802199
852.625947	3731.976275
852.939914	3722.781210
853.253837	3732.510637
853.567718	3727.832446
853.881555	3718.465982
854.195350	3732.334197
854.509103	3726.975450
854.822812	3728.182806
855.136479	3716.484809
855.450103	3729.369998
855.763685	3715.577401
856.077224	3715.345508
856.390720	3731.865369
856.704173	3749.466558
857.017584	3763.443157
857.330953	3776.535033
857.644278	3794.418527
857.957561	3804.326915
858.270802	3802.383550
858.584000	3807.076864
858.897155	3803.606030
859.210268	3788.459883
859.523339	3767.914660
859.836367	3762.210595
860.149352	3755.185747
860.462295	3745.955394
860.775195	3737.461050
861.088054	3731.305801
861.400869	3728.245821
861.713642	3727.320769
862.026373	3740.969693
862.339062	3741.660331
862.651708	3759.488372
862.964312	3790.635141
863.276873	3800.011687
863.589392	3851.388606
863.901869	3893.822519
864.214303	3939.167698
864.526696	3973.220692
864.839045	4019.221221
865.151353	4045.226013
865.463619	4056.122467
865.775842	4063.396852
866.088023	4084.146241
866.400162	4072.544026
866.712258	4077.726332
867.024313	4085.691355
867.336325	4080.440993
867.648296	4085.918207
867.960224	4088.537086
868.272110	4095.942541
868.583954	4096.534877
868.895755	4111.302937
869.207515	4106.387812
869.519233	4144.680417
869.830909	4154.722395
870.142542	4179.736600
870.454134	4192.299156
870.765684	4222.858630
871.077191	4257.299793
871.388657	4279.755613
871.700081	4313.281807
872.011463	4352.761603
872.322803	4384.225965
872.634101	4417.583280
872.945357	4457.163899
873.256571	4505.327083
873.567744	4538.986868
873.878874	4552.285431
874.189963	4596.017441
874.501010	4603.808544
874.812015	4602.707052
875.122979	4644.339421
875.433900	4646.940657
875.744780	4656.680166
876.055618	4679.531716
876.366415	4680.401315
876.677169	4694.377914
876.987882	4737.872990
877.298554	4782.507366
877.609183	4851.379610
877.919771	4944.893013
878.230317	5071.443619
878.540822	5254.182925
878.851285	5535.522160
879.161707	5930.476399
879.472087	6575.353402
879.782425	7597.114628
880.092722	9430.801572
880.402977	12290.920371
880.713191	15852.583784
881.023363	19593.714794
881.333494	22101.862752
881.643583	23580.042486
881.953631	23787.110401
882.263637	23138.139981
882.573602	21822.260195
882.883526	20370.607013
883.193408	18776.828581
883.503248	17154.607958
883.813048	15663.454815
884.122806	14277.886119
884.432522	12836.874812
884.742197	11599.498395
885.051831	10513.454896
885.361424	9509.516669
885.670975	8673.660594
885.980485	7984.633165
886.289954	7402.067345
886.599382	6927.238543
886.908768	6544.254524
887.218113	6184.767323
887.527417	5895.619341
887.836680	5633.159227
888.145901	5411.295526
888.455082	5245.315536
888.764221	5088.518007
889.073319	4958.728460
889.382376	4879.526892
889.691392	4816.598169
890.000366	4787.939209
890.309300	4765.243934
890.618193	4770.524543
890.927044	4755.572481
891.235855	4773.075367
891.544625	4792.947595
891.853353	4841.468701
892.162041	4936.630562
892.470687	5099.850521
892.779293	5312.793901
893.087858	5631.039422
893.396381	6135.195136
893.704864	6814.525905
894.013306	7842.994386
894.321707	8991.666661
894.630068	9888.709741
894.938387	10243.223844
895.246665	10126.947110
895.554903	9597.288198
895.863100	8943.211090
896.171256	8409.806601
896.479371	7913.008452
896.787446	7425.357475
897.095480	7002.646643
897.403473	6687.289703
897.711425	6376.396704
898.019336	6119.867508
898.327207	5850.919430
898.635038	5624.647239
898.942827	5378.956524
899.250576	5180.403118
899.558284	4986.298531
899.865952	4862.081979
900.173579	4716.909351
900.481165	4609.215182
900.788711	4517.924927
901.096216	4443.517496
901.403681	4376.087022
901.711105	4348.070810
902.018489	4320.432684
902.325832	4377.654821
902.633135	4461.738747
902.940397	4728.836721
903.247619	5341.566286
903.554800	6536.992742
903.861941	8311.599883
904.169041	9906.792359
904.476101	10769.923598
904.783121	10631.115426
905.090100	9999.247121
905.397039	9208.189259
905.703938	8473.133576
906.010796	7802.433262
906.317614	7260.201714
906.624391	6743.909422
906.931129	6323.981307
907.237826	5936.387152
907.544483	5574.596143
907.851099	5209.432603
908.157675	4857.217266
908.464211	4529.201988
908.770707	4281.431797
909.077163	4076.483687
909.383578	3928.878703
909.689954	3803.701812
909.996289	3727.769432
910.302584	3663.348527
910.608839	3623.858648
910.915054	3591.108792
911.221229	3578.952050
911.527363	3589.735078
911.833458	3593.919235
912.139513	3614.104015
912.445527	3640.665855
912.751502	3709.775033
913.057436	3796.911377
913.363331	3909.185435
913.669186	4093.706789
913.975000	4310.582269
914.280775	4670.192979
914.586510	5172.995143
914.892205	5865.962233
915.197859	6804.564585
915.503475	7949.647558
915.809050	9027.652937
916.114585	9734.994877
916.420081	10111.248957
916.725536	10165.801803
917.030952	9793.653744
917.336328	9433.183517
917.641665	9055.394407
917.946961	8596.848532
918.252218	8196.422121
918.557435	7702.583128
918.862612	7289.558873
919.167750	6928.143430
919.472848	6519.290730
919.777906	6162.225803
920.082925	5808.455270
920.387904	5441.262665
920.692843	5174.676368
920.997743	4920.423253
921.302603	4685.588662
921.607423	4519.729660
921.912204	4357.787634
922.216946	4239.363368
922.521647	4123.436994
922.826310	4019.758104
923.130932	3927.033640
923.435516	3830.240966
923.740059	3759.092641
924.044564	3682.285621
924.349028	3629.053557
924.653454	3564.856983
924.957840	3497.718897
925.262186	3452.845066
925.566493	3394.468504
925.870761	3335.141685
926.174989	3298.797486
926.479178	3263.234667
926.783328	3223.039026
927.087438	3200.399204
927.391509	3163.694563
927.695541	3131.521919
927.999533	3106.353959
928.303486	3088.467945
928.607400	3068.436920
928.911275	3057.285888
929.215110	3040.463558
929.518906	3029.037782
929.822663	3031.336548
930.126381	3027.467463
930.430060	3030.552649
930.733699	3032.037269
931.037299	3041.454144
931.340861	3044.191491
931.644383	3050.387069
931.947866	3049.298180
932.251309	3046.331461
932.554714	3046.223076
932.858080	3037.264945
933.161407	3029.050385
933.464694	3024.967051
933.767943	3018.542100
934.071153	3015.197294
934.374323	3005.268742
934.677455	2999.332783
934.980548	2990.702328
935.283602	2986.167810
935.586617	2984.264774
935.889593	2991.866834
936.192530	2994.059736
936.495428	3001.782784
936.798287	3018.985722
937.101108	3050.061914
937.403890	3094.386260
937.706632	3151.061432
938.009336	3225.761249
938.312002	3298.714307
938.614628	3360.009697
938.917216	3414.033222
939.219765	3452.046043
939.522275	3483.961588
939.824747	3489.496775
940.127179	3490.774707
940.429573	3486.492247
940.731929	3486.819922
941.034246	3471.109166
941.336524	3463.123978
941.638763	3450.785754
941.940964	3435.627005
942.243126	3398.947569
942.545250	3374.765154
942.847335	3341.450689
943.149381	3305.545071
943.451389	3275.961059
943.753359	3240.196593
944.055290	3215.552913
944.357182	3191.093234
944.659036	3174.112108
944.960851	3164.039882
945.262628	3150.491781
945.564367	3150.574960
945.866067	3147.000782
946.167729	3139.852426
946.469352	3136.704226
946.770937	3138.055255
947.072484	3122.677215
947.373992	3124.592853
947.675462	3118.815691
947.976893	3099.223247
948.278286	3095.444902
948.579641	3086.690938
948.880958	3081.196081
949.182236	3084.102306
949.483476	3076.749783
949.784678	3073.959504
950.085841	3079.063673
950.386967	3083.852769
950.688054	3100.402877
950.989103	3116.143880
951.290114	3135.048207
951.591087	3159.041578
951.892021	3184.859848
952.192917	3215.661298
952.493776	3242.757500
952.794596	3253.583377
953.095378	3258.291815
953.396122	3254.445415
953.696828	3248.055752
953.997496	3238.611151
954.298126	3220.120198
954.598718	3202.975234
954.899272	3179.062521
955.199788	3152.740136
955.500266	3125.046557
955.800706	3089.914756
956.101108	3054.672050
956.401472	3023.232894
956.701798	2992.658296
957.002087	2952.734878
957.302337	2925.313521
957.602550	2897.995509
957.902724	2867.385622
958.202861	2846.437108
958.502960	2822.395845
958.803022	2803.461271
959.103045	2782.139711
959.403031	2765.503903
959.702979	2751.353384
960.002889	2739.577249
960.302762	2729.867987
960.602596	2717.428940
960.902393	2708.203628
961.202153	2698.759026
961.501875	2691.908098
961.801559	2685.069773
962.101205	2682.602128
962.400814	2671.957732
962.700385	2668.007988
962.999918	2660.163952
963.299414	2654.210350
963.598873	2652.226656
963.898293	2645.809267
964.197677	2646.469658
964.497022	2643.780202
964.796331	2641.148720
965.095601	2639.086888
965.394835	2637.125879
965.694030	2635.941208
965.993189	2634.333080
966.292309	2633.097997
966.591393	2632.369551
966.890439	2632.823255
967.189447	2633.642442
967.488419	2629.463326
967.787353	2633.493728
968.086249	2635.840385
968.385108	2634.703605
968.683930	2636.155457
968.982714	2639.006230
969.281462	2644.576705
969.580172	2650.794968
969.878844	2653.529794
970.177480	2661.393994
970.476078	2667.156033
970.774639	2676.749349
971.073162	2685.137829
971.371649	2690.703262
971.670098	2695.210054
971.968510	2699.663913
972.266885	2703.172557
972.565223	2708.097764
972.863524	2710.063814
973.161788	2714.406768
973.460014	2716.599670
973.758204	2720.786348
974.056356	2721.388766
974.354471	2724.975547
974.652550	2725.308263
974.950591	2725.189796
975.248595	2722.061760
975.546563	2721.965978
975.844493	2716.448435
976.142386	2711.888712
976.440243	2705.662887
976.738062	2703.117104
977.035845	2697.871783
977.333590	2690.594878
977.631299	2683.628003
977.928971	2680.240348
978.226606	2672.638288
978.524204	2672.005623
978.821765	2664.862308
979.119290	2670.578976
979.416777	2668.040755
979.714228	2668.532268
980.011642	2672.081240
980.309020	2678.380162
980.606360	2691.184693
980.903664	2709.693289
981.200931	2741.379462
981.498162	2779.687190
981.795356	2846.542972
982.092513	2927.806372
982.389633	3021.355064
982.686717	3121.386680
982.983764	3197.099769
983.280775	3253.996752
983.577749	3272.608692
983.874686	3264.444543
984.171587	3239.717684
984.468451	3205.636963
984.765279	3162.315808
985.062070	3121.923563
985.358824	3079.194742
985.655543	3027.185158
985.952224	2975.946871
986.248869	2914.018816
986.545478	2857.426823
986.842050	2804.111580
987.138586	2757.362440
987.435086	2714.747046
987.731549	2686.148580
988.027975	2657.449291
988.324366	2642.923206
988.620719	2625.957203
988.917037	2615.214504
989.213318	2603.811414
989.509563	2597.726742
989.805772	2595.874117
990.101944	2588.680391
990.398080	2588.546800
990.694180	2587.556214
990.990244	2584.145873
991.286271	2587.074783
991.582262	2584.450863
991.878217	2588.798858
992.174136	2593.615681
992.470019	2593.159456
992.765865	2595.193562
993.061676	2595.188521
993.357450	2606.813421
993.653188	2612.096551
993.948890	2629.304529
994.244556	2643.364307
994.540186	2664.317863
994.835780	2694.121165
995.131337	2728.746330
995.426859	2767.059099
995.722345	2811.499391
996.017795	2859.226515
996.313208	2899.694378
996.608586	2927.219078
996.903928	2945.979732
997.199234	2949.977367
997.494504	2949.385031
997.789738	2937.223247
998.084936	2916.554517
998.380099	2886.277347
998.675225	2859.894468
998.970316	2831.411949
999.265371	2797.328707
999.560390	2760.702204
999.855373	2732.181876
1000.150320	2701.519058
1000.445232	2677.823114
1000.740108	2655.521050
1001.034948	2639.966570
1001.329752	2622.199023
1001.624521	2609.351642
1001.919254	2599.443254
1002.213951	2590.104517
1002.508613	2582.391552
1002.803239	2576.047259
1003.097829	2575.071796
1003.392384	2566.199365
1003.686903	2561.594271
1003.981386	2556.858107
1004.275834	2557.518498
1004.570246	2550.954916
1004.864623	2549.656819
1005.158964	2545.195398
1005.453270	2544.282949
1005.747540	2544.842517
1006.041775	2542.160623
1006.335974	2536.108718
1006.630138	2539.922351
1006.924266	2538.525951
1007.218359	2537.147196
1007.512416	2535.211393
1007.806438	2531.087729
1008.100425	2535.168543
1008.394376	2529.048582
1008.688292	2535.027391
1008.982172	2532.579910
1009.276017	2531.773326
1009.569827	2531.102852
1009.863602	2531.329704
1010.157341	2533.472195
1010.451045	2527.478263
1010.744714	2528.461288
1011.038347	2527.269055
1011.331945	2526.023890
1011.625508	2525.434075
1011.919036	2528.050434
1012.212528	2523.132788
1012.505986	2525.310567
1012.799408	2524.022552
1013.092795	2525.224867
1013.386147	2524.549352
1013.679464	2522.603467
1013.972745	2523.468025
1014.265992	2521.290246
1014.559204	2522.631193
1014.852380	2521.189423
1015.145521	2523.563807
1015.438628	2519.677077
1015.731699	2522.192613
1016.024736	2520.690349
1016.317737	2524.080525
1016.610703	2523.616739
1016.903635	2528.839374
1017.196531	2529.121679
1017.489393	2530.485311
1017.782219	2529.577903
1018.075011	2529.714014
1018.367768	2531.057482
1018.660490	2531.866587
1018.953177	2531.866587
1019.245829	2531.866587
