Dividing Wavelength (nm)	Counts (n)	Blue Motor Position (mm): 24.000000	Red Motor Position (mm): 0.000000	
326.493990	2066.636143
326.888308	2066.636143
327.282561	2066.636143
327.676750	2042.736032
328.070874	2045.160827
328.464933	2049.985212
328.858929	2059.880997
329.252859	2067.783005
329.646726	2081.943606
330.040528	2097.843406
330.434265	2114.118771
330.827938	2137.391258
331.221547	2155.521767
331.615091	2175.552792
332.008571	2197.501976
332.401986	2218.803372
332.795338	2237.967318
333.188625	2256.448188
333.581847	2274.893770
333.975006	2296.701801
334.368100	2312.329378
334.761129	2324.881851
335.154095	2343.004799
335.546996	2391.742675
335.939833	2487.625421
336.332606	2496.394508
336.725315	2514.091479
337.117960	2522.921060
337.510540	2531.864067
337.903056	2541.001158
338.295508	2549.067004
338.687896	2554.743343
339.080220	2560.207954
339.472480	2566.285065
339.864676	2570.774212
340.256807	2571.177505
340.648875	2576.715212
341.040879	2573.624985
341.432818	2575.540623
341.824694	2578.691345
342.216506	2574.257650
342.608253	2576.826118
342.999937	2575.570870
343.391557	2573.826631
343.783113	2573.619944
344.174605	2572.934347
344.566033	2567.908317
344.957397	2567.683985
345.348697	2566.138872
345.739934	2565.672565
346.131106	2565.624674
346.522215	2561.329611
346.913260	2564.069478
347.304241	2560.308777
347.695159	2556.555638
348.086012	2552.802499
348.476802	2555.249979
348.867528	2552.134546
349.258191	2543.620037
349.648789	2547.695810
350.039324	2543.521735
350.429796	2549.739998
350.820203	2548.063814
351.210548	2546.836293
351.600828	2545.898639
351.991045	2544.051056
352.381198	2543.932589
352.771288	2543.473844
353.161314	2543.620037
353.551276	2541.651467
353.941175	2543.927548
354.331010	2546.526263
354.720782	2545.674308
355.110490	2549.019113
355.500135	2541.805222
355.889717	2546.440563
356.279235	2543.105840
356.668689	2544.411498
357.058080	2543.592311
357.447408	2544.487116
357.836672	2542.110212
358.225873	2545.996941
358.615010	2548.991387
359.004084	2547.733619
359.393095	2550.012220
359.782043	2550.549103
360.170927	2549.306459
360.559748	2548.575492
360.948505	2548.888043
361.337199	2550.304607
361.725830	2551.587581
362.114398	2549.828218
362.502903	2552.835267
362.891344	2552.197561
363.279722	2551.907694
363.668037	2551.988353
364.056289	2552.333672
364.444478	2558.597305
364.832603	2556.459856
365.220665	2554.377860
365.608665	2558.567058
365.996601	2554.186296
366.384474	2557.168138
366.772284	2555.794424
367.160031	2556.900957
367.547715	2556.285936
367.935336	2556.679146
368.322893	2554.927345
368.710388	2555.673436
369.097820	2553.440205
369.485189	2552.333672
369.872495	2558.567058
370.259738	2557.445402
370.646918	2557.838612
371.034035	2560.376833
371.421090	2559.519837
371.808081	2561.150650
372.195010	2558.360371
372.581875	2559.272820
372.968678	2559.600495
373.355418	2560.180228
373.742096	2558.740978
374.128710	2560.921277
374.515262	2561.117882
374.901751	2562.516802
375.288177	2563.230126
375.674540	2560.878428
376.060841	2565.659962
376.447079	2564.618964
376.833254	2564.175342
377.219367	2561.725341
377.605417	2563.887996
377.991404	2566.393450
378.377329	2563.633418
378.763191	2566.438820
379.148991	2567.918399
379.534727	2566.038048
379.920402	2565.823799
380.306013	2566.204407
380.691563	2565.559139
381.077049	2566.582493
381.462474	2563.882955
381.847835	2565.518810
382.233134	2568.969479
382.618371	2566.784139
383.003545	2569.430745
383.388657	2571.482495
383.773706	2567.026115
384.158693	2568.828327
384.543618	2568.883780
384.928480	2569.680282
385.313280	2566.658110
385.698017	2569.589541
386.082692	2570.227247
386.467305	2571.099367
386.851856	2569.972669
387.236344	2568.659448
387.620770	2568.954356
388.005133	2566.305230
388.389435	2569.894531
388.773674	2564.026628
389.157851	2572.379820
389.541965	2572.745304
389.926018	2573.607341
390.310008	2572.722618
390.693936	2571.273287
391.077802	2574.439131
391.461606	2574.532393
391.845348	2573.738411
392.229027	2574.754203
392.612645	2574.061045
392.996200	2572.720098
393.379694	2574.550037
393.763125	2577.015161
394.146494	2574.003072
394.529801	2574.061045
394.913047	2575.681776
395.296230	2573.806467
395.679351	2574.799574
396.062410	2575.447362
396.445408	2576.843762
396.828343	2578.046077
397.211217	2575.306210
397.594028	2577.027764
397.976778	2576.490881
398.359466	2578.915676
398.742092	2577.204204
399.124656	2578.867785
399.507158	2578.923238
399.889598	2580.420460
400.271977	2578.237641
400.654294	2576.889132
401.036549	2579.576067
401.418742	2580.380131
401.800874	2579.359297
402.182944	2580.410378
402.564952	2583.336768
402.946898	2578.293093
403.328783	2582.812488
403.710606	2579.397106
404.092367	2579.666808
404.474067	2580.801067
404.855705	2583.598908
405.237282	2582.436922
405.618797	2581.363156
406.000250	2583.140163
406.381642	2582.893146
406.762972	2582.598239
407.144240	2579.356777
407.525447	2585.176789
407.906593	2577.841910
408.287677	2585.451532
408.668700	2585.602767
409.049661	2588.287181
409.430560	2584.682756
409.811399	2585.854824
410.192176	2586.237952
410.572891	2587.289032
410.953545	2587.788107
411.334138	2585.544793
411.714669	2587.384814
412.095139	2588.292222
412.475547	2587.389856
412.855894	2587.215936
413.236180	2584.546645
413.616405	2587.102510
413.996568	2584.148394
414.376670	2586.127047
414.756711	2586.890781
415.136691	2589.953282
415.516609	2586.280802
415.896466	2586.641244
416.276262	2589.219794
416.655997	2587.715010
417.035670	2589.169383
417.415283	2594.253387
417.794834	2591.412696
418.174324	2587.946903
418.553753	2589.325659
418.933121	2591.752974
419.312428	2591.145515
419.691674	2590.041502
420.070859	2588.965216
420.449983	2593.230032
420.829045	2590.144846
421.208047	2594.921339
421.586988	2591.390011
421.965867	2594.374374
422.344686	2590.162490
422.723444	2594.502924
423.102141	2593.078798
423.480777	2592.829261
423.859352	2593.635845
424.237866	2596.584920
424.616319	2592.345310
424.994712	2595.879159
425.373044	2593.474528
425.751314	2594.361771
426.129524	2590.681729
426.507673	2591.765577
426.885762	2591.589137
427.263789	2595.632142
427.641756	2594.860846
428.019662	2595.503593
428.397508	2594.611308
428.775292	2596.554673
429.153016	2595.526278
429.530679	2596.978130
429.908282	2599.223964
430.285824	2598.487956
430.663305	2596.940322
431.040726	2597.129365
431.418086	2599.889397
431.795385	2600.993409
432.172624	2598.876125
432.549802	2598.646752
432.926920	2598.659355
433.303977	2598.150198
433.680974	2596.446288
434.057910	2599.229005
434.434786	2600.690940
434.811601	2600.822010
435.188355	2599.970055
435.565050	2599.133223
435.941683	2600.131372
436.318257	2601.358893
436.694770	2601.580704
437.071222	2598.553491
437.447614	2601.837802
437.823946	2601.762185
438.200218	2603.022474
438.576429	2602.150354
438.952580	2601.343769
439.328670	2602.276383
439.704700	2606.957094
440.080670	2604.008019
440.456580	2602.220930
440.832429	2606.344594
441.208218	2605.979110
441.583947	2609.689400
441.959616	2605.170005
442.335224	2604.688575
442.710773	2608.751745
443.086261	2609.739811
443.461689	2610.465737
443.837057	2609.240737
444.212365	2610.954729
444.587612	2607.418360
444.962800	2608.229986
445.337927	2607.168823
445.712995	2608.413988
446.088002	2614.750718
446.462949	2612.716612
446.837837	2614.594442
447.212664	2615.027982
447.587431	2618.118209
447.962139	2620.323714
448.336786	2620.026286
448.711374	2622.932511
449.085901	2620.787500
449.460369	2623.129116
449.834776	2622.314969
450.209124	2626.541977
450.583412	2626.753705
450.957640	2627.504837
451.331808	2628.218161
451.705917	2626.572224
452.079965	2623.744137
452.453954	2626.088273
452.827883	2630.340486
453.201752	2628.621453
453.575562	2631.255456
453.949311	2631.318470
454.323001	2635.300982
454.696632	2638.602937
455.070202	2638.252577
455.443713	2640.546302
455.817164	2644.102836
456.190556	2645.736170
456.563888	2649.380924
456.937160	2649.892602
457.310373	2652.226656
457.683526	2654.759836
458.056619	2657.870227
458.429653	2661.409117
458.802628	2664.118738
459.175542	2667.292144
459.548398	2677.258505
459.921194	2684.106913
460.293930	2691.522450
460.666607	2702.459233
461.039224	2714.421891
461.411782	2725.749364
461.784280	2726.099724
462.156719	2734.533575
462.529099	2739.302506
462.901419	2745.062024
463.273680	2746.075296
463.645882	2755.335896
464.018024	2766.922988
464.390106	2780.592077
464.762130	2813.455359
465.134094	2854.707121
465.505999	2918.835639
465.877845	2979.846203
466.249631	3019.870444
466.621358	3029.131044
466.993026	3025.607277
467.364634	3037.728732
467.736184	3039.306613
468.107674	3048.728529
468.479105	3071.572518
468.850477	3091.447267
469.221790	3110.414608
469.593043	3111.634567
469.964238	3131.804224
470.335373	3159.515447
470.706449	3220.165569
471.077467	3295.510654
471.448425	3435.614402
471.819324	3556.390366
472.190164	3587.418667
472.560945	3549.431053
472.931667	3519.506763
473.302330	3547.568346
473.672934	3568.854618
474.043479	3635.627222
474.413965	3671.366482
474.784393	3707.234292
475.154761	3793.702683
475.525070	3855.945809
475.895321	3902.974734
476.265513	3991.845235
476.635645	4092.779217
477.005719	4156.179288
477.375734	4255.195112
477.745691	4371.129047
478.115588	4500.885827
478.485427	4686.276780
478.855207	4948.280669
479.224928	5227.122012
479.594591	5462.811077
479.964194	5516.816958
480.333739	5645.119365
480.703226	5777.190034
481.072653	5949.416014
481.442022	6129.841431
481.811333	6294.530886
482.180584	6355.501121
482.549777	6449.407735
482.918912	6535.482916
483.287988	6664.460837
483.657005	6767.081086
484.025964	6832.636250
484.394864	6986.767008
484.763706	7109.040195
485.132489	7160.412073
485.501213	7311.099723
485.869879	7480.651371
486.238487	7617.251517
486.607036	7814.607649
486.975527	7905.497132
487.343959	8122.354968
487.712333	8350.565482
488.080648	8507.395778
488.448905	8764.892875
488.817104	8900.557887
489.185244	9272.070761
489.553326	9691.013331
489.921350	10366.101969
490.289315	11213.824920
490.657222	11668.897439
491.025070	12035.432174
491.392861	12180.156139
491.760593	12198.110208
492.128267	12120.368054
492.495883	12060.219527
492.863440	12012.401663
493.230939	11940.618152
493.598380	11979.112403
493.965763	12145.740182
494.333088	12198.170702
494.700354	12354.852284
495.067563	12563.238461
495.434713	12753.282399
495.801805	13079.291298
496.168839	13249.639448
496.535815	13416.312597
496.902733	13689.220502
497.269593	13845.249254
497.636395	14132.209375
498.003139	14461.895796
498.369825	14592.050826
498.736453	14997.566283
499.103023	15160.304811
499.469535	15438.949549
499.835989	15725.947479
500.202385	15893.243210
500.568723	16151.657797
500.935003	16534.916560
501.301226	16703.316304
501.667390	17300.206563
502.033497	17657.417684
502.399546	17801.589643
502.765537	17834.611721
503.131470	18339.511005
503.497345	18817.624118
503.863163	18491.088419
504.228923	19143.627976
504.594625	19609.481003
504.960269	19552.074863
505.325856	20181.934269
505.691385	20221.890454
506.056856	20648.407357
506.422270	21191.064884
506.787625	21132.761419
507.152924	21632.889251
507.518164	21987.713385
507.883347	21955.581070
508.248472	22273.662755
508.613540	22937.108848
508.978550	23319.061951
509.343503	23459.780720
509.708398	23920.151492
510.073236	24549.398397
510.438016	24853.919378
510.802738	24848.061557
511.167403	25437.894201
511.532010	25843.515522
511.896561	26420.221001
512.261053	27202.280403
512.625488	27251.169513
512.989866	27423.423219
513.354186	27674.024018
513.718449	27842.615326
514.082655	28715.720487
514.446803	28688.079841
514.810894	29372.978564
515.174927	29569.437370
515.538904	29780.838157
515.902822	30469.316099
516.266684	30418.803738
516.630488	30873.835928
516.994235	31067.633005
517.357925	31721.248848
517.721558	32103.602724
518.085133	32594.001129
518.448651	32920.002466
518.812112	32999.524147
519.175516	33308.458657
519.538863	33856.805126
519.902152	34072.165739
520.265385	34696.071542
520.628560	34882.735386
520.991678	34979.616281
521.354739	35325.061348
521.717743	35790.808511
522.080690	35872.752467
522.443580	36608.171113
522.806413	36740.019972
523.169189	37009.633482
523.531908	37360.870835
523.894569	37352.482355
524.257174	37673.573608
524.619722	38101.958259
524.982213	38364.993064
525.344647	38530.499186
525.707025	38757.204916
526.069345	39263.493038
526.431608	39312.840892
526.793815	39764.578689
527.155964	39471.604471
527.518057	39797.404162
527.880093	39780.531420
528.242072	40453.666611
528.603995	40317.883132
528.965860	40346.307678
529.327669	40639.528912
529.689421	40765.104054
530.051117	40822.336274
530.412755	41151.795842
530.774337	41299.589870
531.135862	41314.977992
531.497331	41541.305635
531.858743	41601.227311
532.220098	42061.703947
532.581396	41869.613300
532.942638	41726.194994
533.303824	42023.577700
533.664953	42159.958556
534.026025	41922.542895
534.387040	42501.927748
534.747999	42615.973771
535.108902	43007.537834
535.469748	42410.584561
535.830537	42718.336921
536.191270	42994.508972
536.551947	42806.277329
536.912567	43120.706697
537.273131	43288.337665
537.633638	42958.661327
537.994089	43164.413501
538.354483	42974.949295
538.714821	43641.594001
539.075103	43955.685612
539.435328	43867.999782
539.795497	43673.300338
540.155609	43843.479609
540.515665	44433.322336
540.875665	43764.799801
541.235609	44061.010439
541.595496	44243.772430
541.955328	44827.674157
542.315102	44289.223473
542.674821	44227.129061
543.034483	44155.237166
543.394090	44185.781517
543.753640	44207.508890
544.113134	45256.129384
544.472571	44413.505560
544.831953	45526.257092
545.191278	44817.733002
545.550548	44544.714192
545.909761	45178.089802
546.268918	45326.803840
546.628019	45739.540750
546.987064	45211.989041
547.346053	44540.787133
547.704986	45456.666484
548.063863	45100.924860
548.422684	45314.097612
548.781449	44908.153657
549.140158	45455.449045
549.498811	45234.422176
549.857408	44647.243699
550.215949	45476.500904
550.574434	45328.464901
550.932864	45279.197704
551.291237	45992.223545
551.649555	45750.966525
552.007817	45911.290341
552.366022	45637.938815
552.724173	45712.101749
553.082267	46121.146014
553.440305	46490.334916
553.798288	45757.691424
554.156215	46146.777760
554.514086	46343.163470
554.871902	45962.899153
555.229661	46122.907897
555.587365	45834.417786
555.945014	45974.463560
556.302606	45982.121073
556.660143	46079.100270
557.017625	46308.850857
557.375050	46001.113620
557.732421	46402.591112
558.089735	46476.197000
558.446994	46350.672269
558.804197	46845.895058
559.161345	46713.612661
559.518437	46079.758141
559.875474	46296.048846
560.232455	46536.416103
560.589381	46561.294197
560.946251	46415.836744
561.303065	47055.831389
561.659825	46737.250631
562.016528	46560.497695
562.373177	46162.894329
562.729770	46788.418342
563.086307	46299.171841
563.442789	46849.915378
563.799216	46693.077520
564.155587	46603.665095
564.511904	46581.547033
564.868164	46621.213352
565.224370	46951.524875
565.580520	46672.252514
565.936615	46869.911115
566.292654	46520.473454
566.648638	46895.590753
567.004567	46852.965276
567.360441	46916.176304
567.716260	46646.933319
568.072023	47033.950261
568.427732	46963.021227
568.783385	46520.382713
569.138982	46919.652180
569.494525	47052.980617
569.850013	46668.779159
570.205445	46797.290773
570.560823	46560.888384
570.916145	46431.620597
571.271412	46666.498037
571.626625	46304.502861
571.981782	46409.126968
572.336884	46027.844338
572.691931	46348.411311
573.046923	46027.942641
573.401860	45851.058635
573.756743	45879.659621
574.111570	46007.568817
574.466342	45927.573268
574.821059	46092.557630
575.175722	45588.890908
575.530330	45680.649991
575.884882	45351.901225
576.239380	45247.443476
576.593823	45331.948338
576.948211	45282.330781
577.302544	44832.700187
577.656823	44805.548533
578.011047	45099.898985
578.365216	44945.117918
578.719330	44668.794632
579.073389	44624.561027
579.427394	44693.763467
579.781344	44611.418739
580.135239	44358.902302
580.489080	44431.983909
580.842866	43942.898725
581.196597	44408.514817
581.550273	44405.018777
581.903895	44347.668091
582.257463	44779.924348
582.610975	44220.719234
582.964434	44533.800093
583.317837	44062.404318
583.671186	44008.829455
584.024481	44303.610927
584.377721	43861.259759
584.730906	44076.590125
585.084037	44244.314354
585.437113	43939.677428
585.790135	44069.003188
586.143103	43638.163495
586.496016	43812.388293
586.848874	43922.527422
587.201679	43949.784941
587.554428	43462.612874
587.907124	43720.152822
588.259765	43490.485414
588.612352	43650.042974
588.964884	43123.297850
589.317362	43403.089450
589.669786	43427.629787
590.022155	43294.621464
590.374470	43754.614149
590.726731	43363.569325
591.078937	42691.603682
591.431090	43054.781008
591.783188	42573.018099
592.135232	42384.859552
592.487222	42649.384018
592.839157	42796.500011
593.191038	42431.883436
593.542866	42250.117072
593.894639	41633.188226
594.246358	41949.840743
594.598022	41960.407002
594.949633	41537.108875
595.301190	41530.295755
595.652692	41472.047743
596.004141	41988.773574
596.355535	40879.780222
596.706876	40889.013095
597.058162	40609.481114
597.409395	41095.806267
597.760573	41334.406599
598.111698	40946.852774
598.462768	40871.485003
598.813785	40901.235373
599.164748	40501.391214
599.515657	40773.263162
599.866511	40290.429008
600.217312	40971.889664
600.568060	39919.911762
600.918753	40741.703018
601.269392	40650.485860
601.619978	40393.278629
601.970510	40612.959511
602.320988	40746.844995
602.671412	40994.158962
603.021783	40862.201718
603.372100	40461.356891
603.722363	40556.543958
604.072572	40586.455644
604.422728	40584.514800
604.772830	40364.803671
605.122878	40536.268437
605.472872	40397.077138
605.822813	40643.987812
606.172701	40390.969780
606.522534	40723.554864
606.872314	40929.057501
607.222041	40764.489033
607.571714	41086.643970
607.921333	40603.693870
608.270899	40798.733592
608.620411	41166.263954
608.969870	40938.106372
609.319276	40962.639147
609.668627	40974.410241
610.017926	41373.462939
610.367171	41516.059537
610.716362	41568.606004
611.065500	41450.184259
611.414585	41699.938144
611.763616	41867.916952
612.112594	41768.422219
612.461518	41892.139696
612.810389	42264.295317
613.159207	42057.774368
613.507971	42021.213399
613.856682	42554.141499
614.205340	42362.617982
614.553945	43061.790732
614.902496	42399.662901
615.250994	42822.353568
615.599439	42900.841813
615.947830	42983.796520
616.296169	42998.607430
616.644454	43051.743712
616.992686	43211.795306
617.340864	43643.217252
617.688990	43139.671518
618.037063	43822.934387
618.385082	43638.365142
618.733048	44002.603630
619.080961	43864.342424
619.428821	43913.302111
619.776628	43949.046412
620.124382	43781.279333
620.472083	43886.906629
620.819731	43997.139020
621.167326	43585.821195
621.514868	43559.128285
621.862357	43042.934296
622.209793	43146.028413
622.557176	42712.640417
622.904506	42486.781601
623.251783	42129.855306
623.599007	41820.036073
623.946179	41751.022677
624.293297	41479.521254
624.640363	40938.411362
624.987376	40796.487757
625.334336	40614.393719
625.681243	40206.801307
626.028097	40116.093305
626.374899	39937.858270
626.721647	39906.212427
627.068343	39664.693266
627.414987	39379.028722
627.761577	39142.175150
628.108115	39455.669384
628.454600	38690.104637
628.801032	38949.429153
629.147412	38833.840536
629.493739	38736.861339
629.840014	38274.080896
630.186236	38730.985874
630.532405	38146.660691
630.878521	38417.264788
631.224585	38177.189919
631.570597	37846.066769
631.916556	38016.767800
632.262462	37923.393028
632.608316	37878.768734
632.954117	37725.454643
633.299866	37677.999741
633.645562	37597.585776
633.991206	37097.460464
634.336797	36693.974072
634.682336	36588.250994
635.027823	36353.053441
635.373257	36256.643894
635.718639	35908.171614
636.063968	35807.411551
636.409245	35193.976225
636.754470	35134.576309
637.099642	34905.387811
637.444762	34340.536605
637.789829	34481.507431
638.134845	34067.807661
638.479808	33992.137422
638.824719	33946.908189
639.169577	33437.197124
639.514383	33551.316244
639.859137	33170.136958
640.203839	33323.236800
640.548489	33056.428692
640.893086	33042.837741
641.237632	32741.590990
641.582125	32830.950483
641.926566	32625.392394
642.270955	32662.936387
642.615292	32588.614656
642.959576	32484.499705
643.303809	32476.164158
643.647990	32582.572833
643.992118	32547.783830
644.336195	32367.791953
644.680219	32441.927161
645.024192	32627.378608
645.368112	33157.803775
645.711981	33176.183822
646.055797	33861.576578
646.399562	33659.017975
646.743274	34525.085686
647.086935	34915.689409
647.430544	34901.566617
647.774101	34925.749032
648.117606	35241.836939
648.461059	35391.894445
648.804460	35007.987895
649.147810	34510.627656
649.491108	34203.918815
649.834354	34089.459417
650.177548	33292.710093
650.520690	32779.349232
650.863781	32750.458379
651.206820	32572.843406
651.549807	32153.464776
651.892742	31575.380541
652.235626	31482.073825
652.578458	31342.960664
652.921238	30650.832926
653.263967	30926.921799
653.606644	30621.563987
653.949269	30533.953774
654.291843	30145.888272
654.634365	30479.398407
654.976836	30043.255420
655.319255	30136.166406
655.661622	30002.033905
656.003938	29877.225018
656.346203	29687.770895
656.688416	29933.842217
657.030577	29723.633664
657.372687	29541.469049
657.714746	29683.029690
658.056753	29869.391065
658.398708	29250.221427
658.740612	29313.457660
659.082465	29526.401040
659.424266	29408.901826
659.766016	29420.672920
660.107715	29260.094526
660.449362	29366.949344
660.790958	29340.795838
661.132503	29261.022099
661.473996	29334.973305
661.815438	29420.655276
662.156829	29534.991166
662.498168	29341.942700
662.839456	29318.662652
663.180693	29429.825135
663.521879	29502.556382
663.863013	29435.962740
664.204097	29412.818803
664.545129	29837.800675
664.886110	29764.159499
665.227040	29875.954648
665.567918	29864.170951
665.908746	29917.392932
666.249522	30011.733085
666.590248	30045.539063
666.930922	30151.710804
667.271545	30155.290023
667.612118	30214.546266
667.952639	30027.688337
668.293109	30066.651415
668.633528	29921.214127
668.973896	29881.580575
669.314213	29859.744818
669.654480	29661.204014
669.994695	29647.829833
670.334859	29565.792616
670.674973	29377.296312
671.015035	29580.061602
671.355047	29508.875469
671.695008	29408.551466
672.034918	29330.837038
672.374777	29431.518963
672.714585	29301.222780
673.054342	29435.740929
673.394049	29298.876123
673.733705	29515.108855
674.073310	29214.769512
674.412864	29283.114955
674.752368	29017.607465
675.091820	29247.955428
675.431223	28841.787142
675.770574	28645.872780
676.109875	28484.780188
676.449125	28283.484395
676.788324	28183.979579
677.127473	27691.892388
677.466571	27599.019211
677.805619	27320.747518
678.144616	27254.700841
678.483562	27203.134878
678.822458	26881.804171
679.161303	26818.857803
679.500098	26738.738745
679.838842	26666.998085
680.177535	26713.258233
680.516179	26942.045959
680.854771	27002.996030
681.193314	27684.832252
681.531805	28648.779005
681.870247	29395.404137
682.208638	30182.623160
682.546978	30539.975432
682.885268	30729.290924
683.223508	30310.779373
683.561697	30059.659335
683.899836	29891.516690
684.237925	29484.435955
684.575963	29313.316508
684.913951	28931.965823
685.251889	29072.697194
685.589776	29073.602081
685.927614	29070.985722
686.265401	29229.023375
686.603137	29327.593056
686.940824	29802.923452
687.278460	30129.491919
687.616046	30315.192903
687.953582	30986.709883
688.291068	30914.633986
688.628504	31279.994132
688.965889	31304.814253
689.303224	31058.924412
689.640510	30798.163168
689.977745	30203.299452
690.314930	29474.827516
690.652065	29074.794314
690.989150	28401.195337
691.326185	27565.493017
691.663170	26945.347915
692.000105	26252.227070
692.336990	25637.481043
692.673825	25222.311777
693.010610	24721.856270
693.347345	24220.959662
693.684030	23601.185085
694.020665	23404.219642
694.357251	22735.455132
694.693786	22736.649886
695.030272	22501.767404
695.366707	22011.338753
695.703093	21725.792675
696.039429	21789.081841
696.375716	21547.678627
696.711952	21535.862163
697.048139	21409.016650
697.384276	21245.698389
697.720363	21362.353209
698.056400	21257.431674
698.392388	21090.566961
698.728326	21090.632496
699.064214	20940.108684
699.400053	20959.907815
699.735842	20568.071530
700.071581	20374.322343
700.407270	20154.545680
700.742910	19975.569595
701.078501	19726.375278
701.414042	19528.336070
701.749533	19230.542509
702.084974	18916.347554
702.420366	19146.357760
702.755709	18747.360516
703.091002	18443.787272
703.426246	18493.762751
703.761440	18435.413916
704.096584	18200.672587
704.431679	18136.576836
704.766725	18076.322445
705.101721	17987.308271
705.436668	18117.188559
705.771565	17813.481725
706.106413	18134.071383
706.441212	18203.951857
706.775961	18283.486142
707.110661	18355.783850
707.445311	18709.377942
707.779913	18598.921220
708.114465	18886.990395
708.448967	19191.650007
708.783421	19789.767788
709.117825	20138.023298
709.452180	20351.601863
709.786485	20781.551792
710.120742	21516.781396
710.454949	21613.601796
710.789107	22124.205146
711.123216	22809.597902
711.457275	23039.192213
711.791286	23623.567808
712.125247	23779.268886
712.459159	23558.363004
712.793023	24318.450537
713.126837	23337.290763
713.460602	23609.634059
713.794318	23301.538900
714.127985	23023.920037
714.461602	22142.897744
714.795171	22133.553966
715.128691	21155.413844
715.462162	20651.812657
715.795584	20235.317567
716.128957	19957.408838
716.462281	19580.330530
716.795556	19302.711668
717.128782	18836.974587
717.461960	18240.631293
717.795088	18209.476962
718.128167	17875.808030
718.461198	17421.201817
718.794180	17301.933159
719.127113	16978.089436
719.459997	16785.887883
719.792833	16406.387301
720.125619	16456.786237
720.458357	16113.115656
720.791046	15978.337887
721.123686	15827.927500
721.456278	15605.589931
721.788821	15596.737664
722.121315	15345.020250
722.453761	15430.329176
722.786158	15312.905579
723.118506	15392.785183
723.450805	15285.302742
723.783056	15464.838395
724.115259	15332.888713
724.447412	15323.991077
724.779518	15526.216963
725.111574	15574.992647
725.443582	15834.097873
725.775542	15785.546520
726.107453	16276.186900
726.439315	16190.250351
726.771129	16582.757110
727.102895	16986.319119
727.434612	17266.902181
727.766281	17438.319055
728.097901	17757.761851
728.429473	17864.447790
728.760996	17899.970281
729.092471	18009.345675
729.423897	17892.088437
729.755276	17737.239314
730.086606	17829.053849
730.417887	18361.414818
730.749120	18903.296007
731.080305	19117.479511
731.411442	19541.405261
731.742530	19651.352826
732.073570	19787.519433
732.404562	20094.808007
732.735506	20015.409834
733.066401	19900.506814
733.397249	19457.023907
733.728048	18871.292242
734.058798	18028.060959
734.389501	17281.382895
734.720156	16752.134838
735.050762	16170.254614
735.381320	15773.654438
735.711831	15478.870446
736.042293	15102.578559
736.372707	15119.085817
736.703073	14910.351801
737.033391	15083.941413
737.363661	15072.550926
737.693883	15179.569581
738.024056	15362.213105
738.354182	15569.717080
738.684260	15910.665438
739.014290	16189.655495
739.344272	16410.286634
739.674207	16750.151144
740.004093	16933.507992
740.333931	17007.481883
740.663722	17100.418075
740.993464	17150.668296
741.323159	17013.788367
741.652806	16736.928197
741.982405	16583.104949
742.311956	16230.534211
742.641460	16137.489635
742.970915	15808.307330
743.300323	15456.318845
743.629683	15250.357463
743.958996	14948.687255
744.288260	14643.079906
744.617477	14332.171784
744.946647	14295.895641
745.275768	13976.639368
745.604842	13777.506229
745.933869	13601.247326
746.262847	13565.465216
746.591778	13474.623624
746.920662	13346.890867
747.249498	13337.824352
747.578286	13480.171413
747.907027	13638.829128
748.235720	13898.030135
748.564365	13974.179285
748.892963	13925.701029
749.221514	14029.435372
749.550017	13920.536367
749.878473	13891.070822
750.206881	13678.331609
750.535242	13614.981950
750.863555	13532.135627
751.191821	13426.147888
751.520039	13432.048559
751.848210	13358.730017
752.176334	13398.955904
752.504411	13324.581241
752.832440	13149.141526
753.160421	13274.459569
753.488356	13165.837827
753.816243	13078.209970
754.144082	12902.112384
754.471875	12844.534846
754.799620	12806.116212
755.127318	12782.284157
755.454969	12776.156635
755.782572	12743.295873
756.110129	12743.931059
756.437638	12659.252277
756.765100	12664.089264
757.092515	12693.910210
757.419882	12720.547667
757.747203	12730.440931
758.074477	12807.283239
758.401703	12786.029735
758.728882	12966.291314
759.056014	13015.135053
759.383099	13174.455680
759.710138	13304.058704
760.037129	13436.613324
760.364073	13500.038601
760.690970	13519.913350
761.017820	13529.879711
761.344623	13718.807034
761.671379	14040.107495
761.998088	14582.598663
762.324751	15978.118597
762.651366	18901.206449
762.977935	23188.493546
763.304456	26459.670550
763.630931	28045.637715
763.957359	27270.726669
764.283740	25238.453552
764.610074	23103.850052
764.936362	20482.545834
765.262602	18597.081199
765.588796	16627.255375
765.914943	15312.580425
766.241044	14160.117203
766.567097	13351.006970
766.893104	12615.870628
767.219064	12135.496557
767.544978	11647.555715
767.870845	11254.988462
768.196665	11029.066632
768.522438	10802.428958
768.848165	10596.507905
769.173846	10385.215503
769.499479	10258.241441
769.825066	10095.560886
770.150607	9866.153098
770.476101	9789.401530
770.801548	9677.513121
771.126949	9521.466724
771.452303	9408.645701
771.777611	9210.304023
772.102872	9202.152478
772.428087	9066.918485
772.753256	8916.467769
773.078378	8829.979213
773.403453	8655.678798
773.728482	8532.886372
774.053465	8454.766132
774.378401	8353.224691
774.703291	8232.471412
775.028135	8122.682643
775.352932	8089.481604
775.677683	7987.670461
776.002388	7879.958647
776.327046	7883.981488
776.651658	7786.697301
776.976224	7685.619646
777.300743	7684.624018
777.625216	7598.952129
777.949643	7557.778505
778.274024	7572.622182
778.598359	7487.033472
778.922647	7494.068402
779.246889	7453.444264
779.571086	7460.874925
779.895236	7463.486243
780.219339	7467.158723
780.543397	7474.496122
780.867409	7552.757515
781.191374	7561.035090
781.515294	7529.744648
781.839167	7624.697301
782.162995	7600.605627
782.486776	7548.780045
782.810511	7499.958991
783.134201	7419.068636
783.457844	7416.774911
783.781441	7359.693926
784.104993	7296.785367
784.428498	7271.995493
784.751958	7257.081239
785.075372	7225.689974
785.398739	7166.048083
785.722061	7205.941254
786.045337	7207.075514
786.368568	7346.791093
786.691752	7350.617328
787.014891	7645.108933
787.337983	7951.313659
787.661030	8500.010488
787.984031	9115.008572
788.306987	9553.107526
788.629897	9809.301485
788.952760	9802.082553
789.275579	9620.853072
789.598351	9255.301363
789.921078	8924.092514
790.243759	8516.575719
790.566395	8223.929177
790.888984	7971.193449
791.211529	7767.717357
791.534027	7539.592542
791.856480	7334.591500
792.178888	7258.656600
792.501249	7159.237484
792.823566	7005.920872
793.145836	7003.833835
793.468062	6970.965512
793.790241	6912.596512
794.112375	6970.531972
794.434464	7114.225022
794.756507	7137.810060
795.078505	7274.949609
795.400457	7556.021662
795.722364	7892.216212
796.044226	8175.597114
796.366042	8458.680588
796.687812	8438.405067
797.009538	8526.947893
797.331218	8448.704144
797.652852	8371.579532
797.974442	8226.537974
798.295986	8142.542268
798.617484	7962.880587
798.938938	7825.367992
799.260346	7720.622897
799.581709	7525.368927
799.903026	7447.314221
800.224299	7342.680032
800.545526	7172.881367
800.866708	7077.323776
801.187845	7008.413723
801.508936	6906.814308
801.829983	6869.635799
802.150984	6716.225926
802.471940	6675.208577
802.792851	6661.544530
803.113717	6630.725436
803.434538	6594.040959
803.755314	6537.897629
804.076045	6537.824532
804.396731	6479.082487
804.717372	6507.413772
805.037967	6506.987794
805.358518	6541.928031
805.679024	6626.195959
805.999485	6632.268029
806.319901	6668.397978
806.640272	6691.400763
806.960598	6776.482838
807.280879	6778.307735
807.601115	6856.922009
807.921306	6798.661394
808.241453	6814.987171
808.561554	6840.255954
808.881611	6808.408465
809.201623	6815.970196
809.521590	6767.673421
809.841513	6746.397231
810.161390	6781.871831
810.481223	6653.576986
810.801011	6644.334031
811.120755	6619.188755
811.440453	6543.468104
811.760107	6511.194637
812.079716	6480.504092
812.399281	6416.917498
812.718801	6401.950312
813.038276	6357.855340
813.357707	6297.558099
813.677093	6337.146280
813.996434	6244.252938
814.315731	6282.701818
814.634983	6270.948368
814.954191	6279.263751
815.273354	6377.503237
815.592473	6431.957781
815.911547	6548.844494
816.230577	6624.575228
816.549562	6761.195538
816.868502	6863.621702
817.187399	6953.167718
817.506250	7093.009326
817.825058	7119.460260
818.143821	7361.158381
818.462539	7603.143848
818.781213	7917.467352
819.099843	8394.244559
819.418429	9297.745358
819.736970	10179.039873
820.055466	11272.340113
820.373919	12627.797998
820.692327	14621.065187
821.010691	17913.684740
821.329011	25277.429233
821.647286	36845.841353
821.965517	50654.365801
822.283704	58191.820894
822.601847	61383.599725
822.919945	59185.843171
823.237999	55305.601521
823.556010	49305.736160
823.873976	42720.096283
824.191897	36293.862733
824.509775	31494.860712
824.827609	26891.606694
825.145398	24093.604993
825.463144	22451.504580
825.780845	22354.807688
826.098502	23568.178130
826.416116	26839.453437
826.733685	30528.557219
827.051210	32310.912614
827.368692	31388.999001
827.686129	27910.305419
828.003522	23942.206540
828.320872	20245.278887
828.638177	17369.756842
828.955439	15186.339850
829.272656	13375.731309
829.589830	11906.018193
829.906960	10609.027611
830.224046	9644.833841
830.541088	8876.962767
830.858086	8392.737254
831.175041	7986.740368
831.491952	7832.990217
831.808819	7824.140471
832.125642	8119.025286
832.442421	8810.308630
832.759157	10277.725501
833.075849	12821.113645
833.392497	15926.691266
833.709101	18375.033496
834.025662	18747.277337
834.342179	17419.011436
834.658653	15368.212078
834.975083	13464.863950
835.291469	11830.552120
835.607811	10512.691161
835.924110	9607.534344
836.240366	8746.081810
836.556578	7943.875437
836.872746	7298.325440
837.188871	6783.215298
837.504952	6358.208221
837.820990	6040.494541
838.136984	5809.009797
838.452935	5696.408064
838.768842	5676.293860
839.084706	5956.516479
839.400526	6908.921511
839.716303	8396.152636
840.032037	9628.671902
840.347727	9849.686169
840.663373	9060.370026
840.978977	8037.560240
841.294537	7207.335133
841.610054	6595.281083
841.925527	6167.120763
842.240957	5809.609694
842.556344	5485.629860
842.871687	5203.388259
843.186987	4932.143935
843.502244	4700.986867
843.817458	4529.297770
844.132629	4391.659146
844.447756	4298.307059
844.762840	4212.244481
845.077881	4140.685302
845.392879	4079.732711
845.707833	4030.586502
846.022745	3994.426306
846.337613	3962.084783
846.652438	3916.502670
846.967221	3902.243766
847.281960	3870.393756
847.596656	3853.266436
847.911309	3832.645596
848.225919	3811.313954
848.540485	3796.412303
848.855009	3782.765900
849.169490	3759.702621
849.483928	3746.542689
849.798323	3740.455495
850.112675	3722.148545
850.426984	3725.858834
850.741251	3712.590517
851.055474	3707.282183
851.369654	3713.502966
851.683792	3706.221020
851.997887	3715.532031
852.311938	3713.540775
852.625947	3718.506312
852.939914	3712.714026
853.253837	3720.177454
853.567718	3718.297104
853.881555	3706.820917
854.195350	3716.245354
854.509103	3716.842731
854.822812	3714.216290
855.136479	3707.685475
855.450103	3714.937175
855.763685	3701.817572
856.077224	3703.282027
856.390720	3720.701734
856.704173	3738.635639
857.017584	3749.380858
857.330953	3757.141715
857.644278	3779.032925
857.957561	3786.088020
858.270802	3787.590284
858.584000	3793.375008
858.897155	3782.818832
859.210268	3769.434568
859.523339	3750.391610
859.836367	3748.919593
860.149352	3740.841144
860.462295	3735.195051
860.775195	3726.667940
861.088054	3717.104871
861.400869	3712.797205
861.713642	3713.182853
862.026373	3724.343968
862.339062	3727.913105
862.651708	3746.446907
862.964312	3774.566463
863.276873	3783.282618
863.589392	3838.463088
863.901869	3881.383472
864.214303	3924.278650
864.526696	3956.133701
864.839045	4002.366123
865.151353	4027.261861
865.463619	4037.364333
865.775842	4045.992268
866.088023	4063.364084
866.400162	4051.789595
866.712258	4063.711924
867.024313	4064.899116
867.336325	4063.081780
867.648296	4068.760640
867.960224	4065.970361
868.272110	4074.825148
868.583954	4076.811362
868.895755	4091.077828
869.207515	4082.021395
869.519233	4124.246099
869.830909	4131.757419
870.142542	4155.486130
870.454134	4168.782173
870.765684	4201.504303
871.077191	4233.379518
871.388657	4254.093620
871.700081	4286.457827
872.011463	4326.719003
872.322803	4357.248230
872.634101	4387.240575
872.945357	4425.712141
873.256571	4476.083350
873.567744	4507.527547
873.878874	4527.891288
874.189963	4564.240528
874.501010	4573.982557
874.812015	4573.866611
875.122979	4613.172488
875.433900	4611.793732
875.744780	4621.132469
876.055618	4648.168177
876.366415	4650.103981
876.677169	4664.501516
876.987882	4707.091704
877.298554	4751.844547
877.609183	4815.080781
877.919771	4912.990071
878.230317	5037.332652
878.540822	5217.468202
878.851285	5496.584287
879.161707	5878.829778
879.472087	6512.565831
879.782425	7518.497834
880.092722	9318.865272
880.402977	12122.588683
880.713191	15584.016313
881.023363	19232.856399
881.333494	21657.389259
881.643583	23098.728240
881.953631	23320.259225
882.263637	22686.671886
882.573602	21406.100342
882.883526	19993.730352
883.193408	18446.436399
883.503248	16866.531222
883.813048	15400.808179
884.122806	14057.076018
884.432522	12628.856640
884.742197	11423.816704
885.051831	10360.138284
885.361424	9378.040856
885.670975	8568.429028
885.980485	7883.268164
886.289954	7314.129457
886.599382	6845.667633
886.908768	6478.530481
887.218113	6120.565708
887.527417	5833.335885
887.836680	5573.920629
888.145901	5359.182598
888.455082	5201.291139
888.764221	5049.844795
889.073319	4912.896810
889.382376	4841.831664
889.691392	4773.027476
890.000366	4747.022684
890.309300	4725.693562
890.618193	4732.486517
890.927044	4715.714598
891.235855	4730.538111
891.544625	4754.100464
891.853353	4801.147032
892.162041	4893.843769
892.470687	5050.220361
892.779293	5268.030975
893.087858	5578.180404
893.396381	6061.178395
893.704864	6736.367856
894.013306	7750.194306
894.321707	8865.834419
894.630068	9743.380837
894.938387	10085.718033
895.246665	9971.634201
895.554903	9453.375859
895.863100	8814.228127
896.171256	8290.192623
896.479371	7799.146430
896.787446	7325.376271
897.095480	6913.579537
897.403473	6607.652075
897.711425	6302.261495
898.019336	6043.985540
898.327207	5781.903513
898.635038	5560.458227
898.942827	5321.908307
899.250576	5125.585611
899.558284	4940.010656
899.865952	4819.101102
900.173579	4678.110111
900.481165	4572.225715
900.788711	4482.767920
901.096216	4407.042227
901.403681	4341.764326
901.711105	4317.513856
902.018489	4291.551913
902.325832	4338.248121
902.633135	4425.618879
902.940397	4684.230072
903.247619	5283.169560
903.554800	6462.741587
903.861941	8202.728604
904.169041	9749.583977
904.476101	10574.720038
904.783121	10450.836203
905.090100	9833.826699
905.397039	9062.429337
905.703938	8348.385183
906.010796	7686.590068
906.317614	7160.250756
906.624391	6647.036089
906.931129	6241.404686
907.237826	5860.853023
907.544483	5502.346326
907.851099	5145.777953
908.157675	4805.091735
908.464211	4483.375379
908.770707	4244.134820
909.077163	4045.402453
909.383578	3897.752098
909.689954	3779.794139
909.996289	3702.346893
910.302584	3636.897592
910.608839	3605.473560
910.915054	3572.456523
911.221229	3557.436405
911.527363	3564.463773
911.833458	3572.564908
912.139513	3594.710697
912.445527	3619.248513
912.751502	3682.288142
913.057436	3776.509828
913.363331	3885.746590
913.669186	4057.798651
913.975000	4273.290333
914.280775	4630.279643
914.586510	5118.023881
914.892205	5797.021933
915.197859	6716.130144
915.503475	7828.440575
915.809050	8862.164459
916.114585	9567.845339
916.420081	9923.471017
916.725536	9974.956321
917.030952	9618.450962
917.336328	9257.975695
917.641665	8893.820385
917.946961	8449.268754
918.252218	8055.758805
918.557435	7572.304589
918.862612	7168.465317
919.167750	6825.835734
919.472848	6428.355876
919.777906	6074.575261
920.082925	5727.020471
920.387904	5376.249425
920.692843	5107.969299
920.997743	4863.362432
921.302603	4630.380466
921.607423	4474.142506
921.912204	4315.159637
922.216946	4199.628993
922.521647	4083.334615
922.826310	3984.694358
923.130932	3893.910739
923.435516	3804.364723
923.740059	3734.827047
924.044564	3660.031447
924.349028	3601.264197
924.653454	3541.942419
924.957840	3473.155874
925.262186	3430.749688
925.566493	3374.717263
925.870761	3317.974036
926.174989	3284.105043
926.479178	3249.573140
926.783328	3207.721480
927.087438	3183.375228
927.391509	3146.839465
927.695541	3121.248048
927.999533	3094.986157
928.303486	3075.660894
928.607400	3058.576423
928.911275	3044.735935
929.215110	3026.156763
929.518906	3021.241638
929.822663	3021.292049
930.126381	3014.063035
930.430060	3021.589478
930.733699	3024.672143
931.037299	3031.843184
931.340861	3031.452495
931.644383	3040.788712
931.947866	3038.336191
932.251309	3032.899306
932.554714	3035.112373
932.858080	3031.313863
933.161407	3021.377749
933.464694	3015.610669
933.767943	3007.438959
934.071153	3004.119359
934.374323	2996.328256
934.677455	2992.169304
934.980548	2981.643374
935.283602	2975.919144
935.586617	2970.636015
935.889593	2981.792088
936.192530	2984.867192
936.495428	2991.715600
936.798287	3010.758558
937.101108	3039.624205
937.403890	3083.479723
937.706632	3136.066520
938.009336	3206.695606
938.312002	3276.618930
938.614628	3343.010926
938.917216	3390.095303
939.219765	3426.784821
939.522275	3462.380408
939.824747	3467.151860
940.127179	3468.124803
940.429573	3462.032568
940.731929	3459.786734
941.034246	3444.070937
941.336524	3436.670523
941.638763	3425.073349
941.940964	3412.485588
942.243126	3373.749362
942.545250	3354.915611
942.847335	3318.021927
943.149381	3283.946247
943.451389	3256.207298
943.753359	3222.698748
944.055290	3199.267465
944.357182	3171.783095
944.659036	3157.443532
944.960851	3150.068324
945.262628	3133.061992
945.564367	3132.424286
945.866067	3130.596868
946.167729	3124.623100
946.469352	3126.647124
946.770937	3121.409365
947.072484	3105.910337
947.373992	3109.686162
947.675462	3102.106787
947.976893	3084.752615
948.278286	3078.768765
948.579641	3073.780543
948.880958	3065.502969
949.182236	3067.526992
949.483476	3062.064902
949.784678	3062.455591
950.085841	3061.742268
950.386967	3071.086047
950.688054	3081.932089
950.989103	3097.511775
951.290114	3117.855351
951.591087	3144.583549
951.892021	3170.457271
952.192917	3198.909543
952.493776	3223.583471
952.794596	3232.483628
953.095378	3239.541243
953.396122	3235.762899
953.696828	3230.613360
953.997496	3223.800241
954.298126	3202.544215
954.598718	3182.692152
954.899272	3159.805313
955.199788	3139.948208
955.500266	3108.781274
955.800706	3077.936975
956.101108	3041.751572
956.401472	3013.740401
956.701798	2982.817963
957.002087	2942.660132
957.302337	2916.667943
957.602550	2888.366905
957.902724	2860.191896
958.202861	2837.776405
958.502960	2816.079279
958.803022	2797.232926
959.103045	2777.378341
959.403031	2759.714138
959.702979	2747.514546
960.002889	2738.430387
960.302762	2723.150649
960.602596	2711.392158
960.902393	2704.460571
961.202153	2697.743234
961.501875	2686.932479
961.801559	2679.403516
962.101205	2674.596776
962.400814	2670.158040
962.700385	2665.283244
962.999918	2660.428613
963.299414	2653.181954
963.598873	2648.670122
963.898293	2645.405975
964.197677	2644.180974
964.497022	2641.131076
964.796331	2640.397588
965.095601	2637.796353
965.394835	2637.123359
965.694030	2635.696712
965.993189	2634.784263
966.292309	2631.126906
966.591393	2630.257307
966.890439	2630.826958
967.189447	2629.226391
967.488419	2631.343676
967.787353	2629.486011
968.086249	2630.922740
968.385108	2634.938019
968.683930	2634.938019
968.982714	2638.486991
969.281462	2642.330871
969.580172	2644.793474
969.878844	2654.195226
970.177480	2659.826195
970.476078	2665.570590
970.774639	2673.825479
971.073162	2679.501819
971.371649	2686.630010
971.670098	2692.976823
971.968510	2700.016794
972.266885	2701.859336
972.565223	2705.882177
972.863524	2706.608103
973.161788	2709.801674
973.460014	2713.930379
973.758204	2714.701675
974.056356	2717.507077
974.354471	2721.290463
974.652550	2718.616131
974.950591	2717.549927
975.248595	2720.400700
975.546563	2715.243599
975.844493	2712.939792
976.142386	2709.398382
976.440243	2704.004347
976.738062	2703.543081
977.035845	2694.766432
977.333590	2686.536749
977.631299	2682.256809
977.928971	2677.192970
978.226606	2669.119562
978.524204	2668.123934
978.821765	2662.283758
979.119290	2665.116886
979.416777	2663.465908
979.714228	2668.421362
980.011642	2669.878256
980.309020	2672.313133
980.606360	2685.939372
980.903664	2704.921837
981.200931	2735.544326
981.498162	2773.312651
981.795356	2835.621312
982.092513	2914.875812
982.389633	3007.373424
982.686717	3098.265427
982.983764	3177.875329
983.280775	3231.833319
983.577749	3252.217225
983.874686	3240.620050
984.171587	3211.489743
984.468451	3179.980011
984.765279	3141.682365
985.062070	3101.179214
985.358824	3058.490724
985.655543	3010.854340
985.952224	2964.435396
986.248869	2905.395923
986.545478	2848.708147
986.842050	2794.694705
987.138586	2750.297263
987.435086	2712.884339
987.731549	2682.055163
988.027975	2655.417706
988.324366	2640.478247
988.620719	2624.301184
988.917037	2614.009668
989.213318	2604.738987
989.509563	2597.678851
989.805772	2593.963520
990.101944	2587.578899
990.398080	2589.633169
990.694180	2584.965061
990.990244	2585.706110
991.286271	2584.256778
991.582262	2587.135277
991.878217	2586.709300
992.174136	2590.790114
992.470019	2591.684919
992.765865	2595.498552
993.061676	2598.490476
993.357450	2604.819645
993.653188	2611.481530
993.948890	2626.869652
994.244556	2645.789102
994.540186	2662.671927
994.835780	2690.786442
995.131337	2722.502861
995.426859	2761.176073
995.722345	2805.031591
996.017795	2849.033302
996.313208	2885.896739
996.608586	2913.625606
996.903928	2934.944646
997.199234	2932.948349
997.494504	2937.205603
997.789738	2926.669592
998.084936	2903.455078
998.380099	2876.905842
998.675225	2849.285360
998.970316	2822.685711
999.265371	2787.790844
999.560390	2755.230032
999.855373	2723.974878
1000.150320	2697.967565
1000.445232	2674.138031
1000.740108	2650.991573
1001.034948	2633.390384
1001.329752	2621.314300
1001.624521	2608.154368
1001.919254	2597.237750
1002.213951	2590.091914
1002.508613	2581.844586
1002.803239	2574.716395
1003.097829	2570.643143
1003.392384	2565.120558
1003.686903	2563.106617
1003.981386	2556.810216
1004.275834	2554.753426
1004.570246	2553.059598
1004.864623	2548.487271
1005.158964	2549.026675
1005.453270	2543.821683
1005.747540	2545.780172
1006.041775	2541.943854
1006.335974	2542.389996
1006.630138	2538.084850
1006.924266	2539.582073
1007.218359	2538.888914
1007.512416	2537.797505
1007.806438	2534.674510
1008.100425	2533.878008
1008.394376	2531.186031
1008.688292	2537.704243
1008.982172	2534.097298
1009.276017	2535.092926
1009.569827	2533.326001
1009.863602	2534.457740
1010.157341	2533.189890
1010.451045	2533.018491
1010.744714	2530.621422
1011.038347	2531.637215
1011.331945	2531.249046
1011.625508	2528.118489
1011.919036	2526.800227
1012.212528	2525.668488
1012.505986	2524.040196
1012.799408	2526.223015
1013.092795	2524.335103
1013.386147	2527.284178
1013.679464	2526.401976
1013.972745	2523.339475
1014.265992	2521.804444
1014.559204	2526.505320
1014.852380	2525.348375
1015.145521	2523.682274
1015.438628	2521.945596
1015.731699	2524.135978
1016.024736	2525.822244
1016.317737	2525.902902
1016.610703	2525.902902
1016.903635	2528.431041
1017.196531	2528.355423
1017.489393	2532.080836
1017.782219	2534.752648
1018.075011	2532.405991
1018.367768	2531.765764
1018.660490	2533.951104
1018.953177	2533.951104
1019.245829	2533.951104
