Dividing Wavelength (nm)	Counts (n)	Blue Motor Position (mm): 12.000000	Red Motor Position (mm): 0.000000	
326.493990	2068.478684
326.888308	2068.478684
327.282561	2068.478684
327.676750	2040.187729
328.070874	2041.528676
328.464933	2050.907743
328.858929	2056.899154
329.252859	2068.254353
329.646726	2080.549727
330.040528	2099.703591
330.434265	2111.315889
330.827938	2136.393109
331.221547	2155.095790
331.615091	2175.068841
332.008571	2195.666996
332.401986	2215.745912
332.795338	2234.504045
333.188625	2256.299474
333.581847	2277.273194
333.975006	2290.344906
334.368100	2311.805098
334.761129	2326.316060
335.154095	2341.893225
335.546996	2381.723382
335.939833	2449.151335
336.332606	2458.147274
336.725315	2470.505663
337.117960	2484.315903
337.510540	2490.909733
337.903056	2501.881804
338.295508	2505.433297
338.687896	2514.214987
339.080220	2516.014679
339.472480	2524.062881
339.864676	2527.321987
340.256807	2530.177801
340.648875	2529.560259
341.040879	2531.874149
341.432818	2534.792977
341.824694	2533.424304
342.216506	2535.947401
342.608253	2532.811803
342.999937	2532.879859
343.391557	2532.718542
343.783113	2528.942718
344.174605	2527.768129
344.566033	2528.604961
344.957397	2526.177645
345.348697	2522.963909
345.739934	2523.563807
346.131106	2520.571882
346.522215	2521.943076
346.913260	2516.675070
347.304241	2513.569719
347.695159	2515.795389
348.086012	2511.903618
348.476802	2508.740294
348.867528	2506.449089
349.258191	2502.728718
349.648789	2503.900786
350.039324	2499.330980
350.429796	2506.156702
350.820203	2500.215703
351.210548	2505.191322
351.600828	2502.111177
351.991045	2501.075219
352.381198	2502.073368
352.771288	2502.413646
353.161314	2499.923316
353.551276	2499.416680
353.941175	2494.695639
354.331010	2500.331649
354.720782	2500.503048
355.110490	2503.842813
355.500135	2499.618326
355.889717	2501.299551
356.279235	2501.629746
356.668689	2501.060096
357.058080	2502.685868
357.447408	2502.111177
357.836672	2500.119921
358.225873	2503.759634
358.615010	2502.600168
359.004084	2503.048831
359.393095	2506.738956
359.782043	2506.302896
360.170927	2505.471106
360.559748	2505.103101
360.948505	2505.047649
361.337199	2508.694923
361.725830	2505.183760
362.114398	2508.473113
362.502903	2508.039573
362.891344	2507.873215
363.279722	2507.623678
363.668037	2506.933040
364.056289	2510.270284
364.444478	2508.715088
364.832603	2511.089472
365.220665	2512.677435
365.608665	2512.647188
365.996601	2510.214831
366.384474	2513.632734
366.772284	2513.423526
367.160031	2509.990500
367.547715	2513.403361
367.935336	2509.965294
368.322893	2509.327588
368.710388	2505.702999
369.097820	2510.587877
369.485189	2509.209121
369.872495	2513.627692
370.259738	2512.616941
370.646918	2515.845800
371.034035	2515.550893
371.421090	2514.247754
371.808081	2514.913187
372.195010	2514.519977
372.581875	2513.471417
372.968678	2518.522653
373.355418	2516.854031
373.742096	2514.852693
374.128710	2517.869823
374.515262	2516.818743
374.901751	2517.393434
375.288177	2520.546676
375.674540	2516.465862
376.060841	2518.588188
376.447079	2515.560975
376.833254	2518.512571
377.219367	2517.832015
377.605417	2518.048784
377.991404	2518.719258
378.377329	2518.686490
378.763191	2516.233969
379.148991	2517.549710
379.534727	2518.321007
379.920402	2521.638086
380.306013	2520.239166
380.691563	2520.927283
381.077049	2516.881757
381.462474	2519.230935
381.847835	2517.073321
382.233134	2520.581964
382.618371	2520.534073
383.003545	2519.603980
383.388657	2517.552231
383.773706	2520.208919
384.158693	2519.901408
384.543618	2523.505833
384.928480	2522.759743
385.313280	2524.599764
385.698017	2523.228570
386.082692	2523.221008
386.467305	2520.839063
386.851856	2521.819568
387.236344	2522.795031
387.620770	2522.275792
388.005133	2520.276974
388.389435	2523.178158
388.773674	2518.084072
389.157851	2523.702438
389.541965	2521.945596
389.926018	2526.923736
390.310008	2523.019362
390.693936	2523.359640
391.077802	2526.971627
391.461606	2526.081863
391.845348	2522.981553
392.229027	2523.246214
392.612645	2524.342665
392.996200	2525.900382
393.379694	2527.155629
393.763125	2525.764270
394.146494	2525.860052
394.529801	2527.374919
394.913047	2529.499765
395.296230	2527.763088
395.679351	2525.923067
396.062410	2526.399456
396.445408	2527.301822
396.828343	2527.599250
397.211217	2527.334590
397.594028	2532.532019
397.976778	2526.769981
398.359466	2528.846936
398.742092	2528.282327
399.124656	2525.040865
399.507158	2529.063706
399.889598	2528.746113
400.271977	2529.943387
400.654294	2528.723428
401.036549	2528.763757
401.418742	2531.591844
401.800874	2527.868952
402.182944	2529.025897
402.564952	2528.078160
402.946898	2529.552698
403.328783	2531.440610
403.710606	2529.688809
404.092367	2529.509848
404.474067	2531.430527
404.855705	2532.829447
405.237282	2532.375744
405.618797	2531.362472
406.000250	2529.703932
406.381642	2532.829448
406.762972	2528.274765
407.144240	2527.750485
407.525447	2530.492873
407.906593	2525.920546
408.287677	2534.319108
408.668700	2533.570497
409.049661	2529.673685
409.430560	2532.209386
409.811399	2532.413552
410.192176	2536.413708
410.572891	2535.473533
410.953545	2534.883718
411.334138	2536.673327
411.714669	2531.561597
412.095139	2536.368337
412.475547	2534.709798
412.855894	2536.995961
413.236180	2534.530837
413.616405	2536.696012
413.996568	2531.407842
414.376670	2534.072092
414.756711	2532.937832
415.136691	2533.656197
415.516609	2533.943543
415.896466	2534.961856
416.276262	2534.873635
416.655997	2533.809952
417.035670	2535.057638
417.415283	2534.845909
417.794834	2535.370189
418.174324	2532.532019
418.553753	2535.337422
418.933121	2538.591486
419.312428	2537.116949
419.691674	2536.055786
420.070859	2537.217772
420.449983	2535.486136
420.829045	2535.919675
421.208047	2534.303985
421.586988	2536.469161
421.965867	2537.636188
422.344686	2538.052083
422.723444	2538.841023
423.102141	2537.300951
423.480777	2536.305323
423.859352	2537.210210
424.237866	2539.337577
424.616319	2536.948070
424.994712	2536.443955
425.373044	2537.001002
425.751314	2534.780374
426.129524	2532.567307
426.507673	2535.765920
426.885762	2533.888090
427.263789	2538.185673
427.641756	2535.395395
428.019662	2538.354552
428.397508	2538.324305
428.775292	2537.038811
429.153016	2539.597197
429.530679	2536.759027
429.908282	2538.195756
430.285824	2536.519572
430.663305	2536.131403
431.040726	2535.909593
431.418086	2535.672658
431.795385	2538.793132
432.172624	2539.161137
432.549802	2537.449665
432.926920	2537.200128
433.303977	2536.819521
433.680974	2538.974614
434.057910	2536.501928
434.434786	2538.624254
434.811601	2537.510159
435.188355	2540.313040
435.565050	2538.697351
435.941683	2537.058976
436.318257	2540.025695
436.694770	2541.152393
437.071222	2540.071065
437.447614	2536.534696
437.823946	2539.004861
438.200218	2536.786753
438.576429	2536.736342
438.952580	2539.876981
439.328670	2538.399923
439.704700	2541.699358
440.080670	2541.220448
440.456580	2539.864378
440.832429	2540.310520
441.208218	2537.595858
441.583947	2541.611137
441.959616	2538.651980
442.335224	2540.915458
442.710773	2539.667773
443.086261	2538.420087
443.461689	2541.432177
443.837057	2539.660211
444.212365	2539.403112
444.587612	2537.182484
444.962800	2537.772299
445.337927	2535.899510
445.712995	2534.185518
446.088002	2542.142979
446.462949	2539.594676
446.837837	2538.094933
447.212664	2539.395550
447.587431	2539.269522
447.962139	2542.483257
448.336786	2541.051569
448.711374	2541.540561
449.085901	2541.182639
449.460369	2537.142155
449.834776	2540.774306
450.209124	2541.648946
450.583412	2541.177598
450.957640	2540.865047
451.331808	2540.156765
451.705917	2539.428318
452.079965	2540.345808
452.453954	2541.059131
452.827883	2539.713143
453.201752	2541.646426
453.575562	2541.442259
453.949311	2542.326981
454.323001	2541.074255
454.696632	2540.136600
455.070202	2539.937474
455.443713	2540.943185
455.817164	2541.142310
456.190556	2541.253216
456.563888	2544.242620
456.937160	2544.479554
457.310373	2541.044008
457.683526	2543.919986
458.056619	2542.183308
458.429653	2541.086857
458.802628	2541.419574
459.175542	2539.627443
459.548398	2540.539892
459.921194	2542.238761
460.293930	2542.541230
460.666607	2544.456869
461.039224	2541.404450
461.411782	2540.076106
461.784280	2542.173226
462.156719	2542.977290
462.529099	2541.182639
462.901419	2539.597197
463.273680	2541.391847
463.645882	2536.804397
464.018024	2541.419574
464.390106	2537.812628
464.762130	2542.347146
465.134094	2541.104502
465.505999	2545.402085
465.877845	2545.449976
466.249631	2545.487785
466.621358	2542.584080
466.993026	2545.434853
467.364634	2547.305121
467.736184	2545.447456
468.107674	2541.984183
468.479105	2543.680531
468.850477	2545.328988
469.221790	2544.025850
469.593043	2541.104502
469.964238	2543.246992
470.335373	2541.850592
470.706449	2543.849410
471.077467	2544.124153
471.448425	2543.062990
471.819324	2545.190357
472.190164	2547.322765
472.560945	2546.296890
472.931667	2545.210521
473.302330	2541.848072
473.672934	2543.804039
474.043479	2545.437373
474.413965	2546.657332
474.784393	2548.227652
475.154761	2545.510470
475.525070	2544.187167
475.895321	2544.466951
476.265513	2544.499719
476.635645	2544.749256
477.005719	2543.214224
477.375734	2542.954605
477.745691	2546.206149
478.115588	2547.269833
478.485427	2548.018444
478.855207	2546.531304
479.224928	2549.240924
479.594591	2546.717826
479.964194	2546.619524
480.333739	2545.961653
480.703226	2546.894267
481.072653	2550.627241
481.442022	2548.933413
481.811333	2546.259081
482.180584	2544.739173
482.549777	2548.167158
482.918912	2544.590459
483.287988	2551.300235
483.657005	2549.432488
484.025964	2548.247817
484.394864	2549.303938
484.763706	2549.505584
485.132489	2547.756304
485.501213	2548.189843
485.869879	2548.741850
486.238487	2549.293856
486.607036	2545.497867
486.975527	2550.024823
487.343959	2549.336706
487.712333	2550.637323
488.080648	2547.353012
488.448905	2550.382745
488.817104	2547.869730
489.185244	2548.474668
489.553326	2550.569268
489.921350	2553.914073
490.289315	2551.443908
490.657222	2552.230328
491.025070	2554.579506
491.392861	2551.048178
491.760593	2551.176727
492.128267	2551.108671
492.495883	2550.304607
492.863440	2549.717313
493.230939	2550.115564
493.598380	2553.329300
493.965763	2551.542211
494.333088	2553.036913
494.700354	2549.981973
495.067563	2551.532128
495.434713	2549.127498
495.801805	2552.212684
496.168839	2551.670760
496.535815	2550.584391
496.902733	2554.266954
497.269593	2552.121943
497.636395	2553.384752
498.003139	2555.128992
498.369825	2553.062118
498.736453	2554.541697
499.103023	2552.512633
499.469535	2552.101779
499.835989	2552.119423
500.202385	2549.566078
500.568723	2552.167314
500.935003	2549.999617
501.301226	2547.899977
501.667390	2552.547921
502.033497	2554.090514
502.399546	2553.518343
502.765537	2554.327448
503.131470	2558.456153
503.497345	2558.322563
503.863163	2554.642520
504.228923	2554.708055
504.594625	2558.602347
504.960269	2555.121430
505.325856	2558.519167
505.691385	2556.230484
506.056856	2556.222922
506.422270	2559.870197
506.787625	2559.703839
507.152924	2559.378684
507.518164	2559.986143
507.883347	2560.510423
508.248472	2559.875238
508.613540	2561.178376
508.978550	2564.276165
509.343503	2559.824826
509.708398	2561.518654
510.073236	2563.998902
510.438016	2563.393963
510.802738	2565.977555
511.167403	2563.638459
511.532010	2565.690209
511.896561	2567.542833
512.261053	2568.969479
512.625488	2569.508883
512.989866	2570.096177
513.354186	2569.188770
513.718449	2572.135324
514.082655	2572.397464
514.446803	2572.843606
514.810894	2573.670355
515.174927	2576.301838
515.538904	2572.944429
515.902822	2575.394430
516.266684	2575.351580
516.630488	2576.359811
516.994235	2579.674370
517.357925	2580.536407
517.721558	2582.928434
518.085133	2582.260482
518.448651	2582.189905
518.812112	2582.414237
519.175516	2583.951789
519.538863	2581.592529
519.902152	2589.083683
520.265385	2591.195927
520.628560	2592.274734
520.991678	2590.152408
521.354739	2594.951586
521.717743	2594.157605
522.080690	2594.049220
522.443580	2596.017790
522.806413	2599.352514
523.169189	2597.754468
523.531908	2597.928388
523.894569	2603.261928
524.257174	2603.118256
524.619722	2604.186980
524.982213	2607.304934
525.344647	2606.883997
525.707025	2612.527569
526.069345	2611.040429
526.431608	2610.974894
526.793815	2615.627879
527.155964	2614.738115
527.518057	2616.557972
527.880093	2617.614093
528.242072	2620.260699
528.603995	2619.696090
528.965860	2622.125926
529.327669	2619.917901
529.689421	2625.349744
530.051117	2627.525002
530.412755	2627.638428
530.774337	2629.896865
531.135862	2630.000208
531.497331	2632.903913
531.858743	2631.384005
532.220098	2634.537247
532.581396	2636.183184
532.942638	2634.985910
533.303824	2638.302989
533.664953	2638.577732
534.026025	2638.837351
534.387040	2644.511170
534.747999	2644.836324
535.108902	2647.782879
535.469748	2647.853455
535.830537	2649.116264
536.191270	2649.597694
536.551947	2650.742036
536.912567	2647.855975
537.273131	2656.672953
537.633638	2648.952426
537.994089	2658.296205
538.354483	2659.821154
538.714821	2663.055054
539.075103	2661.164622
539.435328	2666.924140
539.795497	2663.695281
540.155609	2666.205775
540.515665	2671.138544
540.875665	2670.014367
541.235609	2671.171312
541.595496	2671.866991
541.955328	2672.839934
542.315102	2674.410253
542.674821	2674.838751
543.034483	2676.320851
543.394090	2677.709688
543.753640	2675.935202
544.113134	2683.885102
544.472571	2679.494257
544.831953	2687.534897
545.191278	2686.524146
545.550548	2684.001048
545.909761	2687.383663
546.268918	2688.641431
546.628019	2687.461801
546.987064	2690.030268
547.346053	2687.242510
547.704986	2693.725434
548.063863	2693.034796
548.422684	2693.382636
548.781449	2690.667974
549.140158	2690.100845
549.498811	2695.184848
549.857408	2693.637214
550.215949	2696.167873
550.574434	2698.491845
550.932864	2698.103676
551.291237	2697.528985
551.649555	2700.417566
552.007817	2702.015612
552.366022	2699.699202
552.724173	2700.843543
553.082267	2703.301106
553.440305	2705.486446
553.798288	2704.079964
554.156215	2703.984182
554.514086	2702.020653
554.871902	2700.697350
555.229661	2703.815304
555.587365	2701.128369
555.945014	2706.771940
556.302606	2703.197762
556.660143	2709.098433
557.017625	2710.895604
557.375050	2711.457693
557.732421	2712.574308
558.089735	2714.089175
558.446994	2713.698486
558.804197	2716.566902
559.161345	2716.511450
559.518437	2715.321737
559.875474	2718.245607
560.232455	2718.671584
560.589381	2720.042778
560.946251	2717.297870
561.303065	2723.795917
561.659825	2720.161245
562.016528	2721.852552
562.373177	2720.935062
562.729770	2722.374312
563.086307	2727.024776
563.442789	2728.237173
563.799216	2732.401167
564.155587	2731.254304
564.511904	2731.665158
564.868164	2734.044583
565.224370	2733.769840
565.580520	2737.107084
565.936615	2741.528176
566.292654	2740.691344
566.648638	2745.724936
567.004567	2747.219638
567.360441	2749.757859
567.716260	2749.994793
568.072023	2756.374374
568.427732	2757.024682
568.783385	2758.030393
569.138982	2763.331166
569.494525	2766.093718
569.850013	2768.594131
570.205445	2771.709564
570.560823	2774.106632
570.916145	2774.530089
571.271412	2781.640637
571.626625	2783.851183
571.981782	2787.768159
572.336884	2792.224539
572.691931	2791.922070
573.046923	2797.109417
573.401860	2798.896506
573.756743	2809.044349
574.111570	2813.180616
574.466342	2819.348467
574.821059	2824.760146
575.175722	2827.469766
575.530330	2834.701302
575.884882	2838.472085
576.239380	2842.220183
576.593823	2851.200998
576.948211	2857.053778
577.302544	2861.192565
577.656823	2866.382433
578.011047	2877.420039
578.365216	2882.695607
578.719330	2889.410424
579.073389	2895.295971
579.427394	2904.662435
579.781344	2915.027047
580.135239	2923.690270
580.489080	2933.850715
580.842866	2936.341045
581.196597	2954.159004
581.550273	2963.248204
581.903895	2972.032415
582.257463	2991.017400
582.610975	2998.037207
582.964434	3013.170751
583.317837	3022.985877
583.671186	3034.194883
584.024481	3048.360525
584.377721	3057.757236
584.730906	3073.404977
585.084037	3089.755960
585.437113	3100.786004
585.790135	3114.707151
586.143103	3123.698049
586.496016	3142.982983
586.848874	3161.983092
587.201679	3176.463806
587.554428	3183.697862
587.907124	3205.636963
588.259765	3221.488872
588.612352	3245.590628
588.964884	3253.974067
589.317362	3279.343674
589.669786	3297.469142
590.022155	3310.714774
590.374470	3341.276769
590.726731	3356.498533
591.078937	3361.065819
591.431090	3393.460273
591.783188	3403.628281
592.135232	3421.645364
592.487222	3449.686783
592.839157	3477.597131
593.191038	3489.448884
593.542866	3509.948736
593.894639	3520.898122
594.246358	3551.334088
594.598022	3576.638160
594.949633	3589.714913
595.301190	3613.204169
595.652692	3636.085967
596.004141	3674.146678
596.355535	3670.643076
596.706876	3695.415306
597.058162	3709.253274
597.409395	3752.624841
597.760573	3790.572126
598.111698	3803.013694
598.462768	3828.395904
598.813785	3862.537118
599.164748	3875.611351
599.515657	3912.953698
599.866511	3927.870472
600.217312	3981.591528
600.568060	3974.425528
600.918753	4039.980692
601.269392	4067.026483
601.619978	4088.166561
601.970510	4131.134836
602.320988	4167.506761
602.671412	4215.433011
603.021783	4246.244543
603.372100	4264.748098
603.722363	4301.241011
604.072572	4337.837267
604.422728	4375.746744
604.772830	4403.599119
605.122878	4445.302064
605.472872	4478.167867
605.822813	4526.699055
606.172701	4554.604362
606.522534	4612.890183
606.872314	4665.134181
607.222041	4694.299776
607.571714	4756.021143
607.921333	4769.632259
608.270899	4821.420032
608.620411	4882.992685
608.969870	4922.845527
609.319276	4966.204491
609.668627	5014.970093
610.017926	5087.088840
610.367171	5146.546729
610.716362	5196.088668
611.065500	5244.546760
611.414585	5305.060771
611.763616	5370.794896
612.112594	5414.806690
612.461518	5475.028314
612.810389	5552.742741
613.159207	5595.408547
613.507971	5646.480477
613.856682	5745.549232
614.205340	5790.160923
614.553945	5904.406072
614.902496	5908.297843
615.250994	5998.184136
615.599439	6071.343882
615.947830	6142.451877
616.296169	6202.771803
616.644454	6279.793072
616.992686	6357.784764
617.340864	6467.674356
617.688990	6491.662686
618.037063	6621.404342
618.385082	6682.941707
618.733048	6791.959180
619.080961	6850.983530
619.428821	6925.123779
619.776628	6999.964749
620.124382	7051.616412
620.472083	7120.269365
620.819731	7194.308792
621.167326	7211.524332
621.514868	7267.012312
621.862357	7269.694206
622.209793	7341.513005
622.557176	7347.627924
622.904506	7384.796352
623.251783	7397.505100
623.599007	7425.047444
623.946179	7471.199208
624.293297	7509.355701
624.640363	7499.154927
624.987376	7542.992800
625.334336	7582.878410
625.681243	7594.278979
626.028097	7645.635734
626.374899	7707.677214
626.721647	7767.490505
627.068343	7807.965929
627.414987	7836.244281
627.761577	7873.127883
628.108115	7992.565421
628.454600	7952.594112
628.801032	8065.213489
629.147412	8117.437322
629.493739	8183.249586
629.840014	8196.656534
630.186236	8327.071184
630.532405	8324.848036
630.878521	8435.836599
631.224585	8488.897264
631.570597	8512.988938
631.916556	8612.077858
632.262462	8672.601951
632.608316	8743.636850
632.954117	8796.584089
633.299866	8862.492134
633.645562	8925.166280
633.991206	8903.620388
634.336797	8900.729286
634.682336	8945.446842
635.027823	8969.989699
635.373257	9022.652113
635.718639	9021.868213
636.063968	9068.773629
636.409245	9021.278398
636.754470	9068.645080
637.099642	9093.548380
637.444762	9051.361484
637.789829	9141.464547
638.134845	9136.993044
638.479808	9191.714769
638.824719	9252.014530
639.169577	9223.219460
639.514383	9311.059045
639.859137	9295.267630
640.203839	9399.488445
640.548489	9415.050487
640.893086	9478.296803
641.237632	9493.594184
641.582125	9583.971991
641.926566	9606.548798
642.270955	9682.801291
642.615292	9737.490249
642.959576	9791.541500
643.303809	9865.843067
643.647990	9967.770156
643.992118	10028.243838
644.336195	10064.451925
644.680219	10155.336368
645.024192	10287.212952
645.368112	10492.304735
645.711981	10578.725235
646.055797	10847.466626
646.399562	10888.506659
646.743274	11208.549352
647.086935	11411.881772
647.430544	11494.728095
647.774101	11591.044380
648.117606	11757.042014
648.461059	11888.386757
648.804460	11856.957684
649.147810	11787.793053
649.491108	11768.205650
649.834354	11810.332052
650.177548	11661.968373
650.520690	11573.710373
650.863781	11644.271403
651.206820	11660.874443
651.549807	11615.367947
651.892742	11512.994716
652.235626	11551.083153
652.578458	11586.078843
652.921238	11445.218923
653.263967	11609.870569
653.606644	11587.918865
653.949269	11627.418826
654.291843	11583.520458
654.634365	11756.522776
654.976836	11694.682941
655.319255	11798.071966
655.661622	11817.561066
656.003938	11848.198679
656.346203	11859.831141
656.688416	12014.692867
657.030577	12009.223215
657.372687	12026.106039
657.714746	12142.327321
658.056753	12275.847321
658.398708	12133.719550
658.740612	12228.745300
659.082465	12372.612269
659.424266	12408.653999
659.766016	12494.020898
660.107715	12500.271929
660.449362	12615.031276
660.790958	12681.937469
661.132503	12718.967265
661.473996	12825.585148
661.815438	12933.554061
662.156829	13057.432855
662.498168	13048.653685
662.839456	13113.987039
663.180693	13236.764341
663.521879	13335.059279
663.863013	13394.255028
664.204097	13453.455819
664.545129	13688.088763
664.886110	13736.803953
665.227040	13857.282489
665.567918	13927.571297
665.908746	14022.105534
666.249522	14139.934944
666.590248	14223.766812
666.930922	14332.806969
667.271545	14418.224280
667.612118	14509.043187
667.952639	14504.712836
668.293109	14594.888996
668.633528	14607.897693
668.973896	14664.802238
669.314213	14714.248396
669.654480	14703.692219
669.994695	14767.039359
670.334859	14805.697447
670.674973	14795.416014
671.015035	14956.122957
671.355047	14988.303163
671.695008	15033.887796
672.034918	15054.037288
672.374777	15171.496173
672.714585	15184.348595
673.054342	15315.668132
673.394049	15311.544468
673.733705	15481.408667
674.073310	15417.766621
674.412864	15516.424522
674.752368	15457.697600
675.091820	15633.422141
675.431223	15516.467372
675.770574	15488.297404
676.109875	15468.253776
676.449125	15429.956131
676.788324	15445.021619
677.127473	15274.945691
677.466571	15293.038392
677.805619	15218.641044
678.144616	15246.616927
678.483562	15282.857782
678.822458	15176.943140
679.161303	15212.765579
679.500098	15234.467746
679.838842	15257.931797
680.177535	15353.144069
680.516179	15520.830490
680.854771	15619.052332
681.193314	16039.363575
681.531805	16595.110457
681.870247	17071.587716
682.208638	17583.688288
682.546978	17847.978340
682.885268	18021.305813
683.223508	17860.268673
683.561697	17775.264737
683.899836	17743.979337
684.237925	17577.422134
684.575963	17533.672480
684.913951	17389.440028
685.251889	17516.494749
685.589776	17571.841577
685.927614	17632.411040
686.265401	17798.108726
686.603137	17904.555210
686.940824	18230.818687
687.278460	18485.918716
687.616046	18634.421026
687.953582	19076.184899
688.291068	19084.344006
688.628504	19357.216623
688.965889	19429.781512
689.303224	19349.932156
689.640510	19257.190048
689.977745	18973.481472
690.314930	18605.159648
690.652065	18428.378986
690.989150	18092.675948
691.326185	17650.297054
691.663170	17327.401068
692.000105	16962.272815
692.336990	16655.185888
692.673825	16453.953108
693.010610	16199.705035
693.347345	15941.396312
693.684030	15602.880310
694.020665	15522.420974
694.357251	15166.893599
694.693786	15210.068562
695.030272	15105.754486
695.366707	14844.685731
695.703093	14698.320870
696.039429	14786.107523
696.375716	14672.358928
696.711952	14708.272108
697.048139	14654.281350
697.384276	14585.041102
697.720363	14682.635320
698.056400	14659.216640
698.392388	14596.590385
698.728326	14629.264624
699.064214	14569.705912
699.400053	14627.225477
699.735842	14412.318568
700.071581	14328.141381
700.407270	14214.397827
700.742910	14134.445127
701.078501	14015.178989
701.414042	13923.309001
701.749533	13764.220268
702.084974	13592.029576
702.420366	13771.484571
702.755709	13549.303277
703.091002	13370.823745
703.426246	13443.474334
703.761440	13434.871605
704.096584	13312.487513
704.431679	13297.318681
704.766725	13288.859625
705.101721	13262.955656
705.436668	13379.358419
705.771565	13214.265672
706.106413	13444.444756
706.441212	13511.537473
706.775961	13612.879788
707.110661	13686.026931
707.445311	13958.145895
707.779913	13904.634047
708.114465	14127.561432
708.448967	14366.292834
708.783421	14813.024764
709.117825	15073.309619
709.452180	15251.214459
709.786485	15566.836060
710.120742	16103.721466
710.454949	16187.139959
710.789107	16557.132925
711.123216	17052.779171
711.457275	17229.161582
711.791286	17644.227505
712.125247	17792.863405
712.459159	17651.602713
712.793023	18244.570955
713.126837	17558.737097
713.460602	17802.050908
713.794318	17616.176004
714.127985	17473.486145
714.461602	16882.844395
714.795171	16910.926143
715.128691	16250.545071
715.462162	15918.290183
715.795584	15651.809750
716.128957	15492.005173
716.462281	15244.688686
716.795556	15073.864146
717.128782	14753.771042
717.461960	14352.961502
717.795088	14353.279095
718.128167	14133.215086
718.461198	13829.069671
718.794180	13755.655348
719.127113	13542.101988
719.459997	13416.771342
719.792833	13150.598419
720.125619	13198.262529
720.458357	12959.440386
720.791046	12871.724309
721.123686	12772.791665
721.456278	12610.945420
721.788821	12623.969241
722.121315	12442.996859
722.453761	12533.566229
722.786158	12456.756689
723.118506	12541.238866
723.450805	12460.257770
723.783056	12614.123868
724.115259	12536.227959
724.447412	12539.771890
724.779518	12717.170094
725.111574	12761.512083
725.443582	12984.147081
725.775542	12949.428654
726.107453	13364.285369
726.439315	13295.718115
726.771129	13625.429741
727.102895	13952.766984
727.434612	14172.072299
727.766281	14310.981294
728.097901	14565.247011
728.429473	14659.400642
728.760996	14696.853894
729.092471	14813.700279
729.423897	14746.728550
729.755276	14657.797555
730.086606	14739.408794
730.417887	15175.294682
730.749120	15619.742970
731.080305	15820.403578
731.411442	16161.505692
731.742530	16280.618075
732.073570	16430.753718
732.404562	16684.611103
732.735506	16625.092720
733.066401	16545.013991
733.397249	16228.671505
733.728048	15784.339164
734.058798	15142.615402
734.389501	14568.629626
734.720156	14181.310214
735.050762	13736.241864
735.381320	13423.987754
735.711831	13195.557950
736.042293	12888.488666
736.372707	12921.651897
736.703073	12747.338879
737.033391	12920.817586
737.363661	12911.614959
737.693883	13004.132735
738.024056	13167.420749
738.354182	13332.863857
738.684260	13624.378660
739.014290	13854.593033
739.344272	14038.123801
739.674207	14315.727540
740.004093	14472.429287
740.333931	14544.598445
740.663722	14636.483556
740.993464	14690.653275
741.323159	14602.725470
741.652806	14389.363674
741.982405	14284.132108
742.311956	14012.076159
742.641460	13941.132001
742.970915	13692.661089
743.300323	13424.413731
743.629683	13264.228547
743.958996	13015.936597
744.288260	12763.243719
744.617477	12514.311542
744.946647	12497.496774
745.275768	12230.171947
745.604842	12074.843915
745.933869	11925.693816
746.262847	11907.948955
746.591778	11842.141732
746.920662	11738.977040
747.249498	11748.804769
747.578286	11868.161648
747.907027	12012.779749
748.235720	12235.003893
748.564365	12315.929536
748.892963	12273.402362
749.221514	12370.747043
749.550017	12285.440637
749.878473	12277.813371
750.206881	12100.379879
750.535242	12050.606047
750.863555	11992.559681
751.191821	11905.879561
751.520039	11929.424270
751.848210	11856.612365
752.176334	11898.769014
752.504411	11846.812362
752.832440	11711.215405
753.160421	11818.486118
753.488356	11732.063097
753.816243	11670.429950
754.144082	11530.724454
754.471875	11487.685603
754.799620	11462.573095
755.127318	11442.438726
755.454969	11437.914291
755.782572	11418.896538
756.110129	11428.623444
756.437638	11364.227745
756.765100	11372.913653
757.092515	11400.251830
757.419882	11428.401633
757.747203	11433.389855
758.074477	11507.895588
758.401703	11490.753145
758.728882	11650.023359
759.056014	11683.965448
759.383099	11835.094199
759.710138	11944.235180
760.037129	12060.814383
760.364073	12123.957356
760.690970	12150.221768
761.017820	12156.039259
761.344623	12345.536232
761.671379	12646.795586
761.998088	13147.707317
762.324751	14399.577052
762.651366	16934.637210
762.977935	20716.944365
763.304456	23612.832671
763.630931	25037.001482
763.957359	24393.601537
764.283740	22590.705961
764.610074	20710.572346
764.936362	18424.935878
765.262602	16735.814102
765.588796	15033.353434
765.914943	13874.167833
766.241044	12855.630425
766.567097	12133.099488
766.893104	11499.809578
767.219064	11094.316806
767.544978	10658.995528
767.870845	10316.943157
768.196665	10119.997879
768.522438	9918.071941
768.848165	9740.683820
769.173846	9566.015401
769.499479	9454.479872
769.825066	9307.242891
770.150607	9114.436401
770.476101	9049.448366
770.801548	8938.560625
771.126949	8808.168661
771.452303	8711.993528
771.777611	8536.715129
772.102872	8534.446610
772.428087	8416.423116
772.753256	8282.401520
773.078378	8210.055921
773.403453	8052.640851
773.728482	7948.898946
774.053465	7879.857824
774.378401	7792.126623
774.703291	7681.674943
775.028135	7578.583347
775.352932	7555.968730
775.677683	7460.176725
776.002388	7362.816921
776.327046	7377.804271
776.651658	7288.603574
776.976224	7200.640481
777.300743	7204.834721
777.625216	7128.277238
777.949643	7095.240036
778.274024	7106.466686
778.598359	7034.214348
778.922647	7045.950155
779.246889	7002.961715
779.571086	7009.363981
779.895236	7012.963364
780.219339	7024.280755
780.543397	7022.959972
780.867409	7101.165913
781.191374	7114.285516
781.515294	7088.802483
781.839167	7166.844586
782.162995	7148.305742
782.486776	7104.629185
782.810511	7070.949237
783.134201	6998.991807
783.457844	6989.544684
783.781441	6944.408713
784.104993	6890.543984
784.428498	6872.768876
784.751958	6859.223296
785.075372	6832.875705
785.398739	6784.924250
785.722061	6825.722308
786.045337	6821.303736
786.368568	6952.194775
786.691752	6960.666434
787.014891	7223.305509
787.337983	7506.358735
787.661030	8011.618462
787.984031	8578.564268
788.306987	8987.716917
788.629897	9226.632321
788.952760	9232.648938
789.275579	9072.032735
789.598351	8740.118125
789.921078	8428.912574
790.243759	8063.693581
790.566395	7792.141747
790.888984	7554.786580
791.211529	7367.890842
791.534027	7159.292937
791.856480	6974.577498
792.178888	6902.103350
792.501249	6812.501882
792.823566	6668.834038
793.145836	6668.219018
793.468062	6640.318752
793.790241	6589.491318
794.112375	6644.381922
794.434464	6779.948631
794.756507	6805.071221
795.078505	6932.735922
795.400457	7186.154725
795.722364	7492.818196
796.044226	7766.880525
796.366042	8032.577059
796.687812	8016.011827
797.009538	8102.444931
797.331218	8026.547839
797.652852	7966.462326
797.974442	7826.310688
798.295986	7748.744974
798.617484	7583.586692
798.938938	7452.410828
799.260346	7358.577310
799.581709	7180.372522
799.903026	7106.259999
800.224299	7011.488827
800.545526	6860.992741
800.866708	6766.297186
801.187845	6707.797116
801.508936	6610.737261
801.829983	6574.829122
802.150984	6437.533297
802.471940	6392.682151
802.792851	6380.878289
803.113717	6357.000864
803.434538	6322.652962
803.755314	6269.937617
804.076045	6265.413181
804.396731	6219.886521
804.717372	6242.057515
805.037967	6238.075004
805.358518	6276.407938
805.679024	6358.044383
805.999485	6359.473550
806.319901	6397.700620
806.640272	6419.846409
806.960598	6500.814901
807.280879	6498.853892
807.601115	6573.939358
807.921306	6527.228027
808.241453	6537.693462
808.561554	6564.184726
808.881611	6535.397217
809.201623	6543.425254
809.521590	6499.791547
809.841513	6476.009904
810.161390	6511.330748
810.481223	6395.477471
810.801011	6387.308281
811.120755	6365.520414
811.440453	6288.867149
811.760107	6259.532675
812.079716	6237.132308
812.399281	6179.562331
812.718801	6167.660167
813.038276	6127.877901
813.357707	6068.518315
813.677093	6112.593123
813.996434	6018.137023
814.315731	6053.082302
814.634983	6049.621550
814.954191	6054.524072
815.273354	6147.533360
815.592473	6199.379107
815.911547	6319.991233
816.230577	6386.778960
816.549562	6516.334093
816.868502	6609.429081
817.187399	6694.982503
817.506250	6838.272260
817.825058	6858.744386
818.143821	7087.060764
818.462539	7315.848490
818.781213	7626.486911
819.099843	8078.171775
819.418429	8938.961397
819.736970	9780.203945
820.055466	10819.276494
820.373919	12103.081938
820.692327	14016.895502
821.010691	17134.276985
821.329011	24106.767445
821.647286	34880.315632
821.965517	47915.869880
822.283704	55742.775423
822.601847	59291.959460
822.919945	57006.401129
823.237999	52862.227348
823.556010	46862.341823
823.873976	40546.449047
824.191897	34451.847803
824.509775	29922.645815
824.827609	25583.775111
825.145398	22954.568884
825.463144	21418.519225
825.780845	21329.459680
826.098502	22503.524247
826.416116	25621.172911
826.733685	29135.323448
827.051210	30856.471674
827.368692	29974.478958
827.686129	26669.533785
828.003522	22884.708574
828.320872	19369.098622
828.638177	16626.869727
828.955439	14565.168873
829.272656	12829.313082
829.589830	11430.123188
829.906960	10209.924502
830.224046	9291.262434
830.541088	8556.983088
830.858086	8094.903365
831.175041	7712.153759
831.491952	7551.030920
831.808819	7556.286323
832.125642	7843.803492
832.442421	8519.129064
832.759157	9930.271533
833.075849	12344.049092
833.392497	15323.519729
833.709101	17652.406777
834.025662	18015.674844
834.342179	16751.333294
834.658653	14802.924812
834.975083	12970.515801
835.291469	11407.730382
835.607811	10145.523762
835.924110	9269.237633
836.240366	8451.663302
836.556578	7685.952362
836.872746	7065.822383
837.188871	6577.004380
837.504952	6170.115209
837.820990	5860.442169
838.136984	5641.068798
838.452935	5530.523856
838.768842	5515.133213
839.084706	5787.360562
839.400526	6709.816098
839.716303	8133.337122
840.032037	9311.043921
840.347727	9521.567547
840.663373	8766.979913
840.978977	7780.234542
841.294537	6983.407079
841.610054	6401.015178
841.925527	5989.377241
842.240957	5642.261031
842.556344	5335.365667
842.871687	5070.768104
843.186987	4796.194098
843.502244	4577.854164
843.817458	4416.254936
844.132629	4284.637971
844.447756	4195.840566
844.762840	4119.918269
845.077881	4044.295920
845.392879	3986.489009
845.707833	3937.700722
846.022745	3897.989032
846.337613	3874.197307
846.652438	3830.142663
846.967221	3812.964932
847.281960	3781.926548
847.596656	3767.954990
847.911309	3749.537134
848.225919	3729.128023
848.540485	3713.127400
848.855009	3700.940411
849.169490	3679.606248
849.483928	3666.043023
849.798323	3659.852487
850.112675	3644.940753
850.426984	3650.317144
850.741251	3632.993219
851.055474	3631.576655
851.369654	3634.742499
851.683792	3627.258906
851.997887	3634.626553
852.311938	3639.660145
852.625947	3641.684168
852.939914	3631.140595
853.253837	3640.015546
853.567718	3638.866163
853.881555	3630.659165
854.195350	3639.942449
854.509103	3639.652583
854.822812	3640.222233
855.136479	3633.666213
855.450103	3641.200217
855.763685	3625.355871
856.077224	3629.905512
856.390720	3645.580980
856.704173	3660.606139
857.017584	3673.360258
857.330953	3683.069521
857.644278	3703.609702
857.957561	3712.653532
858.270802	3706.405022
858.584000	3712.580435
858.897155	3709.497770
859.210268	3693.998742
859.523339	3673.324970
859.836367	3671.121986
860.149352	3670.103673
860.462295	3658.259482
860.775195	3646.969818
861.088054	3642.911689
861.400869	3641.114518
861.713642	3640.423880
862.026373	3649.719767
862.339062	3652.850324
862.651708	3668.966893
862.964312	3703.045093
863.276873	3710.742935
863.589392	3758.732199
863.901869	3802.970844
864.214303	3841.185311
864.526696	3876.669993
864.839045	3916.288421
865.151353	3944.455868
865.463619	3951.707568
865.775842	3959.549083
866.088023	3975.716063
866.400162	3967.413283
866.712258	3975.718584
867.024313	3979.784274
867.336325	3976.469716
867.648296	3981.377279
867.960224	3980.752176
868.272110	3991.227693
868.583954	3992.944206
868.895755	4002.663551
869.207515	3999.444774
869.519233	4036.366185
869.830909	4045.460427
870.142542	4070.414138
870.454134	4082.218000
870.765684	4107.028038
871.077191	4142.681599
871.388657	4161.961492
871.700081	4196.420299
872.011463	4234.052513
872.322803	4268.627266
872.634101	4294.964774
872.945357	4330.154549
873.256571	4381.208834
873.567744	4409.615736
873.878874	4426.122995
874.189963	4463.354436
874.501010	4474.828102
874.812015	4476.428669
875.122979	4511.885624
875.433900	4510.968134
875.744780	4521.504146
876.055618	4548.381058
876.366415	4540.721024
876.677169	4560.779776
876.987882	4598.182617
877.298554	4641.065192
877.609183	4710.000450
877.919771	4798.475221
878.230317	4917.804373
878.540822	5097.435808
878.851285	5358.933061
879.161707	5734.004990
879.472087	6353.638415
879.782425	7328.403484
880.092722	9076.423580
880.402977	11807.461115
880.713191	15139.305885
881.023363	18642.292787
881.333494	20958.748350
881.643583	22364.297660
881.953631	22592.908945
882.263637	21984.638281
882.573602	20756.136815
882.883526	19381.494820
883.193408	17868.067338
883.503248	16345.875811
883.813048	14936.167550
884.122806	13630.559115
884.432522	12250.979309
884.742197	11097.023906
885.051831	10064.441843
885.361424	9115.190053
885.670975	8335.898245
885.980485	7671.005341
886.289954	7122.442102
886.599382	6673.512229
886.908768	6309.384646
887.218113	5967.934693
887.527417	5692.791036
887.836680	5441.504641
888.145901	5231.870778
888.455082	5073.341613
888.764221	4930.298873
889.073319	4806.397394
889.382376	4730.399479
889.691392	4671.826312
890.000366	4641.400428
890.309300	4621.374445
890.618193	4627.166731
890.927044	4611.859267
891.235855	4625.775372
891.544625	4650.920648
891.853353	4696.147359
892.162041	4787.427532
892.470687	4943.909988
892.779293	5150.564529
893.087858	5450.253563
893.396381	5921.692188
893.704864	6579.633342
894.013306	7562.136582
894.321707	8656.210640
894.630068	9511.407102
894.938387	9843.467905
895.246665	9729.651254
895.554903	9222.995128
895.863100	8590.741175
896.171256	8082.413906
896.479371	7605.707275
896.787446	7146.884137
897.095480	6742.341623
897.403473	6447.998732
897.711425	6151.825903
898.019336	5906.064612
898.327207	5650.357124
898.635038	5433.728661
898.942827	5203.415986
899.250576	5017.352038
899.558284	4830.859593
899.865952	4718.419177
900.173579	4579.399277
900.481165	4479.647446
900.788711	4389.415833
901.096216	4315.620902
901.403681	4249.576746
901.711105	4224.207139
902.018489	4202.217626
902.325832	4250.128752
902.633135	4333.753933
902.940397	4584.324485
903.247619	5171.749978
903.554800	6327.610937
903.861941	8009.569233
904.169041	9516.783492
904.476101	10322.528755
904.783121	10193.399600
905.090100	9581.524510
905.397039	8832.454419
905.703938	8135.850137
906.010796	7495.008578
906.317614	6983.482697
906.624391	6490.029352
906.931129	6091.223672
907.237826	5721.104677
907.544483	5381.540116
907.851099	5030.557341
908.157675	4703.404100
908.464211	4388.536152
908.770707	4155.390348
909.077163	3962.157880
909.383578	3818.212773
909.689954	3703.692881
909.996289	3629.018269
910.302584	3571.123138
910.608839	3534.980585
910.915054	3506.649301
911.221229	3488.170951
911.527363	3500.599916
911.833458	3503.206193
912.139513	3526.261910
912.445527	3551.313924
912.751502	3617.831949
913.057436	3702.644321
913.363331	3810.250270
913.669186	3977.843430
913.975000	4187.235317
914.280775	4530.721896
914.586510	5014.100494
914.892205	5675.409138
915.197859	6561.195321
915.503475	7651.425499
915.809050	8668.672372
916.114585	9355.143935
916.420081	9694.768990
916.725536	9737.296164
917.030952	9387.921517
917.336328	9041.198518
917.641665	8678.517745
917.946961	8248.391376
918.252218	7866.745783
918.557435	7398.331850
918.862612	7006.820718
919.167750	6670.767321
919.472848	6278.762157
919.777906	5934.695845
920.082925	5599.519608
920.387904	5256.862299
920.692843	4996.968133
920.997743	4758.481227
921.302603	4535.987381
921.607423	4385.355183
921.912204	4228.713931
922.216946	4118.637816
922.521647	4003.646576
922.826310	3907.151330
923.130932	3820.022547
923.435516	3727.993763
923.740059	3664.752488
924.044564	3593.561313
924.349028	3537.695247
924.653454	3479.583346
924.957840	3414.998603
925.262186	3370.051675
925.566493	3315.294662
925.870761	3260.799789
926.174989	3228.919532
926.479178	3195.932742
926.783328	3155.573264
927.087438	3128.436733
927.391509	3098.411621
927.695541	3066.057496
927.999533	3044.448590
928.303486	3027.631300
928.607400	3007.711181
928.911275	2998.919409
929.215110	2978.618682
929.518906	2972.619709
929.822663	2971.520738
930.126381	2965.340283
930.430060	2975.561222
930.733699	2977.121459
931.037299	2983.833756
931.340861	2983.407778
931.644383	2994.934377
931.947866	2993.890858
932.251309	2989.124447
932.554714	2987.544045
932.858080	2981.645895
933.161407	2975.210862
933.464694	2968.314564
933.767943	2964.180818
934.071153	2962.071095
934.374323	2947.255143
934.677455	2943.592745
934.980548	2938.465892
935.283602	2931.093204
935.586617	2926.341917
935.889593	2935.688216
936.192530	2939.300203
936.495428	2950.093313
936.798287	2964.364820
937.101108	2990.651916
937.403890	3031.603730
937.706632	3088.772935
938.009336	3162.383863
938.312002	3229.426168
938.614628	3287.497740
938.917216	3340.197962
939.219765	3370.202910
939.522275	3403.847571
939.824747	3411.822676
940.127179	3408.709764
940.429573	3403.431676
940.731929	3403.885379
941.034246	3393.702249
941.336524	3383.713202
941.638763	3369.545039
941.940964	3359.006507
942.243126	3318.768017
942.545250	3301.391160
942.847335	3268.043927
943.149381	3235.047055
943.451389	3202.335007
943.753359	3172.319977
944.055290	3153.745846
944.357182	3124.670991
944.659036	3110.407047
944.960851	3102.086622
945.262628	3087.184971
945.564367	3085.445773
945.866067	3081.236410
946.167729	3079.303127
946.469352	3075.154258
946.770937	3073.609144
947.072484	3058.137843
947.373992	3063.037844
947.675462	3054.929148
947.976893	3041.678476
948.278286	3034.204965
948.579641	3026.292874
948.880958	3022.333048
949.182236	3022.663243
949.483476	3014.746111
949.784678	3017.208715
950.085841	3016.387007
950.386967	3024.493182
950.688054	3038.799977
950.989103	3054.994683
951.290114	3075.736511
951.591087	3097.297526
951.892021	3124.905405
952.192917	3150.138901
952.493776	3177.272911
952.794596	3184.252389
953.095378	3193.931404
953.396122	3187.511495
953.696828	3183.758356
953.997496	3173.363496
954.298126	3159.389418
954.598718	3136.192548
954.899272	3116.176647
955.199788	3093.582196
955.500266	3064.469532
955.800706	3035.185469
956.101108	2999.685664
956.401472	2967.956642
956.701798	2940.363886
957.002087	2904.710326
957.302337	2877.566233
957.602550	2851.899198
957.902724	2822.103458
958.202861	2801.832978
958.502960	2777.907662
958.803022	2759.699015
959.103045	2741.387023
959.403031	2725.880434
959.702979	2713.345605
960.002889	2702.043338
960.302762	2689.712676
960.602596	2677.865964
960.902393	2668.864984
961.202153	2665.109324
961.501875	2658.502892
961.801559	2648.733136
962.101205	2645.448824
962.400814	2639.895993
962.700385	2633.362658
962.999918	2625.342182
963.299414	2620.701800
963.598873	2619.353292
963.898293	2613.069493
964.197677	2614.087806
964.497022	2612.056221
964.796331	2606.331991
965.095601	2606.032042
965.394835	2606.820983
965.694030	2603.168667
965.993189	2601.852926
966.292309	2598.331680
966.591393	2598.702205
966.890439	2601.167329
967.189447	2599.234047
967.488419	2600.038111
967.787353	2600.154057
968.086249	2601.079109
968.385108	2604.000457
968.683930	2606.710078
968.982714	2610.853906
969.281462	2614.725512
969.580172	2617.732561
969.878844	2622.390587
970.177480	2628.502986
970.476078	2637.014974
970.774639	2644.937147
971.073162	2652.234217
971.371649	2657.582882
971.670098	2662.142605
971.968510	2667.791218
972.266885	2671.723318
972.565223	2674.523679
972.863524	2676.530058
973.161788	2680.598270
973.460014	2682.332427
973.758204	2688.956503
974.056356	2686.748477
974.354471	2692.359282
974.652550	2693.528829
974.950591	2689.642100
975.248595	2687.310566
975.546563	2686.501461
975.844493	2686.060360
976.142386	2676.088957
976.440243	2674.621982
976.738062	2669.815242
977.035845	2664.980775
977.333590	2661.404076
977.631299	2652.798827
977.928971	2649.146511
978.226606	2642.255253
978.524204	2639.205355
978.821765	2635.691671
979.119290	2635.116980
979.416777	2635.724439
979.714228	2638.194604
980.011642	2642.119142
980.309020	2646.363794
980.606360	2656.612460
980.903664	2676.691375
981.200931	2705.985520
981.498162	2744.157137
981.795356	2805.505459
982.092513	2882.819115
982.389633	2973.310347
982.686717	3064.749316
982.983764	3138.831592
983.280775	3189.293542
983.577749	3208.192828
983.874686	3202.019935
984.171587	3172.027591
984.468451	3139.872591
984.765279	3104.299689
985.062070	3065.482804
985.358824	3024.702390
985.655543	2974.981490
985.952224	2928.837288
986.248869	2869.311343
986.545478	2816.291008
986.842050	2767.001126
987.138586	2722.230639
987.435086	2685.084897
987.731549	2654.006183
988.027975	2631.986423
988.324366	2613.180399
988.620719	2599.339911
988.917037	2585.504464
989.213318	2580.473392
989.509563	2575.603638
989.805772	2570.701116
990.101944	2564.901268
990.398080	2562.965465
990.694180	2563.774570
990.990244	2561.770712
991.286271	2560.671740
991.582262	2558.143602
991.878217	2564.525702
992.174136	2569.524006
992.470019	2568.568708
992.765865	2573.970304
993.061676	2570.519634
993.357450	2584.977663
993.653188	2585.501943
993.948890	2603.766044
994.244556	2618.614762
994.540186	2637.458596
994.835780	2665.442041
995.131337	2695.943542
995.426859	2732.433934
995.722345	2774.968670
996.017795	2820.775114
996.313208	2859.738192
996.608586	2887.502347
996.903928	2903.755027
997.199234	2906.658732
997.494504	2904.344842
997.789738	2892.578789
998.084936	2871.345449
998.380099	2845.577591
998.675225	2821.493478
998.970316	2794.714869
999.265371	2762.212030
999.560390	2728.542163
999.855373	2702.991075
1000.150320	2675.952846
1000.445232	2648.758342
1000.740108	2631.283182
1001.034948	2612.399020
1001.329752	2597.189859
1001.624521	2588.035123
1001.919254	2577.410892
1002.213951	2569.246743
1002.508613	2560.505382
1002.803239	2554.730740
1003.097829	2548.756973
1003.392384	2544.545089
1003.686903	2539.882022
1003.981386	2537.585776
1004.275834	2534.551002
1004.570246	2534.707277
1004.864623	2530.258459
1005.158964	2526.863242
1005.453270	2525.562624
1005.747540	2525.754188
1006.041775	2521.481810
1006.335974	2520.113137
1006.630138	2521.045750
1006.924266	2520.917201
1007.218359	2519.949299
1007.512416	2517.905112
1007.806438	2516.092817
1008.100425	2515.535769
1008.394376	2514.086437
1008.688292	2518.807478
1008.982172	2514.527538
1009.276017	2519.432581
1009.569827	2518.613394
1009.863602	2515.419823
1010.157341	2515.931500
1010.451045	2515.636592
1010.744714	2512.659791
1011.038347	2512.695079
1011.331945	2511.782630
1011.625508	2514.068793
1011.919036	2509.516632
1012.212528	2508.828514
1012.505986	2505.682834
1012.799408	2510.635768
1013.092795	2509.995541
1013.386147	2508.825993
1013.679464	2505.138389
1013.972745	2507.248112
1014.265992	2508.160561
1014.559204	2504.896414
1014.852380	2506.938081
1015.145521	2509.982938
1015.438628	2508.352125
1015.731699	2506.786847
1016.024736	2507.815242
1016.317737	2511.023937
1016.610703	2509.045284
1016.903635	2511.606190
1017.196531	2513.637775
1017.489393	2512.022085
1017.782219	2515.835718
1018.075011	2519.188085
1018.367768	2517.922756
1018.660490	2516.503671
1018.953177	2516.503671
1019.245829	2516.503671
