Dividing Wavelength (nm)	Counts (n)	Blue Motor Position (mm): 4.000000	Red Motor Position (mm): 0.000000	
326.493990	2068.329970
326.888308	2068.329970
327.282561	2068.329970
327.676750	2040.991793
328.070874	2042.932637
328.464933	2050.940510
328.858929	2058.608105
329.252859	2068.957594
329.646726	2080.471589
330.040528	2098.080340
330.434265	2115.381580
330.827938	2138.296145
331.221547	2156.930770
331.615091	2175.714109
332.008571	2199.004240
332.401986	2215.355222
332.795338	2238.297513
333.188625	2257.456419
333.581847	2273.318409
333.975006	2293.735082
334.368100	2310.257464
334.761129	2327.576348
335.154095	2345.285922
335.546996	2358.014835
335.939833	2370.965559
336.332606	2385.842004
336.725315	2396.609909
337.117960	2407.478637
337.510540	2419.080852
337.903056	2426.713159
338.295508	2431.323294
338.687896	2441.395520
339.080220	2445.115891
339.472480	2451.923969
339.864676	2453.605194
340.256807	2459.362192
340.648875	2461.018211
341.040879	2458.391770
341.432818	2460.625001
341.824694	2462.467543
342.216506	2462.170115
342.608253	2460.032665
342.999937	2461.746658
343.391557	2460.269600
343.783113	2458.429578
344.174605	2456.632407
344.566033	2453.186778
344.957397	2451.417333
345.348697	2453.055708
345.739934	2453.867334
346.131106	2450.325924
346.522215	2449.090841
346.913260	2446.345933
347.304241	2445.441046
347.695159	2443.207814
348.086012	2443.152362
348.476802	2438.002823
348.867528	2434.831937
349.258191	2433.385126
349.648789	2434.325301
350.039324	2428.205341
350.429796	2432.868408
350.820203	2431.986206
351.210548	2434.405960
351.600828	2431.005702
351.991045	2433.853953
352.381198	2432.785229
352.771288	2429.455547
353.161314	2431.802204
353.551276	2430.385640
353.941175	2432.414704
354.331010	2430.027718
354.720782	2431.829930
355.110490	2432.172729
355.500135	2428.051585
355.889717	2430.153747
356.279235	2432.371854
356.668689	2434.753799
357.058080	2430.665424
357.447408	2433.624581
357.836672	2432.560898
358.225873	2433.881680
358.615010	2432.686926
359.004084	2433.130548
359.393095	2432.402101
359.782043	2437.685230
360.170927	2437.390323
360.559748	2436.245981
360.948505	2438.862340
361.337199	2436.442586
361.725830	2435.678851
362.114398	2436.677000
362.502903	2437.967535
362.891344	2439.182453
363.279722	2440.228493
363.668037	2440.578853
364.056289	2439.731939
364.444478	2443.187650
364.832603	2439.618513
365.220665	2440.047011
365.608665	2440.379727
365.996601	2443.389296
366.384474	2441.662701
366.772284	2443.714450
367.160031	2440.659511
367.547715	2444.596652
367.935336	2442.779316
368.322893	2441.660180
368.710388	2438.789243
369.097820	2441.186312
369.485189	2437.889397
369.872495	2444.284101
370.259738	2444.150510
370.646918	2445.924996
371.034035	2446.066149
371.421090	2445.458690
371.808081	2446.061108
372.195010	2446.053546
372.581875	2447.182764
372.968678	2446.905501
373.355418	2446.797116
373.742096	2447.911211
374.128710	2446.734102
374.515262	2447.061777
374.901751	2446.716458
375.288177	2447.926334
375.674540	2447.215532
376.060841	2450.338527
376.447079	2448.087651
376.833254	2447.825511
377.219367	2448.070007
377.605417	2451.266099
377.991404	2448.301900
378.377329	2448.357353
378.763191	2448.317024
379.148991	2449.138732
379.534727	2451.802982
379.920402	2450.804833
380.306013	2452.778445
380.691563	2451.944134
381.077049	2451.543362
381.462474	2452.392797
381.847835	2451.404731
382.233134	2450.406582
382.618371	2451.256017
383.003545	2453.683332
383.388657	2450.358691
383.773706	2451.939093
384.158693	2454.661316
384.543618	2455.256172
384.928480	2454.668878
385.313280	2453.549742
385.698017	2454.366408
386.082692	2454.721810
386.467305	2451.329113
386.851856	2453.751388
387.236344	2452.435647
387.620770	2452.612087
388.005133	2452.851542
388.389435	2453.169134
388.773674	2451.336675
389.157851	2454.487396
389.541965	2455.150308
389.926018	2456.541666
390.310008	2455.460339
390.693936	2458.578293
391.077802	2454.671398
391.461606	2457.955710
391.845348	2456.844136
392.229027	2458.482511
392.612645	2458.434620
392.996200	2456.864300
393.379694	2456.869341
393.763125	2458.220371
394.146494	2460.635083
394.529801	2458.704321
394.913047	2460.882100
395.296230	2458.616101
395.679351	2459.702470
396.062410	2460.872018
396.445408	2459.132819
396.828343	2461.572738
397.211217	2458.711883
397.594028	2458.769856
397.976778	2457.406224
398.359466	2460.413272
398.742092	2460.244394
399.124656	2459.331945
399.507158	2459.478138
399.889598	2459.896554
400.271977	2461.086267
400.654294	2461.943263
401.036549	2461.040896
401.418742	2457.164249
401.800874	2459.846143
402.182944	2462.671709
402.564952	2460.703139
402.946898	2465.351083
403.328783	2460.698098
403.710606	2461.718931
404.092367	2462.896041
404.474067	2462.492748
404.855705	2464.229426
405.237282	2459.095011
405.618797	2464.552060
406.000250	2463.742955
406.381642	2464.335290
406.762972	2461.744137
407.144240	2458.290947
407.525447	2463.213633
407.906593	2457.696091
408.287677	2466.581124
408.668700	2463.495938
409.049661	2466.858388
409.430560	2464.610033
409.811399	2467.745631
410.192176	2465.759416
410.572891	2464.305043
410.953545	2464.443675
411.334138	2464.650362
411.714669	2466.008953
412.095139	2465.358644
412.475547	2464.453757
412.855894	2467.191104
413.236180	2466.283696
413.616405	2469.933492
413.996568	2465.303192
414.376670	2470.742597
414.756711	2466.936526
415.136691	2469.857874
415.516609	2466.795373
415.896466	2467.455764
416.276262	2466.525672
416.655997	2468.469036
417.035670	2468.572380
417.415283	2467.924592
417.794834	2469.394088
418.174324	2466.621453
418.553753	2467.775878
418.933121	2470.661938
419.312428	2467.236474
419.691674	2469.439458
420.070859	2467.760754
420.449983	2467.768316
420.829045	2467.347380
421.208047	2468.282514
421.586988	2469.643625
421.965867	2468.148923
422.344686	2469.477267
422.723444	2468.877370
423.102141	2469.562967
423.480777	2470.702268
423.859352	2468.491722
424.237866	2468.622792
424.616319	2470.906434
424.994712	2472.751497
425.373044	2471.095478
425.751314	2470.077164
426.129524	2466.301340
426.507673	2471.753348
426.885762	2465.943418
427.263789	2467.349900
427.641756	2469.610858
428.019662	2470.467854
428.397508	2472.184367
428.775292	2470.435086
429.153016	2472.030612
429.530679	2471.342494
429.908282	2470.588842
430.285824	2473.230406
430.663305	2472.887608
431.040726	2472.181846
431.418086	2474.548668
431.795385	2472.610344
432.172624	2472.123873
432.549802	2471.302165
432.926920	2472.663276
433.303977	2473.306023
433.680974	2470.702267
434.057910	2476.272742
434.434786	2473.237968
434.811601	2474.135293
435.188355	2471.738225
435.565050	2475.171250
435.941683	2475.060345
436.318257	2472.386013
436.694770	2472.116311
437.071222	2474.709985
437.447614	2474.979687
437.823946	2475.388020
438.200218	2476.423977
438.576429	2475.403143
438.952580	2475.067907
439.328670	2476.461786
439.704700	2474.538586
440.080670	2477.656539
440.456580	2473.711836
440.832429	2475.488843
441.208218	2472.754017
441.583947	2475.955150
441.959616	2476.048411
442.335224	2475.307362
442.710773	2474.412557
443.086261	2475.962712
443.461689	2477.588484
443.837057	2474.977166
444.212365	2477.502784
444.587612	2475.561940
444.962800	2473.653863
445.337927	2473.227886
445.712995	2468.958028
446.088002	2474.238637
446.462949	2475.216621
446.837837	2476.577732
447.212664	2476.519759
447.587431	2476.126549
447.962139	2475.894656
448.336786	2476.534882
448.711374	2474.775520
449.085901	2473.631178
449.460369	2476.655870
449.834776	2479.244503
450.209124	2476.663432
450.583412	2476.454224
450.957640	2475.236785
451.331808	2476.683597
451.705917	2477.064204
452.079965	2476.854996
452.453954	2475.521611
452.827883	2478.906745
453.201752	2474.921713
453.575562	2476.572691
453.949311	2479.073103
454.323001	2475.050263
454.696632	2477.205356
455.070202	2478.137969
455.443713	2479.801550
455.817164	2479.700727
456.190556	2479.821715
456.563888	2478.579070
456.937160	2479.310038
457.310373	2480.272898
457.683526	2479.536890
458.056619	2479.463793
458.429653	2477.880871
458.802628	2478.594194
459.175542	2480.555203
459.548398	2481.079483
459.921194	2480.842548
460.293930	2481.528145
460.666607	2479.630151
461.039224	2478.183340
461.411782	2481.853300
461.784280	2478.203504
462.156719	2479.688124
462.529099	2479.085706
462.901419	2482.518732
463.273680	2475.335088
463.645882	2476.454224
464.018024	2476.300469
464.390106	2477.343988
464.762130	2478.697538
465.134094	2478.899184
465.505999	2481.202991
465.877845	2480.030923
466.249631	2478.022023
466.621358	2480.638382
466.993026	2481.533187
467.364634	2484.419247
467.736184	2480.124184
468.107674	2480.161993
468.479105	2482.385142
468.850477	2480.996304
469.221790	2480.487147
469.593043	2477.805253
469.964238	2480.686273
470.335373	2482.695172
470.706449	2481.891108
471.077467	2481.250882
471.448425	2482.821201
471.819324	2479.128556
472.190164	2483.395893
472.560945	2479.221817
472.931667	2482.067549
473.302330	2480.552682
473.672934	2480.698876
474.043479	2479.766262
474.413965	2479.451190
474.784393	2480.948413
475.154761	2483.731130
475.525070	2482.465800
475.895321	2483.847076
476.265513	2480.524956
476.635645	2483.597539
477.005719	2483.474031
477.375734	2482.453197
477.745691	2484.141984
478.115588	2483.017806
478.485427	2484.578043
478.855207	2482.816160
479.224928	2483.267343
479.594591	2482.642240
479.964194	2484.643578
480.333739	2481.908752
480.703226	2483.484113
481.072653	2485.157776
481.442022	2481.941520
481.811333	2481.835656
482.180584	2481.006386
482.549777	2482.528814
482.918912	2478.929431
483.287988	2482.175934
483.657005	2484.013434
484.025964	2484.159628
484.394864	2482.662405
484.763706	2482.085193
485.132489	2484.194916
485.501213	2481.878506
485.869879	2484.709113
486.238487	2481.364308
486.607036	2481.888588
486.975527	2483.882364
487.343959	2481.329020
487.712333	2485.087200
488.080648	2481.223156
488.448905	2483.219453
488.817104	2483.232055
489.185244	2482.667446
489.553326	2482.352374
489.921350	2481.684421
490.289315	2484.066366
490.657222	2483.743733
491.025070	2484.525111
491.392861	2486.861686
491.760593	2483.209370
492.128267	2484.031078
492.495883	2484.323465
492.863440	2481.944041
493.230939	2484.567961
493.598380	2484.005872
493.965763	2484.983856
494.333088	2483.980667
494.700354	2487.612818
495.067563	2487.239773
495.434713	2484.527632
495.801805	2482.221304
496.168839	2483.068218
496.535815	2486.544093
496.902733	2484.860348
497.269593	2486.102993
497.636395	2485.167858
498.003139	2484.089052
498.369825	2484.020996
498.736453	2484.134422
499.103023	2485.674494
499.469535	2484.802375
499.835989	2485.238435
500.202385	2482.249030
500.568723	2480.855151
500.935003	2484.245327
501.301226	2480.164513
501.667390	2486.009731
502.033497	2486.166007
502.399546	2487.927890
502.765537	2485.936634
503.131470	2484.580564
503.497345	2482.483444
503.863163	2487.922849
504.228923	2482.760708
504.594625	2487.985863
504.960269	2486.047540
505.325856	2486.559217
505.691385	2488.368991
506.056856	2484.179792
506.422270	2484.310862
506.787625	2485.082159
507.152924	2488.048878
507.518164	2486.276912
507.883347	2486.372694
508.248472	2487.186841
508.613540	2487.355719
508.978550	2485.248517
509.343503	2486.959989
509.708398	2485.588795
510.073236	2487.093579
510.438016	2487.557365
510.802738	2483.516881
511.167403	2486.939824
511.532010	2483.746253
511.896561	2487.234732
512.261053	2484.325986
512.625488	2488.013590
512.989866	2485.853455
513.354186	2484.852786
513.718449	2485.500575
514.082655	2486.551655
514.446803	2485.843373
514.810894	2487.365802
515.174927	2486.622231
515.538904	2485.853455
515.902822	2485.112406
516.266684	2487.557365
516.630488	2485.339258
516.994235	2485.203147
517.357925	2484.789772
517.721558	2488.900833
518.085133	2486.896974
518.448651	2487.222129
518.812112	2483.534525
519.175516	2482.029740
519.538863	2480.817343
519.902152	2489.551142
520.265385	2485.034268
520.628560	2489.072232
520.991678	2489.115082
521.354739	2486.561737
521.717743	2486.506285
522.080690	2487.615339
522.443580	2488.240442
522.806413	2487.174238
523.169189	2488.222798
523.531908	2489.599033
523.894569	2488.353868
524.257174	2487.267499
524.619722	2487.935452
524.982213	2487.506954
525.344647	2486.705410
525.707025	2489.667088
526.069345	2486.584423
526.431608	2487.338075
526.793815	2488.401759
527.155964	2488.164824
527.518057	2487.595174
527.880093	2487.706079
528.242072	2487.708600
528.603995	2487.070894
528.965860	2487.822026
529.327669	2487.970740
529.689421	2485.828250
530.051117	2486.642396
530.412755	2488.379073
530.774337	2484.741881
531.135862	2486.470997
531.497331	2489.289002
531.858743	2487.154073
532.220098	2488.099289
532.581396	2486.382777
532.942638	2488.076604
533.303824	2488.295894
533.664953	2488.109372
534.026025	2487.254896
534.387040	2487.212046
534.747999	2486.760863
535.108902	2488.018631
535.469748	2487.592653
535.830537	2487.602736
536.191270	2485.276243
536.551947	2486.039978
536.912567	2485.722385
537.273131	2485.515698
537.633638	2482.841366
537.994089	2489.609115
538.354483	2486.292036
538.714821	2488.154742
539.075103	2486.695328
539.435328	2489.344454
539.795497	2487.222129
540.155609	2491.126502
540.515665	2486.168527
540.875665	2489.533498
541.235609	2488.631131
541.595496	2487.287664
541.955328	2487.844711
542.315102	2486.433188
542.674821	2486.168527
543.034483	2489.989722
543.394090	2485.024186
543.753640	2489.790597
544.113134	2489.079794
544.472571	2490.340082
544.831953	2486.029896
545.191278	2490.332521
545.550548	2487.857314
545.909761	2487.325472
546.268918	2487.814464
546.628019	2490.002325
546.987064	2488.711790
547.346053	2489.082314
547.704986	2488.752119
548.063863	2490.672798
548.422684	2487.683394
548.781449	2486.944865
549.140158	2484.830101
549.498811	2487.804382
549.857408	2489.362098
550.215949	2488.762201
550.574434	2487.900164
550.932864	2488.482417
551.291237	2490.287150
551.649555	2486.566779
552.007817	2488.860504
552.366022	2487.237252
552.724173	2486.775987
553.082267	2489.047026
553.440305	2489.954434
553.798288	2491.277737
554.156215	2487.020483
554.514086	2487.600215
554.871902	2483.499237
555.229661	2487.207005
555.587365	2485.445122
555.945014	2487.270020
556.302606	2488.250524
556.660143	2488.336224
557.017625	2486.801192
557.375050	2487.456542
557.732421	2486.062663
558.089735	2489.402428
558.446994	2489.810761
558.804197	2489.016779
559.161345	2487.388487
559.518437	2491.663385
559.875474	2489.452839
560.232455	2489.231028
560.589381	2488.260606
560.946251	2487.779176
561.303065	2486.987715
561.659825	2490.193889
562.016528	2488.152222
562.373177	2490.062819
562.729770	2489.291522
563.086307	2489.568786
563.442789	2490.211533
563.799216	2486.539052
564.155587	2488.963847
564.511904	2486.617190
564.868164	2489.483086
565.224370	2488.058960
565.580520	2488.545432
565.936615	2490.692963
566.292654	2488.631131
566.648638	2487.471666
567.004567	2489.273878
567.360441	2484.877992
567.716260	2488.810092
568.072023	2490.206492
568.427732	2489.730103
568.783385	2487.154073
569.138982	2486.251707
569.494525	2489.162973
569.850013	2488.797489
570.205445	2487.396048
570.560823	2487.980822
570.916145	2489.160452
571.271412	2486.420585
571.626625	2489.427633
571.981782	2486.594505
572.336884	2486.453353
572.691931	2486.715493
573.046923	2484.898157
573.401860	2482.831284
573.756743	2487.930411
574.111570	2489.319249
574.466342	2489.795638
574.821059	2489.772953
575.175722	2486.924701
575.530330	2486.748260
575.884882	2489.498210
576.239380	2486.637355
576.593823	2491.305463
576.948211	2487.595174
577.302544	2489.031903
577.656823	2489.755308
578.011047	2487.582571
578.365216	2489.021821
578.719330	2490.375370
579.073389	2489.041985
579.427394	2491.716317
579.781344	2489.538539
580.135239	2488.633652
580.489080	2488.268168
580.842866	2491.189517
581.196597	2493.720176
581.550273	2488.817654
581.903895	2489.377222
582.257463	2491.088694
582.610975	2489.788076
582.964434	2488.066522
583.317837	2487.912767
583.671186	2490.246821
584.024481	2488.520226
584.377721	2490.687922
584.730906	2488.432006
585.084037	2490.435864
585.437113	2488.195071
585.790135	2488.643734
586.143103	2489.730103
586.496016	2489.498210
586.848874	2487.373363
587.201679	2488.623569
587.554428	2490.647593
587.907124	2488.318580
588.259765	2489.941831
588.612352	2486.324803
588.964884	2489.856132
589.317362	2487.885040
589.669786	2490.604743
590.022155	2487.643065
590.374470	2485.160297
590.726731	2487.517036
591.078937	2482.682570
591.431090	2490.017448
591.783188	2489.533498
592.135232	2487.569968
592.487222	2489.931749
592.839157	2489.200782
593.191038	2488.200112
593.542866	2485.762715
593.894639	2488.671460
594.246358	2489.722541
594.598022	2488.908395
594.949633	2490.347644
595.301190	2488.595843
595.652692	2489.672129
596.004141	2487.706079
596.355535	2487.252376
596.706876	2489.316728
597.058162	2489.094917
597.409395	2486.917139
597.760573	2487.995946
598.111698	2487.993425
598.462768	2489.425113
598.813785	2491.408807
599.164748	2488.492499
599.515657	2490.430823
599.866511	2487.822026
600.217312	2488.298415
600.568060	2485.772797
600.918753	2491.111379
601.269392	2488.807572
601.619978	2489.271358
601.970510	2486.150883
602.320988	2489.084835
602.671412	2487.751450
603.021783	2488.371512
603.372100	2488.351347
603.722363	2491.318066
604.072572	2489.188179
604.422728	2487.781697
604.772830	2487.554845
605.122878	2489.228508
605.472872	2490.521564
605.822813	2489.667088
606.172701	2489.223467
606.522534	2487.340596
606.872314	2488.696666
607.222041	2487.015441
607.571714	2488.774804
607.921333	2486.198774
608.270899	2485.631645
608.620411	2483.693321
608.969870	2489.251193
609.319276	2489.780514
609.668627	2487.809423
610.017926	2486.730616
610.367171	2486.052581
610.716362	2486.491161
611.065500	2490.317397
611.414585	2487.040647
611.763616	2490.365288
612.112594	2486.831439
612.461518	2485.624083
612.810389	2488.676502
613.159207	2488.290853
613.507971	2487.703559
613.856682	2489.508292
614.205340	2490.168683
614.553945	2487.348158
614.902496	2488.893271
615.250994	2487.973261
615.599439	2487.842191
615.947830	2488.144660
616.296169	2489.462922
616.644454	2488.502582
616.992686	2486.654999
617.340864	2484.167189
617.688990	2491.590288
618.037063	2485.855976
618.385082	2489.178096
618.733048	2489.485607
619.080961	2488.202633
619.428821	2485.659371
619.776628	2487.282623
620.124382	2487.708600
620.472083	2489.271358
620.819731	2488.144660
621.167326	2486.440750
621.514868	2489.452839
621.862357	2490.705566
622.209793	2489.727582
622.557176	2489.352016
622.904506	2486.077787
623.251783	2490.592140
623.599007	2489.772953
623.946179	2490.145998
624.293297	2489.437716
624.640363	2488.300936
624.987376	2488.235401
625.334336	2484.333548
625.681243	2488.331183
626.028097	2482.430512
626.374899	2489.606594
626.721647	2488.280771
627.068343	2490.486276
627.414987	2486.130719
627.761577	2491.802017
628.108115	2486.551655
628.454600	2488.666419
628.801032	2488.638693
629.147412	2487.486789
629.493739	2487.945534
629.840014	2489.412510
630.186236	2488.031234
630.532405	2487.002838
630.878521	2488.028713
631.224585	2487.383446
631.570597	2488.389156
631.916556	2489.558703
632.262462	2486.755822
632.608316	2491.050885
632.954117	2488.366471
633.299866	2487.138950
633.645562	2487.741368
633.991206	2486.473517
634.336797	2489.286481
634.682336	2488.984012
635.027823	2488.840339
635.373257	2485.866058
635.718639	2488.311018
636.063968	2487.577530
636.409245	2489.888899
636.754470	2486.985194
637.099642	2488.031234
637.444762	2487.514516
637.789829	2488.903353
638.134845	2485.677015
638.479808	2487.852273
638.824719	2488.850421
639.169577	2488.368991
639.514383	2489.031903
639.859137	2489.737664
640.203839	2486.745740
640.548489	2486.022334
640.893086	2487.673312
641.237632	2486.914618
641.582125	2491.043323
641.926566	2489.795638
642.270955	2484.484782
642.615292	2483.718527
642.959576	2486.158445
643.303809	2482.059987
643.647990	2487.393528
643.992118	2488.192551
644.336195	2488.394197
644.680219	2488.051398
645.024192	2488.762201
645.368112	2487.645586
645.711981	2488.933600
646.055797	2489.644403
646.399562	2489.591471
646.743274	2490.022490
647.086935	2490.839157
647.430544	2486.211377
647.774101	2489.639362
648.117606	2487.814464
648.461059	2487.469145
648.804460	2492.908550
649.147810	2487.391007
649.491108	2489.135247
649.834354	2487.577530
650.177548	2485.505616
650.520690	2488.331183
650.863781	2489.488127
651.206820	2487.391007
651.549807	2487.877479
651.892742	2487.751450
652.235626	2487.685915
652.578458	2488.605925
652.921238	2490.161121
653.263967	2488.318580
653.606644	2487.113744
653.949269	2489.972078
654.291843	2487.345637
654.634365	2490.380412
654.976836	2489.646924
655.319255	2490.254383
655.661622	2488.893271
656.003938	2490.040134
656.346203	2488.885709
656.688416	2488.772283
657.030577	2488.326141
657.372687	2487.892602
657.714746	2488.248003
658.056753	2488.149701
658.398708	2487.522077
658.740612	2487.577530
659.082465	2489.745226
659.424266	2485.639206
659.766016	2482.836325
660.107715	2485.407313
660.449362	2480.187198
660.790958	2487.867396
661.132503	2488.968888
661.473996	2488.719351
661.815438	2486.418065
662.156829	2486.539052
662.498168	2485.966881
662.839456	2488.389156
663.180693	2488.656337
663.521879	2489.210864
663.863013	2485.815647
664.204097	2489.785555
664.545129	2485.414875
664.886110	2485.480410
665.227040	2487.769094
665.567918	2489.704897
665.908746	2487.816985
666.249522	2487.532160
666.590248	2487.307828
666.930922	2486.274392
667.271545	2489.793117
667.612118	2488.895792
667.952639	2488.411841
668.293109	2488.353868
668.633528	2489.848570
668.973896	2486.995277
669.314213	2491.063488
669.654480	2485.868579
669.994695	2488.096769
670.334859	2488.484938
670.674973	2487.890082
671.015035	2487.695997
671.355047	2486.622231
671.695008	2487.869917
672.034918	2487.340596
672.374777	2489.097438
672.714585	2485.470328
673.054342	2486.372694
673.394049	2487.620380
673.733705	2489.906543
674.073310	2491.129023
674.412864	2488.626090
674.752368	2487.927890
675.091820	2487.759012
675.431223	2487.154073
675.770574	2487.575009
676.109875	2488.121975
676.449125	2485.833291
676.788324	2483.284988
677.127473	2486.294556
677.466571	2482.851448
677.805619	2488.724393
678.144616	2487.244814
678.483562	2487.635503
678.822458	2487.781697
679.161303	2485.954278
679.500098	2490.599702
679.838842	2486.473517
680.177535	2489.266317
680.516179	2488.691625
680.854771	2487.128867
681.193314	2486.891933
681.531805	2485.956799
681.870247	2487.519557
682.208638	2487.312869
682.546978	2487.464104
682.885268	2489.775473
683.223508	2486.796151
683.561697	2487.138950
683.899836	2485.424957
684.237925	2488.530308
684.575963	2488.527788
684.913951	2488.870586
685.251889	2486.791110
685.589776	2485.230873
685.927614	2487.375884
686.265401	2488.187510
686.603137	2489.079794
686.940824	2487.239773
687.278460	2489.248673
687.616046	2488.676502
687.953582	2486.697849
688.291068	2486.065184
688.628504	2487.708600
688.965889	2485.074597
689.303224	2488.517705
689.640510	2486.849083
689.977745	2490.133395
690.314930	2484.666264
690.652065	2489.304125
690.989150	2485.508136
691.326185	2488.701707
691.663170	2487.391007
692.000105	2486.274392
692.336990	2485.669453
692.673825	2487.703559
693.010610	2484.769607
693.347345	2486.586943
693.684030	2483.100985
694.020665	2488.472335
694.357251	2482.218783
694.693786	2485.608959
695.030272	2486.952427
695.366707	2488.356388
695.703093	2487.519557
696.039429	2486.045019
696.375716	2488.565596
696.711952	2487.111223
697.048139	2488.109372
697.384276	2488.452170
697.720363	2485.863538
698.056400	2487.839670
698.392388	2486.057622
698.728326	2488.174907
699.064214	2487.600215
699.400053	2486.498723
699.735842	2486.223980
700.071581	2486.957468
700.407270	2487.781697
700.742910	2486.176089
701.078501	2486.740698
701.414042	2489.742706
701.749533	2486.203816
702.084974	2486.602067
702.420366	2488.734475
702.755709	2486.158445
703.091002	2488.701707
703.426246	2486.831439
703.761440	2486.793631
704.096584	2487.068373
704.431679	2485.881182
704.766725	2484.857828
705.101721	2486.889413
705.436668	2488.311018
705.771565	2488.328662
706.106413	2488.628611
706.441212	2487.065853
706.775961	2487.217088
707.110661	2485.102323
707.445311	2487.166676
707.779913	2485.820688
708.114465	2486.007211
708.448967	2487.627942
708.783421	2483.272385
709.117825	2486.884371
709.452180	2488.220277
709.786485	2487.143991
710.120742	2483.106027
710.454949	2483.668115
710.789107	2485.523260
711.123216	2481.805409
711.457275	2487.214567
711.791286	2486.859166
712.125247	2485.535863
712.459159	2485.477889
712.793023	2488.389156
713.126837	2487.716162
713.460602	2488.096769
713.794318	2486.861686
714.127985	2488.079125
714.461602	2487.781697
714.795171	2487.350678
715.128691	2486.508805
715.462162	2487.479227
715.795584	2488.210195
716.128957	2485.614001
716.462281	2484.941007
716.795556	2487.892602
717.128782	2486.977633
717.461960	2485.150214
717.795088	2487.476707
718.128167	2487.963178
718.461198	2486.483600
718.794180	2485.558548
719.127113	2486.609628
719.459997	2490.375370
719.792833	2489.515854
720.125619	2485.004021
720.458357	2487.181799
720.791046	2485.689618
721.123686	2488.363950
721.456278	2488.182468
721.788821	2486.546614
722.121315	2487.164155
722.453761	2485.175420
722.786158	2487.774135
723.118506	2485.417396
723.450805	2485.240955
723.783056	2488.008549
724.115259	2486.614670
724.447412	2484.943527
724.779518	2485.130050
725.111574	2486.652478
725.443582	2484.479741
725.775542	2485.750112
726.107453	2486.234063
726.439315	2486.758343
726.771129	2488.066522
727.102895	2481.160141
727.434612	2484.323465
727.766281	2481.691983
728.097901	2488.268168
728.429473	2487.978302
728.760996	2484.998980
729.092471	2487.900164
729.423897	2486.720534
729.755276	2486.899495
730.086606	2485.629124
730.417887	2484.651140
730.749120	2486.881851
731.080305	2486.329844
731.411442	2486.082828
731.742530	2488.172386
732.073570	2486.554176
732.404562	2486.667602
732.735506	2486.176089
733.066401	2484.744402
733.397249	2486.090390
733.728048	2485.979484
734.058798	2486.234062
734.389501	2485.205667
734.720156	2484.391521
735.050762	2483.794144
735.381320	2483.887405
735.711831	2485.132570
736.042293	2485.243476
736.372707	2483.968064
736.703073	2489.047026
737.033391	2485.303970
737.363661	2485.961840
737.693883	2488.275730
738.024056	2489.838487
738.354182	2485.606439
738.684260	2487.653147
739.014290	2483.811788
739.344272	2485.417396
739.674207	2486.831439
740.004093	2487.980822
740.333931	2486.811275
740.663722	2488.865545
740.993464	2485.182982
741.323159	2486.410503
741.652806	2482.065028
741.982405	2488.242962
742.311956	2488.192551
742.641460	2487.050729
742.970915	2483.322796
743.300323	2485.024186
743.629683	2483.433702
743.958996	2484.545276
744.288260	2479.678042
744.617477	2487.126347
744.946647	2484.235245
745.275768	2485.548466
745.604842	2484.212560
745.933869	2487.680874
746.262847	2483.723568
746.591778	2487.075935
746.920662	2485.051912
747.249498	2488.706748
747.578286	2487.348158
747.907027	2485.997128
748.235720	2486.816316
748.564365	2486.506285
748.892963	2486.019813
749.221514	2485.833291
749.550017	2487.141470
749.878473	2483.882364
750.206881	2486.337406
750.535242	2486.163486
750.863555	2482.342292
751.191821	2487.968219
751.520039	2485.114926
751.848210	2484.358753
752.176334	2484.701552
752.504411	2487.595174
752.832440	2484.583085
753.160421	2485.407313
753.488356	2487.915287
753.816243	2485.177941
754.144082	2485.089721
754.471875	2485.402272
754.799620	2487.174238
755.127318	2484.222642
755.454969	2486.972592
755.782572	2485.429998
756.110129	2486.183651
756.437638	2485.838332
756.765100	2488.807572
757.092515	2485.288846
757.419882	2488.777325
757.747203	2485.419916
758.074477	2485.861017
758.401703	2484.560399
758.728882	2484.366315
759.056014	2483.232055
759.383099	2486.937303
759.710138	2484.981336
760.037129	2481.681901
760.364073	2482.864051
760.690970	2481.117291
761.017820	2487.401090
761.344623	2484.754484
761.671379	2483.557210
761.998088	2485.490492
762.324751	2484.260451
762.651366	2485.805564
762.977935	2485.843373
763.304456	2484.890595
763.630931	2483.836994
763.957359	2485.858497
764.283740	2486.516367
764.610074	2485.792962
764.936362	2485.757673
765.262602	2486.980153
765.588796	2486.082828
765.914943	2483.741212
766.241044	2483.063177
766.567097	2485.064515
766.893104	2485.566110
767.219064	2482.816160
767.544978	2483.332878
767.870845	2485.770276
768.196665	2486.057622
768.522438	2485.198105
768.848165	2489.326810
769.173846	2483.963023
769.499479	2484.295739
769.825066	2486.085348
770.150607	2487.098620
770.476101	2485.208188
770.801548	2485.588795
771.126949	2485.828250
771.452303	2484.157107
771.777611	2486.055102
772.102872	2484.809937
772.428087	2484.754484
772.753256	2487.186841
773.078378	2484.663743
773.403453	2487.290184
773.728482	2486.523929
774.053465	2486.140801
774.378401	2486.357571
774.703291	2485.397231
775.028135	2485.886223
775.352932	2485.561068
775.677683	2488.742037
776.002388	2485.024186
776.327046	2480.194760
776.651658	2481.830615
776.976224	2477.157465
777.300743	2486.271871
777.625216	2485.757673
777.949643	2485.699700
778.274024	2484.457056
778.598359	2485.805564
778.922647	2484.968733
779.246889	2484.714155
779.571086	2486.067704
779.895236	2482.871613
780.219339	2486.019813
780.543397	2486.907057
780.867409	2484.464618
781.191374	2483.206850
781.515294	2483.615183
781.839167	2485.185502
782.162995	2485.029227
782.486776	2484.542755
782.810511	2484.978815
783.134201	2482.682570
783.457844	2483.728609
783.781441	2485.767756
784.104993	2482.493526
784.428498	2486.486120
784.751958	2484.068887
785.075372	2485.351861
785.398739	2483.726088
785.722061	2484.998980
786.045337	2486.100472
786.368568	2484.784731
786.691752	2486.614670
787.014891	2484.956130
787.337983	2482.874133
787.661030	2483.174082
787.984031	2482.768269
788.306987	2483.025368
788.629897	2482.168372
788.952760	2483.005203
789.275579	2482.599391
789.598351	2484.129381
789.921078	2482.546458
790.243759	2483.915132
790.566395	2484.389000
790.888984	2484.020996
791.211529	2484.283136
791.534027	2485.485451
791.856480	2484.704072
792.178888	2482.279277
792.501249	2479.882209
792.823566	2483.995790
793.145836	2481.016468
793.468062	2485.934114
793.790241	2485.558548
794.112375	2484.210039
794.434464	2482.561582
794.756507	2486.405462
795.078505	2481.139977
795.400457	2484.204998
795.722364	2484.041161
796.044226	2484.169710
796.366042	2482.438074
796.687812	2483.791623
797.009538	2485.314052
797.331218	2484.573002
797.652852	2486.828919
797.974442	2483.108547
798.295986	2486.029896
798.617484	2485.240955
798.938938	2483.027889
799.260346	2480.789616
799.581709	2484.666264
799.903026	2483.335399
800.224299	2483.153917
800.545526	2483.950420
800.866708	2484.416727
801.187845	2483.017806
801.508936	2484.905718
801.829983	2482.249030
802.150984	2483.337920
802.471940	2486.226501
802.792851	2483.211891
803.113717	2483.932776
803.434538	2482.755666
803.755314	2486.188692
804.076045	2484.522591
804.396731	2485.064515
804.717372	2480.895481
805.037967	2486.138281
805.358518	2483.060656
805.679024	2482.042343
805.999485	2484.225163
806.319901	2485.240955
806.640272	2484.885554
806.960598	2485.056953
807.280879	2484.855307
807.601115	2485.999649
807.921306	2482.543938
808.241453	2481.457569
808.561554	2477.906076
808.881611	2482.133084
809.201623	2478.440439
809.521590	2484.028558
809.841513	2483.121150
810.161390	2487.708600
810.481223	2485.825729
810.801011	2480.920686
811.120755	2483.937817
811.440453	2481.013948
811.760107	2484.915801
812.079716	2483.184164
812.399281	2486.758343
812.718801	2483.053094
813.038276	2484.620893
813.357707	2483.043012
813.677093	2484.688949
813.996434	2483.620224
814.315731	2482.543938
814.634983	2482.153248
814.954191	2483.385811
815.273354	2483.297590
815.592473	2480.214925
815.911547	2487.065853
816.230577	2484.646099
816.549562	2483.390852
816.868502	2480.988742
817.187399	2483.905049
817.506250	2483.532004
817.825058	2483.889926
818.143821	2482.359936
818.462539	2486.198774
818.781213	2482.836325
819.099843	2487.559886
819.418429	2481.631489
819.736970	2483.965543
820.055466	2486.796151
820.373919	2484.986377
820.692327	2481.349184
821.010691	2487.534680
821.329011	2483.211891
821.647286	2482.596870
821.965517	2483.844556
822.283704	2485.170379
822.601847	2483.446304
822.919945	2484.441932
823.237999	2482.866572
823.556010	2485.273723
823.873976	2484.681387
824.191897	2483.393372
824.509775	2477.414564
824.827609	2483.456387
825.145398	2478.707620
825.463144	2483.690800
825.780845	2481.376911
826.098502	2483.244658
826.416116	2483.781541
826.733685	2482.985039
827.051210	2479.347846
827.368692	2484.479741
827.686129	2482.148207
828.003522	2483.184164
828.320872	2483.156438
828.638177	2481.152579
828.955439	2482.062508
829.272656	2485.377066
829.589830	2485.457725
829.906960	2483.043012
830.224046	2485.077118
830.541088	2480.698876
830.858086	2482.604432
831.175041	2480.577888
831.491952	2483.141315
831.808819	2482.853969
832.125642	2481.893629
832.442421	2482.969915
832.759157	2484.993939
833.075849	2485.243476
833.392497	2483.020327
833.709101	2485.218270
834.025662	2482.662405
834.342179	2484.509988
834.658653	2482.869092
834.975083	2482.128043
835.291469	2486.208857
835.607811	2484.565441
835.924110	2485.019144
836.240366	2484.131901
836.556578	2482.506129
836.872746	2485.215749
837.188871	2484.368836
837.504952	2482.652323
837.820990	2483.479072
838.136984	2483.284987
838.452935	2482.952271
838.768842	2481.001345
839.084706	2482.354895
839.400526	2483.383290
839.716303	2481.394555
840.032037	2482.518732
840.347727	2480.378762
840.663373	2480.976139
840.978977	2476.366004
841.294537	2482.891778
841.610054	2484.129381
841.925527	2483.852117
842.240957	2483.791623
842.556344	2481.772641
842.871687	2483.708444
843.186987	2482.128043
843.502244	2484.262971
843.817458	2484.179792
844.132629	2479.405820
844.447756	2480.756849
844.762840	2481.812971
845.077881	2480.973618
845.392879	2484.741881
845.707833	2484.328506
846.022745	2483.027889
846.337613	2484.792293
846.652438	2483.650471
846.967221	2482.039823
847.281960	2482.879175
847.596656	2482.385142
847.911309	2481.465131
848.225919	2477.301138
848.540485	2481.707106
848.855009	2482.238948
849.169490	2482.296921
849.483928	2481.283649
849.798323	2483.073259
850.112675	2482.808598
850.426984	2480.398927
850.741251	2484.071408
851.055474	2481.568475
851.369654	2483.184164
851.683792	2481.450008
851.997887	2483.075780
852.311938	2483.355564
852.625947	2482.596870
852.939914	2482.150728
853.253837	2483.383290
853.567718	2484.268013
853.881555	2481.896150
854.195350	2480.703917
854.509103	2481.870944
854.822812	2483.685759
855.136479	2482.433033
855.450103	2483.496716
855.763685	2480.214925
856.077224	2477.918679
856.390720	2480.005717
856.704173	2478.465644
857.017584	2482.513691
857.330953	2483.259782
857.644278	2484.260451
857.957561	2482.092755
858.270802	2482.266674
858.584000	2483.166520
858.897155	2479.970429
859.210268	2482.269195
859.523339	2480.845069
859.836367	2483.637868
860.149352	2483.471510
860.462295	2479.806591
860.775195	2481.742394
861.088054	2483.723568
861.400869	2481.732312
861.713642	2482.566623
862.026373	2484.956130
862.339062	2483.103506
862.651708	2481.747436
862.964312	2482.574185
863.276873	2482.957312
863.589392	2483.050574
863.901869	2481.903711
864.214303	2484.121819
864.526696	2483.864720
864.839045	2479.660398
865.151353	2483.983187
865.463619	2480.862713
865.775842	2483.312714
866.088023	2483.426140
866.400162	2481.782724
866.712258	2483.078300
867.024313	2480.391365
867.336325	2484.729278
867.648296	2482.773310
867.960224	2482.057467
868.272110	2482.697693
868.583954	2484.580564
868.895755	2483.537045
869.207515	2483.952940
869.519233	2484.061325
869.830909	2479.594863
870.142542	2480.424133
870.454134	2481.056797
870.765684	2481.835656
871.077191	2480.595532
871.388657	2481.253402
871.700081	2475.861888
872.011463	2481.223156
872.322803	2477.538072
872.634101	2478.919348
872.945357	2481.243320
873.256571	2481.883547
873.567744	2481.339102
873.878874	2482.526294
874.189963	2483.426140
874.501010	2483.405975
874.812015	2481.843218
875.122979	2482.506129
875.433900	2483.340440
875.744780	2482.987559
876.055618	2480.298104
876.366415	2484.562920
876.677169	2482.601911
876.987882	2482.843887
877.298554	2478.372383
877.609183	2481.742394
877.919771	2483.322796
878.230317	2482.208701
878.540822	2482.561582
878.851285	2479.972949
879.161707	2481.825573
879.472087	2482.891778
879.782425	2482.798516
880.092722	2483.595018
880.402977	2480.923207
880.713191	2480.799699
881.023363	2482.642240
881.333494	2480.640902
881.643583	2482.675008
881.953631	2480.260295
882.263637	2479.728453
882.573602	2482.601911
882.883526	2483.232055
883.193408	2482.296921
883.503248	2483.239617
883.813048	2480.741725
884.122806	2481.684421
884.432522	2481.258444
884.742197	2480.343474
885.051831	2484.033599
885.361424	2482.619555
885.670975	2482.417909
885.980485	2481.583598
886.289954	2482.992601
886.599382	2481.334061
886.908768	2480.741725
887.218113	2475.350211
887.527417	2478.742908
887.836680	2475.509008
888.145901	2482.087713
888.455082	2481.548310
888.764221	2483.244658
889.073319	2480.892960
889.382376	2485.775317
889.691392	2481.384472
890.000366	2481.162662
890.309300	2480.013279
890.618193	2482.309524
890.927044	2481.702065
891.235855	2480.192240
891.544625	2480.288022
891.853353	2480.898001
892.162041	2479.441108
892.470687	2480.945892
892.779293	2482.238948
893.087858	2478.654688
893.396381	2480.887919
893.704864	2480.378762
894.013306	2479.874647
894.321707	2482.344812
894.630068	2479.178968
894.938387	2479.730974
895.246665	2479.756180
895.554903	2480.139308
895.863100	2479.385655
896.171256	2483.189206
896.479371	2482.193578
896.787446	2481.979329
897.095480	2482.339771
897.403473	2481.828094
897.711425	2481.754997
898.019336	2480.502271
898.327207	2484.068887
898.635038	2480.028402
898.942827	2480.681232
899.250576	2483.542086
899.558284	2480.041005
899.865952	2480.434215
900.173579	2479.786427
900.481165	2482.914463
900.788711	2479.289873
901.096216	2481.240800
901.403681	2478.362301
901.711105	2483.476551
902.018489	2480.502271
902.325832	2481.520584
902.633135	2476.741570
902.940397	2476.713843
903.247619	2476.182002
903.554800	2480.991263
903.861941	2478.339616
904.169041	2481.182826
904.476101	2481.550831
904.783121	2478.425315
905.090100	2480.426653
905.397039	2482.352374
905.703938	2480.582929
906.010796	2479.236941
906.317614	2482.392703
906.624391	2480.650985
906.931129	2482.057467
907.237826	2484.119298
907.544483	2481.402117
907.851099	2480.240131
908.157675	2481.513022
908.464211	2481.636530
908.770707	2483.138794
909.077163	2481.797847
909.383578	2478.463124
909.689954	2482.165851
909.996289	2480.222487
910.302584	2481.094606
910.608839	2482.332209
910.915054	2479.456231
911.221229	2480.459421
911.527363	2478.115284
911.833458	2479.214256
912.139513	2482.128043
912.445527	2478.972280
912.751502	2480.877837
913.057436	2480.076293
913.363331	2482.352374
913.669186	2479.645274
913.975000	2480.199801
914.280775	2481.815491
914.586510	2479.196612
914.892205	2481.704586
915.197859	2480.819863
915.503475	2481.482775
915.809050	2482.135604
916.114585	2481.132415
916.420081	2479.113433
916.725536	2479.352888
917.030952	2482.788434
917.336328	2479.904894
917.641665	2478.831128
917.946961	2474.531024
918.252218	2479.438587
918.557435	2475.287197
918.862612	2481.215594
919.167750	2481.281129
919.472848	2483.821870
919.777906	2477.984214
920.082925	2481.369349
920.387904	2480.406489
920.692843	2483.542086
920.997743	2478.218628
921.302603	2481.266005
921.607423	2482.049905
921.912204	2479.816674
922.216946	2480.703917
922.521647	2480.497229
922.826310	2478.705099
923.130932	2481.699545
923.435516	2481.346664
923.740059	2479.015130
924.044564	2479.703248
924.349028	2482.226345
924.653454	2483.600060
924.957840	2477.301138
925.262186	2480.807260
925.566493	2480.958495
925.870761	2479.862044
926.174989	2479.622589
926.479178	2480.141828
926.783328	2480.663588
927.087438	2477.437249
927.391509	2480.356077
927.695541	2478.654688
927.999533	2480.875316
928.303486	2478.982363
928.607400	2478.725264
928.911275	2479.771303
929.215110	2481.034112
929.518906	2481.475213
929.822663	2479.539410
930.126381	2480.850110
930.430060	2481.117291
930.733699	2479.859523
931.037299	2480.098978
931.340861	2481.076962
931.644383	2476.872640
931.947866	2480.038484
932.251309	2480.640902
932.554714	2482.299442
932.858080	2478.508494
933.161407	2474.505818
933.464694	2476.426498
933.767943	2476.055973
934.071153	2480.688793
934.374323	2480.114102
934.677455	2479.920017
934.980548	2479.015130
935.283602	2477.722074
935.586617	2480.419092
935.889593	2478.478247
936.192530	2480.865234
936.495428	2481.669298
936.798287	2476.429018
937.101108	2480.030923
937.403890	2478.778196
937.706632	2479.693165
938.009336	2478.437918
938.312002	2481.969246
938.614628	2479.673001
938.917216	2479.957826
939.219765	2479.378093
939.522275	2478.531179
939.824747	2481.170223
940.127179	2479.148721
940.429573	2480.093937
940.731929	2477.865747
941.034246	2479.201653
941.336524	2479.539410
941.638763	2480.741725
941.940964	2480.315748
942.243126	2479.965388
942.545250	2480.507312
942.847335	2480.275419
943.149381	2479.481437
943.451389	2477.008751
943.753359	2481.097127
944.055290	2480.230048
944.357182	2482.039822
944.659036	2480.585450
944.960851	2478.120325
945.262628	2479.688124
945.564367	2481.737353
945.866067	2480.091417
946.167729	2480.109061
946.469352	2478.894143
946.770937	2480.567806
947.072484	2478.700058
947.373992	2478.143011
947.675462	2481.399596
947.976893	2479.703248
948.278286	2474.583956
948.579641	2478.412712
948.880958	2473.152268
949.182236	2478.616879
949.483476	2478.377424
949.784678	2477.863227
950.085841	2480.182157
950.386967	2479.405820
950.688054	2477.346508
950.989103	2479.057980
951.290114	2478.994966
951.591087	2478.677373
951.892021	2479.751139
952.192917	2479.836838
952.493776	2481.976808
952.794596	2480.809781
953.095378	2478.074955
953.396122	2480.199801
953.696828	2480.719040
953.997496	2480.066211
954.298126	2478.190902
954.598718	2479.320120
954.899272	2478.821046
955.199788	2475.950109
955.500266	2480.204842
955.800706	2477.722074
956.101108	2478.291725
956.401472	2483.607621
956.701798	2479.221818
957.002087	2478.311889
957.302337	2479.478916
957.602550	2478.936992
957.902724	2480.587970
958.202861	2479.052939
958.502960	2478.289204
958.803022	2478.745428
959.103045	2479.761221
959.403031	2480.550162
959.702979	2480.361118
960.002889	2478.672332
960.302762	2479.869606
960.602596	2481.104688
960.902393	2482.700214
961.202153	2480.981180
961.501875	2477.611169
961.801559	2478.006899
962.101205	2477.946406
962.400814	2479.153762
962.700385	2478.712661
962.999918	2477.580922
963.299414	2474.362145
963.598873	2476.290387
963.898293	2473.210242
964.197677	2479.967908
964.497022	2477.442290
964.796331	2480.320789
965.095601	2479.665439
965.394835	2479.433546
965.694030	2479.373052
965.993189	2477.417084
966.292309	2479.186529
966.591393	2476.129070
966.890439	2478.387507
967.189447	2477.447331
967.488419	2480.343474
967.787353	2481.389514
968.086249	2480.645943
968.385108	2479.093268
968.683930	2478.352218
968.982714	2479.849441
969.281462	2477.601087
969.580172	2477.608648
969.878844	2480.023361
970.177480	2480.713999
970.476078	2477.596045
970.774639	2480.716520
971.073162	2477.966570
971.371649	2482.775831
971.670098	2477.888432
971.968510	2480.328351
972.266885	2479.562095
972.565223	2480.318268
972.863524	2477.732157
973.161788	2478.107722
973.460014	2479.191571
973.758204	2479.859523
974.056356	2479.829277
974.354471	2477.129739
974.652550	2476.585294
974.950591	2480.459421
975.248595	2479.090748
975.546563	2477.611169
975.844493	2477.984214
976.142386	2480.356077
976.440243	2478.122846
976.738062	2481.470172
977.035845	2474.689820
977.333590	2478.717702
977.631299	2477.323823
977.928971	2479.216776
978.226606	2476.295428
978.524204	2477.618731
978.821765	2472.673359
979.119290	2479.546972
979.416777	2477.389358
979.714228	2480.754328
980.011642	2480.653505
980.309020	2478.619400
980.606360	2481.802888
980.903664	2477.475058
981.200931	2480.552682
981.498162	2479.592342
981.795356	2476.265181
982.092513	2478.062352
982.389633	2481.805409
982.686717	2480.509832
982.983764	2479.186529
983.280775	2480.416571
983.577749	2477.429687
983.874686	2480.817343
984.171587	2479.141159
984.468451	2478.982363
984.765279	2474.896507
985.062070	2479.967908
985.358824	2478.261478
985.655543	2478.473206
985.952224	2477.684266
986.248869	2477.928762
986.545478	2478.722743
986.842050	2477.107053
987.138586	2476.366004
987.435086	2477.830459
987.731549	2478.531179
988.027975	2480.673670
988.324366	2478.841210
988.620719	2478.019502
988.917037	2478.730305
989.213318	2477.349029
989.509563	2476.386168
989.805772	2478.516056
990.101944	2478.513535
990.398080	2480.174596
990.694180	2479.315079
990.990244	2478.795840
991.286271	2477.371714
991.582262	2477.228041
991.878217	2479.284832
992.174136	2478.904225
992.470019	2476.058493
992.765865	2477.626292
993.061676	2475.143524
993.357450	2474.513380
993.653188	2473.779892
993.948890	2478.498412
994.244556	2477.664101
994.540186	2477.517908
994.835780	2476.817187
995.131337	2480.774493
995.426859	2479.715851
995.722345	2477.263329
996.017795	2477.394399
996.313208	2475.803915
996.608586	2476.668473
996.903928	2476.928093
997.199234	2477.442290
997.494504	2479.436067
997.789738	2478.019502
998.084936	2479.642754
998.380099	2478.684935
998.675225	2478.362301
998.970316	2477.434728
999.265371	2476.350880
999.560390	2478.765593
999.855373	2481.263485
1000.150320	2477.409523
1000.445232	2477.729636
1000.740108	2477.817856
1001.034948	2477.926241
1001.329752	2477.538072
1001.624521	2479.612507
1001.919254	2477.898515
1002.213951	2478.914307
1002.508613	2477.452373
1002.803239	2477.797692
1003.097829	2476.411374
1003.392384	2479.917497
1003.686903	2476.497074
1003.981386	2479.476396
1004.275834	2481.429843
1004.570246	2476.287866
1004.864623	2478.765593
1005.158964	2478.286683
1005.453270	2477.258288
1005.747540	2477.838021
1006.041775	2477.883391
1006.335974	2479.821715
1006.630138	2479.899853
1006.924266	2480.582929
1007.218359	2474.341981
1007.512416	2476.338278
1007.806438	2472.736373
1008.100425	2475.282156
1008.394376	2473.540437
1008.688292	2480.101499
1008.982172	2477.180150
1009.276017	2481.336582
1009.569827	2477.094451
1009.863602	2479.068062
1010.157341	2477.056642
1010.451045	2479.763742
1010.744714	2476.093782
1011.038347	2477.780047
1011.331945	2479.143680
1011.625508	2478.062352
1011.919036	2476.247537
1012.212528	2476.355922
1012.505986	2480.469503
1012.799408	2476.469348
1013.092795	2477.626292
1013.386147	2479.186529
1013.679464	2476.965901
1013.972745	2479.171406
1014.265992	2477.255767
1014.559204	2477.855665
1014.852380	2475.075468
1015.145521	2478.805922
1015.438628	2478.485809
1015.731699	2478.747949
1016.024736	2477.054121
1016.317737	2477.159986
1016.610703	2476.033288
1016.903635	2476.061014
1017.196531	2477.545634
1017.489393	2477.578401
1017.782219	2477.948926
1018.075011	2476.797023
1018.367768	2477.162506
1018.660490	2475.882053
1018.953177	2475.882053
1019.245829	2475.882053
