Dividing Wavelength (nm)	Counts (n)	Blue Motor Position (mm): 38.000000	Red Motor Position (mm): 0.000000	
326.493990	2064.607078
326.888308	2064.607078
327.282561	2064.607078
327.676750	2040.028933
328.070874	2039.852492
328.464933	2046.675694
328.858929	2057.148691
329.252859	2069.043294
329.646726	2080.101065
330.040528	2096.797366
330.434265	2113.123143
330.827938	2134.371606
331.221547	2155.443629
331.615091	2174.302586
332.008571	2194.313446
332.401986	2214.767928
332.795338	2236.283573
333.188625	2256.733013
333.581847	2274.881167
333.975006	2292.757098
334.368100	2311.401806
334.761129	2325.146512
335.154095	2341.943637
335.546996	2393.310474
335.939833	2498.007677
336.332606	2509.675428
336.725315	2520.922242
337.117960	2528.725948
337.510540	2542.218597
337.903056	2551.713610
338.295508	2559.124106
338.687896	2566.244736
339.080220	2569.198852
339.472480	2575.512897
339.864676	2579.313927
340.256807	2582.830132
340.648875	2585.081007
341.040879	2582.068918
341.432818	2587.049578
341.824694	2586.807602
342.216506	2585.489341
342.608253	2587.057139
342.999937	2584.430698
343.391557	2586.122005
343.783113	2583.702252
344.174605	2580.899370
344.566033	2577.698237
344.957397	2577.695717
345.348697	2578.933320
345.739934	2576.793350
346.131106	2577.307548
346.522215	2571.089285
346.913260	2573.408215
347.304241	2568.871177
347.695159	2568.782957
348.086012	2569.602144
348.476802	2560.802810
348.867528	2560.255845
349.258191	2556.404403
349.648789	2555.791903
350.039324	2552.563044
350.429796	2560.863304
350.820203	2557.137891
351.210548	2558.327604
351.600828	2556.296019
351.991045	2556.764846
352.381198	2554.677808
352.771288	2555.953220
353.161314	2554.801317
353.551276	2550.816284
353.941175	2552.789896
354.331010	2553.089845
354.720782	2556.868190
355.110490	2558.042778
355.500135	2552.696635
355.889717	2554.486244
356.279235	2555.544887
356.668689	2554.609753
357.058080	2556.467418
357.447408	2559.134188
357.836672	2557.422717
358.225873	2557.604198
358.615010	2558.032696
359.004084	2556.049002
359.393095	2560.936401
359.782043	2557.732748
360.170927	2558.168807
360.559748	2560.528067
360.948505	2560.502862
361.337199	2563.976217
361.725830	2560.651576
362.114398	2562.408418
362.502903	2561.453119
362.891344	2564.931515
363.279722	2560.661658
363.668037	2565.806155
364.056289	2567.005950
364.444478	2565.309602
364.832603	2566.741289
365.220665	2566.796742
365.608665	2566.048131
365.996601	2566.511917
366.384474	2565.044941
366.772284	2567.920919
367.160031	2567.240364
367.547715	2570.552402
367.935336	2566.910168
368.322893	2566.716084
368.710388	2564.956721
369.097820	2565.675085
369.485189	2566.222051
369.872495	2570.958215
370.259738	2572.432752
370.646918	2569.657597
371.034035	2572.614234
371.421090	2572.571384
371.808081	2571.006106
372.195010	2571.706826
372.581875	2571.636250
372.968678	2571.764799
373.355418	2572.286559
373.742096	2574.161868
374.128710	2573.808987
374.515262	2574.691189
374.901751	2577.393248
375.288177	2576.042218
375.674540	2575.376786
376.060841	2576.591704
376.447079	2575.805284
376.833254	2576.710171
377.219367	2579.689493
377.605417	2577.829307
377.991404	2578.998855
378.377329	2578.829976
378.763191	2577.554564
379.148991	2581.002714
379.534727	2577.811663
379.920402	2579.344174
380.306013	2579.465162
380.691563	2582.845255
381.077049	2581.164031
381.462474	2579.525656
381.847835	2579.941551
382.233134	2582.537745
382.618371	2580.760738
383.003545	2582.759556
383.388657	2582.789803
383.773706	2585.406162
384.158693	2582.769638
384.543618	2584.584453
384.928480	2584.972622
385.313280	2586.174937
385.698017	2587.364650
386.082692	2586.850452
386.467305	2587.049578
386.851856	2589.436564
387.236344	2589.804568
387.620770	2587.117633
388.005133	2588.793817
388.389435	2587.916656
388.773674	2584.564289
389.157851	2588.206522
389.541965	2592.307501
389.926018	2590.502768
390.310008	2593.104003
390.693936	2593.388829
391.077802	2593.517378
391.461606	2594.364292
391.845348	2596.839498
392.229027	2597.482246
392.612645	2597.323449
392.996200	2595.180959
393.379694	2597.792277
393.763125	2601.000971
394.146494	2601.106835
394.529801	2600.053234
394.913047	2600.063316
395.296230	2599.879314
395.679351	2602.041969
396.062410	2604.136569
396.445408	2605.033894
396.828343	2608.562702
397.211217	2609.036570
397.594028	2609.429780
397.976778	2611.196705
398.359466	2613.520677
398.742092	2614.627210
399.124656	2614.768362
399.507158	2623.234980
399.889598	2629.334776
400.271977	2631.434417
400.654294	2637.574542
401.036549	2639.442290
401.418742	2647.669453
401.800874	2657.129178
402.182944	2663.854077
402.564952	2674.848834
402.946898	2683.030626
403.328783	2693.392718
403.710606	2704.687423
404.092367	2721.217367
404.474067	2738.218658
404.855705	2750.083014
405.237282	2762.469129
405.618797	2784.435957
406.000250	2809.072075
406.381642	2837.078206
406.762972	2854.323993
407.144240	2867.221785
407.525447	2901.635222
407.906593	2916.720875
408.287677	2954.481638
408.668700	2984.998262
409.049661	3017.869106
409.430560	3050.205587
409.811399	3070.765933
410.192176	3108.919906
410.572891	3152.140239
410.953545	3205.586552
411.334138	3213.009651
411.714669	3267.723814
412.095139	3277.576749
412.475547	3341.307016
412.855894	3375.123076
413.236180	3440.269907
413.616405	3448.567647
413.996568	3523.186806
414.376670	3555.407341
414.756711	3590.587033
415.136691	3657.394924
415.516609	3729.818661
415.896466	3782.518883
416.276262	3858.128629
416.655997	3946.338739
417.035670	4035.027759
417.415283	4146.916168
417.794834	4221.268146
418.174324	4243.681116
418.553753	4292.000576
418.933121	4428.741874
419.312428	4482.467971
419.691674	4486.072396
420.070859	4662.457328
420.449983	4634.587309
420.829045	4803.816323
421.208047	4802.810613
421.586988	4949.863591
421.965867	5042.565369
422.344686	5147.623015
422.723444	5307.606553
423.102141	5093.596970
423.480777	5411.645886
423.859352	5325.462320
424.237866	5632.249299
424.616319	5681.748389
424.994712	5850.019584
425.373044	5829.512170
425.751314	6120.172498
426.129524	5949.146312
426.507673	6201.113264
426.885762	6275.878617
427.263789	6357.837696
427.641756	6471.135108
428.019662	6575.441622
428.397508	6649.062633
428.775292	6677.540111
429.153016	6861.282607
429.530679	6834.909811
429.908282	6926.033707
430.285824	6906.027888
430.663305	7180.102820
431.040726	7118.389015
431.418086	7158.191445
431.795385	7301.478681
432.172624	7500.510997
432.549802	7423.411590
432.926920	7576.120743
433.303977	7546.708131
433.680974	7610.713141
434.057910	7822.988567
434.434786	7898.008498
434.811601	7874.713326
435.188355	8221.496820
435.565050	8135.454406
435.941683	8160.471132
436.318257	8498.596444
436.694770	8470.880180
437.071222	8706.748207
437.447614	8502.513421
437.823946	8483.288980
438.200218	8641.752610
438.576429	8534.507103
438.952580	8710.251809
439.328670	8728.460457
439.704700	8810.742170
440.080670	8721.322183
440.456580	8991.505344
440.832429	8973.032035
441.208218	8723.842760
441.583947	8844.280966
441.959616	8962.649779
442.335224	8999.233432
442.710773	9085.719468
443.086261	9266.517930
443.461689	8998.953648
443.837057	9166.135954
444.212365	9380.493377
444.587612	9371.850319
444.962800	9265.048434
445.337927	9399.566583
445.712995	8951.531514
446.088002	9616.250499
446.462949	9667.788735
446.837837	9662.407303
447.212664	9686.950161
447.587431	10510.316777
447.962139	11514.433965
448.336786	12430.900611
448.711374	12208.653782
449.085901	11009.910247
449.460369	10936.037178
449.834776	10727.451876
450.209124	11632.888478
450.583412	11460.309617
450.957640	11764.381934
451.331808	11357.686848
451.705917	10799.575664
452.079965	10675.394401
452.453954	10878.331090
452.827883	10815.152830
453.201752	10783.512028
453.575562	10798.048195
453.949311	11140.886986
454.323001	11203.228415
454.696632	11120.540889
455.070202	11708.107534
455.443713	11767.099116
455.817164	11936.620517
456.190556	12246.291036
456.563888	12118.328908
456.937160	12364.622041
457.310373	11857.640760
457.683526	11863.367511
458.056619	11882.407949
458.429653	11954.902262
458.802628	12083.169380
459.175542	12139.955458
459.548398	12687.495342
459.921194	13251.595416
460.293930	13546.021486
460.666607	14407.821859
461.039224	15189.041909
461.411782	15531.048909
461.784280	15179.662842
462.156719	15126.965140
462.529099	15031.405028
462.901419	14392.620260
463.273680	13994.076719
463.645882	14205.994224
464.018024	14098.431124
464.390106	14468.540037
464.762130	15533.299784
465.134094	17086.247391
465.505999	19366.724239
465.877845	21617.969956
466.249631	22825.364111
466.621358	22334.819512
466.993026	21504.864108
467.364634	20752.529870
467.736184	19950.585636
468.107674	19353.440799
468.479105	19216.785200
468.850477	18932.096119
469.221790	18503.005707
469.593043	17840.434254
469.964238	17444.418852
470.335373	17510.074839
470.706449	18231.816835
471.077467	19105.385783
471.448425	21558.277653
471.819324	23424.943826
472.190164	23300.613849
472.560945	21548.991848
472.931667	20006.434059
473.302330	19666.665331
473.672934	19125.943608
474.043479	19550.620490
474.413965	19325.878290
474.784393	19149.800868
475.154761	19819.122426
475.525070	19949.158990
475.895321	19783.529360
476.265513	20310.269443
476.635645	20885.699510
477.005719	20951.705858
477.375734	21313.572484
477.745691	21947.999175
478.115588	22577.218354
478.485427	23763.187605
478.855207	25563.991102
479.224928	27366.430454
479.594591	28783.128276
479.964194	28410.851667
480.333739	28839.443005
480.703226	29054.992662
481.072653	29495.823921
481.442022	30011.372643
481.811333	30412.099003
482.180584	29970.962754
482.549777	29747.516130
482.918912	29505.941517
483.287988	29455.885380
483.657005	29322.544340
484.025964	28940.886144
484.394864	29125.016809
484.763706	29047.299861
485.132489	28511.702470
485.501213	28588.632999
485.869879	28752.490663
486.238487	28684.520786
486.607036	28956.843917
486.975527	28643.122831
487.343959	28991.388423
487.712333	29334.615383
488.080648	29299.604570
488.448905	29715.330883
488.817104	29594.678428
489.185244	30414.969940
489.553326	31374.102392
489.921350	33270.332411
490.289315	35773.071211
490.657222	36672.103026
491.025070	37210.273926
491.392861	36943.125539
491.760593	36175.771183
492.128267	35161.259136
492.495883	34149.459230
492.863440	33251.498660
493.230939	32279.516308
493.598380	31726.158932
493.965763	31573.923648
494.333088	31083.338720
494.700354	30891.671530
495.067563	30835.034167
495.434713	30725.905789
495.801805	31001.233448
496.168839	30828.967138
496.535815	30680.116989
496.902733	30802.695165
497.269593	30629.728135
497.636395	30776.375301
498.003139	31036.042615
498.369825	30802.448148
498.736453	31196.994054
499.103023	31013.881703
499.469535	31106.311258
499.835989	31215.243031
500.202385	31084.719996
500.568723	31116.360798
500.935003	31409.483730
501.301226	31276.798040
501.667390	31994.804541
502.033497	32184.389735
502.399546	31979.171923
502.765537	31600.896342
503.131470	32040.603424
503.497345	32466.860708
503.863163	31428.269590
504.228923	32187.270754
504.594625	32574.640577
504.960269	32036.479760
505.325856	32705.476164
505.691385	32343.334795
506.056856	32674.548685
506.422270	33148.979235
506.787625	32661.277847
507.152924	33112.138483
507.518164	33293.017603
507.883347	32864.234701
508.248472	32999.745958
508.613540	33657.462779
508.978550	33870.837178
509.343503	33707.034966
509.708398	34076.236471
510.073236	34653.536806
510.438016	34749.026342
510.802738	34424.988535
511.167403	34955.630471
511.532010	35184.488773
511.896561	35685.140885
512.261053	36415.435199
512.625488	36212.236370
512.989866	36127.499615
513.354186	36166.422363
513.718449	36121.543491
514.082655	36982.978381
514.446803	36674.674015
514.810894	37274.606611
515.174927	37291.746534
515.538904	37279.183978
515.902822	37905.438959
516.266684	37600.005530
516.630488	37927.378060
516.994235	37942.153682
517.357925	38512.928244
517.721558	38740.193542
518.085133	39130.756936
518.448651	39301.939397
518.812112	39199.911485
519.175516	39352.812201
519.538863	39780.357500
519.902152	39847.921565
520.265385	40386.934337
520.628560	40388.234954
520.991678	40326.405202
521.354739	40546.524665
521.717743	40921.820924
522.080690	40825.058497
522.443580	41479.160811
522.806413	41487.007367
523.169189	41628.293266
523.531908	41840.674557
523.894569	41698.566950
524.257174	41888.033676
524.619722	42226.330387
524.982213	42362.318033
525.344647	42400.398909
525.707025	42539.353274
526.069345	42955.404742
526.431608	42887.414700
526.793815	43249.188065
527.155964	42808.906291
527.518057	43069.644850
527.880093	42900.708223
528.242072	43538.716653
528.603995	43257.647121
528.965860	43189.921739
529.327669	43412.599587
529.689421	43458.733707
530.051117	43423.301957
530.412755	43691.965210
530.774337	43744.771296
531.135862	43685.104199
531.497331	43854.880179
531.858743	43833.621633
532.220098	44228.018825
532.581396	43957.729799
532.942638	43741.464299
533.303824	43971.572808
533.664953	44021.908729
534.026025	43712.031523
534.387040	44276.055980
534.747999	44344.560219
535.108902	44670.054920
535.469748	43989.705838
535.830537	44280.003203
536.191270	44507.029046
536.551947	44260.587199
536.912567	44533.490062
537.273131	44649.557589
537.633638	44288.452177
537.994089	44473.896062
538.354483	44235.600720
538.714821	44877.790788
539.075103	45146.033105
539.435328	45027.152615
539.795497	44787.581860
540.155609	44915.750676
540.515665	45479.303785
540.875665	44787.823836
541.235609	45070.902268
541.595496	45212.934257
541.955328	45786.584798
542.315102	45217.544393
542.674821	45114.684689
543.034483	45038.119645
543.394090	45044.794132
543.753640	45030.182348
544.113134	46083.113028
544.472571	45188.595567
544.831953	46304.628890
545.191278	45572.711325
545.550548	45276.621674
545.909761	45891.329892
546.268918	46040.774898
546.628019	46441.995291
546.987064	45890.369552
547.346053	45195.824581
547.704986	46096.015862
548.063863	45744.622233
548.422684	45951.992617
548.781449	45522.541762
549.140158	46049.302010
549.498811	45819.949674
549.857408	45219.112191
550.215949	46065.161480
550.574434	45891.642444
550.932864	45844.716863
551.291237	46544.444140
551.649555	46296.416851
552.007817	46472.640466
552.366022	46179.325970
552.724173	46234.652634
553.082267	46619.824514
553.440305	46997.303593
553.798288	46276.320291
554.156215	46653.012950
554.514086	46856.829321
554.871902	46439.822554
555.229661	46621.576315
555.587365	46292.376366
555.945014	46426.529031
556.302606	46459.525904
556.660143	46527.987294
557.017625	46779.792928
557.375050	46467.274157
557.732421	46854.144906
558.089735	46928.050742
558.446994	46783.246119
558.804197	47256.686082
559.161345	47125.285887
559.518437	46476.650703
559.875474	46741.313801
560.232455	46948.449771
560.589381	46982.333887
560.946251	46824.850761
561.303065	47454.135475
561.659825	47128.534910
562.016528	46954.186604
562.373177	46523.052004
562.729770	47188.872481
563.086307	46686.161057
563.442789	47228.866475
563.799216	47075.620439
564.155587	47006.584358
564.511904	46943.564893
564.868164	46986.956625
565.224370	47310.931418
565.580520	47028.374745
565.936615	47231.520642
566.292654	46876.462094
566.648638	47246.490348
567.004567	47182.074485
567.360441	47263.108512
567.716260	46982.767426
568.072023	47374.039102
568.427732	47307.694997
568.783385	46841.957917
569.138982	47243.039679
569.494525	47390.866474
569.850013	47013.246242
570.205445	47126.503325
570.560823	46904.226249
570.916145	46751.391067
571.271412	46982.699371
571.626625	46633.463356
571.981782	46722.359062
572.336884	46345.129520
572.691931	46658.656522
573.046923	46327.717375
573.401860	46145.383881
573.756743	46174.425969
574.111570	46307.068809
574.466342	46219.718215
574.821059	46393.847231
575.175722	45884.395785
575.530330	45955.259285
575.884882	45637.361602
576.239380	45523.497061
576.593823	45631.012269
576.948211	45554.195167
577.302544	45095.019148
577.656823	45082.549854
578.011047	45363.155601
578.365216	45193.735023
578.719330	44910.154996
579.073389	44890.638168
579.427394	44950.978259
579.781344	44857.699269
580.135239	44625.680163
580.489080	44684.623855
580.842866	44183.596177
581.196597	44658.699721
581.550273	44663.763560
581.903895	44596.451553
582.257463	45028.596905
582.610975	44456.272188
582.964434	44784.912569
583.317837	44293.644565
583.671186	44251.152680
584.024481	44521.981108
584.377721	44086.049850
584.730906	44317.849666
585.084037	44454.059122
585.437113	44159.655737
585.790135	44281.616372
586.143103	43875.662335
586.496016	44044.830856
586.848874	44134.071882
587.201679	44155.516950
587.554428	43681.303169
587.907124	43922.202268
588.259765	43708.996748
588.612352	43858.154408
588.964884	43327.724200
589.317362	43614.354126
589.669786	43619.576761
590.022155	43495.113193
590.374470	43972.157582
590.726731	43553.368767
591.078937	42908.035540
591.431090	43256.336421
591.783188	42760.105401
592.135232	42577.207298
592.487222	42815.792507
592.839157	42990.841533
593.191038	42633.264929
593.542866	42446.386835
593.894639	41820.822493
594.246358	42109.768828
594.598022	42108.863941
594.949633	41706.751263
595.301190	41720.165774
595.652692	41668.196519
596.004141	42153.392453
596.355535	41064.193191
596.706876	41065.350136
597.058162	40778.130396
597.409395	41293.094343
597.760573	41505.546211
598.111698	41118.047838
598.462768	41034.384849
598.813785	41055.172047
599.164748	40677.082988
599.515657	40950.651283
599.866511	40435.243714
600.217312	41135.691876
600.568060	40079.222306
600.918753	40901.179920
601.269392	40797.871554
601.619978	40564.781203
601.970510	40758.376634
602.320988	40892.597356
602.671412	41153.872798
603.021783	41016.650069
603.372100	40601.614394
603.722363	40704.620290
604.072572	40737.652451
604.422728	40727.517211
604.772830	40516.328153
605.122878	40689.600173
605.472872	40549.224203
605.822813	40794.556996
606.172701	40522.783351
606.522534	40860.192819
606.872314	41067.104458
607.222041	40910.001939
607.571714	41234.564027
607.921333	40725.515873
608.270899	40934.315424
608.620411	41317.904382
608.969870	41076.120561
609.319276	41086.049114
609.668627	41110.491148
610.017926	41518.844774
610.367171	41663.097392
610.716362	41673.167097
611.065500	41603.994904
611.414585	41848.800897
611.763616	41992.211641
612.112594	41895.678586
612.461518	42013.691998
612.810389	42384.554563
613.159207	42179.735002
613.507971	42161.813701
613.856682	42672.873275
614.205340	42515.775797
614.553945	43187.769167
614.902496	42536.326061
615.250994	42952.405255
615.599439	43020.047458
615.947830	43117.034217
616.296169	43136.775375
616.644454	43172.192001
616.992686	43322.617512
617.340864	43759.947690
617.688990	43274.827373
618.037063	43949.724447
618.385082	43767.733752
618.733048	44111.316113
619.080961	44001.018187
619.428821	44043.547882
619.776628	44099.229947
620.124382	43910.678190
620.472083	44036.591090
620.819731	44141.157223
621.167326	43715.366246
621.514868	43703.648084
621.862357	43168.658153
622.209793	43266.262453
622.557176	42856.187272
622.904506	42603.189405
623.251783	42230.297776
623.599007	41920.115579
623.946179	41851.931453
624.293297	41588.120311
624.640363	41053.987375
624.987376	40930.751328
625.334336	40723.895142
625.681243	40312.405918
626.028097	40204.313497
626.374899	40029.156087
626.721647	40000.628197
627.068343	39790.454931
627.414987	39498.168831
627.761577	39251.827808
628.108115	39568.092156
628.454600	38816.360335
628.801032	39059.225484
629.147412	38966.536308
629.493739	38830.147891
629.840014	38420.934748
630.186236	38825.457097
630.532405	38239.458251
630.878521	38513.651650
631.224585	38275.126935
631.570597	37954.464180
631.916556	38120.222360
632.262462	38031.843371
632.608316	37974.139803
632.954117	37836.309616
633.299866	37781.620659
633.645562	37711.422591
633.991206	37216.870276
634.336797	36792.541233
634.682336	36692.123969
635.027823	36463.893290
635.373257	36330.539647
635.718639	36013.647676
636.063968	35907.975009
636.409245	35268.653357
636.754470	35237.025158
637.099642	34978.494624
637.444762	34424.426446
637.789829	34560.439298
638.134845	34169.754916
638.479808	34094.261116
638.824719	34038.155594
639.169577	33524.900598
639.514383	33647.052797
639.859137	33260.799589
640.203839	33427.744960
640.548489	33142.692916
640.893086	33115.621920
641.237632	32839.369210
641.582125	32916.640016
641.926566	32712.122925
642.270955	32742.447986
642.615292	32695.260265
642.959576	32563.439133
643.303809	32560.507702
643.647990	32669.283200
643.992118	32628.749802
644.336195	32454.542649
644.680219	32532.862015
645.024192	32714.991342
645.368112	33242.948863
645.711981	33254.130143
646.055797	33954.888336
646.399562	33741.652569
646.743274	34603.740288
647.086935	35018.060120
647.430544	34985.627857
647.774101	35022.360224
648.117606	35334.674829
648.461059	35496.148028
648.804460	35097.004589
649.147810	34598.752067
649.491108	34286.717247
649.834354	34168.361037
650.177548	33376.947774
650.520690	32854.772455
650.863781	32845.804243
651.206820	32651.044305
651.549807	32229.152660
651.892742	31644.179688
652.235626	31574.508422
652.578458	31425.673396
652.921238	30734.427860
653.263967	31013.143173
653.606644	30708.450794
653.949269	30611.844642
654.291843	30215.604909
654.634365	30578.583109
654.976836	30125.648039
655.319255	30205.104185
655.661622	30076.905122
656.003938	29944.642889
656.346203	29761.419632
656.688416	30014.465391
657.030577	29804.115685
657.372687	29624.564908
657.714746	29768.351219
658.056753	29943.143146
658.398708	29317.046962
658.740612	29396.316586
659.082465	29600.513563
659.424266	29491.677572
659.766016	29480.357661
660.107715	29321.150461
660.449362	29424.378168
660.790958	29410.552804
661.132503	29319.701129
661.473996	29405.824202
661.815438	29484.042745
662.156829	29604.254099
662.498168	29405.390663
662.839456	29400.266330
663.180693	29499.574540
663.521879	29569.878471
663.863013	29523.933395
664.204097	29497.454735
664.545129	29899.078420
664.886110	29818.281327
665.227040	29952.590268
665.567918	29951.251842
665.908746	29991.051752
666.249522	30072.632744
666.590248	30113.385432
666.930922	30227.786857
667.271545	30231.507228
667.612118	30291.000406
667.952639	30105.604411
668.293109	30142.198147
668.633528	29991.359262
668.973896	29954.926843
669.314213	29927.939026
669.654480	29731.354191
669.994695	29714.804083
670.334859	29639.053184
670.674973	29453.838672
671.015035	29640.366405
671.355047	29584.840616
671.695008	29496.580094
672.034918	29408.364943
672.374777	29493.043725
672.714585	29366.808192
673.054342	29492.834517
673.394049	29356.882160
673.733705	29574.672609
674.073310	29291.251378
674.412864	29351.576345
674.752368	29068.031606
675.091820	29305.018769
675.431223	28912.731300
675.770574	28711.780825
676.109875	28563.843125
676.449125	28350.594755
676.788324	28255.904242
677.127473	27782.905379
677.466571	27672.468822
677.805619	27386.937868
678.144616	27314.055387
678.483562	27264.097552
678.822458	26950.058873
679.161303	26893.842446
679.500098	26804.659393
679.838842	26726.597126
680.177535	26778.268953
680.516179	27006.000557
680.854771	27081.970746
681.193314	27751.917407
681.531805	28712.100939
681.870247	29457.546440
682.208638	30252.186042
682.546978	30616.364037
682.885268	30808.742029
683.223508	30399.420501
683.561697	30125.093512
683.899836	29986.439096
684.237925	29564.043336
684.575963	29396.467820
684.913951	29004.717234
685.251889	29145.685540
685.589776	29144.873914
685.927614	29142.852411
686.265401	29313.213164
686.603137	29390.211748
686.940824	29877.640914
687.278460	30182.116524
687.616046	30384.491124
687.953582	31054.755378
688.291068	31004.772338
688.628504	31366.286083
688.965889	31378.130274
689.303224	31139.623203
689.640510	30878.879602
689.977745	30276.436512
690.314930	29549.630677
690.652065	29144.662186
690.989150	28466.957189
691.326185	27634.375343
691.663170	27019.049584
692.000105	26307.742776
692.336990	25709.191457
692.673825	25273.857575
693.010610	24785.115189
693.347345	24283.371668
693.684030	23655.932016
694.020665	23457.905410
694.357251	22796.647178
694.693786	22804.148415
695.030272	22560.350653
695.366707	22066.057957
695.703093	21778.016508
696.039429	21840.345335
696.375716	21602.085280
696.711952	21597.356678
697.048139	21450.838062
697.384276	21298.748971
697.720363	21403.899879
698.056400	21312.158440
698.392388	21140.978500
698.728326	21141.303654
699.064214	20992.549287
699.400053	21017.273626
699.735842	20620.181937
700.071581	20447.908066
700.407270	20207.301355
700.742910	20026.991885
701.078501	19781.938876
701.414042	19570.449869
701.749533	19276.220404
702.084974	18961.967476
702.420366	19188.579944
702.755709	18781.806720
703.091002	18489.727307
703.426246	18553.434889
703.761440	18484.615577
704.096584	18235.794306
704.431679	18179.098969
704.766725	18125.473695
705.101721	18046.173824
705.436668	18145.020769
705.771565	17866.265126
706.106413	18182.899999
706.441212	18245.196058
706.775961	18342.787755
707.110661	18419.400691
707.445311	18768.901366
707.779913	18658.540426
708.114465	18937.454866
708.448967	19242.646319
708.783421	19846.561427
709.117825	20183.819660
709.452180	20415.017058
709.786485	20835.529947
710.120742	21571.699726
710.454949	21666.289416
710.789107	22182.211183
711.123216	22880.108521
711.457275	23117.637608
711.791286	23681.354555
712.125247	23859.050187
712.459159	23622.158806
712.793023	24379.110741
713.126837	23404.118819
713.460602	23669.578419
713.794318	23355.688454
714.127985	23091.567281
714.461602	22215.407181
714.795171	22195.595446
715.128691	21226.967982
715.462162	20709.276770
715.795584	20284.572161
716.128957	20012.899339
716.462281	19646.480551
716.795556	19356.105048
717.128782	18885.578872
717.461960	18284.713663
717.795088	18264.758255
718.128167	17912.074091
718.461198	17468.628993
718.794180	17348.364706
719.127113	17020.069644
719.459997	16832.437898
719.792833	16455.367152
720.125619	16505.201478
720.458357	16171.681261
720.791046	16026.732964
721.123686	15882.440018
721.456278	15643.743903
721.788821	15654.264792
722.121315	15374.548809
722.453761	15473.773840
722.786158	15358.192785
723.118506	15450.322392
723.450805	15327.237580
723.783056	15506.034704
724.115259	15387.035747
724.447412	15364.365678
724.779518	15573.429890
725.111574	15625.381501
725.443582	15882.132507
725.775542	15828.126626
726.107453	16319.639126
726.439315	16227.431381
726.771129	16641.799104
727.102895	17034.878034
727.434612	17315.360272
727.766281	17496.123446
728.097901	17820.423393
728.429473	17919.998785
728.760996	17957.409188
729.092471	18062.809632
729.423897	17952.864587
729.755276	17803.054098
730.086606	17881.466725
730.417887	18424.484694
730.749120	18979.959354
731.080305	19188.663123
731.411442	19601.150496
731.742530	19715.130984
732.073570	19855.118785
732.404562	20178.266829
732.735506	20085.605380
733.066401	19957.532346
733.397249	19531.406132
733.728048	18934.871274
734.058798	18092.428932
734.389501	17331.224783
734.720156	16807.516954
735.050762	16227.030609
735.381320	15810.346476
735.711831	15528.717376
736.042293	15160.907229
736.372707	15175.332491
736.703073	14956.899295
737.033391	15134.763805
737.363661	15123.317866
737.693883	15238.530916
738.024056	15415.896352
738.354182	15621.698938
738.684260	15969.049561
739.014290	16246.988537
739.344272	16459.377390
739.674207	16809.636759
740.004093	16983.475908
740.333931	17067.292653
740.663722	17152.924213
740.993464	17209.667440
741.323159	17076.089466
741.652806	16802.851366
741.982405	16631.641179
742.311956	16290.085362
742.641460	16184.712643
742.970915	15860.079980
743.300323	15513.490570
743.629683	15310.372400
743.958996	14996.434544
744.288260	14699.601323
744.617477	14374.532600
744.946647	14341.147558
745.275768	14027.794476
745.604842	13828.331142
745.933869	13649.806240
746.262847	13610.901136
746.591778	13522.194472
746.920662	13406.142069
747.249498	13392.057085
747.578286	13523.391746
747.907027	13693.119834
748.235720	13952.678763
748.564365	14037.259243
748.892963	13966.189056
749.221514	14086.337396
749.550017	13960.106904
749.878473	13946.082414
750.206881	13731.228437
750.535242	13655.089370
750.863555	13580.573554
751.191821	13475.402482
751.520039	13479.899191
751.848210	13403.808015
752.176334	13446.166310
752.504411	13379.038306
752.832440	13209.010269
753.160421	13322.395901
753.488356	13222.578534
753.816243	13124.550777
754.144082	12950.835136
754.471875	12896.599883
754.799620	12867.396478
755.127318	12831.561436
755.454969	12818.550218
755.782572	12782.463118
756.110129	12804.999597
756.437638	12717.149929
756.765100	12720.598078
757.092515	12739.734298
757.419882	12769.640943
757.747203	12776.015482
758.074477	12855.552287
758.401703	12833.267867
758.728882	13020.398018
759.056014	13064.762692
759.383099	13228.625398
759.710138	13361.817724
760.037129	13488.627949
760.364073	13560.834916
760.690970	13573.601638
761.017820	13580.722268
761.344623	13776.326599
761.671379	14105.196353
761.998088	14634.141940
762.324751	16050.519648
762.651366	18968.715061
762.977935	23279.030148
763.304456	26571.881594
763.630931	28187.130301
763.957359	27393.685453
764.283740	25353.598547
764.610074	23206.228325
764.936362	20586.761608
765.262602	18683.153860
765.588796	16705.196654
765.914943	15374.614344
766.241044	14225.765629
766.567097	13409.065938
766.893104	12660.986434
767.219064	12191.591997
767.544978	11703.651154
767.870845	11301.455297
768.196665	11077.247459
768.522438	10849.019301
768.848165	10640.993567
769.173846	10432.632597
769.499479	10305.814810
769.825066	10136.984047
770.150607	9917.603114
770.476101	9832.004322
770.801548	9710.598213
771.126949	9557.624400
771.452303	9444.387482
771.777611	9249.942616
772.102872	9234.506603
772.428087	9101.173125
772.753256	8946.223179
773.078378	8867.971869
773.403453	8685.721554
773.728482	8566.808297
774.053465	8488.662850
774.378401	8389.828509
774.703291	8264.248325
775.028135	8155.616501
775.352932	8117.172662
775.677683	8014.754060
776.002388	7909.479644
776.327046	7910.742453
776.651658	7820.387332
776.976224	7717.910757
777.300743	7718.369502
777.625216	7631.563353
777.949643	7584.768842
778.274024	7607.060825
778.598359	7513.242431
778.922647	7535.179012
779.246889	7480.583316
779.571086	7493.259297
779.895236	7494.743917
780.219339	7499.883373
780.543397	7503.913776
780.867409	7588.078360
781.191374	7599.753672
781.515294	7562.711274
781.839167	7652.849625
782.162995	7628.352138
782.486776	7580.710713
782.810511	7532.373610
783.134201	7452.410828
783.457844	7439.477747
783.781441	7389.953452
784.104993	7330.603948
784.428498	7305.088148
784.751958	7286.430837
785.075372	7253.907833
785.398739	7208.587860
785.722061	7237.453507
786.045337	7245.605053
786.368568	7380.637400
786.691752	7381.766618
787.014891	7676.764859
787.337983	7982.281467
787.661030	8534.398719
787.984031	9155.347885
788.306987	9589.489533
788.629897	9847.483184
788.952760	9853.371252
789.275579	9672.139251
789.598351	9306.511924
789.921078	8968.890728
790.243759	8557.187255
790.566395	8267.991382
790.888984	8015.321189
791.211529	7800.346225
791.534027	7576.967657
791.856480	7370.295473
792.178888	7289.705067
792.501249	7192.171342
792.823566	7040.830863
793.145836	7031.754265
793.468062	7001.416602
793.790241	6944.804444
794.112375	7003.624627
794.434464	7147.935217
794.756507	7173.831625
795.078505	7307.427243
795.400457	7595.135975
795.722364	7929.820700
796.044226	8219.288795
796.366042	8508.313268
796.687812	8481.237231
797.009538	8579.983352
797.331218	8489.686205
797.652852	8416.178620
797.974442	8268.601362
798.295986	8180.035850
798.617484	8004.079416
798.938938	7862.929629
799.260346	7756.165553
799.581709	7561.826551
799.903026	7480.936197
800.224299	7381.136474
800.545526	7207.672891
800.866708	7110.434074
801.187845	7041.791203
801.508936	6940.673218
801.829983	6902.310038
802.150984	6750.883858
802.471940	6706.186468
802.792851	6691.720877
803.113717	6664.261712
803.434538	6629.019005
803.755314	6568.225210
804.076045	6570.972639
804.396731	6511.466859
804.717372	6535.611466
805.037967	6536.067690
805.358518	6574.418268
805.679024	6655.870711
805.999485	6664.521331
806.319901	6703.872578
806.640272	6722.905454
806.960598	6815.161090
807.280879	6816.791904
807.601115	6890.428038
807.921306	6843.081521
808.241453	6853.660382
808.561554	6878.856069
808.881611	6837.432908
809.201623	6852.387491
809.521590	6798.109388
809.841513	6785.075484
810.161390	6817.873231
810.481223	6688.192069
810.801011	6677.373753
811.120755	6649.808724
811.440453	6575.607980
811.760107	6539.200767
812.079716	6511.134143
812.399281	6450.370595
812.718801	6438.428102
813.038276	6393.090485
813.357707	6335.160065
813.677093	6373.220777
813.996434	6271.981805
814.315731	6316.467467
814.634983	6303.282329
814.954191	6311.940511
815.273354	6405.579943
815.592473	6466.144366
815.911547	6580.316418
816.230577	6655.298540
816.549562	6803.251364
816.868502	6900.225520
817.187399	6992.158523
817.506250	7132.204297
817.825058	7158.078019
818.143821	7401.086840
818.462539	7643.841083
818.781213	7965.562480
819.099843	8443.214328
819.418429	9353.341723
819.736970	10255.340257
820.055466	11351.836589
820.373919	12727.451527
820.692327	14727.060488
821.010691	18045.344555
821.329011	25478.813247
821.647286	37135.879098
821.965517	51092.041299
822.283704	58547.623012
822.601847	61712.134242
822.919945	59562.729915
823.237999	55745.069148
823.556010	49799.123969
823.873976	43167.856609
824.191897	36657.314802
824.509775	31787.421554
824.827609	27138.020815
825.145398	24328.537885
825.463144	22649.964725
825.780845	22540.266696
826.098502	23769.040385
826.416116	27065.531543
826.733685	30794.876335
827.051210	32632.208034
827.368692	31705.323843
827.686129	28186.709364
828.003522	24186.049672
828.320872	20432.048596
828.638177	17525.624278
828.955439	15323.184492
829.272656	13485.116785
829.589830	11995.415495
829.906960	10701.162259
830.224046	9720.297393
830.541088	8944.829300
830.858086	8455.005587
831.175041	8048.807054
831.491952	7885.692959
831.808819	7871.696196
832.125642	8178.037033
832.442421	8873.002940
832.759157	10353.587304
833.075849	12914.619487
833.392497	16062.053808
833.709101	18546.256286
834.025662	18915.641793
834.342179	17583.589986
834.658653	15520.593556
834.975083	13588.432713
835.291469	11933.767224
835.607811	10596.699469
835.924110	9683.086116
836.240366	8816.146287
836.556578	8012.866148
836.872746	7353.319387
837.188871	6838.582291
837.504952	6404.959881
837.820990	6079.006435
838.136984	5847.879614
838.452935	5728.560543
838.768842	5710.001536
839.084706	5987.817003
839.400526	6953.747451
839.716303	8453.127757
840.032037	9697.007263
840.347727	9930.727758
840.663373	9135.450451
840.978977	8103.274201
841.294537	7263.899400
841.610054	6645.347303
841.925527	6204.284150
842.240957	5846.740313
842.556344	5519.929871
842.871687	5236.967385
843.186987	4957.097647
843.502244	4724.765990
843.817458	4550.389957
844.132629	4409.588010
844.447756	4315.338598
844.762840	4236.121906
845.077881	4157.540400
845.392879	4097.396914
845.707833	4046.738359
846.022745	4003.911237
846.337613	3978.019870
846.652438	3935.616205
846.967221	3917.541148
847.281960	3881.191908
847.596656	3865.347561
847.911309	3847.935416
848.225919	3823.944565
848.540485	3805.930002
848.855009	3793.964823
849.169490	3775.531844
849.483928	3761.018362
849.798323	3757.605501
850.112675	3733.685226
850.426984	3739.908530
850.741251	3727.502251
851.055474	3720.628637
851.369654	3728.487796
851.683792	3719.990931
851.997887	3727.323290
852.311938	3727.885378
852.625947	3731.635997
852.939914	3720.316086
853.253837	3732.603898
853.567718	3730.479052
853.881555	3721.646950
854.195350	3736.561204
854.509103	3727.625759
854.822812	3728.313876
855.136479	3720.129563
855.450103	3728.626428
855.763685	3715.647977
856.077224	3718.836507
856.390720	3736.256214
856.704173	3751.780448
857.017584	3766.114968
857.330953	3773.235598
857.644278	3795.124288
857.957561	3800.505720
858.270802	3801.037562
858.584000	3810.366217
858.897155	3802.849857
859.210268	3787.859986
859.523339	3764.058178
859.836367	3763.281840
860.149352	3757.313114
860.462295	3751.472937
860.775195	3737.849219
861.088054	3735.071543
861.400869	3729.304463
861.713642	3731.746902
862.026373	3740.069847
862.339062	3742.822317
862.651708	3759.231273
862.964312	3789.261426
863.276873	3802.484373
863.589392	3850.042618
863.901869	3896.985843
864.214303	3938.610650
864.526696	3974.808655
864.839045	4019.196015
865.151353	4046.282135
865.463619	4056.109864
865.775842	4063.371646
866.088023	4080.622475
866.400162	4073.947987
866.712258	4079.669697
867.024313	4083.090119
867.336325	4082.182712
867.648296	4088.895008
867.960224	4084.554575
868.272110	4095.945062
868.583954	4096.721399
868.895755	4112.157413
869.207515	4104.288171
869.519233	4146.878360
869.830909	4158.029392
870.142542	4179.202238
870.454134	4191.558106
870.765684	4225.384248
871.077191	4257.874485
871.388657	4278.661683
871.700081	4313.143175
872.011463	4351.193804
872.322803	4384.253691
872.634101	4416.479267
872.945357	4452.513435
873.256571	4505.473277
873.567744	4535.384963
873.878874	4556.988828
874.189963	4594.121967
874.501010	4603.501034
874.812015	4601.991208
875.122979	4640.593844
875.433900	4639.880521
875.744780	4656.642357
876.055618	4682.057334
876.366415	4679.004916
876.677169	4695.726423
876.987882	4733.721599
877.298554	4782.194814
877.609183	4852.019836
877.919771	4945.014001
878.230317	5072.043516
878.540822	5259.367752
878.851285	5537.594074
879.161707	5929.339619
879.472087	6572.608494
879.782425	7589.293278
880.092722	9413.054190
880.402977	12258.225968
880.713191	15769.724859
881.023363	19485.511468
881.333494	21945.166047
881.643583	23420.338732
881.953631	23662.659436
882.263637	23018.954501
882.573602	21722.357129
882.883526	20291.470980
883.193408	18711.775011
883.503248	17102.190040
883.813048	15617.391272
884.122806	14238.338267
884.432522	12807.220225
884.742197	11571.945969
885.051831	10490.810032
885.361424	9493.740378
885.670975	8666.426538
885.980485	7970.923747
886.289954	7394.193062
886.599382	6919.104642
886.908768	6540.876951
887.218113	6175.617628
887.527417	5891.853599
887.836680	5620.211024
888.145901	5400.512498
888.455082	5243.362089
888.764221	5086.078089
889.073319	4954.917348
889.382376	4875.940111
889.691392	4814.364937
890.000366	4781.622643
890.309300	4761.707565
890.618193	4763.812247
890.927044	4749.545781
891.235855	4768.203092
891.544625	4786.696565
891.853353	4833.886806
892.162041	4930.455149
892.470687	5092.775262
892.779293	5307.563703
893.087858	5630.144617
893.396381	6117.024297
893.704864	6806.916283
894.013306	7834.132038
894.321707	8969.104977
894.630068	9855.218835
894.938387	10205.551301
895.246665	10101.118758
895.554903	9566.559845
895.863100	8916.724867
896.171256	8386.808858
896.479371	7899.125114
896.787446	7412.830208
897.095480	6990.830178
897.403473	6678.676891
897.711425	6362.742738
898.019336	6106.770590
898.327207	5841.656309
898.635038	5614.537205
898.942827	5366.406572
899.250576	5175.188045
899.558284	4982.474815
899.865952	4858.994272
900.173579	4713.839289
900.481165	4608.443885
900.788711	4508.379502
901.096216	4439.756795
901.403681	4372.538050
901.711105	4345.640973
902.018489	4317.140810
902.325832	4372.175087
902.633135	4467.314263
902.940397	4716.856419
903.247619	5338.397921
903.554800	6526.401277
903.861941	8292.372923
904.169041	9870.296926
904.476101	10710.969824
904.783121	10591.456669
905.090100	9968.692688
905.397039	9179.474847
905.703938	8452.739588
906.010796	7782.944162
906.317614	7245.113540
906.624391	6728.775878
906.931129	6313.588968
907.237826	5922.546664
907.544483	5556.110232
907.851099	5197.298545
908.157675	4846.731666
908.464211	4521.597407
908.770707	4281.260398
909.077163	4075.344387
909.383578	3922.068104
909.689954	3803.361534
909.996289	3727.716500
910.302584	3659.310562
910.608839	3624.753453
910.915054	3592.434616
911.221229	3578.299220
911.527363	3583.731063
911.833458	3591.345726
912.139513	3615.427318
912.445527	3636.746358
912.751502	3709.976679
913.057436	3796.694608
913.363331	3908.875404
913.669186	4084.852003
913.975000	4309.339625
914.280775	4665.207278
914.586510	5166.348381
914.892205	5855.544688
915.197859	6782.587675
915.503475	7917.394255
915.809050	8978.915062
916.114585	9703.943890
916.420081	10066.475949
916.725536	10111.127969
917.030952	9750.209080
917.336328	9392.224142
917.641665	9019.372842
917.946961	8563.362668
918.252218	8159.256214
918.557435	7679.078748
918.862612	7267.650018
919.167750	6906.161479
919.472848	6502.627196
919.777906	6140.264016
920.082925	5791.900121
920.387904	5428.722795
920.692843	5159.016023
920.997743	4911.195421
921.302603	4675.123227
921.607423	4511.008464
921.912204	4347.964945
922.216946	4235.569900
922.521647	4117.334678
922.826310	4010.290817
923.130932	3919.751694
923.435516	3823.135460
923.740059	3755.712548
924.044564	3677.544416
924.349028	3623.765387
924.653454	3562.228022
924.957840	3494.928618
925.262186	3449.674180
925.566493	3389.465159
925.870761	3330.695387
926.174989	3298.056437
926.479178	3260.933380
926.783328	3219.487533
927.087438	3195.494162
927.391509	3161.315139
927.695541	3132.452012
927.999533	3109.734053
928.303486	3084.835794
928.607400	3068.976324
928.911275	3056.305383
929.215110	3038.580687
929.518906	3030.290509
929.822663	3031.593647
930.126381	3022.411186
930.430060	3031.639018
930.733699	3033.726055
931.037299	3043.775596
931.340861	3041.600338
931.644383	3049.918242
931.947866	3047.876574
932.251309	3042.611089
932.554714	3043.523538
932.858080	3038.031201
933.161407	3033.249666
933.464694	3023.048892
933.767943	3018.980680
934.071153	3016.782737
934.374323	3001.865963
934.677455	2997.454953
934.980548	2990.543532
935.283602	2982.399548
935.586617	2979.188333
935.889593	2989.310969
936.192530	2990.956906
936.495428	3003.060717
936.798287	3021.967564
937.101108	3047.571584
937.403890	3093.887185
937.706632	3146.027840
938.009336	3222.582802
938.312002	3295.049388
938.614628	3357.007690
938.917216	3410.564908
939.219765	3446.760393
939.522275	3479.227944
939.824747	3486.194819
940.127179	3484.004438
940.429573	3480.775578
940.731929	3482.940754
941.034246	3470.078250
941.336524	3458.498720
941.638763	3442.341822
941.940964	3433.078701
942.243126	3394.443298
942.545250	3374.495453
942.847335	3339.388857
943.149381	3302.482570
943.451389	3270.801438
943.753359	3238.994278
944.055290	3214.970660
944.357182	3187.675332
944.659036	3174.528003
944.960851	3162.320849
945.262628	3145.793426
945.564367	3147.900628
945.866067	3142.536841
946.167729	3139.244967
946.469352	3140.394350
946.770937	3137.084833
947.072484	3119.007255
947.373992	3118.934158
947.675462	3113.908128
947.976893	3101.217023
948.278286	3094.706373
948.579641	3087.063984
948.880958	3076.820359
949.182236	3081.044846
949.483476	3073.525965
949.784678	3074.216603
950.085841	3073.720049
950.386967	3082.549630
950.688054	3092.891558
950.989103	3112.733539
951.290114	3131.842033
951.591087	3158.121568
951.892021	3187.889581
952.192917	3210.731049
952.493776	3238.107035
952.794596	3249.280753
953.095378	3252.819643
953.396122	3250.110022
953.696828	3247.750762
953.997496	3236.829103
954.298126	3214.711040
954.598718	3198.556663
954.899272	3174.948939
955.199788	3150.922800
955.500266	3124.610497
955.800706	3090.348295
956.101108	3053.373953
956.401472	3023.530322
956.701798	2989.701659
957.002087	2951.545165
957.302337	2923.438212
957.602550	2896.445354
957.902724	2868.940818
958.202861	2843.198166
958.502960	2820.175217
958.803022	2807.025367
959.103045	2781.045781
959.403031	2764.916609
959.702979	2750.342633
960.002889	2741.177815
960.302762	2725.865311
960.602596	2714.978939
960.902393	2708.798484
961.202153	2700.412525
961.501875	2689.763087
961.801559	2686.382994
962.101205	2677.631551
962.400814	2675.637774
962.700385	2666.984634
962.999918	2657.741678
963.299414	2651.576347
963.598873	2654.351502
963.898293	2644.473361
964.197677	2644.362456
964.497022	2646.767086
964.796331	2642.598052
965.095601	2639.772485
965.394835	2637.894655
965.694030	2636.498256
965.993189	2636.833492
966.292309	2632.762761
966.591393	2637.251908
966.890439	2630.083387
967.189447	2632.440127
967.488419	2631.507513
967.787353	2631.643625
968.086249	2635.858029
968.385108	2635.079171
968.683930	2639.613689
968.982714	2643.192908
969.281462	2644.790954
969.580172	2649.824546
969.878844	2653.960813
970.177480	2662.994560
970.476078	2670.117711
970.774639	2675.970490
971.073162	2681.457786
971.371649	2687.494568
971.670098	2693.193592
971.968510	2698.953111
972.266885	2704.957125
972.565223	2708.203628
972.863524	2708.485933
973.161788	2715.107488
973.460014	2716.697972
973.758204	2721.461863
974.056356	2722.951524
974.354471	2721.045967
974.652550	2725.283057
974.950591	2723.652244
975.248595	2722.828015
975.546563	2717.464228
975.844493	2717.229814
976.142386	2711.734956
976.440243	2705.788915
976.738062	2701.856815
977.035845	2698.648121
977.333590	2689.994980
977.631299	2683.519618
977.928971	2679.912673
978.226606	2671.577125
978.524204	2667.594613
978.821765	2667.566887
979.119290	2667.201403
979.416777	2665.762154
979.714228	2668.905313
980.011642	2672.361024
980.309020	2681.974505
980.606360	2689.763087
980.903664	2709.809236
981.200931	2740.073803
981.498162	2780.508898
981.795356	2843.717405
982.092513	2926.011721
982.389633	3020.286339
982.686717	3113.237654
982.983764	3191.393183
983.280775	3251.324941
983.577749	3265.866149
983.874686	3260.255345
984.171587	3230.515057
984.468451	3196.083977
984.765279	3158.663492
985.062070	3113.663632
985.358824	3072.880697
985.655543	3018.093437
985.952224	2975.866212
986.248869	2911.596542
986.545478	2858.361957
986.842050	2800.532361
987.138586	2755.713982
987.435086	2717.915411
987.731549	2684.429547
988.027975	2659.294353
988.324366	2639.764923
988.620719	2627.358644
988.917037	2616.429422
989.213318	2606.649584
989.509563	2598.447627
989.805772	2596.922677
990.101944	2589.925556
990.398080	2589.166862
990.694180	2581.927765
990.990244	2587.223497
991.286271	2585.287694
991.582262	2583.523291
991.878217	2586.462283
992.174136	2591.543766
992.470019	2595.707759
992.765865	2598.036772
993.061676	2601.595827
993.357450	2608.845006
993.653188	2613.999586
993.948890	2630.494242
994.244556	2645.965543
994.540186	2666.077226
994.835780	2694.317770
995.131337	2724.542008
995.426859	2765.627412
995.722345	2809.727425
996.017795	2858.677029
996.313208	2896.679768
996.608586	2924.396031
996.903928	2943.771706
997.199234	2943.280194
997.494504	2944.648867
997.789738	2934.327104
998.084936	2911.586459
998.380099	2885.722820
998.675225	2856.423633
998.970316	2828.409942
999.265371	2791.352420
999.560390	2757.899323
999.855373	2728.211968
1000.150320	2701.445961
1000.445232	2675.710871
1000.740108	2656.690597
1001.034948	2638.547485
1001.329752	2624.437295
1001.624521	2610.097733
1001.919254	2600.244798
1002.213951	2591.594178
1002.508613	2583.566140
1002.803239	2576.581622
1003.097829	2570.678431
1003.392384	2564.485373
1003.686903	2562.831875
1003.981386	2559.023283
1004.275834	2553.599001
1004.570246	2553.440205
1004.864623	2549.356870
1005.158964	2545.618855
1005.453270	2545.734801
1005.747540	2543.816642
1006.041775	2544.693803
1006.335974	2540.933102
1006.630138	2538.435211
1006.924266	2538.924203
1007.218359	2537.633667
1007.512416	2535.186187
1007.806438	2533.265507
1008.100425	2533.449509
1008.394376	2529.812317
1008.688292	2534.203162
1008.982172	2535.307175
1009.276017	2532.418593
1009.569827	2533.628470
1009.863602	2530.220650
1010.157341	2530.923891
1010.451045	2532.907585
1010.744714	2527.213602
1011.038347	2531.299457
1011.331945	2528.312574
1011.625508	2527.337110
1011.919036	2524.491379
1012.212528	2527.931967
1012.505986	2525.953314
1012.799408	2525.182017
1013.092795	2524.662778
1013.386147	2522.364012
1013.679464	2521.900226
1013.972745	2523.639424
1014.265992	2521.587674
1014.559204	2522.104393
1014.852380	2522.033817
1015.145521	2522.885772
1015.438628	2522.273271
1015.731699	2522.336286
1016.024736	2524.287212
1016.317737	2522.038858
1016.610703	2525.570186
1016.903635	2528.330218
1017.196531	2528.705784
1017.489393	2526.805269
1017.782219	2530.853315
1018.075011	2532.930271
1018.367768	2530.636546
1018.660490	2533.812472
1018.953177	2533.812472
1019.245829	2533.812472
