Dividing Wavelength (nm)	Counts (n)	Blue Motor Position (mm): 39.000000	Red Motor Position (mm): 0.000000	
326.493990	2064.208827
326.888308	2064.208827
327.282561	2064.208827
327.676750	2042.168902
328.070874	2042.496577
328.464933	2047.890612
328.858929	2055.832950
329.252859	2064.786039
329.646726	2078.155179
330.040528	2098.496235
330.434265	2113.435694
330.827938	2133.945629
331.221547	2155.095790
331.615091	2175.283090
332.008571	2195.735052
332.401986	2216.844883
332.795338	2236.104612
333.188625	2254.018352
333.581847	2273.961156
333.975006	2290.677623
334.368100	2309.312248
334.761129	2325.559887
335.154095	2341.704182
335.546996	2391.309136
335.939833	2499.719149
336.332606	2508.750376
336.725315	2523.054650
337.117960	2533.021011
337.510540	2541.974101
337.903056	2551.587581
338.295508	2559.577810
338.687896	2564.994530
339.080220	2568.546023
339.472480	2573.700602
339.864676	2577.957857
340.256807	2581.935327
340.648875	2583.989597
341.040879	2584.881882
341.432818	2587.795668
341.824694	2589.108889
342.216506	2586.933631
342.608253	2586.694176
342.999937	2587.853642
343.391557	2585.222159
343.783113	2583.530852
344.174605	2581.688311
344.566033	2580.831314
344.957397	2580.271746
345.348697	2573.942578
345.739934	2574.502146
346.131106	2577.186560
346.522215	2571.568194
346.913260	2571.855540
347.304241	2571.308575
347.695159	2569.259346
348.086012	2565.138203
348.476802	2564.155178
348.867528	2563.588048
349.258191	2555.708724
349.648789	2559.063612
350.039324	2553.805689
350.429796	2557.692418
350.820203	2559.514795
351.210548	2556.573282
351.600828	2557.412634
351.991045	2555.388611
352.381198	2553.493137
352.771288	2556.056564
353.161314	2551.917777
353.551276	2553.987170
353.941175	2551.043136
354.331010	2551.138918
354.720782	2556.590926
355.110490	2559.363561
355.500135	2554.766028
355.889717	2556.943807
356.279235	2555.300391
356.668689	2557.521019
357.058080	2555.854918
357.447408	2555.890206
357.836672	2557.213509
358.225873	2556.041440
358.615010	2560.434806
359.004084	2560.621329
359.393095	2559.819785
359.782043	2559.025803
360.170927	2561.135526
360.559748	2560.802810
360.948505	2561.677450
361.337199	2565.846485
361.725830	2561.357337
362.114398	2560.770043
362.502903	2564.175342
362.891344	2565.380178
363.279722	2563.404046
363.668037	2564.936556
364.056289	2561.508572
364.444478	2566.799263
364.832603	2569.249263
365.220665	2566.539643
365.608665	2568.311609
365.996601	2567.883111
366.384474	2567.867987
366.772284	2569.057700
367.160031	2568.480487
367.547715	2571.663976
367.935336	2567.114335
368.322893	2567.593244
368.710388	2566.264900
369.097820	2569.733214
369.485189	2567.066444
369.872495	2571.117011
370.259738	2572.016857
370.646918	2572.183215
371.034035	2573.834193
371.421090	2571.739593
371.808081	2572.518452
372.195010	2573.050293
372.581875	2571.996692
372.968678	2571.364028
373.355418	2573.047773
373.742096	2576.135480
374.128710	2576.730336
374.515262	2576.972311
374.901751	2576.158165
375.288177	2579.271077
375.674540	2576.652198
376.060841	2576.478278
376.447079	2577.307548
376.833254	2576.589183
377.219367	2578.262847
377.605417	2579.792837
377.991404	2578.013309
378.377329	2579.878536
378.763191	2577.360480
379.148991	2581.413568
379.534727	2578.792168
379.920402	2579.674370
380.306013	2581.642940
380.691563	2583.800554
381.077049	2581.317786
381.462474	2583.006572
381.847835	2582.757035
382.233134	2586.232911
382.618371	2586.316090
383.003545	2585.060842
383.388657	2585.191912
383.773706	2586.585792
384.158693	2585.922880
384.543618	2584.934814
384.928480	2586.658888
385.313280	2587.737695
385.698017	2588.314907
386.082692	2588.647623
386.467305	2588.715679
386.851856	2591.276585
387.236344	2587.122674
387.620770	2587.465473
388.005133	2583.861048
388.389435	2589.156780
388.773674	2589.270206
389.157851	2594.190372
389.541965	2591.631987
389.926018	2594.361771
390.310008	2594.127358
390.693936	2597.484766
391.077802	2598.676999
391.461606	2595.856473
391.845348	2598.298912
392.229027	2597.658686
392.612645	2600.822010
392.996200	2601.351331
393.379694	2603.496342
393.763125	2602.420056
394.146494	2605.124635
394.529801	2608.088833
394.913047	2607.304934
395.296230	2611.239554
395.679351	2613.034205
396.062410	2614.680142
396.445408	2617.039402
396.828343	2620.721965
397.211217	2626.582306
397.594028	2629.778398
397.976778	2634.759058
398.359466	2639.628812
398.742092	2643.865902
399.124656	2650.507622
399.507158	2661.693943
399.889598	2671.060407
400.271977	2684.447191
400.654294	2693.896833
401.036549	2703.480067
401.418742	2715.178064
401.800874	2732.396125
402.182944	2745.971953
402.564952	2769.743514
402.946898	2784.108282
403.328783	2801.389357
403.710606	2815.328147
404.092367	2847.248733
404.474067	2873.407281
404.855705	2891.260527
405.237282	2905.670665
405.618797	2946.090637
406.000250	2985.487254
406.381642	3023.777338
406.762972	3049.197357
407.144240	3060.537432
407.525447	3103.903958
407.906593	3134.150881
408.287677	3184.711134
408.668700	3223.759911
409.049661	3264.142074
409.430560	3304.430976
409.811399	3331.955676
410.192176	3380.103736
410.572891	3439.145730
410.953545	3512.605424
411.334138	3506.828262
411.714669	3587.612752
412.095139	3585.014037
412.475547	3666.476563
412.855894	3702.636759
413.236180	3785.288997
413.616405	3795.172179
413.996568	3877.625292
414.376670	3921.460645
414.756711	3952.650264
415.136691	4029.671533
415.516609	4115.333339
415.896466	4174.072864
416.276262	4260.606790
416.655997	4369.566290
417.035670	4468.229232
417.415283	4595.898974
417.794834	4683.945246
418.174324	4698.151218
418.553753	4746.321963
418.933121	4898.348040
419.312428	4950.438283
419.691674	4934.770377
420.070859	5143.902644
420.449983	5095.273153
420.829045	5278.077995
421.208047	5260.277680
421.586988	5423.207773
421.965867	5525.830542
422.344686	5626.013392
422.723444	5797.568898
423.102141	5528.827507
423.480777	5875.001022
423.859352	5764.866933
424.237866	6101.121977
424.616319	6142.061188
424.994712	6311.436395
425.373044	6271.709582
425.751314	6573.891467
426.129524	6361.419436
426.507673	6630.559078
426.885762	6697.535848
427.263789	6757.724704
427.641756	6867.894080
428.019662	6961.445293
428.397508	7023.184304
428.775292	7036.056890
429.153016	7217.485497
429.530679	7175.800195
429.908282	7247.669405
430.285824	7207.524177
430.663305	7491.109245
431.040726	7400.544916
431.418086	7420.575941
431.795385	7568.606903
432.172624	7762.005729
432.549802	7660.101325
432.926920	7808.535579
433.303977	7766.298272
433.680974	7814.726116
434.057910	8024.417952
434.434786	8081.907270
434.811601	8049.049029
435.188355	8387.930514
435.565050	8289.552397
435.941683	8305.308523
436.318257	8647.076069
436.694770	8604.022094
437.071222	8829.228081
437.447614	8615.009289
437.823946	8584.515350
438.200218	8735.891117
438.576429	8626.951783
438.952580	8787.865413
439.328670	8800.440572
439.704700	8883.589363
440.080670	8784.669322
440.456580	9050.257471
440.832429	9026.765694
441.208218	8770.639791
441.583947	8886.891319
441.959616	9001.839709
442.335224	9038.627529
442.710773	9128.670099
443.086261	9303.767016
443.461689	9024.960961
443.837057	9193.829533
444.212365	9407.113190
444.587612	9392.214060
444.962800	9283.589798
445.337927	9415.698275
445.712995	8964.411662
446.088002	9627.814906
446.462949	9685.296662
446.837837	9668.489455
447.212664	9698.474238
447.587431	10524.716833
447.962139	11531.137828
448.336786	12448.020369
448.711374	12214.783825
449.085901	11017.877791
449.460369	10938.567838
449.834776	10727.789634
450.209124	11634.002573
450.583412	11461.385903
450.957640	11766.985690
451.331808	11367.184382
451.705917	10795.913266
452.079965	10676.818527
452.453954	10874.078877
452.827883	10821.345887
453.201752	10788.202821
453.575562	10794.456373
453.949311	11135.727365
454.323001	11197.612569
454.696632	11115.575352
455.070202	11703.764580
455.443713	11763.706420
455.817164	11931.838983
456.190556	12244.894637
456.563888	12113.000408
456.937160	12363.510466
457.310373	11850.073988
457.683526	11858.921213
458.056619	11881.399718
458.429653	11943.274840
458.802628	12080.595871
459.175542	12128.474230
459.548398	12683.608612
459.921194	13253.944593
460.293930	13544.988049
460.666607	14398.054623
461.039224	15182.811043
461.411782	15521.964750
461.784280	15187.128791
462.156719	15113.545589
462.529099	15020.004459
462.901419	14373.758782
463.273680	13987.871058
463.645882	14192.796483
464.018024	14091.396194
464.390106	14453.051091
464.762130	15529.266861
465.134094	17072.147284
465.505999	19371.306648
465.877845	21610.342690
466.249631	22813.076298
466.621358	22319.007933
466.993026	21494.688539
467.364634	20740.252139
467.736184	19942.597928
468.107674	19340.013685
468.479105	19204.956133
468.850477	18930.062013
469.221790	18501.100150
469.593043	17830.780444
469.964238	17451.877239
470.335373	17512.620622
470.706449	18222.392398
471.077467	19101.763713
471.448425	21558.897715
471.819324	23412.313215
472.190164	23314.245129
472.560945	21569.627811
472.931667	20000.656897
473.302330	19663.078550
473.672934	19126.339338
474.043479	19539.232524
474.413965	19328.063630
474.784393	19156.548453
475.154761	19825.854887
475.525070	19953.086049
475.895321	19784.693866
476.265513	20318.748663
476.635645	20897.173176
477.005719	20954.942279
477.375734	21323.571613
477.745691	21952.185853
478.115588	22579.214651
478.485427	23778.038844
478.855207	25582.902991
479.224928	27387.749494
479.594591	28797.787951
479.964194	28411.774198
480.333739	28852.739049
480.703226	29056.598269
481.072653	29505.893626
481.442022	30021.447389
481.811333	30427.121642
482.180584	29991.828089
482.549777	29759.120866
482.918912	29508.678864
483.287988	29471.560848
483.657005	29311.224429
484.025964	28944.044427
484.394864	29134.375711
484.763706	29061.359639
485.132489	28510.275824
485.501213	28583.458254
485.869879	28738.650175
486.238487	28679.131793
486.607036	28948.891497
486.975527	28631.462642
487.343959	28990.118053
487.712333	29311.032865
488.080648	29279.760067
488.448905	29719.290710
488.817104	29591.520145
489.185244	30418.360116
489.553326	31360.682840
489.921350	33252.716099
490.289315	35754.754179
490.657222	36650.841960
491.025070	37188.354989
491.392861	36934.648839
491.760593	36148.173387
492.128267	35125.177078
492.495883	34135.449864
492.863440	33222.932962
493.230939	32266.694133
493.598380	31705.389378
493.965763	31539.066590
494.333088	31053.041386
494.700354	30851.468328
495.067563	30811.368470
495.434713	30687.018328
495.801805	30953.702928
496.168839	30808.653809
496.535815	30654.863328
496.902733	30770.177202
497.269593	30591.617012
497.636395	30739.985732
498.003139	30993.500317
498.369825	30761.024987
498.736453	31147.436991
499.103023	30983.717958
499.469535	31070.967729
499.835989	31170.129745
500.202385	31039.331968
500.568723	31087.558166
500.935003	31381.570861
501.301226	31240.930231
501.667390	31953.088993
502.033497	32152.796823
502.399546	31948.100772
502.765537	31556.604764
503.131470	32007.175533
503.497345	32442.451441
503.863163	31385.830636
504.228923	32131.606333
504.594625	32532.625081
504.960269	32010.880781
505.325856	32664.267252
505.691385	32319.021310
506.056856	32617.747484
506.422270	33117.865233
506.787625	32630.935142
507.152924	33070.420414
507.518164	33243.851230
507.883347	32838.234950
508.248472	32971.979282
508.613540	33623.911380
508.978550	33843.791387
509.343503	33677.264432
509.708398	34041.581058
510.073236	34621.832990
510.438016	34721.060541
510.802738	34388.319182
511.167403	34937.406700
511.532010	35169.347668
511.896561	35666.798647
512.261053	36391.681282
512.625488	36182.995157
512.989866	36084.173418
513.354186	36147.142471
513.718449	36122.473584
514.082655	36958.082643
514.446803	36651.603174
514.810894	37258.832840
515.174927	37261.464322
515.538904	37263.445496
515.902822	37874.070379
516.266684	37570.638288
516.630488	37917.595701
516.994235	37929.477701
517.357925	38494.505347
517.721558	38735.767409
518.085133	39114.317733
518.448651	39297.508223
518.812112	39185.304741
519.175516	39339.947177
519.538863	39766.453998
519.902152	39831.958751
520.265385	40373.872707
520.628560	40382.755220
520.991678	40309.996247
521.354739	40535.290453
521.717743	40891.810936
522.080690	40802.660650
522.443580	41475.158135
522.806413	41490.291679
523.169189	41618.410083
523.531908	41843.298477
523.894569	41700.969060
524.257174	41893.379820
524.619722	42220.243194
524.982213	42365.534289
525.344647	42411.474324
525.707025	42534.596945
526.069345	42950.245121
526.431608	42863.043242
526.793815	43253.117644
527.155964	42807.686331
527.518057	43056.235381
527.880093	42902.296186
528.242072	43534.517372
528.603995	43268.702371
528.965860	43193.432903
529.327669	43409.859720
529.689421	43465.468688
530.051117	43419.964713
530.412755	43696.479563
530.774337	43733.990789
531.135862	43680.741081
531.497331	43837.344525
531.858743	43855.399418
532.220098	44242.895270
532.581396	43958.969923
532.942638	43741.965894
533.303824	43963.585100
533.664953	44038.468919
534.026025	43695.720869
534.387040	44275.100681
534.747999	44339.680382
535.108902	44682.630078
535.469748	43991.351775
535.830537	44263.556439
536.191270	44511.777813
536.551947	44258.122075
536.912567	44539.915013
537.273131	44654.147559
537.633638	44287.862362
537.994089	44468.691071
538.354483	44239.729425
538.714821	44877.208535
539.075103	45150.214742
539.435328	45033.690991
539.795497	44787.710410
540.155609	44909.461837
540.515665	45485.280073
540.875665	44780.430984
541.235609	45047.700358
541.595496	45192.053798
541.955328	45788.429860
542.315102	45214.489453
542.674821	45101.905364
543.034483	45008.533113
543.394090	45030.290733
543.753640	45008.240726
544.113134	46057.405664
544.472571	45168.131003
544.831953	46282.291537
545.191278	45564.345530
545.550548	45262.224139
545.909761	45884.242030
546.268918	46023.425767
546.628019	46432.848118
546.987064	45872.629732
547.346053	45194.040013
547.704986	46078.921309
548.063863	45715.116359
548.422684	45930.030830
548.781449	45512.308220
549.140158	46023.753442
549.498811	45797.902188
549.857408	45201.213575
550.215949	46039.963272
550.574434	45871.921450
550.932864	45825.499985
551.291237	46522.520162
551.649555	46268.768642
552.007817	46466.089486
552.366022	46152.877557
552.724173	46215.145889
553.082267	46608.451671
553.440305	46983.815986
553.798288	46231.544762
554.156215	46621.379710
554.514086	46805.729665
554.871902	46420.711540
555.229661	46586.462158
555.587365	46279.231557
555.945014	46396.776141
556.302606	46417.485201
556.660143	46517.955397
557.017625	46745.598782
557.375050	46423.975687
557.732421	46823.749269
558.089735	46873.457567
558.446994	46749.508197
558.804197	47231.684480
559.161345	47087.298272
559.518437	46466.520505
559.875474	46701.904581
560.232455	46909.343020
560.589381	46942.539018
560.946251	46777.521888
561.303065	47412.298940
561.659825	47101.441229
562.016528	46910.283196
562.373177	46507.489962
562.729770	47143.542425
563.086307	46644.705129
563.442789	47202.435705
563.799216	47040.246662
564.155587	46950.556974
564.511904	46909.222033
564.868164	46951.532437
565.224370	47255.410670
565.580520	46983.884042
565.936615	47186.233437
566.292654	46836.357195
566.648638	47210.304946
567.004567	47134.506157
567.360441	47221.866833
567.716260	46926.311544
568.072023	47331.789192
568.427732	47268.850386
568.783385	46799.375290
569.138982	47197.969243
569.494525	47357.546968
569.850013	46980.400604
570.205445	47072.517609
570.560823	46840.438009
570.916145	46713.040490
571.271412	46953.329608
571.626625	46599.395238
571.981782	46667.891916
572.336884	46289.160110
572.691931	46619.612785
573.046923	46279.274407
573.401860	46094.513598
573.756743	46112.628984
574.111570	46268.539270
574.466342	46188.919286
574.821059	46329.615369
575.175722	45827.544173
575.530330	45892.975829
575.884882	45576.519917
576.239380	45487.858623
576.593823	45572.136633
576.948211	45501.608371
577.302544	45061.571092
577.656823	45038.089398
578.011047	45324.421895
578.365216	45155.754970
578.719330	44868.252925
579.073389	44839.404922
579.427394	44900.024797
579.781344	44809.485674
580.135239	44565.945011
580.489080	44636.390095
580.842866	44136.249660
581.196597	44625.002128
581.550273	44613.954440
581.903895	44548.653853
582.257463	44981.051263
582.610975	44415.428760
582.964434	44738.324746
583.317837	44245.080610
583.671186	44195.415162
584.024481	44483.537269
584.377721	44049.062904
584.730906	44272.905258
585.084037	44416.333647
585.437113	44130.228002
585.790135	44247.467596
586.143103	43823.032689
586.496016	43996.186242
586.848874	44098.877066
587.201679	44144.126463
587.554428	43614.462511
587.907124	43891.937701
588.259765	43674.578270
588.612352	43812.693283
588.964884	43286.759784
589.317362	43576.321141
589.669786	43580.248199
590.022155	43467.936333
590.374470	43930.792394
590.726731	43523.827606
591.078937	42851.877086
591.431090	43217.219587
591.783188	42718.533526
592.135232	42537.233469
592.487222	42784.088690
592.839157	42951.512971
593.191038	42596.038528
593.542866	42403.710947
593.894639	41784.276648
594.246358	42081.261103
594.598022	42091.212341
594.949633	41675.332272
595.301190	41682.621781
595.652692	41630.413071
596.004141	42135.788744
596.355535	41030.316637
596.706876	41036.451722
597.058162	40739.222770
597.409395	41247.217323
597.760573	41478.041675
598.111698	41087.004412
598.462768	41000.384787
598.813785	41035.143542
599.164748	40654.065079
599.515657	40901.825188
599.866511	40419.477505
600.217312	41100.260127
600.568060	40063.040202
600.918753	40869.597091
601.269392	40797.178396
601.619978	40516.486949
601.970510	40730.168858
602.320988	40868.525846
602.671412	41128.672070
603.021783	40985.770482
603.372100	40560.995297
603.722363	40679.255725
604.072572	40711.037679
604.422728	40705.681453
604.772830	40500.055308
605.122878	40672.644252
605.472872	40519.872084
605.822813	40766.765114
606.172701	40516.335715
606.522534	40851.456499
606.872314	41052.238095
607.222041	40881.837013
607.571714	41229.580846
607.921333	40716.993802
608.270899	40916.764647
608.620411	41288.375823
608.969870	41053.677344
609.319276	41057.405278
609.668627	41106.163318
610.017926	41499.887515
610.367171	41651.684219
610.716362	41679.276975
611.065500	41594.817483
611.414585	41830.897239
611.763616	41981.957934
612.112594	41889.483008
612.461518	41994.941426
612.810389	42394.263825
613.159207	42168.543641
613.507971	42147.496824
613.856682	42654.727641
614.205340	42502.913293
614.553945	43170.508256
614.902496	42526.531099
615.250994	42954.434320
615.599439	43010.854914
615.947830	43122.531595
616.296169	43113.258392
616.644454	43163.095239
616.992686	43302.682269
617.340864	43763.088329
617.688990	43246.307045
618.037063	43951.670332
618.385082	43756.146660
618.733048	44097.548722
619.080961	43983.467410
619.428821	44027.390984
619.776628	44066.308692
620.124382	43896.784770
620.472083	44013.674004
620.819731	44117.811640
621.167326	43710.519177
621.514868	43689.757184
621.862357	43147.160152
622.209793	43243.743618
622.557176	42826.048734
622.904506	42588.665841
623.251783	42217.137843
623.599007	41905.221490
623.946179	41826.859274
624.293297	41565.440159
624.640363	41035.264530
624.987376	40884.932281
625.334336	40693.658301
625.681243	40289.526642
626.028097	40189.873112
626.374899	40018.662925
626.721647	39981.529786
627.068343	39760.891085
627.414987	39471.125562
627.761577	39224.129188
628.108115	39546.808404
628.454600	38789.801016
628.801032	39039.239829
629.147412	38935.061864
629.493739	38823.889299
629.840014	38389.661950
630.186236	38802.882811
630.532405	38235.211079
630.878521	38502.770319
631.224585	38270.025287
631.570597	37938.188815
631.916556	38106.054197
632.262462	38003.958228
632.608316	37956.639438
632.954117	37806.642426
633.299866	37759.663913
633.645562	37686.698252
633.991206	37182.229987
634.336797	36762.500997
634.682336	36666.051121
635.027823	36424.350479
635.373257	36327.399009
635.718639	35984.920660
636.063968	35885.244446
636.409245	35233.340075
636.754470	35197.288263
637.099642	34960.422088
637.444762	34379.403901
637.789829	34523.585942
638.134845	34133.231756
638.479808	34051.562543
638.824719	34006.224926
639.169577	33495.702235
639.514383	33613.201449
639.859137	33231.089549
640.203839	33410.327774
640.548489	33113.451703
640.893086	33088.878599
641.237632	32809.379386
641.582125	32891.794689
641.926566	32673.061544
642.270955	32708.175702
642.615292	32655.483041
642.959576	32519.908770
643.303809	32526.774822
643.647990	32628.197796
643.992118	32602.510596
644.336195	32440.089661
644.680219	32497.881448
645.024192	32687.270037
645.368112	33196.529919
645.711981	33215.409040
646.055797	33913.404681
646.399562	33703.347362
646.743274	34567.267540
647.086935	34972.215867
647.430544	34951.164009
647.774101	34982.711549
648.117606	35300.473120
648.461059	35445.486952
648.804460	35055.919186
649.147810	34557.853186
649.491108	34256.326651
649.834354	34154.797812
650.177548	33330.841381
650.520690	32819.577640
650.863781	32805.434683
651.206820	32621.581281
651.549807	32191.696887
651.892742	31607.724584
652.235626	31521.828364
652.578458	31397.916802
652.921238	30698.524762
653.263967	30965.509311
653.606644	30659.909523
653.949269	30576.720403
654.291843	30191.044407
654.634365	30544.721679
654.976836	30082.646997
655.319255	30165.516004
655.661622	30032.893329
656.003938	29908.301211
656.346203	29722.466637
656.688416	29977.596912
657.030577	29760.136659
657.372687	29589.228940
657.714746	29721.987727
658.056753	29900.106816
658.398708	29290.129721
658.740612	29350.807569
659.082465	29559.602079
659.424266	29453.478229
659.766016	29439.133626
660.107715	29283.225861
660.449362	29392.888601
660.790958	29370.672236
661.132503	29283.591344
661.473996	29374.984943
661.815438	29445.578741
662.156829	29570.569109
662.498168	29374.662309
662.839456	29343.145015
663.180693	29483.218516
663.521879	29523.701502
663.863013	29471.974222
664.204097	29472.047319
664.545129	29859.459992
664.886110	29805.373453
665.227040	29904.933721
665.567918	29915.797407
665.908746	29974.915018
666.249522	30040.805420
666.590248	30085.016339
666.930922	30186.696412
667.271545	30189.050631
667.612118	30252.060013
667.952639	30060.647401
668.293109	30109.917118
668.633528	29947.970051
668.973896	29924.705126
669.314213	29904.210315
669.654480	29696.277842
669.994695	29686.382057
670.334859	29605.206878
670.674973	29413.779142
671.015035	29603.432391
671.355047	29535.351609
671.695008	29452.341449
672.034918	29365.827687
672.374777	29454.304978
672.714585	29343.989409
673.054342	29475.200561
673.394049	29320.658949
673.733705	29529.317348
674.073310	29256.147303
674.412864	29313.470263
674.752368	29049.885973
675.091820	29278.325859
675.431223	28872.124806
675.770574	28683.497432
676.109875	28530.760553
676.449125	28314.898345
676.788324	28220.351504
677.127473	27737.862670
677.466571	27647.384041
677.805619	27355.123146
678.144616	27301.233212
678.483562	27243.532165
678.822458	26916.666270
679.161303	26872.412501
679.500098	26779.814067
679.838842	26702.513013
680.177535	26750.855158
680.516179	26974.639539
680.854771	27052.762300
681.193314	27741.721673
681.531805	28674.219188
681.870247	29422.976728
682.208638	30228.837937
682.546978	30586.139799
682.885268	30769.189136
683.223508	30357.654542
683.561697	30094.208883
683.899836	29931.974470
684.237925	29527.142090
684.575963	29369.802637
684.913951	28966.943868
685.251889	29113.212947
685.589776	29124.303486
685.927614	29110.425189
686.265401	29278.913154
686.603137	29363.607059
686.940824	29853.680309
687.278460	30154.700208
687.616046	30348.814878
687.953582	31025.972910
688.291068	30966.759517
688.628504	31333.460609
688.965889	31355.029186
689.303224	31115.236621
689.640510	30839.104899
689.977745	30241.425699
690.314930	29512.026190
690.652065	29108.161711
690.989150	28417.054807
691.326185	27588.495802
691.663170	26988.369122
692.000105	26260.093790
692.336990	25658.840412
692.673825	25246.400931
693.010610	24745.895012
693.347345	24243.367591
693.684030	23620.192756
694.020665	23429.780813
694.357251	22767.819340
694.693786	22760.353391
695.030272	22528.735057
695.366707	22035.168287
695.703093	21744.911251
696.039429	21815.041263
696.375716	21576.062844
696.711952	21561.801420
697.048139	21438.888007
697.384276	21266.604054
697.720363	21381.794419
698.056400	21269.981627
698.392388	21108.609251
698.728326	21106.623036
699.064214	20961.609205
699.400053	20976.243674
699.735842	20595.500448
700.071581	20406.578166
700.407270	20175.390851
700.742910	19999.197483
701.078501	19737.516228
701.414042	19548.334327
701.749533	19242.122039
702.084974	18937.074258
702.420366	19168.105298
702.755709	18755.748996
703.091002	18457.496690
703.426246	18520.596813
703.761440	18455.419735
704.096584	18206.152321
704.431679	18157.759765
704.766725	18100.325899
705.101721	18011.425151
705.436668	18131.202966
705.771565	17844.701590
706.106413	18152.706008
706.441212	18223.040187
706.775961	18316.735072
707.110661	18392.503614
707.445311	18751.665661
707.779913	18635.129308
708.114465	18919.394932
708.448967	19228.342045
708.783421	19823.477983
709.117825	20161.469705
709.452180	20381.427850
709.786485	20822.773307
710.120742	21554.660626
710.454949	21649.913227
710.789107	22167.548987
711.123216	22852.853523
711.457275	23085.361621
711.791286	23659.949815
712.125247	23818.554598
712.459159	23594.573612
712.793023	24358.830179
713.126837	23376.871383
713.460602	23651.846161
713.794318	23321.610254
714.127985	23057.300038
714.461602	22179.428466
714.795171	22161.623110
715.128691	21179.586177
715.462162	20680.249806
715.795584	20252.739795
716.128957	19989.336986
716.462281	19603.938254
716.795556	19331.325257
717.128782	18849.869859
717.461960	18270.631199
717.795088	18242.614987
718.128167	17898.709992
718.461198	17446.647042
718.794180	17315.309860
719.127113	16997.139956
719.459997	16815.073644
719.792833	16433.465859
720.125619	16476.204762
720.458357	16149.429608
720.791046	16003.914181
721.123686	15856.921697
721.456278	15628.708662
721.788821	15622.482837
722.121315	15361.865266
722.453761	15459.046109
722.786158	15343.361710
723.118506	15428.098465
723.450805	15309.931299
723.783056	15481.489326
724.115259	15367.521440
724.447412	15345.383213
724.779518	15557.376335
725.111574	15613.302896
725.443582	15869.355703
725.775542	15809.948225
726.107453	16309.075388
726.439315	16219.030298
726.771129	16608.104031
727.102895	17015.194848
727.434612	17288.997558
727.766281	17471.988922
728.097901	17806.167010
728.429473	17905.455056
728.760996	17932.417667
729.092471	18043.950676
729.423897	17919.905523
729.755276	17767.382893
730.086606	17859.958643
730.417887	18409.807375
730.749120	18948.353840
731.080305	19170.822480
731.411442	19587.375543
731.742530	19692.337407
732.073570	19823.886317
732.404562	20153.983591
732.735506	20051.265040
733.066401	19923.839795
733.397249	19510.835704
733.728048	18901.766017
734.058798	18063.724602
734.389501	17316.252556
734.720156	16782.538037
735.050762	16202.422217
735.381320	15799.722245
735.711831	15505.943963
736.042293	15136.810514
736.372707	15154.487320
736.703073	14937.097642
737.033391	15120.454490
737.363661	15110.914107
737.693883	15214.209869
738.024056	15403.069137
738.354182	15602.933243
738.684260	15950.719926
739.014290	16225.089765
739.344272	16448.032273
739.674207	16786.621371
740.004093	16972.070298
740.333931	17046.543264
740.663722	17129.324051
740.993464	17181.058892
741.323159	17049.630970
741.652806	16772.223836
741.982405	16614.208869
742.311956	16259.462873
742.641460	16154.957233
742.970915	15838.208934
743.300323	15485.605428
743.629683	15285.295180
743.958996	14979.503829
744.288260	14665.071940
744.617477	14348.749618
744.946647	14319.911698
745.275768	14006.142721
745.604842	13805.403974
745.933869	13632.275628
746.262847	13588.062188
746.591778	13501.414836
746.920662	13379.295404
747.249498	13373.019168
747.578286	13511.592925
747.907027	13676.010158
748.235720	13934.840641
748.564365	14007.297145
748.892963	13948.010655
749.221514	14059.231112
749.550017	13946.914204
749.878473	13925.852263
750.206881	13713.203791
750.535242	13640.626299
750.863555	13565.187952
751.191821	13461.292292
751.520039	13467.734887
751.848210	13381.410168
752.176334	13422.029266
752.504411	13354.601312
752.832440	13189.458153
753.160421	13303.002582
753.488356	13191.618288
753.816243	13110.677522
754.144082	12934.108588
754.471875	12875.200184
754.799620	12843.982839
755.127318	12817.983088
755.454969	12806.794247
755.782572	12768.383176
756.110129	12784.512347
756.437638	12701.676107
756.765100	12701.963453
757.092515	12718.117831
757.419882	12751.510434
757.747203	12758.038728
758.074477	12842.097448
758.401703	12819.775218
758.728882	12999.073937
759.056014	13043.786451
759.383099	13215.346999
759.710138	13334.829907
760.037129	13473.784272
760.364073	13541.108881
760.690970	13560.882807
761.017820	13569.150299
761.344623	13770.115898
761.671379	14085.684567
761.998088	14619.207522
762.324751	16024.106523
762.651366	18951.010528
762.977935	23255.682044
763.304456	26549.138428
763.630931	28145.644125
763.957359	27361.641358
764.283740	25325.726007
764.610074	23173.203726
764.936362	20554.253727
765.262602	18661.794491
765.588796	16678.367634
765.914943	15354.343864
766.241044	14193.719014
766.567097	13387.225139
766.893104	12640.950368
767.219064	12170.623317
767.544978	11682.921929
767.870845	11294.667384
768.196665	11059.679038
768.522438	10829.953657
768.848165	10618.532706
769.173846	10413.506459
769.499479	10290.945927
769.825066	10118.682138
770.150607	9901.799097
770.476101	9808.855343
770.801548	9698.386018
771.126949	9537.883242
771.452303	9435.028580
771.777611	9231.101304
772.102872	9220.633348
772.428087	9086.024458
772.753256	8941.650853
773.078378	8851.212553
773.403453	8667.462495
773.728482	8551.062253
774.053465	8474.519893
774.378401	8370.397381
774.703291	8260.520392
775.028135	8141.985221
775.352932	8112.461703
775.677683	8005.432966
776.002388	7894.935915
776.327046	7903.367245
776.651658	7803.164230
776.976224	7706.739560
777.300743	7710.676701
777.625216	7619.880479
777.949643	7577.610404
778.274024	7591.902075
778.598359	7502.356059
778.922647	7525.530243
779.246889	7475.940413
779.571086	7480.230435
779.895236	7486.378122
780.219339	7492.666962
780.543397	7499.790112
780.867409	7580.035199
781.191374	7583.536280
781.515294	7553.165849
781.839167	7643.659602
782.162995	7625.022456
782.486776	7569.579846
782.810511	7523.569235
783.134201	7438.396420
783.457844	7432.674710
783.781441	7380.710496
784.104993	7318.207750
784.428498	7297.143289
784.751958	7282.755836
785.075372	7248.493634
785.398739	7193.499687
785.722061	7231.157106
786.045337	7225.465643
786.368568	7368.241202
786.691752	7373.393262
787.014891	7663.786408
787.337983	7971.919375
787.661030	8528.094756
787.984031	9143.430597
788.306987	9587.314276
788.629897	9838.003295
788.952760	9838.109159
789.275579	9664.761522
789.598351	9288.265468
789.921078	8959.451167
790.243759	8544.501191
790.566395	8256.631142
790.888984	8009.448245
791.211529	7789.164946
791.534027	7561.771098
791.856480	7357.750561
792.178888	7288.318749
792.501249	7186.278234
792.823566	7027.310488
793.145836	7022.725559
793.468062	6987.503017
793.790241	6936.179030
794.112375	6988.695250
794.434464	7132.884853
794.756507	7159.955849
795.078505	7300.588918
795.400457	7576.463541
795.722364	7915.554234
796.044226	8206.234727
796.366042	8492.216864
796.687812	8471.895973
797.009538	8566.624295
797.331218	8480.445770
797.652852	8400.616578
797.974442	8259.408818
798.295986	8173.212648
798.617484	7985.502764
798.938938	7846.220725
799.260346	7748.402176
799.581709	7553.798514
799.903026	7472.590566
800.224299	7366.769185
800.545526	7197.872887
800.866708	7098.733556
801.187845	7040.301542
801.508936	6928.108142
801.829983	6893.273769
802.150984	6745.968733
802.471940	6697.084664
802.792851	6680.728641
803.113717	6648.946686
803.434538	6619.637418
803.755314	6559.831689
804.076045	6558.589045
804.396731	6505.155335
804.717372	6529.652822
805.037967	6526.285331
805.358518	6565.830662
805.679024	6645.027189
805.999485	6653.259393
806.319901	6693.681886
806.640272	6716.414969
806.960598	6796.927237
807.280879	6808.060625
807.601115	6885.878397
807.921306	6829.079716
808.241453	6840.208063
808.561554	6864.975252
808.881611	6836.759914
809.201623	6842.726120
809.521590	6787.008767
809.841513	6769.014368
810.161390	6804.851931
810.481223	6678.833167
810.801011	6662.767010
811.120755	6636.986549
811.440453	6564.441824
811.760107	6533.070724
812.079716	6499.726012
812.399281	6440.951199
812.718801	6429.394354
813.038276	6382.824175
813.357707	6322.340411
813.677093	6358.624116
813.996434	6264.823366
814.315731	6306.049922
814.634983	6296.300331
814.954191	6296.411236
815.273354	6397.592235
815.592473	6451.489731
815.911547	6564.562812
816.230577	6646.945348
816.549562	6787.157481
816.868502	6888.245218
817.187399	6980.783159
817.506250	7121.151567
817.825058	7142.750391
818.143821	7385.371043
818.462539	7630.252653
818.781213	7953.834236
819.099843	8431.415507
819.418429	9341.376544
819.736970	10224.463190
820.055466	11327.772641
820.373919	12705.338506
820.692327	14700.062589
821.010691	18008.153442
821.329011	25422.778301
821.647286	37057.239618
821.965517	50981.072900
822.283704	58462.079672
822.601847	61643.130928
822.919945	59478.540125
823.237999	55618.357226
823.556010	49644.388272
823.873976	43012.727702
824.191897	36535.003806
824.509775	31685.171831
824.827609	27051.902784
825.145398	24240.630245
825.463144	22581.107604
825.780845	22470.320687
826.098502	23695.958777
826.416116	26997.617118
826.733685	30716.655272
827.051210	32555.683318
827.368692	31626.661679
827.686129	28114.779661
828.003522	24116.632983
828.320872	20370.486025
828.638177	17473.080332
828.955439	15288.909687
829.272656	13447.708903
829.589830	11965.433232
829.906960	10665.385190
830.224046	9699.268220
830.541088	8917.599508
830.858086	8432.572452
831.175041	8023.858383
831.491952	7865.268725
831.808819	7856.867642
832.125642	8149.622569
832.442421	8849.218776
832.759157	10328.870527
833.075849	12892.115776
833.392497	16026.760690
833.709101	18508.339247
834.025662	18880.555362
834.342179	17536.883695
834.658653	15484.438401
834.975083	13549.530129
835.291469	11899.285732
835.607811	10566.510519
835.924110	9661.257920
836.240366	8798.726579
836.556578	7990.944690
836.872746	7339.461255
837.188871	6820.908006
837.504952	6387.073867
837.820990	6068.420012
838.136984	5833.822356
838.452935	5717.948915
838.768842	5696.216500
839.084706	5976.119006
839.400526	6941.298321
839.716303	8434.331815
840.032037	9679.063276
840.347727	9905.995857
840.663373	9115.449673
840.978977	8075.764624
841.294537	7245.181596
841.610054	6631.088399
841.925527	6194.605134
842.240957	5832.075597
842.556344	5505.998642
842.871687	5229.173761
843.186987	4944.860246
843.502244	4715.974217
843.817458	4542.959297
844.132629	4407.392587
844.447756	4311.671158
844.762840	4228.580340
845.077881	4153.686438
845.392879	4092.885081
845.707833	4045.904048
846.022745	3998.335720
846.337613	3970.218685
846.652438	3929.324845
846.967221	3915.398657
847.281960	3880.019840
847.596656	3859.247765
847.911309	3843.663038
848.225919	3818.797547
848.540485	3804.054692
848.855009	3789.720171
849.169490	3768.958179
849.483928	3759.556427
849.798323	3748.526383
850.112675	3729.811099
850.426984	3735.772263
850.741251	3719.204511
851.055474	3716.757031
851.369654	3719.451528
851.683792	3718.191239
851.997887	3721.657033
852.311938	3722.372877
852.625947	3728.941500
852.939914	3719.028071
853.253837	3730.232035
853.567718	3726.509143
853.881555	3716.716702
854.195350	3728.308835
854.509103	3725.074935
854.822812	3724.606108
855.136479	3715.106053
855.450103	3723.786920
855.763685	3710.246381
856.077224	3714.617061
856.390720	3730.176583
856.704173	3745.100919
857.017584	3757.164400
857.330953	3768.449023
857.644278	3788.303607
857.957561	3798.330462
858.270802	3799.389104
858.584000	3802.728869
858.897155	3798.302736
859.210268	3781.724901
859.523339	3757.925614
859.836367	3761.877879
860.149352	3754.878237
860.462295	3742.509766
860.775195	3736.606574
861.088054	3727.870255
861.400869	3725.163155
861.713642	3725.982343
862.026373	3734.864856
862.339062	3737.372830
862.651708	3759.327055
862.964312	3787.509625
863.276873	3799.686532
863.589392	3848.663863
863.901869	3893.661202
864.214303	3935.800207
864.526696	3970.367399
864.839045	4015.253833
865.151353	4044.832803
865.463619	4053.589287
865.775842	4059.386614
866.088023	4079.130293
866.400162	4066.570258
866.712258	4077.696085
867.024313	4078.527875
867.336325	4077.940581
867.648296	4084.942743
867.960224	4081.184563
868.272110	4093.245524
868.583954	4093.938683
868.895755	4105.971917
869.207515	4099.284826
869.519233	4136.954848
869.830909	4151.612003
870.142542	4173.611598
870.454134	4186.464020
870.765684	4215.715315
871.077191	4249.332250
871.388657	4272.866877
871.700081	4302.342503
872.011463	4347.836396
872.322803	4376.691961
872.634101	4404.635076
872.945357	4446.078402
873.256571	4493.371987
873.567744	4526.542779
873.878874	4544.834606
874.189963	4586.933282
874.501010	4595.135239
874.812015	4593.746401
875.122979	4635.855159
875.433900	4631.960868
875.744780	4648.120287
876.055618	4674.566180
876.366415	4667.906815
876.677169	4680.744114
876.987882	4727.155497
877.298554	4772.732568
877.609183	4835.736909
877.919771	4933.547897
878.230317	5063.730654
878.540822	5244.740844
878.851285	5521.560684
879.161707	5912.217340
879.472087	6548.874741
879.782425	7562.744041
880.092722	9384.715344
880.402977	12220.621481
880.713191	15726.035699
881.023363	19428.896789
881.333494	21897.191906
881.643583	23359.252550
881.953631	23592.995731
882.263637	22946.964303
882.573602	21650.646715
882.883526	20209.305213
883.193408	18647.578437
883.503248	17038.316101
883.813048	15553.845007
884.122806	14183.457745
884.432522	12751.308787
884.742197	11529.146573
885.051831	10448.923085
885.361424	9453.020458
885.670975	8633.744737
885.980485	7939.655991
886.289954	7368.526028
886.599382	6896.540437
886.908768	6519.749475
887.218113	6158.283621
887.527417	5865.251430
887.836680	5603.444146
888.145901	5387.062700
888.455082	5227.981528
888.764221	5074.228857
889.073319	4940.786994
889.382376	4869.757136
889.691392	4801.212567
890.000366	4768.021610
890.309300	4752.464609
890.618193	4749.835648
890.927044	4735.299481
891.235855	4754.982666
891.544625	4776.924288
891.853353	4824.507739
892.162041	4913.892438
892.470687	5077.848405
892.779293	5292.775479
893.087858	5607.383808
893.396381	6098.074600
893.704864	6785.937522
894.013306	7814.002711
894.321707	8935.344369
894.630068	9826.333023
894.938387	10169.655765
895.246665	10060.108971
895.554903	9537.061533
895.863100	8888.060867
896.171256	8361.625773
896.479371	7872.122173
896.787446	7383.551187
897.095480	6964.268339
897.403473	6656.084960
897.711425	6347.412590
898.019336	6085.123876
898.327207	5821.799204
898.635038	5597.697231
898.942827	5354.338049
899.250576	5159.295807
899.558284	4965.859172
899.865952	4847.170246
900.173579	4704.805541
900.481165	4596.657668
900.788711	4503.817258
901.096216	4428.913273
901.403681	4360.406513
901.711105	4332.057584
902.018489	4308.157474
902.325832	4364.631000
902.633135	4448.795584
902.940397	4706.948031
903.247619	5313.963448
903.554800	6512.346541
903.861941	8270.844675
904.169041	9836.722842
904.476101	10682.240288
904.783121	10549.287417
905.090100	9926.762890
905.397039	9140.489084
905.703938	8422.159949
906.010796	7751.671364
906.317614	7214.551545
906.624391	6700.058945
906.931129	6289.802283
907.237826	5904.499333
907.544483	5545.102873
907.851099	5181.796997
908.157675	4832.860931
908.464211	4512.354452
908.770707	4269.126340
909.077163	4060.069690
909.383578	3916.059048
909.689954	3794.552117
909.996289	3716.220148
910.302584	3651.635406
910.608839	3617.141311
910.915054	3584.681321
911.221229	3570.918971
911.527363	3580.638316
911.833458	3585.858430
912.139513	3607.550515
912.445527	3631.871562
912.751502	3701.547870
913.057436	3788.941313
913.363331	3904.149322
913.669186	4075.253646
913.975000	4295.761277
914.280775	4656.506246
914.586510	5148.616123
914.892205	5837.918294
915.197859	6760.653614
915.503475	7894.729228
915.809050	8949.961195
916.114585	9665.205144
916.420081	10032.259117
916.725536	10076.381816
917.030952	9714.510149
917.336328	9351.872226
917.641665	8985.176175
917.946961	8534.055920
918.252218	8129.909137
918.557435	7641.927965
918.862612	7238.398723
919.167750	6886.957203
919.472848	6483.745554
919.777906	6125.556450
920.082925	5771.586792
920.387904	5406.425772
920.692843	5143.794259
920.997743	4894.244541
921.302603	4660.309797
921.607423	4496.893233
921.912204	4335.417513
922.216946	4223.589598
922.521647	4102.130558
922.826310	4005.156402
923.130932	3911.708533
923.435516	3814.051300
923.740059	3746.542689
924.044564	3671.167356
924.349028	3615.008902
924.653454	3554.530180
924.957840	3486.666167
925.262186	3441.300823
925.566493	3383.183881
925.870761	3326.133143
926.174989	3290.514871
926.479178	3258.619490
926.783328	3217.213973
927.087438	3189.296063
927.391509	3154.791886
927.695541	3127.355406
927.999533	3099.639142
928.303486	3080.986873
928.607400	3066.251580
928.911275	3054.803120
929.215110	3034.315870
929.518906	3023.774818
929.822663	3023.426978
930.126381	3021.730630
930.430060	3030.285468
930.733699	3029.710776
931.037299	3038.316026
931.340861	3037.562373
931.644383	3046.938920
931.947866	3044.574618
932.251309	3037.786705
932.554714	3039.147816
932.858080	3037.985830
933.161407	3029.670447
933.464694	3020.528315
933.767943	3012.807788
934.071153	3010.440966
934.374323	3001.876045
934.677455	2997.475118
934.980548	2984.814260
935.283602	2982.276039
935.586617	2976.730770
935.889593	2989.399190
936.192530	2988.632934
936.495428	3002.657424
936.798287	3017.591843
937.101108	3043.770554
937.403890	3091.122113
937.706632	3145.836276
938.009336	3218.345712
938.312002	3289.713327
938.614628	3354.910570
938.917216	3407.031059
939.219765	3442.944239
939.522275	3473.849033
939.824747	3482.000579
940.127179	3481.877071
940.429573	3476.094867
940.731929	3476.689723
941.034246	3464.911067
941.336524	3454.483441
941.638763	3439.400308
941.940964	3428.851694
942.243126	3387.489027
942.545250	3364.090511
942.847335	3329.576251
943.149381	3299.304122
943.451389	3267.446551
943.753359	3234.618557
944.055290	3208.207952
944.357182	3182.976977
944.659036	3166.721776
944.960851	3160.324552
945.262628	3144.129845
945.564367	3144.011378
945.866067	3137.362096
946.167729	3135.141468
946.469352	3136.154740
946.770937	3129.129892
947.072484	3114.850824
947.373992	3119.241669
947.675462	3109.602982
947.976893	3094.915581
948.278286	3089.526587
948.579641	3081.480906
948.880958	3075.907910
949.182236	3075.582756
949.483476	3069.119997
949.784678	3068.091601
950.085841	3070.229050
950.386967	3076.427149
950.688054	3091.913574
950.989103	3110.311265
951.290114	3127.292391
951.591087	3152.261226
951.892021	3180.514373
952.192917	3210.347922
952.493776	3233.748958
952.794596	3243.972418
953.095378	3250.311669
953.396122	3250.006679
953.696828	3242.298755
953.997496	3232.468505
954.298126	3212.306410
954.598718	3192.459387
954.899272	3170.590862
955.199788	3146.983138
955.500266	3116.993314
955.800706	3086.406113
956.101108	3048.940258
956.401472	3019.739374
956.701798	2987.352481
957.002087	2947.121553
957.302337	2923.216401
957.602550	2895.593399
957.902724	2866.994933
958.202861	2842.303362
958.502960	2821.347285
958.803022	2799.380457
959.103045	2780.430760
959.403031	2763.253028
959.702979	2752.437232
960.002889	2737.845613
960.302762	2724.108468
960.602596	2714.638661
960.902393	2705.297403
961.202153	2699.187524
961.501875	2687.804599
961.801559	2683.769155
962.101205	2679.025430
962.400814	2673.059224
962.700385	2666.944304
962.999918	2659.375012
963.299414	2654.837973
963.598873	2651.296563
963.898293	2645.330357
964.197677	2644.750625
964.497022	2646.129380
964.796331	2640.659728
965.095601	2639.492701
965.394835	2636.984727
965.694030	2635.916002
965.993189	2634.406177
966.292309	2634.849798
966.591393	2634.030611
966.890439	2632.132617
967.189447	2632.021711
967.488419	2632.261166
967.787353	2631.631022
968.086249	2634.466671
968.385108	2633.924747
968.683930	2636.783081
968.982714	2642.245171
969.281462	2642.524955
969.580172	2648.370173
969.878844	2654.366626
970.177480	2662.460198
970.476078	2668.524706
970.774639	2675.839420
971.073162	2682.735719
971.371649	2688.374249
971.670098	2692.460105
971.968510	2698.605271
972.266885	2704.453010
972.565223	2706.721529
972.863524	2710.373845
973.161788	2715.084803
973.460014	2716.198898
973.758204	2718.623693
974.056356	2719.440360
974.354471	2725.109137
974.652550	2723.009497
974.950591	2723.256513
975.248595	2720.473797
975.546563	2718.532952
975.844493	2717.832232
976.142386	2707.732280
976.440243	2704.969728
976.738062	2702.449151
977.035845	2694.779035
977.333590	2688.298632
977.631299	2685.140349
977.928971	2679.496778
978.226606	2673.333967
978.524204	2668.045797
978.821765	2664.116217
979.119290	2668.126455
979.416777	2666.445230
979.714228	2669.023780
980.011642	2671.841785
980.309020	2677.379493
980.606360	2690.549507
980.903664	2705.352856
981.200931	2737.785119
981.498162	2781.769186
981.795356	2840.289421
982.092513	2919.609456
982.389633	3015.628313
982.686717	3113.666153
982.983764	3188.749098
983.280775	3244.307654
983.577749	3261.724841
983.874686	3252.537338
984.171587	3225.408369
984.468451	3193.321424
984.765279	3152.634272
985.062070	3113.814867
985.358824	3070.002198
985.655543	3017.775845
985.952224	2970.265490
986.248869	2910.517735
986.545478	2850.228055
986.842050	2797.013635
987.138586	2753.861358
987.435086	2714.462221
987.731549	2683.418795
988.027975	2656.612460
988.324366	2642.809780
988.620719	2630.474077
988.917037	2614.039915
989.213318	2604.900303
989.509563	2599.503748
989.805772	2592.083170
990.101944	2589.449167
990.398080	2589.411358
990.694180	2586.711820
990.990244	2586.570668
991.286271	2582.777200
991.582262	2582.610842
991.878217	2585.161666
992.174136	2592.123499
992.470019	2593.953438
992.765865	2596.524426
993.061676	2597.383943
993.357450	2605.346446
993.653188	2613.361880
993.948890	2627.346041
994.244556	2642.958494
994.540186	2664.380878
994.835780	2693.012111
995.131337	2727.544015
995.426859	2762.300250
995.722345	2806.763227
996.017795	2854.253417
996.313208	2894.330590
996.608586	2923.218922
996.903928	2939.965635
997.199234	2943.915379
997.494504	2940.706685
997.789738	2931.819130
998.084936	2909.459093
998.380099	2883.023282
998.675225	2855.450691
998.970316	2828.132678
999.265371	2792.017852
999.560390	2759.202461
999.855373	2730.813203
1000.150320	2700.974613
1000.445232	2674.773216
1000.740108	2655.684887
1001.034948	2636.278966
1001.329752	2621.798251
1001.624521	2610.143103
1001.919254	2600.892586
1002.213951	2591.200968
1002.508613	2581.705955
1002.803239	2573.516600
1003.097829	2571.321178
1003.392384	2567.462174
1003.686903	2558.945145
1003.981386	2558.007490
1004.275834	2555.991029
1004.570246	2549.356870
1004.864623	2550.004659
1005.158964	2549.069525
1005.453270	2542.684903
1005.747540	2543.269677
1006.041775	2543.521735
1006.335974	2539.158616
1006.630138	2538.856147
1006.924266	2540.418905
1007.218359	2538.689789
1007.512416	2533.510003
1007.806438	2530.137471
1008.100425	2537.278266
1008.394376	2532.587472
1008.688292	2533.126876
1008.982172	2535.080323
1009.276017	2532.532019
1009.569827	2531.856505
1009.863602	2530.898686
1010.157341	2530.868439
1010.451045	2531.178470
1010.744714	2527.022038
1011.038347	2530.926412
1011.331945	2527.057326
1011.625508	2529.656041
1011.919036	2526.351565
1012.212528	2527.170752
1012.505986	2525.625639
1012.799408	2525.398787
1013.092795	2525.202182
1013.386147	2523.614218
1013.679464	2524.942562
1013.972745	2524.022552
1014.265992	2520.125740
1014.559204	2523.238652
1014.852380	2520.466018
1015.145521	2524.347706
1015.438628	2521.801923
1015.731699	2522.487520
1016.024736	2522.341327
1016.317737	2526.003725
1016.610703	2523.652027
1016.903635	2529.230064
1017.196531	2527.816020
1017.489393	2531.367513
1017.782219	2529.814838
1018.075011	2532.395908
1018.367768	2529.935825
1018.660490	2532.486649
1018.953177	2532.486649
1019.245829	2532.486649
