Dividing Wavelength (nm)	Counts (n)	Blue Motor Position (mm): 43.500000	Red Motor Position (mm): 0.000000	
326.493990	2063.417366
326.888308	2063.417366
327.282561	2063.417366
327.676750	2036.762265
328.070874	2041.385003
328.464933	2046.221990
328.858929	2055.336396
329.252859	2065.874928
329.646726	2078.079562
330.040528	2095.824423
330.434265	2109.667432
330.827938	2131.941770
331.221547	2152.567651
331.615091	2173.337205
332.008571	2195.369568
332.401986	2216.154245
332.795338	2234.468757
333.188625	2255.964237
333.581847	2271.881680
333.975006	2292.315998
334.368100	2305.808646
334.761129	2327.914105
335.154095	2338.576146
335.546996	2390.026162
335.939833	2499.116731
336.332606	2505.829028
336.725315	2522.520288
337.117960	2531.871628
337.510540	2542.357228
337.903056	2549.669422
338.295508	2556.916081
338.687896	2562.904971
339.080220	2572.198338
339.472480	2575.522979
339.864676	2577.531879
340.256807	2580.773341
340.648875	2583.389700
341.040879	2585.151583
341.432818	2584.259299
341.824694	2589.686101
342.216506	2586.749629
342.608253	2581.660584
342.999937	2586.568147
343.391557	2582.905749
343.783113	2583.881212
344.174605	2584.478589
344.566033	2579.820563
344.957397	2579.092116
345.348697	2576.838721
345.739934	2574.973494
346.131106	2575.853175
346.522215	2571.641291
346.913260	2570.438976
347.304241	2571.573235
347.695159	2566.668193
348.086012	2567.404201
348.476802	2562.587379
348.867528	2560.321380
349.258191	2556.855587
349.648789	2557.405073
350.039324	2550.770914
350.429796	2556.676626
350.820203	2554.932387
351.210548	2556.356512
351.600828	2555.091183
351.991045	2556.442212
352.381198	2554.708055
352.771288	2552.515153
353.161314	2554.755946
353.551276	2552.558003
353.941175	2552.237890
354.331010	2552.868034
354.720782	2560.207954
355.110490	2558.224260
355.500135	2552.701676
355.889717	2554.453477
356.279235	2553.992211
356.668689	2551.726213
357.058080	2555.766697
357.447408	2556.631255
357.836672	2556.134702
358.225873	2560.361709
358.615010	2558.246945
359.004084	2560.061761
359.393095	2557.147974
359.782043	2558.783828
360.170927	2561.231308
360.559748	2560.586041
360.948505	2562.453788
361.337199	2562.841957
361.725830	2563.358675
362.114398	2561.059909
362.502903	2564.102245
362.891344	2563.519992
363.279722	2561.095197
363.668037	2565.506207
364.056289	2566.527040
364.444478	2566.842113
364.832603	2565.763306
365.220665	2567.094170
365.608665	2565.395301
365.996601	2569.377813
366.384474	2569.307237
366.772284	2568.268759
367.160031	2567.850343
367.547715	2570.035683
367.935336	2569.130796
368.322893	2565.733059
368.710388	2567.762123
369.097820	2568.392267
369.485189	2566.854715
369.872495	2570.764130
370.259738	2572.137845
370.646918	2572.553740
371.034035	2572.369738
371.421090	2577.219328
371.808081	2572.163050
372.195010	2575.633885
372.581875	2575.704461
372.968678	2574.764286
373.355418	2574.219841
373.742096	2574.207238
374.128710	2574.572722
374.515262	2574.905438
374.901751	2579.024061
375.288177	2580.002045
375.674540	2576.937023
376.060841	2581.088413
376.447079	2578.645974
376.833254	2578.948443
377.219367	2582.225193
377.605417	2582.056315
377.991404	2580.614545
378.377329	2581.108578
378.763191	2580.264185
379.148991	2582.883064
379.534727	2581.945409
379.920402	2584.256778
380.306013	2584.405493
380.691563	2585.519587
381.077049	2588.191399
381.462474	2584.034968
381.847835	2587.415061
382.233134	2588.713158
382.618371	2586.757191
383.003545	2592.388160
383.388657	2594.225660
383.773706	2592.851946
384.158693	2595.438058
384.543618	2600.179263
384.928480	2598.770260
385.313280	2602.304109
385.698017	2605.255705
386.082692	2607.877105
386.467305	2612.827518
386.851856	2618.836573
387.236344	2623.711369
387.620770	2629.738068
388.005133	2632.430045
388.389435	2644.680048
388.773674	2648.591984
389.157851	2662.576145
389.541965	2670.135355
389.926018	2678.901921
390.310008	2688.709486
390.693936	2701.919830
391.077802	2714.696634
391.461606	2728.713562
391.845348	2739.305027
392.229027	2754.194075
392.612645	2776.370110
392.996200	2792.476597
393.379694	2812.258085
393.763125	2836.309430
394.146494	2852.224352
394.529801	2874.932230
394.913047	2903.767630
395.296230	2920.123653
395.679351	2943.146603
396.062410	2978.099443
396.445408	2986.724858
396.828343	3017.259126
397.211217	3049.293138
397.594028	3056.587688
397.976778	3094.419027
398.359466	3126.732823
398.742092	3147.933396
399.124656	3176.229392
399.507158	3223.291084
399.889598	3248.506936
400.271977	3304.577169
400.654294	3316.922955
401.036549	3373.860267
401.418742	3397.417579
401.800874	3460.535346
402.182944	3498.112107
402.564952	3573.845361
402.946898	3596.492744
403.328783	3621.007876
403.710606	3673.171215
404.092367	3746.961104
404.474067	3812.135662
404.855705	3826.258454
405.237282	3829.157118
405.618797	3923.809822
406.000250	4006.247811
406.381642	4090.472889
406.762972	4113.604224
407.144240	4107.653142
407.525447	4183.847661
407.906593	4222.510791
408.287677	4311.842558
408.668700	4356.126573
409.049661	4408.486518
409.430560	4460.327223
409.811399	4463.379642
410.192176	4522.212428
410.572891	4612.925471
410.953545	4727.536104
411.334138	4648.359741
411.714669	4763.298049
412.095139	4697.649623
412.475547	4809.517868
412.855894	4828.429757
413.236180	4932.015386
413.616405	4881.167788
413.996568	4984.952543
414.376670	5000.491899
414.756711	5003.650182
415.136691	5078.070216
415.516609	5170.063712
415.896466	5207.050658
416.276262	5291.036281
416.655997	5409.200927
417.035670	5509.277913
417.415283	5645.681454
417.794834	5724.152054
418.174324	5687.593607
418.553753	5691.404719
418.933121	5858.715574
419.312428	5873.226535
419.691674	5803.222552
420.070859	6027.450555
420.449983	5909.026289
420.829045	6106.029541
421.208047	6037.230393
421.586988	6193.614547
421.965867	6267.217914
422.344686	6345.330593
422.723444	6519.071440
423.102141	6140.601774
423.480777	6522.181832
423.859352	6342.762125
424.237866	6706.700665
424.616319	6698.697834
424.994712	6861.902669
425.373044	6783.069105
425.751314	7095.892866
426.129524	6819.592265
426.507673	7081.848211
426.885762	7123.346990
427.263789	7161.296796
427.641756	7248.511278
428.019662	7335.282138
428.397508	7371.152469
428.775292	7353.851229
429.153016	7521.623349
429.530679	7460.469112
429.908282	7506.459558
430.285824	7448.806403
430.663305	7729.248312
431.040726	7618.559697
431.418086	7620.931559
431.795385	7754.431396
432.172624	7937.337060
432.549802	7820.969585
432.926920	7955.943959
433.303977	7900.670227
433.680974	7944.687062
434.057910	8146.028226
434.434786	8196.865742
434.811601	8153.879823
435.188355	8486.197726
435.565050	8379.642857
435.941683	8385.215853
436.318257	8719.240186
436.694770	8671.760079
437.071222	8896.028410
437.447614	8673.048093
437.823946	8638.402764
438.200218	8791.275754
438.576429	8665.136002
438.952580	8837.223351
439.328670	8844.815328
439.704700	8915.492305
440.080670	8818.417326
440.456580	9077.968694
440.832429	9051.926093
441.208218	8794.839850
441.583947	8906.824041
441.959616	9022.730251
442.335224	9056.511023
442.710773	9136.367941
443.086261	9324.566817
443.461689	9035.277682
443.837057	9206.699598
444.212365	9417.472761
444.587612	9403.531450
444.962800	9295.149163
445.337927	9424.832846
445.712995	8976.192839
446.088002	9643.243357
446.462949	9698.678405
446.837837	9683.388586
447.212664	9714.038801
447.587431	10534.789059
447.962139	11543.891948
448.336786	12458.533696
448.711374	12228.911658
449.085901	11022.613955
449.460369	10941.395925
449.834776	10733.954965
450.209124	11637.223870
450.583412	11466.996707
450.957640	11769.692790
451.331808	11364.341171
451.705917	10799.295880
452.079965	10679.303816
452.453954	10884.998016
452.827883	10820.829169
453.201752	10794.605087
453.575562	10799.709255
453.949311	11144.650207
454.323001	11208.705628
454.696632	11119.449479
455.070202	11710.950745
455.443713	11767.356215
455.817164	11940.401383
456.190556	12247.387487
456.563888	12110.711724
456.937160	12367.288811
457.310373	11861.222500
457.683526	11868.118798
458.056619	11872.973429
458.429653	11946.458329
458.802628	12083.454205
459.175542	12139.836991
459.548398	12683.124661
459.921194	13254.509203
460.293930	13552.716138
460.666607	14410.279422
461.039224	15191.292784
461.411782	15524.984401
461.784280	15186.513770
462.156719	15118.624551
462.529099	15022.174675
462.901419	14385.643303
463.273680	13986.245286
463.645882	14193.595506
464.018024	14092.500207
464.390106	14464.716321
464.762130	15544.198759
465.134094	17082.426197
465.505999	19370.918479
465.877845	21628.316924
466.249631	22829.581036
466.621358	22332.548473
466.993026	21489.281901
467.364634	20743.486040
467.736184	19939.167423
468.107674	19338.345063
468.479105	19208.913438
468.850477	18925.600592
469.221790	18492.477257
469.593043	17830.795567
469.964238	17446.382381
470.335373	17496.297366
470.706449	18226.644612
471.077467	19099.406974
471.448425	21557.168600
471.819324	23412.046034
472.190164	23291.149082
472.560945	21554.673228
472.931667	19995.829992
473.302330	19669.884108
473.672934	19120.910016
474.043479	19539.940806
474.413965	19331.093364
474.784393	19148.966557
475.154761	19805.095416
475.525070	19938.680952
475.895321	19781.147414
476.265513	20299.337701
476.635645	20888.036085
477.005719	20940.784198
477.375734	21314.459727
477.745691	21938.917536
478.115588	22577.208272
478.485427	23753.117900
478.855207	25565.195938
479.224928	27384.041725
479.594591	28781.434448
479.964194	28402.304391
480.333739	28835.049640
480.703226	29048.545026
481.072653	29501.838018
481.442022	30014.573776
481.811333	30415.781566
482.180584	29976.457611
482.549777	29740.710572
482.918912	29510.917136
483.287988	29458.471492
483.657005	29306.871393
484.025964	28931.060935
484.394864	29116.714029
484.763706	29041.391628
485.132489	28498.776952
485.501213	28574.666482
485.869879	28733.540966
486.238487	28667.746347
486.607036	28931.454145
486.975527	28627.225552
487.343959	28975.753285
487.712333	29311.473966
488.080648	29279.719738
488.448905	29709.226046
488.817104	29595.394272
489.185244	30411.287378
489.553326	31360.085463
489.921350	33257.202726
490.289315	35760.342298
490.657222	36659.313619
491.025070	37230.531803
491.392861	36929.610206
491.760593	36143.638869
492.128267	35126.142459
492.495883	34139.860873
492.863440	33237.413676
493.230939	32281.910856
493.598380	31710.014637
493.965763	31558.769939
494.333088	31054.410059
494.700354	30874.229138
495.067563	30828.165595
495.434713	30709.123788
495.801805	30985.212661
496.168839	30821.924646
496.535815	30675.758911
496.902733	30793.658897
497.269593	30605.097058
497.636395	30768.669897
498.003139	31012.442453
498.369825	30783.158173
498.736453	31185.245645
499.103023	31012.707114
499.469535	31084.241087
499.835989	31198.496318
500.202385	31068.797512
500.568723	31110.674377
500.935003	31406.217062
501.301226	31283.170059
501.667390	31994.681033
502.033497	32192.017000
502.399546	31997.705725
502.765537	31588.422006
503.131470	32040.429504
503.497345	32468.118476
503.863163	31430.407039
504.228923	32179.283046
504.594625	32569.344845
504.960269	32048.167675
505.325856	32699.910730
505.691385	32344.806812
506.056856	32690.166179
506.422270	33161.645134
506.787625	32680.242668
507.152924	33120.534524
507.518164	33297.824343
507.883347	32861.464587
508.248472	32993.008456
508.613540	33686.151986
508.978550	33883.364445
509.343503	33729.127822
509.708398	34074.398970
510.073236	34663.417468
510.438016	34757.024133
510.802738	34447.598110
511.167403	34963.834949
511.532010	35202.263882
511.896561	35713.973765
512.261053	36449.130271
512.625488	36220.362710
512.989866	36141.889588
513.354186	36188.852977
513.718449	36150.825033
514.082655	36994.504979
514.446803	36702.150824
514.810894	37303.467216
515.174927	37315.528177
515.538904	37318.615884
515.902822	37927.481404
516.266684	37616.842983
516.630488	37959.356620
516.994235	37970.013619
517.357925	38542.671052
517.721558	38773.528172
518.085133	39157.429681
518.448651	39341.905665
518.812112	39221.505267
519.175516	39361.818223
519.538863	39817.659518
519.902152	39874.163291
520.265385	40416.800653
520.628560	40412.946691
520.991678	40376.116021
521.354739	40572.776473
521.717743	40933.720568
522.080690	40836.501916
522.443580	41516.793025
522.806413	41515.038703
523.169189	41661.267453
523.531908	41880.466904
523.894569	41715.921122
524.257174	41905.755853
524.619722	42261.520162
524.982213	42402.632140
525.344647	42444.342647
525.707025	42560.616861
526.069345	43001.659849
526.431608	42899.276535
526.793815	43288.085608
527.155964	42833.771782
527.518057	43081.983074
527.880093	42929.105042
528.242072	43560.605343
528.603995	43289.459322
528.965860	43218.159763
529.327669	43437.386941
529.689421	43480.337571
530.051117	43451.542501
530.412755	43733.537085
530.774337	43759.365437
531.135862	43707.623034
531.497331	43874.749887
531.858743	43855.878327
532.220098	44264.110966
532.581396	43967.902848
532.942638	43762.387608
533.303824	43996.564328
533.664953	44061.711159
534.026025	43736.115635
534.387040	44306.565043
534.747999	44370.789343
535.108902	44710.202669
535.469748	44015.231721
535.830537	44294.597343
536.191270	44539.909972
536.551947	44286.438236
536.912567	44560.437550
537.273131	44683.308114
537.633638	44318.820088
537.994089	44492.525646
538.354483	44259.417651
538.714821	44895.901133
539.075103	45177.646180
539.435328	45066.181228
539.795497	44823.515205
540.155609	44944.518021
540.515665	45514.428025
540.875665	44823.880689
541.235609	45090.048571
541.595496	45225.247276
541.955328	45807.808055
542.315102	45240.806797
542.674821	45138.617567
543.034483	45040.718360
543.394090	45068.096866
543.753640	45043.692640
544.113134	46115.081506
544.472571	45216.778137
544.831953	46317.244378
545.191278	45593.533811
545.550548	45296.922401
545.909761	45915.981134
546.268918	46050.910138
546.628019	46456.486088
546.987064	45903.680719
547.346053	45225.217029
547.704986	46120.049563
548.063863	45755.538852
548.422684	45966.488455
548.781449	45548.244085
549.140158	46064.307004
549.498811	45828.554924
549.857408	45256.288180
550.215949	46093.525532
550.574434	45910.637511
550.932864	45872.037396
551.291237	46561.619352
551.649555	46313.256825
552.007817	46482.722773
552.366022	46186.287804
552.724173	46245.055055
553.082267	46630.602501
553.440305	47019.058693
553.798288	46283.249357
554.156215	46670.954417
554.514086	46838.532453
554.871902	46462.938765
555.229661	46629.425391
555.587365	46325.254771
555.945014	46431.570185
556.302606	46464.995556
556.660143	46557.851089
557.017625	46780.680171
557.375050	46469.343551
557.732421	46869.565796
558.089735	46928.272553
558.446994	46799.297153
558.804197	47288.616751
559.161345	47139.912794
559.518437	46498.577202
559.875474	46762.564785
560.232455	46961.602142
560.589381	46993.071545
560.946251	46843.598812
561.303065	47470.733474
561.659825	47151.830082
562.016528	46965.539283
562.373177	46552.648618
562.729770	47192.991103
563.086307	46701.370218
563.442789	47231.969305
563.799216	47083.189731
564.155587	46994.420053
564.511904	46959.837738
564.868164	46995.692945
565.224370	47328.840117
565.580520	47037.816826
565.936615	47233.602639
566.292654	46887.751758
566.648638	47247.322139
567.004567	47210.393166
567.360441	47293.937688
567.716260	46990.780340
568.072023	47396.883091
568.427732	47303.624266
568.783385	46831.661360
569.138982	47269.689738
569.494525	47406.519257
569.850013	47007.912702
570.205445	47129.787637
570.560823	46897.360198
570.916145	46768.183151
571.271412	47001.218049
571.626625	46655.788105
571.981782	46731.654950
572.336884	46353.313833
572.691931	46651.621592
573.046923	46335.044692
573.401860	46156.363514
573.756743	46184.160437
574.111570	46324.319637
574.466342	46245.165960
574.821059	46385.748617
575.175722	45884.184057
575.530330	45979.035887
575.884882	45656.649057
576.239380	45534.169183
576.593823	45627.246527
576.948211	45562.719758
577.302544	45111.526407
577.656823	45104.496517
578.011047	45391.280198
578.365216	45218.098919
578.719330	44937.064675
579.073389	44914.870995
579.427394	44962.741792
579.781344	44892.311832
580.135239	44629.365247
580.489080	44699.585999
580.842866	44196.625039
581.196597	44679.002968
581.550273	44687.751891
581.903895	44611.259943
582.257463	45047.410491
582.610975	44481.571219
582.964434	44810.582125
583.317837	44293.546263
583.671186	44271.743272
584.024481	44553.296756
584.377721	44121.355571
584.730906	44344.754304
585.084037	44492.359288
585.437113	44181.189026
585.790135	44309.619982
586.143103	43892.593051
586.496016	44056.559100
586.848874	44157.130119
587.201679	44194.966499
587.554428	43684.368191
587.907124	43955.867093
588.259765	43727.737237
588.612352	43875.997572
588.964884	43364.476732
589.317362	43638.448321
589.669786	43637.528310
590.022155	43539.608938
590.374470	44003.624464
590.726731	43582.937655
591.078937	42924.603292
591.431090	43268.480560
591.783188	42775.823718
592.135232	42599.428704
592.487222	42853.875903
592.839157	43016.125440
593.191038	42654.664627
593.542866	42480.792710
593.894639	41850.005732
594.246358	42145.177893
594.598022	42142.241421
594.949633	41722.116700
595.301190	41740.111099
595.652692	41688.043542
596.004141	42179.576206
596.355535	41083.911665
596.706876	41077.663154
597.058162	40795.487088
597.409395	41311.981026
597.760573	41523.381813
598.111698	41136.894192
598.462768	41045.840871
598.813785	41078.391601
599.164748	40697.545031
599.515657	40957.318209
599.866511	40473.009518
600.217312	41148.690492
600.568060	40104.193662
600.918753	40920.094329
601.269392	40833.590650
601.619978	40567.536194
601.970510	40781.495366
602.320988	40921.599114
602.671412	41160.693479
603.021783	41023.064938
603.372100	40603.787131
603.722363	40715.317619
604.072572	40747.381878
604.422728	40732.071894
604.772830	40516.136589
605.122878	40698.351616
605.472872	40555.432383
605.822813	40806.804479
606.172701	40553.988093
606.522534	40883.331715
606.872314	41080.874369
607.222041	40928.896184
607.571714	41262.166865
607.921333	40744.226116
608.270899	40947.427465
608.620411	41332.395179
608.969870	41090.165216
609.319276	41097.104364
609.668627	41147.745275
610.017926	41529.504294
610.367171	41680.824609
610.716362	41704.626417
611.065500	41613.008487
611.414585	41868.244627
611.763616	42002.901408
612.112594	41911.162490
612.461518	42042.406410
612.810389	42421.365068
613.159207	42206.569064
613.507971	42176.677543
613.856682	42679.719162
614.205340	42529.076882
614.553945	43205.927403
614.902496	42564.143148
615.250994	42981.439781
615.599439	43042.283987
615.947830	43145.577230
616.296169	43159.001822
616.644454	43192.853170
616.992686	43333.551774
617.340864	43785.725630
617.688990	43290.699446
618.037063	43972.694465
618.385082	43776.764979
618.733048	44130.253207
619.080961	44016.628120
619.428821	44060.450871
619.776628	44096.666520
620.124382	43930.500007
620.472083	44059.571189
620.819731	44160.316128
621.167326	43728.223709
621.514868	43716.805495
621.862357	43166.810570
622.209793	43270.015592
622.557176	42847.642517
622.904506	42604.358953
623.251783	42250.134716
623.599007	41930.918772
623.946179	41848.405166
624.293297	41610.813065
624.640363	41059.920813
624.987376	40922.128435
625.334336	40728.512839
625.681243	40310.538171
626.028097	40222.118853
626.374899	40036.324607
626.721647	40013.664621
627.068343	39783.389754
627.414987	39504.918936
627.761577	39258.136812
628.108115	39575.364020
628.454600	38829.295936
628.801032	39063.795290
629.147412	38961.432140
629.493739	38829.300977
629.840014	38416.942154
630.186236	38839.259777
630.532405	38249.195240
630.878521	38521.019296
631.224585	38286.777042
631.570597	37965.602609
631.916556	38127.509348
632.262462	38041.829897
632.608316	37988.738985
632.954117	37838.091664
633.299866	37787.712893
633.645562	37717.877789
633.991206	37204.247226
634.336797	36798.325957
634.682336	36699.335339
635.027823	36453.599254
635.373257	36347.586309
635.718639	36000.369276
636.063968	35907.188589
636.409245	35267.277122
636.754470	35207.988112
637.099642	34982.149461
637.444762	34419.050056
637.789829	34546.790373
638.134845	34169.641490
638.479808	34058.753749
638.824719	34025.149417
639.169577	33513.941129
639.514383	33635.256497
639.859137	33269.883748
640.203839	33424.480813
640.548489	33122.437560
640.893086	33115.553864
641.237632	32830.786645
641.582125	32912.060128
641.926566	32691.055943
642.270955	32729.769484
642.615292	32694.887220
642.959576	32546.914231
643.303809	32552.575447
643.647990	32666.722293
643.992118	32635.769609
644.336195	32451.885961
644.680219	32517.148738
645.024192	32721.673391
645.368112	33231.790269
645.711981	33255.241717
646.055797	33947.578663
646.399562	33736.770212
646.743274	34615.256804
647.086935	35014.624574
647.430544	34991.969628
647.774101	35024.278383
648.117606	35328.433880
648.461059	35473.077187
648.804460	35097.811174
649.147810	34600.322386
649.491108	34285.036022
649.834354	34182.539282
650.177548	33372.317474
650.520690	32872.643346
650.863781	32823.550069
651.206820	32650.434325
651.549807	32224.673595
651.892742	31647.095996
652.235626	31561.799673
652.578458	31409.239234
652.921238	30730.699926
653.263967	31007.665960
653.606644	30689.896827
653.949269	30606.193509
654.291843	30207.317252
654.634365	30575.707131
654.976836	30120.886669
655.319255	30204.816839
655.661622	30065.217207
656.003938	29943.702714
656.346203	29752.297664
656.688416	29998.860499
657.030577	29786.839651
657.372687	29606.469687
657.714746	29753.167263
658.056753	29938.966550
658.398708	29309.969182
658.740612	29378.755726
659.082465	29592.672048
659.424266	29473.035385
659.766016	29482.606016
660.107715	29314.780963
660.449362	29423.475802
660.790958	29405.080632
661.132503	29319.421345
661.473996	29412.662527
661.815438	29477.557300
662.156829	29609.421282
662.498168	29401.481248
662.839456	29372.171979
663.180693	29514.350162
663.521879	29563.415712
663.863013	29521.158240
664.204097	29503.151238
664.545129	29894.110363
664.886110	29828.716516
665.227040	29933.622927
665.567918	29956.925661
665.908746	30005.401396
666.249522	30082.324363
666.590248	30117.932553
666.930922	30233.705172
667.271545	30227.945653
667.612118	30287.088470
667.952639	30104.449987
668.293109	30142.074639
668.633528	29974.587343
668.973896	29942.437385
669.314213	29923.568346
669.654480	29736.821322
669.994695	29730.345960
670.334859	29638.622166
670.674973	29448.656365
671.015035	29636.053698
671.355047	29560.862368
671.695008	29486.265894
672.034918	29406.734130
672.374777	29490.082047
672.714585	29373.530570
673.054342	29502.085034
673.394049	29350.432003
673.733705	29571.042978
674.073310	29299.753284
674.412864	29356.841830
674.752368	29069.231401
675.091820	29318.665172
675.431223	28906.278623
675.770574	28705.575165
676.109875	28547.620692
676.449125	28346.014867
676.788324	28257.812319
677.127473	27767.325693
677.466571	27675.496035
677.805619	27388.840904
678.144616	27316.361714
678.483562	27261.050174
678.822458	26951.283873
679.161303	26900.274958
679.500098	26819.092217
679.838842	26719.080766
680.177535	26783.176516
680.516179	26996.903795
680.854771	27080.397906
681.193314	27764.512730
681.531805	28703.689773
681.870247	29457.012078
682.208638	30260.140982
682.546978	30620.722114
682.885268	30812.787555
683.223508	30392.539326
683.561697	30133.537445
683.899836	29970.682970
684.237925	29557.210052
684.575963	29393.985052
684.913951	29017.047897
685.251889	29156.145934
685.589776	29146.229984
685.927614	29144.395004
686.265401	29329.367542
686.603137	29409.970551
686.940824	29887.987882
687.278460	30204.665605
687.616046	30411.554559
687.953582	31078.844532
688.291068	31016.140139
688.628504	31375.506353
688.965889	31394.347666
689.303224	31151.081746
689.640510	30877.576464
689.977745	30274.112540
690.314930	29552.148733
690.652065	29133.909404
690.989150	28458.596435
691.326185	27638.468760
691.663170	27013.274942
692.000105	26304.655070
692.336990	25694.473808
692.673825	25277.666167
693.010610	24772.686224
693.347345	24267.734008
693.684030	23649.088649
694.020665	23453.854843
694.357251	22790.171816
694.693786	22794.602990
695.030272	22553.494684
695.366707	22047.234288
695.703093	21771.886465
696.039429	21830.447029
696.375716	21597.631421
696.711952	21583.795974
697.048139	21449.313113
697.384276	21286.715737
697.720363	21405.369375
698.056400	21300.707459
698.392388	21140.527317
698.728326	21133.431893
699.064214	20985.156434
699.400053	21005.361379
699.735842	20615.753283
700.071581	20433.359296
700.407270	20206.837569
700.742910	20019.941831
701.078501	19764.924981
701.414042	19565.771678
701.749533	19261.028887
702.084974	18960.102249
702.420366	19177.648202
702.755709	18778.865207
703.091002	18470.165110
703.426246	18540.012817
703.761440	18471.934555
704.096584	18234.241630
704.431679	18173.311724
704.766725	18115.777036
705.101721	18031.768727
705.436668	18143.387435
705.771565	17865.229169
706.106413	18169.026744
706.441212	18239.539883
706.775961	18331.714861
707.110661	18405.920645
707.445311	18760.036497
707.779913	18659.432710
708.114465	18935.428322
708.448967	19241.542307
708.783421	19846.979843
709.117825	20183.623055
709.452180	20396.258924
709.786485	20841.143272
710.120742	21575.334397
710.454949	21675.970952
710.789107	22186.319723
711.123216	22893.719637
711.457275	23127.848465
711.791286	23691.983827
712.125247	23855.037428
712.459159	23631.623572
712.793023	24385.235743
713.126837	23399.425505
713.460602	23682.682899
713.794318	23355.769113
714.127985	23081.550508
714.461602	22200.742464
714.795171	22188.968849
715.128691	21210.979962
715.462162	20693.603822
715.795584	20263.578276
716.128957	20002.131434
716.462281	19629.128900
716.795556	19335.199383
717.128782	18871.698055
717.461960	18281.285678
717.795088	18255.243077
718.128167	17906.148215
718.461198	17450.299358
718.794180	17345.234150
719.127113	17020.772885
719.459997	16823.923389
719.792833	16450.699044
720.125619	16491.275291
720.458357	16154.843807
720.791046	16019.191398
721.123686	15865.849580
721.456278	15636.771988
721.788821	15635.499096
722.121315	15364.726120
722.453761	15463.598271
722.786158	15349.330437
723.118506	15432.718683
723.450805	15312.237627
723.783056	15497.983981
724.115259	15372.766761
724.447412	15352.667680
724.779518	15568.817234
725.111574	15626.341840
725.443582	15876.960283
725.775542	15818.351829
726.107453	16322.247923
726.439315	16230.566979
726.771129	16625.314531
727.102895	17021.403029
727.434612	17316.030745
727.766281	17492.075399
728.097901	17814.494997
728.429473	17920.888548
728.760996	17947.281509
729.092471	18058.895176
729.423897	17945.617929
729.755276	17796.876164
730.086606	17870.151856
730.417887	18421.114683
730.749120	18968.687334
731.080305	19180.834212
731.411442	19604.429766
731.742530	19705.013388
732.073570	19853.097283
732.404562	20165.840385
732.735506	20063.986392
733.066401	19949.451377
733.397249	19505.005610
733.728048	18916.813861
734.058798	18076.070387
734.389501	17333.183271
734.720156	16789.202442
735.050762	16213.495111
735.381320	15805.350693
735.711831	15516.056518
736.042293	15145.521628
736.372707	15158.553010
736.703073	14940.707109
737.033391	15137.044927
737.363661	15114.929386
737.693883	15228.519185
738.024056	15410.051135
738.354182	15615.480674
738.684260	15962.163345
739.014290	16245.314874
739.344272	16454.527800
739.674207	16807.390925
740.004093	16986.271228
740.333931	17060.829894
740.663722	17153.534192
740.993464	17196.255451
741.323159	17065.850883
741.652806	16789.429294
741.982405	16622.118439
742.311956	16275.884431
742.641460	16159.448901
742.970915	15841.137844
743.300323	15485.839842
743.629683	15285.985818
743.958996	14984.207225
744.288260	14666.735521
744.617477	14363.626063
744.946647	14326.457636
745.275768	14018.856511
745.604842	13811.692814
745.933869	13627.902427
746.262847	13598.013426
746.591778	13511.267771
746.920662	13382.289850
747.249498	13377.117626
747.578286	13514.549562
747.907027	13685.485007
748.235720	13938.034212
748.564365	14024.066543
748.892963	13962.763592
749.221514	14071.236620
749.550017	13961.397439
749.878473	13928.549281
750.206881	13713.375190
750.535242	13653.592147
750.863555	13561.739803
751.191821	13467.886122
751.520039	13477.870127
751.848210	13393.821489
752.176334	13435.048045
752.504411	13370.949774
752.832440	13202.623127
753.160421	13312.333758
753.488356	13203.303682
753.816243	13119.650776
754.144082	12944.889095
754.471875	12879.762429
754.799620	12846.886544
755.127318	12829.096312
755.454969	12806.030512
755.782572	12776.736368
756.110129	12795.028194
756.437638	12709.807488
756.765100	12710.430071
757.092515	12728.681568
757.419882	12762.840427
757.747203	12769.799740
758.074477	12851.882327
758.401703	12826.661435
758.728882	13019.770394
759.056014	13052.653841
759.383099	13224.085839
759.710138	13347.394983
760.037129	13479.790806
760.364073	13550.871076
760.690970	13578.441146
761.017820	13578.030292
761.344623	13768.989200
761.671379	14089.984671
761.998088	14640.995389
762.324751	16041.382557
762.651366	18969.771182
762.977935	23296.681749
763.304456	26591.713493
763.630931	28183.692234
763.957359	27399.462615
764.283740	25345.419275
764.610074	23193.189381
764.936362	20570.060265
765.262602	18669.983845
765.588796	16692.263574
765.914943	15365.905750
766.241044	14211.383217
766.567097	13398.479515
766.893104	12646.717448
767.219064	12183.626973
767.544978	11692.636233
767.870845	11292.381220
768.196665	11068.329658
768.522438	10833.734523
768.848165	10635.481066
769.173846	10425.143962
769.499479	10297.012955
769.825066	10128.509867
770.150607	9902.222553
770.476101	9825.896964
770.801548	9706.925733
771.126949	9545.271052
771.452303	9431.877858
771.777611	9239.605730
772.102872	9233.382426
772.428087	9093.187937
772.753256	8947.932130
773.078378	8851.081483
773.403453	8679.115122
773.728482	8559.627173
774.053465	8479.266140
774.378401	8382.639823
774.703291	8262.584744
775.028135	8146.313052
775.352932	8113.195191
775.677683	8006.234510
776.002388	7894.913230
776.327046	7903.722646
776.651658	7810.158831
776.976224	7707.397430
777.300743	7710.805250
777.625216	7626.469267
777.949643	7577.653254
778.274024	7596.587828
778.598359	7510.328644
778.922647	7522.656786
779.246889	7480.656413
779.571086	7479.701114
779.895236	7489.372567
780.219339	7501.277252
780.543397	7503.034094
780.867409	7580.065446
781.191374	7595.330060
781.515294	7560.162970
781.839167	7651.511199
782.162995	7624.699822
782.486776	7567.553302
782.810511	7525.215171
783.134201	7445.887574
783.457844	7434.781913
783.781441	7389.877835
784.104993	7319.488203
784.428498	7299.689072
784.751958	7284.739530
785.075372	7251.059581
785.398739	7196.937753
785.722061	7234.562405
786.045337	7232.102322
786.368568	7366.189453
786.691752	7372.301852
787.014891	7668.051224
787.337983	7977.946075
787.661030	8536.889049
787.984031	9151.289756
788.306987	9593.981202
788.629897	9852.121046
788.952760	9849.645839
789.275579	9672.895424
789.598351	9296.739647
789.921078	8966.781005
790.243759	8556.242038
790.566395	8257.946883
790.888984	8010.416147
791.211529	7797.689537
791.534027	7571.157727
791.856480	7357.831220
792.178888	7284.754653
792.501249	7189.479366
792.823566	7031.671086
793.145836	7026.544233
793.468062	6994.989130
793.790241	6939.501150
794.112375	6998.215469
794.434464	7139.072869
794.756507	7165.425501
795.078505	7302.973383
795.400457	7586.313956
795.722364	7925.591172
796.044226	8215.104637
796.366042	8503.962752
796.687812	8478.940985
797.009538	8575.161489
797.331218	8483.578847
797.652852	8410.179647
797.974442	8258.103159
798.295986	8180.976025
798.617484	7995.035586
798.938938	7852.481838
799.260346	7752.319152
799.581709	7556.984523
799.903026	7479.315466
800.224299	7373.753704
800.545526	7201.961263
800.866708	7108.019361
801.187845	7038.320368
801.508936	6932.299862
801.829983	6896.973976
802.150984	6747.065184
802.471940	6702.571960
802.792851	6690.589138
803.113717	6655.870711
803.434538	6619.118179
803.755314	6564.461989
804.076045	6565.722277
804.396731	6508.565675
804.717372	6534.792278
805.037967	6534.918307
805.358518	6573.853659
805.679024	6652.619167
805.999485	6662.711557
806.319901	6705.639503
806.640272	6722.161884
806.960598	6805.764380
807.280879	6808.385780
807.601115	6892.073975
807.921306	6838.153793
808.241453	6848.256265
808.561554	6875.105451
808.881611	6838.746129
809.201623	6846.086049
809.521590	6795.815663
809.841513	6776.349247
810.161390	6814.268806
810.481223	6685.580751
810.801011	6670.910994
811.120755	6644.777652
811.440453	6567.373255
811.760107	6533.302617
812.079716	6510.012486
812.399281	6445.014369
812.718801	6431.912410
813.038276	6390.670731
813.357707	6323.275545
813.677093	6365.016299
813.996434	6273.494151
814.315731	6312.111910
814.634983	6300.560106
814.954191	6308.585623
815.273354	6399.981742
815.592473	6456.205731
815.911547	6574.080511
816.230577	6649.642366
816.549562	6795.619057
816.868502	6893.624129
817.187399	6993.191959
817.506250	7128.867053
817.825058	7151.706001
818.143821	7401.495174
818.462539	7634.194835
818.781213	7960.264228
819.099843	8441.709543
819.418429	9347.055404
819.736970	10253.618703
820.055466	11345.431803
820.373919	12722.324673
820.692327	14726.873965
821.010691	18037.253503
821.329011	25479.582022
821.647286	37158.995309
821.965517	51148.550113
822.283704	58592.970711
822.601847	61745.292432
822.919945	59587.519789
823.237999	55752.830005
823.556010	49802.347787
823.873976	43125.175680
824.191897	36632.532489
824.509775	31772.479574
824.827609	27115.887629
825.145398	24290.225116
825.463144	22637.651706
825.780845	22524.417309
826.098502	23762.761627
826.416116	27057.921921
826.733685	30799.320113
827.051210	32638.927892
827.368692	31712.557899
827.686129	28191.067442
828.003522	24165.428832
828.320872	20422.462842
828.638177	17512.766815
828.955439	15303.274455
829.272656	13481.260303
829.589830	11985.131541
829.906960	10684.763386
830.224046	9710.391526
830.541088	8933.234646
830.858086	8445.800440
831.175041	8035.168212
831.491952	7879.378914
831.808819	7860.711522
832.125642	8161.975917
832.442421	8866.094039
832.759157	10344.394760
833.075849	12910.488261
833.392497	16061.690845
833.709101	18560.026198
834.025662	18927.843906
834.342179	17584.026046
834.658653	15511.353121
834.975083	13582.819388
835.291469	11922.648959
835.607811	10588.573129
835.924110	9672.509776
836.240366	8804.060120
836.556578	7999.030701
836.872746	7344.993921
837.188871	6818.528581
837.504952	6396.601648
837.820990	6073.385549
838.136984	5842.906516
838.452935	5726.768413
838.768842	5703.090114
839.084706	5982.385160
839.400526	6952.174611
839.716303	8448.235317
840.032037	9694.963075
840.347727	9931.451163
840.663373	9131.478021
840.978977	8094.850432
841.294537	7250.124447
841.610054	6638.050232
841.925527	6203.406989
842.240957	5839.370146
842.556344	5515.130692
842.871687	5232.266509
843.186987	4948.537768
843.502244	4719.137541
843.817458	4547.680337
844.132629	4409.414090
844.447756	4312.729801
844.762840	4229.051688
845.077881	4156.983353
845.392879	4097.580916
845.707833	4048.714491
846.022745	4003.754961
846.337613	3974.186073
846.652438	3930.229732
846.967221	3912.736928
847.281960	3882.444635
847.596656	3862.673229
847.911309	3840.401412
848.225919	3823.742919
848.540485	3803.381698
848.855009	3792.225625
849.169490	3771.022532
849.483928	3757.613063
849.798323	3749.280035
850.112675	3731.991398
850.426984	3738.509610
850.741251	3720.943709
851.055474	3716.966239
851.369654	3722.821539
851.683792	3720.999162
851.997887	3726.708269
852.311938	3727.290522
852.625947	3730.055595
852.939914	3721.614183
853.253837	3729.785893
853.567718	3727.270357
853.881555	3716.273080
854.195350	3734.141450
854.509103	3731.940987
854.822812	3729.571644
855.136479	3715.625292
855.450103	3727.804720
855.763685	3712.242678
856.077224	3719.433884
856.390720	3733.781008
856.704173	3750.870519
857.017584	3764.736213
857.330953	3772.252573
857.644278	3793.251500
857.957561	3804.344559
858.270802	3804.084939
858.584000	3806.545022
858.897155	3801.057726
859.210268	3783.635499
859.523339	3762.623969
859.836367	3760.516767
860.149352	3752.917228
860.462295	3748.201228
860.775195	3738.073550
861.088054	3730.095924
861.400869	3728.434864
861.713642	3725.674832
862.026373	3736.659507
862.339062	3741.022625
862.651708	3758.706993
862.964312	3789.367291
863.276873	3798.179228
863.589392	3847.632947
863.901869	3895.266809
864.214303	3936.402625
864.526696	3976.154643
864.839045	4016.206611
865.151353	4045.533523
865.463619	4056.596335
865.775842	4062.968354
866.088023	4080.130962
866.400162	4074.252977
866.712258	4080.294800
867.024313	4083.644646
867.336325	4078.863112
867.648296	4088.375769
867.960224	4085.305707
868.272110	4093.250565
868.583954	4096.232408
868.895755	4107.678347
869.207515	4104.315898
869.519233	4141.310405
869.830909	4157.300945
870.142542	4176.550591
870.454134	4191.452242
870.765684	4219.768403
871.077191	4258.277777
871.388657	4279.422897
871.700081	4310.315088
872.011463	4353.197663
872.322803	4385.672776
872.634101	4412.027928
872.945357	4450.612920
873.256571	4503.093852
873.567744	4535.626938
873.878874	4554.092685
874.189963	4591.500567
874.501010	4602.709573
874.812015	4599.868882
875.122979	4642.232219
875.433900	4640.122496
875.744780	4652.001975
876.055618	4679.153630
876.366415	4677.656407
876.677169	4693.921690
876.987882	4732.242021
877.298554	4775.830357
877.609183	4850.878015
877.919771	4942.422848
878.230317	5069.149894
878.540822	5253.847689
878.851285	5531.300193
879.161707	5918.654893
879.472087	6565.308903
879.782425	7585.943431
880.092722	9410.591586
880.402977	12257.353848
880.713191	15804.586958
881.023363	19532.469816
881.333494	22004.707115
881.643583	23485.644359
881.953631	23724.786616
882.263637	23071.039702
882.573602	21756.780648
882.883526	20318.945268
883.193408	18726.820334
883.503248	17105.423941
883.813048	15627.229083
884.122806	14242.920676
884.432522	12814.139208
884.742197	11576.324211
885.051831	10493.963274
885.361424	9488.863062
885.670975	8668.163215
885.980485	7968.385527
886.289954	7386.434727
886.599382	6916.780670
886.908768	6537.665736
887.218113	6175.491599
887.527417	5885.552157
887.836680	5618.867556
888.145901	5405.115072
888.455082	5239.762705
888.764221	5087.615641
889.073319	4950.531544
889.382376	4872.426427
889.691392	4811.274710
890.000366	4779.079381
890.309300	4759.756638
890.618193	4765.427937
890.927044	4744.718877
891.235855	4767.804841
891.544625	4788.763438
891.853353	4835.552907
892.162041	4929.935910
892.470687	5090.597483
892.779293	5306.147139
893.087858	5626.709071
893.396381	6119.275172
893.704864	6804.584750
894.013306	7839.788212
894.321707	8981.702820
894.630068	9868.555207
894.938387	10222.943282
895.246665	10098.895609
895.554903	9578.731711
895.863100	8928.737937
896.171256	8393.190958
896.479371	7896.634784
896.787446	7412.096720
897.095480	6994.606003
897.403473	6673.280336
897.711425	6364.456731
898.019336	6104.481906
898.327207	5843.216547
898.635038	5613.166011
898.942827	5367.167786
899.250576	5173.776522
899.558284	4978.701512
899.865952	4859.369838
900.173579	4711.739648
900.481165	4603.390128
900.788711	4514.622971
901.096216	4436.815282
901.403681	4371.423955
901.711105	4340.710725
902.018489	4319.691634
902.325832	4372.855643
902.633135	4458.391420
902.940397	4718.303230
903.247619	5331.665460
903.554800	6530.582915
903.861941	8303.791136
904.169041	9886.597497
904.476101	10737.579554
904.783121	10601.760787
905.090100	9977.086209
905.397039	9182.615486
905.703938	8453.031975
906.010796	7782.901312
906.317614	7248.095383
906.624391	6729.055662
906.931129	6312.739533
907.237826	5922.743269
907.544483	5556.574018
907.851099	5195.513977
908.157675	4849.849619
908.464211	4518.963404
908.770707	4276.791415
909.077163	4071.104776
909.383578	3922.950306
909.689954	3800.004125
909.996289	3725.969740
910.302584	3658.566992
910.608839	3623.281436
910.915054	3588.694079
911.221229	3574.135227
911.527363	3581.301227
911.833458	3588.000921
912.139513	3615.570991
912.445527	3637.457161
912.751502	3707.690516
913.057436	3794.791572
913.363331	3911.322884
913.669186	4088.627827
913.975000	4303.141526
914.280775	4663.480682
914.586510	5166.552548
914.892205	5855.224575
915.197859	6791.059334
915.503475	7929.177952
915.809050	8991.485179
916.114585	9711.321619
916.420081	10081.934647
916.725536	10129.868458
917.030952	9768.863870
917.336328	9397.063650
917.641665	9025.812916
917.946961	8574.193587
918.252218	8174.631733
918.557435	7683.320879
918.862612	7273.807788
919.167750	6912.740185
919.472848	6510.647672
919.777906	6146.923381
920.082925	5791.085975
920.387904	5430.338485
920.692843	5159.479809
920.997743	4907.434720
921.302603	4674.732538
921.607423	4509.642311
921.912204	4348.968135
922.216946	4233.447574
922.521647	4114.602372
922.826310	4012.105632
923.130932	3920.114657
923.435516	3824.264678
923.740059	3756.211622
924.044564	3676.750434
924.349028	3624.728247
924.653454	3560.216601
924.957840	3493.486848
925.262186	3444.743931
925.566493	3387.095817
925.870761	3331.542301
926.174989	3296.571817
926.479178	3260.966147
926.783328	3218.431412
927.087438	3193.263451
927.391509	3156.737771
927.695541	3130.957310
927.999533	3103.956890
928.303486	3085.793613
928.607400	3067.297619
928.911275	3056.529715
929.215110	3041.297868
929.518906	3028.984850
929.822663	3029.839326
930.126381	3022.320445
930.430060	3030.454347
930.733699	3032.004501
931.037299	3041.461706
931.340861	3040.314843
931.644383	3052.703479
931.947866	3047.130483
932.251309	3042.147303
932.554714	3040.715615
932.858080	3041.542364
933.161407	3030.252700
933.464694	3024.588964
933.767943	3016.878519
934.071153	3013.049763
934.374323	3002.359996
934.677455	2997.734738
934.980548	2989.061432
935.283602	2984.640340
935.586617	2979.357211
935.889593	2989.915908
936.192530	2993.527895
936.495428	2999.000067
936.798287	3022.769107
937.101108	3047.037222
937.403890	3092.352154
937.706632	3147.202428
938.009336	3220.586505
938.312002	3295.588792
938.614628	3357.773945
938.917216	3412.631781
939.219765	3447.982873
939.522275	3481.130980
939.824747	3485.199191
940.127179	3486.129284
940.429573	3483.757421
940.731929	3479.522852
941.034246	3472.777788
941.336524	3456.948565
941.638763	3444.128911
941.940964	3433.313115
942.243126	3393.586302
942.545250	3372.287427
942.847335	3339.179649
943.149381	3303.309319
943.451389	3271.295472
943.753359	3236.776171
944.055290	3213.912017
944.357182	3186.399920
944.659036	3174.412056
944.960851	3161.184069
945.262628	3148.434991
945.564367	3146.489105
945.866067	3143.391316
946.167729	3139.131541
946.469352	3137.231026
946.770937	3134.700367
947.072484	3119.012296
947.373992	3122.188223
947.675462	3115.470886
947.976893	3099.830706
948.278286	3090.474324
948.579641	3084.568612
948.880958	3075.986048
949.182236	3081.249013
949.483476	3073.057138
949.784678	3073.732652
950.085841	3073.856161
950.386967	3077.485791
950.688054	3098.416662
950.989103	3114.008951
951.290114	3133.288844
951.591087	3157.075528
951.892021	3184.259950
952.192917	3213.034857
952.493776	3238.217941
952.794596	3249.903335
953.095378	3255.766197
953.396122	3254.563882
953.696828	3248.549785
953.997496	3238.371696
954.298126	3215.749518
954.598718	3198.864173
954.899272	3175.014474
955.199788	3149.355001
955.500266	3125.349027
955.800706	3088.301587
956.101108	3052.758932
956.401472	3022.393542
956.701798	2990.097389
957.002087	2949.183385
957.302337	2925.600867
957.602550	2893.455950
957.902724	2866.750437
958.202861	2846.255626
958.502960	2821.823674
958.803022	2799.821558
959.103045	2782.333795
959.403031	2765.856784
959.702979	2751.267685
960.002889	2740.363669
960.302762	2726.223232
960.602596	2714.784854
960.902393	2705.705736
961.202153	2699.099304
961.501875	2689.309383
961.801559	2683.393589
962.101205	2679.726150
962.400814	2673.787671
962.700385	2665.754592
962.999918	2659.254024
963.299414	2650.873106
963.598873	2652.508960
963.898293	2644.586787
964.197677	2647.999648
964.497022	2644.453197
964.796331	2642.807260
965.095601	2638.562608
965.394835	2636.178142
965.694030	2634.875004
965.993189	2633.402987
966.292309	2632.719911
966.591393	2632.074643
966.890439	2630.721093
967.189447	2633.513893
967.488419	2632.722432
967.787353	2633.087915
968.086249	2630.632873
968.385108	2635.379120
968.683930	2635.444655
968.982714	2640.349697
969.281462	2642.769451
969.580172	2649.292704
969.878844	2653.373518
970.177480	2660.935249
970.476078	2666.228461
970.774639	2678.541479
971.073162	2682.145904
971.371649	2690.060515
971.670098	2694.849612
971.968510	2698.985878
972.266885	2702.161805
972.565223	2705.509131
972.863524	2712.372662
973.161788	2714.840307
973.460014	2718.633775
973.758204	2718.701831
974.056356	2721.237531
974.354471	2722.971688
974.652550	2723.158211
974.950591	2721.643344
975.248595	2722.911194
975.546563	2718.303580
975.844493	2719.934393
976.142386	2713.300235
976.440243	2706.915613
976.738062	2701.657690
977.035845	2696.545960
977.333590	2687.890299
977.631299	2687.124043
977.928971	2678.886798
978.226606	2671.287258
978.524204	2668.743996
978.821765	2664.645538
979.119290	2665.694098
979.416777	2665.406752
979.714228	2668.413801
980.011642	2670.488236
980.309020	2673.885973
980.606360	2686.844259
980.903664	2706.245140
981.200931	2737.114645
981.498162	2778.837755
981.795356	2843.598938
982.092513	2925.628593
982.389633	3020.946730
982.686717	3114.714712
982.983764	3196.152032
983.280775	3250.362080
983.577749	3270.567025
983.874686	3257.220570
984.171587	3230.396590
984.468451	3198.869214
984.765279	3158.623162
985.062070	3115.342336
985.358824	3075.113928
985.655543	3022.456556
985.952224	2972.385295
986.248869	2911.883888
986.545478	2852.410875
986.842050	2799.297278
987.138586	2753.059815
987.435086	2714.636140
987.731549	2683.307890
988.027975	2657.875269
988.324366	2642.252733
988.620719	2625.816051
988.917037	2612.585542
989.213318	2607.267125
989.509563	2600.358224
989.805772	2594.250866
990.101944	2587.709969
990.398080	2585.466655
990.694180	2581.158989
990.990244	2585.484299
991.286271	2584.586974
991.582262	2583.964392
991.878217	2585.728795
992.174136	2586.348857
992.470019	2590.916143
992.765865	2593.398911
993.061676	2597.441916
993.357450	2608.096395
993.653188	2611.224431
993.948890	2627.585496
994.244556	2644.682569
994.540186	2664.706032
994.835780	2694.000177
995.131337	2728.274982
995.426859	2760.203130
995.722345	2811.285142
996.017795	2856.927749
996.313208	2897.362844
996.608586	2926.261258
996.903928	2944.124587
997.199234	2946.498970
997.494504	2944.696758
997.789738	2933.616302
998.084936	2913.124011
998.380099	2882.136039
998.675225	2856.673171
998.970316	2831.641321
999.265371	2793.885599
999.560390	2757.947214
999.855373	2730.898903
1000.150320	2700.541074
1000.445232	2674.052331
1000.740108	2654.921152
1001.034948	2638.348359
1001.329752	2621.977212
1001.624521	2607.864502
1001.919254	2598.122472
1002.213951	2592.410845
1002.508613	2580.614545
1002.803239	2575.565829
1003.097829	2569.922257
1003.392384	2565.791032
1003.686903	2557.962120
1003.981386	2556.505227
1004.275834	2554.304763
1004.570246	2549.747560
1004.864623	2547.143804
1005.158964	2544.426622
1005.453270	2544.570295
1005.747540	2542.778165
1006.041775	2539.713143
1006.335974	2540.655839
1006.630138	2540.552495
1006.924266	2538.029398
1007.218359	2536.433873
1007.512416	2534.520755
1007.806438	2533.976310
1008.100425	2534.286341
1008.394376	2530.213089
1008.688292	2534.067051
1008.982172	2532.118645
1009.276017	2533.600744
1009.569827	2533.326001
1009.863602	2532.758871
1010.157341	2531.546474
1010.451045	2530.197965
1010.744714	2526.568334
1011.038347	2529.098994
1011.331945	2527.957172
1011.625508	2527.561442
1011.919036	2523.062212
1012.212528	2524.453570
1012.505986	2524.902233
1012.799408	2523.019362
1013.092795	2523.412572
1013.386147	2522.326203
1013.679464	2522.868128
1013.972745	2521.517098
1014.265992	2521.696059
1014.559204	2521.267561
1014.852380	2522.570699
1015.145521	2520.612211
1015.438628	2523.157994
1015.731699	2522.724455
1016.024736	2523.495751
1016.317737	2523.778056
1016.610703	2525.010618
1016.903635	2524.672861
1017.196531	2524.831657
1017.489393	2530.707122
1017.782219	2524.435926
1018.075011	2531.420445
1018.367768	2533.162164
1018.660490	2532.579910
1018.953177	2532.579910
1019.245829	2532.579910
