Dividing Wavelength (nm)	Counts (n)	Blue Motor Position (mm): 44.500000	Red Motor Position (mm): 0.000000	
326.493990	2064.261759
326.888308	2064.261759
327.282561	2064.261759
327.676750	2041.014478
328.070874	2042.872143
328.464933	2043.192257
328.858929	2054.502085
329.252859	2065.998437
329.646726	2078.049315
330.040528	2096.293251
330.434265	2112.707248
330.827938	2135.142903
331.221547	2152.529843
331.615091	2173.274191
332.008571	2194.399146
332.401986	2214.651981
332.795338	2231.786863
333.188625	2254.577920
333.581847	2271.725405
333.975006	2291.511933
334.368100	2308.046918
334.761129	2326.439568
335.154095	2340.564881
335.546996	2391.006666
335.939833	2496.712101
336.332606	2506.640653
336.725315	2521.136491
337.117960	2533.273069
337.510540	2540.083668
337.903056	2552.621017
338.295508	2559.078736
338.687896	2564.238357
339.080220	2571.606003
339.472480	2576.258988
339.864676	2580.191088
340.256807	2581.174113
340.648875	2584.874320
341.040879	2583.162848
341.432818	2588.279619
341.824694	2586.366501
342.216506	2585.509505
342.608253	2583.876171
342.999937	2584.970102
343.391557	2584.324834
343.783113	2584.259299
344.174605	2580.851479
344.566033	2577.579770
344.957397	2578.348546
345.348697	2577.307548
345.739934	2573.153637
346.131106	2575.243195
346.522215	2570.244891
346.913260	2570.156671
347.304241	2566.811866
347.695159	2566.511917
348.086012	2567.994016
348.476802	2564.881104
348.867528	2560.850701
349.258191	2556.721996
349.648789	2555.867521
350.039324	2553.730071
350.429796	2559.106462
350.820203	2557.082439
351.210548	2559.653427
351.600828	2554.120761
351.991045	2554.468600
352.381198	2555.744012
352.771288	2553.571275
353.161314	2554.821481
353.551276	2550.533980
353.941175	2553.919115
354.331010	2554.055226
354.720782	2557.392470
355.110490	2559.071174
355.500135	2555.035730
355.889717	2554.753426
356.279235	2554.682849
356.668689	2554.851728
357.058080	2553.989691
357.447408	2555.774259
357.836672	2556.031358
358.225873	2554.478683
358.615010	2558.851884
359.004084	2559.005639
359.393095	2558.178890
359.782043	2558.788869
360.170927	2560.880948
360.559748	2561.952193
360.948505	2560.641493
361.337199	2563.482183
361.725830	2559.701318
362.114398	2562.668037
362.502903	2561.974878
362.891344	2564.833213
363.279722	2565.622153
363.668037	2565.992678
364.056289	2565.057544
364.444478	2564.593758
364.832603	2568.097360
365.220665	2567.447051
365.608665	2567.280693
365.996601	2569.140879
366.384474	2565.947308
366.772284	2567.973852
367.160031	2568.228430
367.547715	2568.966959
367.935336	2567.162226
368.322893	2566.953018
368.710388	2566.204407
369.097820	2568.228430
369.485189	2568.888821
369.872495	2573.806467
370.259738	2573.284707
370.646918	2569.324881
371.034035	2571.033832
371.421090	2570.287741
371.808081	2571.830334
372.195010	2574.860068
372.581875	2574.766806
372.968678	2575.953998
373.355418	2574.262691
373.742096	2577.058011
374.128710	2578.388875
374.515262	2579.266036
374.901751	2575.961560
375.288177	2580.453228
375.674540	2577.360480
376.060841	2582.915832
376.447079	2579.145048
376.833254	2581.710996
377.219367	2581.262333
377.605417	2581.209401
377.991404	2579.961715
378.377329	2582.754515
378.763191	2581.403485
379.148991	2584.289546
379.534727	2585.869948
379.920402	2583.593867
380.306013	2589.736513
380.691563	2587.205853
381.077049	2587.147880
381.462474	2590.543097
381.847835	2587.828436
382.233134	2595.138109
382.618371	2593.592995
383.003545	2600.239757
383.388657	2602.740169
383.773706	2606.642022
384.158693	2610.082610
384.543618	2615.554782
384.928480	2618.730709
385.313280	2624.298663
385.698017	2631.028604
386.082692	2639.878349
386.467305	2646.474699
386.851856	2651.636841
387.236344	2659.674961
387.620770	2668.870025
388.005133	2676.676252
388.389435	2691.403983
388.773674	2697.861701
389.157851	2715.281408
389.541965	2732.638101
389.926018	2737.603637
390.310008	2756.384456
390.693936	2769.549429
391.077802	2788.242028
391.461606	2808.774647
391.845348	2824.210660
392.229027	2840.798577
392.612645	2867.501569
392.996200	2888.132491
393.379694	2913.938158
393.763125	2944.795060
394.146494	2965.400777
394.529801	2996.799603
394.913047	3030.363606
395.296230	3048.284908
395.679351	3074.019998
396.062410	3115.657408
396.445408	3119.370218
396.828343	3156.916732
397.211217	3192.240097
397.594028	3194.851415
397.976778	3239.977303
398.359466	3279.464661
398.742092	3302.911068
399.124656	3329.490552
399.507158	3384.776886
399.889598	3406.153899
400.271977	3469.286789
400.654294	3485.799088
401.036549	3544.357131
401.418742	3565.174576
401.800874	3633.615801
402.182944	3669.271883
402.564952	3752.813884
402.946898	3771.629991
403.328783	3786.637506
403.710606	3844.250332
404.092367	3921.493412
404.474067	3990.292559
404.855705	3998.890247
405.237282	3988.404647
405.618797	4088.655553
406.000250	4169.462729
406.381642	4265.700876
406.762972	4276.675468
407.144240	4264.092748
407.525447	4336.907174
407.906593	4365.031772
408.287677	4454.706337
408.668700	4495.922811
409.049661	4540.176580
409.430560	4587.318930
409.811399	4581.385492
410.192176	4640.669461
410.572891	4723.465372
410.953545	4835.613401
411.334138	4743.813989
411.714669	4857.970918
412.095139	4781.368065
412.475547	4893.059870
412.855894	4905.670316
413.236180	5007.773846
413.616405	4944.388898
413.996568	5048.438313
414.376670	5056.352925
414.756711	5054.923758
415.136691	5129.338750
415.516609	5212.908478
415.896466	5252.947843
416.276262	5337.760215
416.655997	5450.644253
417.035670	5542.544487
417.415283	5684.384912
417.794834	5752.924440
418.174324	5707.468356
418.553753	5721.041663
418.933121	5881.715838
419.312428	5894.265791
419.691674	5819.772661
420.070859	6040.101331
420.449983	5928.752324
420.829045	6117.447754
421.208047	6048.139450
421.586988	6202.749118
421.965867	6276.266785
422.344686	6358.056986
422.723444	6521.350041
423.102141	6149.106200
423.480777	6533.879829
423.859352	6350.132292
424.237866	6711.078908
424.616319	6705.954575
424.994712	6869.802157
425.373044	6782.204547
425.751314	7092.974038
426.129524	6815.219064
426.507673	7084.809889
426.885762	7130.613813
427.263789	7166.952970
427.641756	7251.566217
428.019662	7331.985224
428.397508	7368.047118
428.775292	7353.924325
429.153016	7525.812548
429.530679	7456.473998
429.908282	7507.588777
430.285824	7445.670805
430.663305	7731.554639
431.040726	7614.148687
431.418086	7614.801516
431.795385	7750.368226
432.172624	7934.710619
432.549802	7821.284657
432.926920	7955.016387
433.303977	7898.406749
433.680974	7946.421219
434.057910	8144.246178
434.434786	8196.757357
434.811601	8150.159452
435.188355	8482.968867
435.565050	8378.490954
435.941683	8388.051502
436.318257	8717.982418
436.694770	8668.332094
437.071222	8893.696877
437.447614	8669.620109
437.823946	8638.818659
438.200218	8790.113768
438.576429	8664.389912
438.952580	8832.192279
439.328670	8842.274587
439.704700	8915.658663
440.080670	8808.619844
440.456580	9075.367458
440.832429	9050.920383
441.208218	8789.415568
441.583947	8905.447806
441.959616	9025.712093
442.335224	9053.796361
442.710773	9133.436510
443.086261	9308.561153
443.461689	9034.173670
443.837057	9198.729534
444.212365	9414.516125
444.587612	9396.146160
444.962800	9291.451477
445.337927	9423.023072
445.712995	8965.140109
446.088002	9631.283219
446.462949	9689.538793
446.837837	9680.126959
447.212664	9704.034631
447.587431	10524.991576
447.962139	11531.899043
448.336786	12453.580762
448.711374	12212.038917
449.085901	11021.946002
449.460369	10935.943917
449.834776	10726.292411
450.209124	11639.678912
450.583412	11460.082765
450.957640	11765.153231
451.331808	11357.674245
451.705917	10788.711978
452.079965	10670.902733
452.453954	10862.542197
452.827883	10814.593262
453.201752	10779.776533
453.575562	10781.679568
453.949311	11127.230500
454.323001	11190.754079
454.696632	11109.639393
455.070202	11698.501615
455.443713	11750.402815
455.817164	11922.049062
456.190556	12232.309396
456.563888	12098.370980
456.937160	12351.134433
457.310373	11838.247441
457.683526	11849.678257
458.056619	11865.315917
458.429653	11931.831421
458.802628	12078.231570
459.175542	12131.098150
459.548398	12675.842714
459.921194	13246.781114
460.293930	13533.378272
460.666607	14385.426533
461.039224	15181.822977
461.411782	15518.299831
461.784280	15174.399877
462.156719	15103.115442
462.529099	15010.965670
462.901419	14379.581315
463.273680	13976.152896
463.645882	14195.042317
464.018024	14083.524432
464.390106	14454.782728
464.762130	15527.441964
465.134094	17074.168787
465.505999	19368.758345
465.877845	21624.793158
466.249631	22817.741886
466.621358	22317.586328
466.993026	21490.955564
467.364634	20732.297199
467.736184	19937.438307
468.107674	19334.549075
468.479105	19194.084884
468.850477	18914.976361
469.221790	18492.283172
469.593043	17817.723856
469.964238	17436.678160
470.335373	17498.661667
470.706449	18219.760916
471.077467	19096.999823
471.448425	21553.057539
471.819324	23408.580241
472.190164	23293.649495
472.560945	21555.477292
472.931667	19988.379167
473.302330	19661.669548
473.672934	19123.909502
474.043479	19531.421256
474.413965	19326.357200
474.784393	19153.102824
475.154761	19818.318362
475.525070	19930.494118
475.895321	19780.391241
476.265513	20303.461364
476.635645	20883.126001
477.005719	20941.915937
477.375734	21314.996610
477.745691	21945.155964
478.115588	22569.089493
478.485427	23760.399847
478.855207	25568.394550
479.224928	27373.634263
479.594591	28778.744993
479.964194	28397.691735
480.333739	28841.242697
480.703226	29045.696774
481.072653	29495.019857
481.442022	30005.426602
481.811333	30403.922252
482.180584	29964.147114
482.549777	29732.543903
482.918912	29506.004532
483.287988	29445.006570
483.657005	29294.291193
484.025964	28922.286807
484.394864	29099.125443
484.763706	29033.920638
485.132489	28478.463622
485.501213	28559.243072
485.869879	28724.045953
486.238487	28662.579164
486.607036	28922.460727
486.975527	28615.696433
487.343959	28969.401431
487.712333	29305.238059
488.080648	29256.064124
488.448905	29698.135508
488.817104	29574.042464
489.185244	30389.431455
489.553326	31341.075272
489.921350	33223.026223
490.289315	35741.001911
490.657222	36638.163458
491.025070	37186.930863
491.392861	36903.129025
491.760593	36122.639942
492.128267	35112.067557
492.495883	34107.153867
492.863440	33217.201170
493.230939	32252.213418
493.598380	31680.844000
493.965763	31535.986445
494.333088	31022.718845
494.700354	30824.561170
495.067563	30796.479422
495.434713	30683.217298
495.801805	30952.772836
496.168839	30778.759767
496.535815	30640.339764
496.902733	30763.046490
497.269593	30582.613512
497.636395	30717.557638
498.003139	30988.834730
498.369825	30751.867731
498.736453	31144.011527
499.103023	30979.266620
499.469535	31062.990103
499.835989	31171.642092
500.202385	31048.027958
500.568723	31073.596690
500.935003	31371.544006
501.301226	31240.864696
501.667390	31956.451443
502.033497	32151.748263
502.399546	31954.359364
502.765537	31562.308829
503.131470	32014.023940
503.497345	32428.673968
503.863163	31388.073950
504.228923	32150.790444
504.594625	32526.797507
504.960269	32009.433970
505.325856	32668.461492
505.691385	32324.319563
506.056856	32653.085972
506.422270	33121.371356
506.787625	32654.212670
507.152924	33090.597632
507.518164	33257.558127
507.883347	32840.561443
508.248472	32967.865701
508.613540	33634.885972
508.978550	33869.516395
509.343503	33702.621436
509.708398	34050.829055
510.073236	34644.498017
510.438016	34740.708438
510.802738	34415.342287
511.167403	34940.055826
511.532010	35184.261921
511.896561	35680.472777
512.261053	36433.931192
512.625488	36194.438576
512.989866	36131.504811
513.354186	36183.955497
513.718449	36147.240773
514.082655	36992.715370
514.446803	36675.248706
514.810894	37292.202758
515.174927	37294.824158
515.538904	37305.234141
515.902822	37916.889940
516.266684	37618.284753
516.630488	37949.707851
516.994235	37973.963363
517.357925	38527.822333
517.721558	38772.585476
518.085133	39142.563318
518.448651	39330.530301
518.812112	39214.850944
519.175516	39344.557312
519.538863	39789.562647
519.902152	39852.476247
520.265385	40407.771946
520.628560	40418.988513
520.991678	40362.633455
521.354739	40565.650802
521.717743	40934.025558
522.080690	40845.843174
522.443580	41500.268123
522.806413	41503.875068
523.169189	41648.770432
523.531908	41872.532128
523.894569	41717.093191
524.257174	41923.873760
524.619722	42253.950869
524.982213	42388.882393
525.344647	42446.341465
525.707025	42562.255236
526.069345	42976.532218
526.431608	42890.106676
526.793815	43284.944969
527.155964	42825.595030
527.518057	43090.734517
527.880093	42942.433853
528.242072	43568.898042
528.603995	43294.450064
528.965860	43214.976274
529.327669	43446.292139
529.689421	43496.560004
530.051117	43460.331752
530.412755	43715.396493
530.774337	43757.933749
531.135862	43707.688569
531.497331	43865.070871
531.858743	43855.807751
532.220098	44251.997073
532.581396	43981.445908
532.942638	43772.540492
533.303824	43989.418492
533.664953	44051.520467
534.026025	43726.093821
534.387040	44296.696984
534.747999	44374.696237
535.108902	44701.907451
535.469748	44018.145508
535.830537	44298.206810
536.191270	44533.961410
536.551947	44294.090708
536.912567	44552.318772
537.273131	44688.840780
537.633638	44313.310107
537.994089	44480.769676
538.354483	44263.823620
538.714821	44890.557510
539.075103	45176.408577
539.435328	45048.065841
539.795497	44798.495958
540.155609	44950.527076
540.515665	45507.201531
540.875665	44819.656202
541.235609	45090.777017
541.595496	45232.078039
541.955328	45798.945707
542.315102	45230.931177
542.674821	45121.228107
543.034483	45033.048244
543.394090	45042.969235
543.753640	45042.271035
544.113134	46103.640607
544.472571	45215.895935
544.831953	46308.359344
545.191278	45588.475013
545.550548	45282.161903
545.909761	45910.085505
546.268918	46043.945784
546.628019	46459.294011
546.987064	45893.227887
547.346053	45218.217387
547.704986	46122.050901
548.063863	45747.243633
548.422684	45967.758826
548.781449	45544.352314
549.140158	46052.538430
549.498811	45819.553944
549.857408	45221.988170
550.215949	46050.375775
550.574434	45895.753505
550.932864	45829.361508
551.291237	46546.427834
551.649555	46286.480736
552.007817	46465.623179
552.366022	46162.314597
552.724173	46234.128354
553.082267	46627.335833
553.440305	47004.575458
553.798288	46262.782272
554.156215	46636.079714
554.514086	46824.462592
554.871902	46424.953671
555.229661	46598.402131
555.587365	46291.448793
555.945014	46423.413598
556.302606	46437.417924
556.660143	46539.450878
557.017625	46764.306504
557.375050	46460.004813
557.732421	46865.668984
558.089735	46902.754232
558.446994	46777.902496
558.804197	47229.657936
559.161345	47106.056405
559.518437	46473.764643
559.875474	46712.085191
560.232455	46947.174359
560.589381	46964.886453
560.946251	46799.458469
561.303065	47447.400494
561.659825	47112.274668
562.016528	46933.175075
562.373177	46514.174532
562.729770	47148.891089
563.086307	46653.731315
563.442789	47209.959627
563.799216	47040.647434
564.155587	46948.744679
564.511904	46922.129907
564.868164	46965.708162
565.224370	47260.930734
565.580520	47007.322887
565.936615	47202.382773
566.292654	46850.898403
566.648638	47216.296358
567.004567	47151.431831
567.360441	47236.760922
567.716260	46958.895042
568.072023	47345.382663
568.427732	47268.089172
568.783385	46811.605130
569.138982	47213.175883
569.494525	47359.805405
569.850013	46972.387690
570.205445	47092.122656
570.560823	46849.068464
570.916145	46730.591267
571.271412	46967.427195
571.626625	46601.847759
571.981782	46680.802311
572.336884	46303.552604
572.691931	46615.748741
573.046923	46285.845551
573.401860	46120.470499
573.756743	46141.381205
574.111570	46272.176462
574.466342	46200.619804
574.821059	46361.883795
575.175722	45838.831316
575.530330	45936.339834
575.884882	45593.952227
576.239380	45502.803124
576.593823	45578.884218
576.948211	45515.577408
577.302544	45067.655765
577.656823	45052.746553
578.011047	45344.679772
578.365216	45169.053534
578.719330	44887.777314
579.073389	44855.423188
579.427394	44932.446978
579.781344	44826.870093
580.135239	44597.283344
580.489080	44652.834339
580.842866	44153.382021
581.196597	44646.926106
581.550273	44653.971119
581.903895	44586.724647
582.257463	45027.520619
582.610975	44443.359273
582.964434	44759.772335
583.317837	44274.662101
583.671186	44225.994801
584.024481	44515.193195
584.377721	44066.764916
584.730906	44297.284278
585.084037	44450.963853
585.437113	44146.803316
585.790135	44268.234629
586.143103	43832.439482
586.496016	44012.960681
586.848874	44114.297956
587.201679	44154.337320
587.554428	43644.298580
587.907124	43926.469604
588.259765	43688.917832
588.612352	43830.221375
588.964884	43314.392869
589.317362	43609.996048
589.669786	43599.956590
590.022155	43497.361548
590.374470	43956.777021
590.726731	43529.400601
591.078937	42875.867937
591.431090	43224.289806
591.783188	42746.980757
592.135232	42546.899881
592.487222	42812.510716
592.839157	42971.601969
593.191038	42613.851445
593.542866	42433.587346
593.894639	41818.730414
594.246358	42114.126906
594.598022	42108.984929
594.949633	41700.475027
595.301190	41695.617875
595.652692	41648.223467
596.004141	42147.312822
596.355535	41048.366489
596.706876	41050.761037
597.058162	40760.786306
597.409395	41268.790941
597.760573	41495.274860
598.111698	41104.842535
598.462768	41005.864521
598.813785	41041.908771
599.164748	40659.232262
599.515657	40922.314957
599.866511	40448.542278
600.217312	41112.583227
600.568060	40080.114590
600.918753	40888.093085
601.269392	40821.267549
601.619978	40533.402541
601.970510	40754.129462
602.320988	40880.085212
602.671412	41124.129990
603.021783	40992.961688
603.372100	40590.594432
603.722363	40675.845384
604.072572	40721.329195
604.422728	40721.175440
604.772830	40498.041368
605.122878	40680.019460
605.472872	40527.801819
605.822813	40786.067693
606.172701	40532.974043
606.522534	40871.467359
606.872314	41066.744015
607.222041	40889.854968
607.571714	41219.173384
607.921333	40732.205484
608.270899	40916.489904
608.620411	41290.863633
608.969870	41056.989383
609.319276	41075.026631
609.668627	41111.935439
610.017926	41502.511436
610.367171	41649.594661
610.716362	41692.719212
611.065500	41587.001174
611.414585	41832.306241
611.763616	41978.323262
612.112594	41883.448747
612.461518	42007.851821
612.810389	42388.161508
613.159207	42181.229705
613.507971	42149.727534
613.856682	42650.470387
614.205340	42495.369207
614.553945	43187.438971
614.902496	42540.469889
615.250994	42946.847383
615.599439	43007.547917
615.947830	43108.587763
616.296169	43115.431130
616.644454	43156.297243
616.992686	43307.491529
617.340864	43749.217594
617.688990	43255.066050
618.037063	43936.420842
618.385082	43750.921504
618.733048	44101.052324
619.080961	43975.522552
619.428821	44016.721382
619.776628	44065.696191
620.124382	43902.539247
620.472083	44006.492881
620.819731	44112.672183
621.167326	43703.242271
621.514868	43678.767469
621.862357	43137.904593
622.209793	43236.968308
622.557176	42815.827795
622.904506	42561.481419
623.251783	42221.697567
623.599007	41892.386713
623.946179	41809.855462
624.293297	41564.847824
624.640363	41018.709381
624.987376	40880.160829
625.334336	40677.571979
625.681243	40286.108739
626.028097	40192.978463
626.374899	40007.791677
626.721647	39973.433693
627.068343	39758.869582
627.414987	39472.474070
627.761577	39214.508146
628.108115	39536.665603
628.454600	38788.480234
628.801032	39024.665853
629.147412	38930.814692
629.493739	38800.102614
629.840014	38371.934733
630.186236	38804.760640
630.532405	38228.176149
630.878521	38478.746701
631.224585	38253.235724
631.570597	37928.502238
631.916556	38093.531971
632.262462	37985.971392
632.608316	37948.041750
632.954117	37808.001017
633.299866	37754.718541
633.645562	37683.570216
633.991206	37168.752462
634.336797	36762.632067
634.682336	36646.874572
635.027823	36406.086379
635.373257	36305.240617
635.718639	35971.475903
636.063968	35870.642744
636.409245	35213.475408
636.754470	35171.167524
637.099642	34944.136640
637.444762	34378.715784
637.789829	34516.301475
638.134845	34127.484841
638.479808	34042.987540
638.824719	33994.423585
639.169577	33482.680934
639.514383	33612.714977
639.859137	33231.298757
640.203839	33385.696696
640.548489	33104.753192
640.893086	33074.213882
641.237632	32775.654066
641.582125	32872.164436
641.926566	32654.772238
642.270955	32703.081616
642.615292	32648.755621
642.959576	32499.338342
643.303809	32504.583662
643.647990	32608.716257
643.992118	32600.292489
644.336195	32412.612852
644.680219	32488.454491
645.024192	32682.284335
645.368112	33189.898281
645.711981	33199.209292
646.055797	33911.657921
646.399562	33707.965059
646.743274	34568.532870
647.086935	34964.913756
647.430544	34965.095237
647.774101	34992.123384
648.117606	35304.531249
648.461059	35439.964368
648.804460	35052.627312
649.147810	34552.854882
649.491108	34238.823764
649.834354	34132.916684
650.177548	33320.096161
650.520690	32807.541885
650.863781	32776.954684
651.206820	32606.654425
651.549807	32180.029137
651.892742	31599.358790
652.235626	31535.235313
652.578458	31374.914018
652.921238	30680.900888
653.263967	30966.646091
653.606644	30658.198052
653.949269	30574.509857
654.291843	30172.087148
654.634365	30533.444617
654.976836	30089.076988
655.319255	30164.538020
655.661622	30033.127742
656.003938	29908.139894
656.346203	29722.960670
656.688416	29964.260540
657.030577	29761.182698
657.372687	29568.708924
657.714746	29716.956655
658.056753	29899.907690
658.398708	29269.183727
658.740612	29342.159470
659.082465	29546.923577
659.424266	29437.558265
659.766016	29436.615569
660.107715	29275.550704
660.449362	29379.400994
660.790958	29350.472332
661.132503	29270.895198
661.473996	29357.217396
661.815438	29444.968761
662.156829	29555.488498
662.498168	29361.091523
662.839456	29332.016668
663.180693	29453.553846
663.521879	29515.607930
663.863013	29475.175355
664.204097	29458.935278
664.545129	29858.237513
664.886110	29780.518044
665.227040	29902.960109
665.567918	29900.719316
665.908746	29950.926688
666.249522	30043.136953
666.590248	30077.880586
666.930922	30184.100218
667.271545	30186.242708
667.612118	30244.047099
667.952639	30070.928834
668.293109	30103.058628
668.633528	29944.184144
668.973896	29907.101417
669.314213	29875.521108
669.654480	29695.536793
669.994695	29675.152887
670.334859	29606.545304
670.674973	29383.118845
671.015035	29579.756612
671.355047	29508.404121
671.695008	29454.990575
672.034918	29351.082312
672.374777	29451.544947
672.714585	29337.801392
673.054342	29456.727253
673.394049	29309.991867
673.733705	29535.805313
674.073310	29243.224305
674.412864	29318.932353
674.752368	29036.620176
675.091820	29259.391285
675.431223	28865.286481
675.770574	28675.973510
676.109875	28513.411422
676.449125	28309.950452
676.788324	28206.632004
677.127473	27730.190034
677.466571	27625.891081
677.805619	27353.240275
678.144616	27269.302543
678.483562	27215.402526
678.822458	26911.988079
679.161303	26846.034663
679.500098	26761.996108
679.838842	26675.215165
680.177535	26744.024395
680.516179	26954.588350
680.854771	27033.416872
681.193314	27724.367501
681.531805	28671.527212
681.870247	29421.905482
682.208638	30228.588400
682.546978	30584.962689
682.885268	30757.221437
683.223508	30351.232112
683.561697	30090.516238
683.899836	29936.803895
684.237925	29529.234168
684.575963	29346.535191
684.913951	28980.186980
685.251889	29117.104718
685.589776	29101.779610
685.927614	29095.047149
686.265401	29279.581107
686.603137	29363.034888
686.940824	29845.067498
687.278460	30157.366979
687.616046	30360.598576
687.953582	31024.954597
688.291068	30947.605653
688.628504	31321.898723
688.965889	31352.445595
689.303224	31094.129310
689.640510	30823.401704
689.977745	30231.638298
690.314930	29509.069553
690.652065	29086.638505
690.989150	28406.120544
691.326185	27578.695799
691.663170	26966.903889
692.000105	26255.929797
692.336990	25646.363556
692.673825	25217.278185
693.010610	24729.533947
693.347345	24233.842331
693.684030	23610.707825
694.020665	23405.555548
694.357251	22754.641764
694.693786	22753.152103
695.030272	22513.339373
695.366707	22025.537162
695.703093	21732.830126
696.039429	21802.791259
696.375716	21564.490876
696.711952	21548.918751
697.048139	21418.332702
697.384276	21256.990573
697.720363	21380.818956
698.056400	21264.978282
698.392388	21096.170204
698.728326	21094.486458
699.064214	20959.489400
699.400053	20974.116308
699.735842	20583.386555
700.071581	20400.992568
700.407270	20170.236271
700.742910	19992.727162
701.078501	19737.135621
701.414042	19540.651608
701.749533	19235.162727
702.084974	18920.887113
702.420366	19148.376742
702.755709	18748.139374
703.091002	18455.742369
703.426246	18507.938476
703.761440	18447.600905
704.096584	18213.895533
704.431679	18146.147467
704.766725	18092.933047
705.101721	18014.611160
705.436668	18118.358106
705.771565	17835.821598
706.106413	18153.361358
706.441212	18218.064568
706.775961	18312.881110
707.110661	18384.384836
707.445311	18743.622500
707.779913	18625.553636
708.114465	18906.048477
708.448967	19219.567917
708.783421	19830.770012
709.117825	20163.380302
709.452180	20378.158662
709.786485	20812.491874
710.120742	21555.734391
710.454949	21655.156027
710.789107	22165.872803
711.123216	22861.289894
711.457275	23092.262960
711.791286	23648.690398
712.125247	23825.655063
712.459159	23604.671043
712.793023	24358.913358
713.126837	23372.979612
713.460602	23636.415189
713.794318	23327.508404
714.127985	23063.667015
714.461602	22177.969052
714.795171	22149.194146
715.128691	21176.511073
715.462162	20675.737973
715.795584	20238.639688
716.128957	19972.373503
716.462281	19606.637792
716.795556	19322.321756
717.128782	18855.470581
717.461960	18263.654243
717.795088	18229.510508
718.128167	17888.763796
718.461198	17439.889375
718.794180	17321.233216
719.127113	16993.132239
719.459997	16801.820450
719.792833	16430.950323
720.125619	16468.809389
720.458357	16139.743030
720.791046	16000.340003
721.123686	15845.848802
721.456278	15619.085099
721.788821	15609.156547
722.121315	15355.722620
722.453761	15451.867506
722.786158	15338.983468
723.118506	15411.813018
723.450805	15302.062058
723.783056	15472.180835
724.115259	15368.630494
724.447412	15343.023953
724.779518	15550.270829
725.111574	15610.895745
725.443582	15854.575040
725.775542	15801.627801
726.107453	16309.340049
726.439315	16220.265381
726.771129	16614.660052
727.102895	17012.759971
727.434612	17298.091799
727.766281	17460.653887
728.097901	17793.271739
728.429473	17907.106034
728.760996	17935.742308
729.092471	18038.140746
729.423897	17930.456658
729.755276	17768.940610
730.086606	17855.986213
730.417887	18404.630110
730.749120	18965.907138
731.080305	19170.469599
731.411442	19586.233722
731.742530	19692.967551
732.073570	19832.274797
732.404562	20155.906791
732.735506	20047.902591
733.066401	19925.074877
733.397249	19484.152877
733.728048	18895.641015
734.058798	18053.949804
734.389501	17301.897871
734.720156	16775.384639
735.050762	16194.437029
735.381320	15787.467200
735.711831	15501.782491
736.042293	15132.187776
736.372707	15140.682120
736.703073	14926.039872
737.033391	15115.940137
737.363661	15104.741214
737.693883	15215.273553
738.024056	15403.800104
738.354182	15600.165649
738.684260	15955.607324
739.014290	16217.780092
739.344272	16442.784432
739.674207	16790.926517
740.004093	16967.487889
740.333931	17053.333698
740.663722	17142.630177
740.993464	17185.147268
741.323159	17061.533135
741.652806	16772.785925
741.982405	16608.688805
742.311956	16259.684683
742.641460	16156.467058
742.970915	15832.237687
743.300323	15480.846579
743.629683	15288.408092
743.958996	14960.876765
744.288260	14662.453060
744.617477	14353.079969
744.946647	14315.926666
745.275768	13996.849353
745.604842	13802.497749
745.933869	13623.188948
746.262847	13596.838837
746.591778	13492.456705
746.920662	13376.918500
747.249498	13371.532028
747.578286	13506.375331
747.907027	13670.265763
748.235720	13935.037246
748.564365	14019.779042
748.892963	13950.748002
749.221514	14065.522472
749.550017	13946.561323
749.878473	13912.094954
750.206881	13705.105177
750.535242	13634.637408
750.863555	13554.122620
751.191821	13459.071664
751.520039	13474.457266
751.848210	13382.627607
752.176334	13426.715018
752.504411	13364.013147
752.832440	13181.737626
753.160421	13295.380358
753.488356	13191.988813
753.816243	13105.235596
754.144082	12932.414760
754.471875	12877.141029
754.799620	12842.898991
755.127318	12813.743478
755.454969	12807.132005
755.782572	12772.537086
756.110129	12783.304991
756.437638	12698.858102
756.765100	12698.530427
757.092515	12719.075650
757.419882	12749.264600
757.747203	12750.703849
758.074477	12837.338598
758.401703	12813.327583
758.728882	13006.577695
759.056014	13052.253069
759.383099	13215.069736
759.710138	13340.085310
760.037129	13470.522645
760.364073	13547.322103
760.690970	13550.823185
761.017820	13565.681986
761.344623	13756.121654
761.671379	14081.533176
761.998088	14623.636176
762.324751	16033.311670
762.651366	18966.754052
762.977935	23258.464761
763.304456	26562.691570
763.630931	28166.443926
763.957359	27367.897430
764.283740	25317.032537
764.610074	23168.543180
764.936362	20550.160310
765.262602	18650.855187
765.588796	16672.386305
765.914943	15344.133007
766.241044	14205.694275
766.567097	13382.481414
766.893104	12642.981953
767.219064	12165.372955
767.544978	11684.184738
767.870845	11278.918819
768.196665	11060.949409
768.522438	10827.480972
768.848165	10629.537545
769.173846	10412.641901
769.499479	10279.734400
769.825066	10119.889494
770.150607	9891.023630
770.476101	9816.187701
770.801548	9689.725316
771.126949	9537.878200
771.452303	9428.964072
771.777611	9228.452177
772.102872	9222.528822
772.428087	9086.324406
772.753256	8930.711549
773.078378	8850.514353
773.403453	8671.119852
773.728482	8551.765494
774.053465	8475.379410
774.378401	8368.441413
774.703291	8253.243486
775.028135	8139.933471
775.352932	8104.166485
775.677683	8004.868357
776.002388	7894.033548
776.327046	7897.093529
776.651658	7804.895866
776.976224	7706.878191
777.300743	7704.531534
777.625216	7619.807382
777.949643	7573.585042
778.274024	7590.210768
778.598359	7504.864033
778.922647	7522.412290
779.246889	7469.472613
779.571086	7476.961247
779.895236	7481.662123
780.219339	7490.345510
780.543397	7496.150399
780.867409	7575.727533
781.191374	7583.969819
781.515294	7556.203144
781.839167	7647.405179
782.162995	7618.965509
782.486776	7566.890390
782.810511	7522.613936
783.134201	7436.778209
783.457844	7438.139321
783.781441	7376.977522
784.104993	7317.207081
784.428498	7297.458361
784.751958	7275.148735
785.075372	7249.990857
785.398739	7186.348810
785.722061	7231.101653
786.045337	7226.131075
786.368568	7365.516459
786.691752	7370.983590
787.014891	7664.729104
787.337983	7971.140517
787.661030	8525.778346
787.984031	9145.956215
788.306987	9589.988608
788.629897	9843.793060
788.952760	9844.539151
789.275579	9662.309001
789.598351	9291.330489
789.921078	8958.631979
790.243759	8540.506077
790.566395	8247.988083
790.888984	8006.957915
791.211529	7783.455839
791.534027	7564.546254
791.856480	7356.996909
792.178888	7276.691328
792.501249	7179.170207
792.823566	7023.055754
793.145836	7014.810947
793.468062	6989.000240
793.790241	6933.507218
794.112375	6992.279510
794.434464	7130.202959
794.756507	7155.416290
795.078505	7298.829555
795.400457	7580.204078
795.722364	7915.811333
796.044226	8206.423770
796.366042	8495.337338
796.687812	8474.207342
797.009538	8565.500117
797.331218	8479.543403
797.652852	8400.029283
797.974442	8254.531501
798.295986	8174.346908
798.617484	7984.156776
798.938938	7843.385076
799.260346	7741.667194
799.581709	7550.216774
799.903026	7469.008827
800.224299	7363.873042
800.545526	7197.958587
800.866708	7097.679955
801.187845	7031.736621
801.508936	6924.780981
801.829983	6888.346041
802.150984	6740.947744
802.471940	6698.632299
802.792851	6681.880544
803.113717	6653.960114
803.434538	6614.697087
803.755314	6558.997378
804.076045	6557.175001
804.396731	6498.637123
804.717372	6530.666094
805.037967	6527.941350
805.358518	6566.445683
805.679024	6645.674978
805.999485	6656.425238
806.319901	6694.362441
806.640272	6712.606377
806.960598	6802.679193
807.280879	6804.136087
807.601115	6883.909826
807.921306	6830.287073
808.241453	6843.729309
808.561554	6864.753441
808.881611	6830.849161
809.201623	6842.600091
809.521590	6789.186545
809.841513	6768.827845
810.161390	6810.404762
810.481223	6676.887282
810.801011	6661.542009
811.120755	6641.826057
811.440453	6562.959725
811.760107	6532.735487
812.079716	6502.675087
812.399281	6438.133194
812.718801	6422.031749
813.038276	6383.708897
813.357707	6319.870246
813.677093	6356.320308
813.996434	6269.844355
814.315731	6304.217463
814.634983	6289.908148
814.954191	6296.428880
815.273354	6397.224231
815.592473	6455.520134
815.911547	6565.485343
816.230577	6647.774618
816.549562	6789.456247
816.868502	6886.906792
817.187399	6977.105637
817.506250	7119.770291
817.825058	7148.129302
818.143821	7383.558748
818.462539	7632.682489
818.781213	7952.389945
819.099843	8434.052031
819.418429	9336.652983
819.736970	10236.561959
820.055466	11332.297077
820.373919	12704.783979
820.692327	14695.694429
821.010691	18012.188886
821.329011	25426.798621
821.647286	37079.370284
821.965517	51062.842936
822.283704	58510.028607
822.601847	61675.180064
822.919945	59509.666730
823.237999	55653.259655
823.556010	49685.818995
823.873976	43034.402143
824.191897	36554.886117
824.509775	31704.489532
824.827609	27062.990802
825.145398	24251.821606
825.463144	22579.645670
825.780845	22470.817240
826.098502	23704.611918
826.416116	27004.321853
826.733685	30740.567985
827.051210	32585.252206
827.368692	31653.460453
827.686129	28141.772519
828.003522	24120.202120
828.320872	20375.892663
828.638177	17483.497876
828.955439	15278.953408
829.272656	13451.530098
829.589830	11965.002213
829.906960	10663.640951
830.224046	9699.621101
830.541088	8915.270495
830.858086	8430.550949
831.175041	8018.487034
831.491952	7864.323508
831.808819	7853.238011
832.125642	8150.650964
832.442421	8848.850772
832.759157	10326.057563
833.075849	12888.947411
833.392497	16030.672626
833.709101	18521.864663
834.025662	18889.911744
834.342179	17551.770223
834.658653	15484.211549
834.975083	13558.712590
835.291469	11906.592884
835.607811	10572.660727
835.924110	9657.587960
836.240366	8791.081670
836.556578	7989.523085
836.872746	7333.875657
837.188871	6816.617984
837.504952	6387.837602
837.820990	6064.992028
838.136984	5834.369322
838.452935	5714.316763
838.768842	5696.423188
839.084706	5972.501978
839.400526	6941.704134
839.716303	8433.958769
840.032037	9681.772896
840.347727	9918.845758
840.663373	9118.504612
840.978977	8075.827638
841.294537	7246.487255
841.610054	6631.022864
841.925527	6193.629671
842.240957	5832.773796
842.556344	5503.972098
842.871687	5224.881219
843.186987	4943.075677
843.502244	4712.465574
843.817458	4541.618350
844.132629	4398.870517
844.447756	4312.480263
844.762840	4228.595463
845.077881	4153.073938
845.392879	4090.117488
845.707833	4042.002195
846.022745	3999.601050
846.337613	3971.050475
846.652438	3927.252931
846.967221	3913.851023
847.281960	3878.036146
847.596656	3862.887478
847.911309	3842.518696
848.225919	3817.380982
848.540485	3798.605205
848.855009	3789.084986
849.169490	3771.682923
849.483928	3756.093155
849.798323	3747.724839
850.112675	3730.675657
850.426984	3736.180597
850.741251	3722.040160
851.055474	3714.894325
851.369654	3716.696537
851.683792	3713.482802
851.997887	3718.949933
852.311938	3724.059143
852.625947	3729.536356
852.939914	3719.333061
853.253837	3728.472673
853.567718	3727.845049
853.881555	3716.131928
854.195350	3728.079463
854.509103	3725.039647
854.822812	3727.242631
855.136479	3715.658060
855.450103	3723.701221
855.763685	3712.202349
856.077224	3714.256619
856.390720	3727.923187
856.704173	3747.934047
857.017584	3759.367384
857.330953	3768.690998
857.644278	3791.300573
857.957561	3798.895071
858.270802	3798.872386
858.584000	3800.588899
858.897155	3797.599495
859.210268	3779.405971
859.523339	3759.624483
859.836367	3759.954678
860.149352	3747.344232
860.462295	3741.965321
860.775195	3731.804875
861.088054	3728.003845
861.400869	3724.699369
861.713642	3722.952609
862.026373	3733.327304
862.339062	3740.241246
862.651708	3756.745984
862.964312	3787.252527
863.276873	3798.315339
863.589392	3845.800487
863.901869	3894.157756
864.214303	3935.114610
864.526696	3970.722800
864.839045	4013.302906
865.151353	4042.677710
865.463619	4057.223959
865.775842	4054.297569
866.088023	4076.072833
866.400162	4065.630083
866.712258	4075.059561
867.024313	4078.994182
867.336325	4074.588213
867.648296	4079.135334
867.960224	4080.846806
868.272110	4092.701079
868.583954	4092.111264
868.895755	4103.287502
869.207515	4097.792645
869.519233	4137.640445
869.830909	4149.877846
870.142542	4173.203265
870.454134	4188.793033
870.765684	4215.324626
871.077191	4247.487188
871.388657	4274.548101
871.700081	4308.268379
872.011463	4344.854553
872.322803	4374.168863
872.634101	4410.863422
872.945357	4447.308444
873.256571	4498.486238
873.567744	4528.465979
873.878874	4549.351480
874.189963	4588.649795
874.501010	4598.477524
874.812015	4593.209518
875.122979	4637.180983
875.433900	4633.107730
875.744780	4646.812107
876.055618	4669.535108
876.366415	4671.720448
876.677169	4685.959187
876.987882	4724.226586
877.298554	4775.086787
877.609183	4842.802086
877.919771	4937.666519
878.230317	5061.878030
878.540822	5244.196400
878.851285	5521.921127
879.161707	5911.985447
879.472087	6554.036883
879.782425	7570.111688
880.092722	9388.400427
880.402977	12238.199984
880.713191	15766.521205
881.023363	19485.236725
881.333494	21954.240123
881.643583	23435.220218
881.953631	23652.337673
882.263637	22997.433815
882.573602	21690.255061
882.883526	20248.953888
883.193408	18681.066822
883.503248	17071.950679
883.813048	15583.300469
884.122806	14213.021592
884.432522	12775.506326
884.742197	11541.986391
885.051831	10465.884047
885.361424	9465.010842
885.670975	8642.050038
885.980485	7947.331148
886.289954	7376.178499
886.599382	6904.218114
886.908768	6519.910792
887.218113	6164.771586
887.527417	5873.345003
887.836680	5608.384477
888.145901	5391.093102
888.455082	5232.858845
888.764221	5075.103497
889.073319	4940.630718
889.382376	4869.850397
889.691392	4801.764573
890.000366	4772.546046
890.309300	4750.740535
890.618193	4755.204477
890.927044	4740.025562
891.235855	4758.264457
891.544625	4782.605668
891.853353	4827.371114
892.162041	4922.187657
892.470687	5080.779836
892.779293	5294.242454
893.087858	5617.403101
893.396381	6109.823009
893.704864	6789.010105
894.013306	7818.166704
894.321707	8951.468500
894.630068	9844.405560
894.938387	10190.659733
895.246665	10079.214944
895.554903	9552.293380
895.863100	8901.412363
896.171256	8367.765899
896.479371	7880.303966
896.787446	7392.516879
897.095480	6970.496684
897.403473	6665.307751
897.711425	6353.527509
898.019336	6095.952274
898.327207	5829.310524
898.635038	5608.255927
898.942827	5356.583883
899.250576	5160.356970
899.558284	4969.393021
899.865952	4852.312223
900.173579	4707.537846
900.481165	4597.527267
900.788711	4504.747351
901.096216	4425.944034
901.403681	4363.151421
901.711105	4335.230991
902.018489	4311.618226
902.325832	4363.731154
902.633135	4453.831697
902.940397	4709.519020
903.247619	5322.551054
903.554800	6515.482138
903.861941	8285.340513
904.169041	9856.491726
904.476101	10710.468229
904.783121	10575.821530
905.090100	9946.602351
905.397039	9158.352413
905.703938	8430.762678
906.010796	7760.274093
906.317614	7225.256435
906.624391	6714.070832
906.931129	6296.983407
907.237826	5911.655251
907.544483	5551.905910
907.851099	5189.247823
908.157675	4837.271941
908.464211	4511.840254
908.770707	4269.814458
909.077163	4066.814754
909.383578	3913.893873
909.689954	3795.825009
909.996289	3721.130232
910.302584	3654.095489
910.608839	3615.974283
910.915054	3587.680807
911.221229	3571.692788
911.527363	3579.065476
911.833458	3587.738781
912.139513	3609.042697
912.445527	3630.802838
912.751502	3702.414948
913.057436	3790.236890
913.363331	3906.150661
913.669186	4082.099533
913.975000	4299.774035
914.280775	4656.813756
914.586510	5148.689219
914.892205	5842.563717
915.197859	6772.759945
915.503475	7908.993172
915.809050	8968.517682
916.114585	9692.651706
916.420081	10059.088138
916.725536	10099.808058
917.030952	9738.569056
917.336328	9377.234271
917.641665	9005.920523
917.946961	8555.120382
918.252218	8150.025861
918.557435	7668.409146
918.862612	7248.473469
919.167750	6895.466671
919.472848	6492.381051
919.777906	6133.617255
920.082925	5781.774963
920.387904	5420.601496
920.692843	5144.147140
920.997743	4896.124891
921.302603	4662.752236
921.607423	4502.214171
921.912204	4341.076209
922.216946	4224.018096
922.521647	4109.599027
922.826310	4007.399715
923.130932	3913.520827
923.435516	3818.996672
923.740059	3749.285076
924.044564	3674.600382
924.349028	3618.134418
924.653454	3556.486147
924.957840	3489.905108
925.262186	3442.480453
925.566493	3380.486864
925.870761	3327.950479
926.174989	3295.495531
926.479178	3255.914911
926.783328	3216.724981
927.087438	3191.751105
927.391509	3156.455466
927.695541	3127.935138
927.999533	3104.203907
928.303486	3081.826225
928.607400	3065.628997
928.911275	3054.372101
929.215110	3034.668751
929.518906	3028.032072
929.822663	3021.806247
930.126381	3021.823891
930.430060	3028.657175
930.733699	3028.246321
931.037299	3041.340718
931.340861	3038.268135
931.644383	3049.552758
931.947866	3048.804147
932.251309	3041.572611
932.554714	3038.815100
932.858080	3034.341076
933.161407	3030.096425
933.464694	3018.463962
933.767943	3014.441121
934.071153	3010.166223
934.374323	3001.593741
934.677455	2991.720641
934.980548	2990.553614
935.283602	2984.032881
935.586617	2977.234885
935.889593	2985.545228
936.192530	2988.199395
936.495428	2998.286744
936.798287	3019.066380
937.101108	3042.447252
937.403890	3089.796289
937.706632	3146.902480
938.009336	3220.583984
938.312002	3292.748102
938.614628	3356.019624
938.917216	3412.480547
939.219765	3440.567335
939.522275	3474.453972
939.824747	3479.684169
940.127179	3483.744818
940.429573	3478.025629
940.731929	3476.886328
941.034246	3463.930563
941.336524	3451.718368
941.638763	3439.808642
941.940964	3429.494441
942.243126	3392.845253
942.545250	3367.891541
942.847335	3332.235460
943.149381	3300.458547
943.451389	3268.117024
943.753359	3235.956983
944.055290	3209.745504
944.357182	3181.005886
944.659036	3172.178825
944.960851	3157.370436
945.262628	3141.122797
945.564367	3146.547078
945.866067	3141.347128
946.167729	3134.838999
946.469352	3133.591313
946.770937	3131.620222
947.072484	3114.306379
947.373992	3120.070938
947.675462	3110.621296
947.976893	3096.667382
948.278286	3091.573296
948.579641	3082.680700
948.880958	3073.926737
949.182236	3079.136769
949.483476	3071.580080
949.784678	3071.522106
950.085841	3071.091088
950.386967	3078.176429
950.688054	3092.674788
950.989103	3107.543671
951.290114	3130.574182
951.591087	3153.899601
951.892021	3183.259281
952.192917	3210.526882
952.493776	3236.120821
952.794596	3245.280597
953.095378	3251.796288
953.396122	3247.080289
953.696828	3242.697006
953.997496	3232.700398
954.298126	3214.025443
954.598718	3196.898123
954.899272	3174.338960
955.199788	3147.280566
955.500266	3119.254272
955.800706	3084.903849
956.101108	3051.244065
956.401472	3022.353212
956.701798	2989.247955
957.002087	2948.860751
957.302337	2921.968716
957.602550	2894.015518
957.902724	2865.543081
958.202861	2840.009637
958.502960	2820.467604
958.803022	2801.238122
959.103045	2779.959412
959.403031	2763.031217
959.702979	2751.050915
960.002889	2736.565160
960.302762	2725.265413
960.602596	2716.380380
960.902393	2708.979966
961.202153	2695.711649
961.501875	2689.571523
961.801559	2684.394258
962.101205	2678.712878
962.400814	2674.150634
962.700385	2667.493790
962.999918	2660.670588
963.299414	2652.297232
963.598873	2650.187509
963.898293	2641.216776
964.197677	2645.305152
964.497022	2645.106026
964.796331	2637.204017
965.095601	2638.355921
965.394835	2635.273255
965.694030	2634.617905
965.993189	2635.013636
966.292309	2631.827627
966.591393	2632.359468
966.890439	2628.581124
967.189447	2629.332256
967.488419	2630.353089
967.787353	2630.325363
968.086249	2631.144550
968.385108	2632.409880
968.683930	2635.963893
968.982714	2639.956487
969.281462	2642.479585
969.580172	2647.341778
969.878844	2655.054743
970.177480	2662.051865
970.476078	2666.881290
970.774639	2673.974193
971.073162	2680.573064
971.371649	2689.848787
971.670098	2695.230219
971.968510	2696.903882
972.266885	2699.865560
972.565223	2709.100953
972.863524	2709.506766
973.161788	2713.123794
973.460014	2714.227807
973.758204	2718.069166
974.056356	2720.146122
974.354471	2722.434805
974.652550	2723.269116
974.950591	2719.717623
975.248595	2722.190309
975.546563	2717.973384
975.844493	2717.930534
976.142386	2709.292517
976.440243	2704.523586
976.738062	2701.728266
977.035845	2694.688295
977.333590	2689.616894
977.631299	2684.137160
977.928971	2679.887467
978.226606	2670.553771
978.524204	2667.997906
978.821765	2662.707215
979.119290	2667.917247
979.416777	2664.688388
979.714228	2668.000426
980.011642	2674.826148
980.309020	2677.525686
980.606360	2687.015658
980.903664	2706.650953
981.200931	2734.319326
981.498162	2777.378341
981.795356	2840.995182
982.092513	2920.111051
982.389633	3018.675691
982.686717	3115.516256
982.983764	3188.000487
983.280775	3245.943509
983.577749	3265.503186
983.874686	3254.609252
984.171587	3230.051271
984.468451	3195.022814
984.765279	3158.350940
985.062070	3116.721092
985.358824	3074.715677
985.655543	3019.736853
985.952224	2973.587611
986.248869	2911.709968
986.545478	2854.959178
986.842050	2800.388688
987.138586	2754.289857
987.435086	2712.488609
987.731549	2682.458455
988.027975	2658.946514
988.324366	2638.623102
988.620719	2624.278499
988.917037	2612.872888
989.213318	2603.735797
989.509563	2596.690784
989.805772	2593.897985
990.101944	2589.587799
990.398080	2585.159145
990.694180	2583.382138
990.990244	2585.829618
991.286271	2584.788620
991.582262	2584.367684
991.878217	2587.110072
992.174136	2589.920515
992.470019	2590.028900
992.765865	2595.382605
993.061676	2599.075250
993.357450	2606.236209
993.653188	2612.270470
993.948890	2625.037192
994.244556	2641.194091
994.540186	2662.555980
994.835780	2691.162007
995.131337	2722.616287
995.426859	2761.556680
995.722345	2806.891776
996.017795	2855.952286
996.313208	2892.230949
996.608586	2922.056936
996.903928	2940.941098
997.199234	2943.968311
997.494504	2940.341201
997.789738	2930.838626
998.084936	2911.651994
998.380099	2883.867675
998.675225	2857.623428
998.970316	2828.641835
999.265371	2790.394600
999.560390	2756.250865
999.855373	2729.300857
1000.150320	2701.115766
1000.445232	2676.429235
1000.740108	2654.038951
1001.034948	2636.120169
1001.329752	2620.926132
1001.624521	2610.266612
1001.919254	2595.637183
1002.213951	2589.620566
1002.508613	2582.585636
1002.803239	2576.430387
1003.097829	2570.287741
1003.392384	2567.182390
1003.686903	2561.768191
1003.981386	2555.567572
1004.275834	2553.924156
1004.570246	2550.554144
1004.864623	2546.914431
1005.158964	2544.449307
1005.453270	2543.945192
1005.747540	2542.132897
1006.041775	2540.524769
1006.335974	2539.007382
1006.630138	2538.326826
1006.924266	2538.694830
1007.218359	2536.922864
1007.512416	2532.746268
1007.806438	2534.435055
1008.100425	2531.662420
1008.394376	2529.199817
1008.688292	2536.496887
1008.982172	2534.460261
1009.276017	2534.430014
1009.569827	2529.857687
1009.863602	2532.713501
1010.157341	2530.318953
1010.451045	2528.093283
1010.744714	2531.112935
1011.038347	2533.036135
1011.331945	2527.369878
1011.625508	2528.201668
1011.919036	2528.602440
1012.212528	2527.863911
1012.505986	2524.763601
1012.799408	2524.622449
1013.092795	2524.181348
1013.386147	2524.342665
1013.679464	2523.014321
1013.972745	2523.450381
1014.265992	2522.149763
1014.559204	2523.402490
1014.852380	2523.604136
1015.145521	2522.180010
1015.438628	2523.818385
1015.731699	2522.444671
1016.024736	2522.885772
1016.317737	2520.922242
1016.610703	2524.304856
1016.903635	2527.029600
1017.196531	2527.294261
1017.489393	2528.471370
1017.782219	2528.877183
1018.075011	2530.011443
1018.367768	2533.227699
1018.660490	2531.556556
1018.953177	2531.556556
1019.245829	2531.556556
