Dividing Wavelength (nm)	Counts (n)	Blue Motor Position (mm): 35.000000	Red Motor Position (mm): 0.000000	
326.493990	2067.263766
326.888308	2067.263766
327.282561	2067.263766
327.676750	2041.085054
328.070874	2043.582946
328.464933	2046.650488
328.858929	2057.423434
329.252859	2066.978941
329.646726	2081.290777
330.040528	2098.559249
330.434265	2111.706579
330.827938	2137.660959
331.221547	2156.250214
331.615091	2175.885508
332.008571	2196.251770
332.401986	2217.439739
332.795338	2238.610065
333.188625	2255.026583
333.581847	2273.915786
333.975006	2293.919084
334.368100	2309.350056
334.761129	2327.024342
335.154095	2343.324913
335.546996	2394.994219
335.939833	2497.992554
336.332606	2509.884636
336.725315	2525.537418
337.117960	2534.125024
337.510540	2543.055428
337.903056	2548.671273
338.295508	2558.156204
338.687896	2564.984447
339.080220	2571.111970
339.472480	2575.444842
339.864676	2579.553382
340.256807	2581.322827
340.648875	2586.820205
341.040879	2582.492375
341.432818	2585.922880
341.824694	2588.153590
342.216506	2588.183837
342.608253	2588.171234
342.999937	2586.449680
343.391557	2586.031265
343.783113	2582.888105
344.174605	2580.738053
344.566033	2581.133784
344.957397	2578.837538
345.348697	2577.176478
345.739934	2574.025757
346.131106	2573.766137
346.522215	2571.598441
346.913260	2569.965107
347.304241	2570.333112
347.695159	2566.574931
348.086012	2567.139541
348.476802	2563.300702
348.867528	2562.592420
349.258191	2555.565051
349.648789	2559.308108
350.039324	2553.790565
350.429796	2558.337686
350.820203	2555.159238
351.210548	2557.820968
351.600828	2554.589588
351.991045	2556.686708
352.381198	2553.813250
352.771288	2555.134033
353.161314	2554.052705
353.551276	2555.055895
353.941175	2552.021120
354.331010	2554.307283
354.720782	2557.997408
355.110490	2558.100752
355.500135	2556.356512
355.889717	2553.873744
356.279235	2554.017417
356.668689	2555.030689
357.058080	2554.851728
357.447408	2554.937428
357.836672	2556.989177
358.225873	2557.664692
358.615010	2557.463046
359.004084	2557.901626
359.393095	2560.679302
359.782043	2558.362892
360.170927	2560.137378
360.559748	2560.906154
360.948505	2561.964796
361.337199	2565.952349
361.725830	2562.627708
362.114398	2561.453119
362.502903	2562.204251
362.891344	2566.509396
363.279722	2561.216185
363.668037	2565.937225
364.056289	2565.233984
364.444478	2562.852039
364.832603	2566.395970
365.220665	2567.883111
365.608665	2566.809345
365.996601	2566.413614
366.384474	2568.692216
366.772284	2565.745662
367.160031	2567.298337
367.547715	2570.867474
367.935336	2564.596278
368.322893	2568.999726
368.710388	2567.265569
369.097820	2569.828996
369.485189	2565.304561
369.872495	2571.873184
370.259738	2571.994172
370.646918	2572.311764
371.034035	2569.045097
371.421090	2570.338153
371.808081	2571.356466
372.195010	2574.287897
372.581875	2571.779923
372.968678	2576.052301
373.355418	2573.655232
373.742096	2572.654563
374.128710	2573.786302
374.515262	2573.219172
374.901751	2574.837382
375.288177	2575.822928
375.674540	2573.390571
376.060841	2577.766293
376.447079	2573.771178
376.833254	2576.385017
377.219367	2573.869481
377.605417	2580.415419
377.991404	2575.843093
378.377329	2578.605645
378.763191	2576.954667
379.148991	2577.859554
379.534727	2576.256467
379.920402	2579.596232
380.306013	2578.487178
380.691563	2581.121181
381.077049	2580.415419
381.462474	2579.545820
381.847835	2581.889957
382.233134	2581.063207
382.618371	2583.412385
383.003545	2582.368866
383.388657	2584.055132
383.773706	2583.218301
384.158693	2582.840214
384.543618	2583.258630
384.928480	2584.559248
385.313280	2582.573033
385.698017	2583.571182
386.082692	2585.330544
386.467305	2584.168558
386.851856	2585.398600
387.236344	2585.892633
387.620770	2582.688980
388.005133	2584.155955
388.389435	2586.731985
388.773674	2580.065059
389.157851	2589.912953
389.541965	2590.086873
389.926018	2588.062850
390.310008	2587.742736
390.693936	2590.318766
391.077802	2592.831781
391.461606	2594.041658
391.845348	2593.288006
392.229027	2590.112079
392.612645	2591.720207
392.996200	2591.959662
393.379694	2592.766246
393.763125	2591.213571
394.146494	2594.172728
394.529801	2593.628283
394.913047	2595.107862
395.296230	2594.402101
395.679351	2595.566607
396.062410	2596.353027
396.445408	2594.810434
396.828343	2598.752616
397.211217	2596.524426
397.594028	2599.899479
397.976778	2597.734303
398.359466	2601.096753
398.742092	2599.120621
399.124656	2597.454519
399.507158	2601.386619
399.889598	2603.370313
400.271977	2602.122628
400.654294	2607.443566
401.036549	2603.788729
401.418742	2606.445417
401.800874	2606.309306
402.182944	2606.677310
402.564952	2607.632609
402.946898	2608.509770
403.328783	2609.676797
403.710606	2611.305089
404.092367	2612.545213
404.474067	2611.746190
404.855705	2613.248454
405.237282	2615.451438
405.618797	2614.604525
406.000250	2619.088631
406.381642	2619.474279
406.762972	2623.996194
407.144240	2620.943776
407.525447	2624.094497
407.906593	2626.151287
408.287677	2632.495580
408.668700	2637.879532
409.049661	2644.188536
409.430560	2649.267498
409.811399	2650.318579
410.192176	2657.424085
410.572891	2664.683347
410.953545	2673.593586
411.334138	2675.831859
411.714669	2689.107737
412.095139	2695.240301
412.475547	2710.893084
412.855894	2718.026316
413.236180	2735.751013
413.616405	2745.682086
413.996568	2765.017432
414.376670	2779.190636
414.756711	2791.186062
415.136691	2812.389155
415.516609	2839.767661
415.896466	2863.014942
416.276262	2889.753222
416.655997	2921.578026
417.035670	2958.892647
417.415283	2997.651558
417.794834	3029.078112
418.174324	3051.377656
418.553753	3077.833631
418.933121	3134.166005
419.312428	3170.190090
419.691674	3184.529652
420.070859	3254.427771
420.449983	3267.388577
420.829045	3342.022860
421.208047	3363.823330
421.586988	3432.657765
421.965867	3492.496261
422.344686	3553.048081
422.723444	3637.636122
423.102141	3584.303234
423.480777	3725.120305
423.859352	3724.074266
424.237866	3872.057337
424.616319	3921.606838
424.994712	4024.889998
425.373044	4047.809604
425.751314	4202.701577
426.129524	4161.651461
426.507673	4311.905572
426.885762	4382.272518
427.263789	4456.909321
427.641756	4556.353642
428.019662	4649.320081
428.397508	4722.764652
428.775292	4779.311274
429.153016	4917.234723
429.530679	4951.413746
429.908282	5037.342734
430.285824	5066.747784
430.663305	5267.703300
431.040726	5275.895175
431.418086	5341.326831
431.795385	5478.607533
432.172624	5646.624149
432.549802	5648.113810
432.926920	5791.446417
433.303977	5821.388350
433.680974	5911.365385
434.057910	6099.831442
434.434786	6201.395568
434.811601	6238.180868
435.188355	6523.051431
435.565050	6513.626994
435.941683	6586.340597
436.318257	6880.784311
436.694770	6907.268012
437.071222	7137.066490
437.447614	7038.038064
437.823946	7079.214208
438.200218	7253.358347
438.576429	7217.477935
438.952580	7407.247130
439.328670	7471.423539
439.704700	7588.910150
440.080670	7560.704894
440.456580	7838.346442
440.832429	7870.146041
441.208218	7710.036474
441.583947	7860.754371
441.959616	8001.205959
442.335224	8076.651867
442.710773	8197.657203
443.086261	8400.571208
443.461689	8196.603602
443.837057	8383.204433
444.212365	8619.468190
444.587612	8650.224269
444.962800	8594.111186
445.337927	8749.804702
445.712995	8374.581539
446.088002	9010.490329
446.462949	9102.199000
446.837837	9121.252041
447.212664	9181.816463
447.587431	9986.258588
447.962139	10943.790473
448.336786	11834.879950
448.711374	11658.285811
449.085901	10553.983252
449.460369	10518.107881
449.834776	10341.579276
450.209124	11244.767522
450.583412	11096.802095
450.957640	11412.670713
451.331808	11042.345031
451.705917	10533.417865
452.079965	10432.609911
452.453954	10638.709925
452.827883	10603.988977
453.201752	10587.854765
453.575562	10604.936714
453.949311	10949.615526
454.323001	11033.906139
454.696632	10967.713269
455.070202	11546.026876
455.443713	11625.024277
455.817164	11794.749845
456.190556	12110.061415
456.563888	11991.054897
456.937160	12246.780028
457.310373	11755.547312
457.683526	11768.702203
458.056619	11791.740276
458.429653	11867.511339
458.802628	12008.003256
459.175542	12067.511556
459.548398	12615.724434
459.921194	13198.512066
460.293930	13478.165034
460.666607	14338.493391
461.039224	15127.726355
461.411782	15471.066740
461.784280	15132.926305
462.156719	15065.664710
462.529099	14977.147089
462.901419	14350.960164
463.273680	13957.183034
463.645882	14170.403677
464.018024	14059.152974
464.390106	14439.608855
464.762130	15507.584859
465.134094	17044.035290
465.505999	19337.654425
465.877845	21582.054256
466.249631	22789.292135
466.621358	22284.375207
466.993026	21469.424796
467.364634	20719.656505
467.736184	19922.196378
468.107674	19328.832406
468.479105	19190.490542
468.850477	18922.278472
469.221790	18488.819900
469.593043	17816.675296
469.964238	17440.605219
470.335373	17501.797265
470.706449	18219.055154
471.077467	19091.386498
471.448425	21539.148995
471.819324	23409.578389
472.190164	23288.245378
472.560945	21556.006614
472.931667	19991.844960
473.302330	19654.248969
473.672934	19125.331108
474.043479	19532.419404
474.413965	19329.321398
474.784393	19153.133071
475.154761	19814.850048
475.525070	19946.615728
475.895321	19780.978536
476.265513	20301.545726
476.635645	20894.758464
477.005719	20947.778799
477.375734	21311.966877
477.745691	21930.511412
478.115588	22567.151170
478.485427	23759.013530
478.855207	25562.375413
479.224928	27360.176903
479.594591	28769.232335
479.964194	28387.221258
480.333739	28825.673094
480.703226	29044.234839
481.072653	29485.988630
481.442022	30017.686688
481.811333	30406.079866
482.180584	29961.432452
482.549777	29734.721682
482.918912	29492.237140
483.287988	29437.838049
483.657005	29291.942016
484.025964	28911.077802
484.394864	29111.083060
484.763706	29028.201449
485.132489	28497.844338
485.501213	28561.370439
485.869879	28734.962571
486.238487	28658.059769
486.607036	28941.254148
486.975527	28615.585528
487.343959	28962.122005
487.712333	29301.759663
488.080648	29271.464849
488.448905	29698.024602
488.817104	29571.048019
489.185244	30390.406918
489.553326	31353.025328
489.921350	33241.043307
490.289315	35742.287405
490.657222	36632.174567
491.025070	37182.560183
491.392861	36907.603049
491.760593	36130.584801
492.128267	35111.006394
492.495883	34119.403871
492.863440	33218.761407
493.230939	32254.613008
493.598380	31707.153782
493.965763	31541.037681
494.333088	31047.173482
494.700354	30862.974762
495.067563	30809.770424
495.434713	30688.699553
495.801805	30962.557715
496.168839	30800.547633
496.535815	30653.023307
496.902733	30777.207091
497.269593	30591.448134
497.636395	30738.460783
498.003139	31010.824243
498.369825	30770.068817
498.736453	31156.748003
499.103023	30997.480308
499.469535	31070.801371
499.835989	31182.737671
500.202385	31053.424513
500.568723	31092.674937
500.935003	31389.931615
501.301226	31249.487589
501.667390	31954.606381
502.033497	32163.310150
502.399546	31957.368933
502.765537	31562.616340
503.131470	32031.952804
503.497345	32449.088120
503.863163	31411.928690
504.228923	32152.975784
504.594625	32540.995917
504.960269	32015.664836
505.325856	32670.621626
505.691385	32321.357885
506.056856	32649.859634
506.422270	33136.157060
506.787625	32632.117293
507.152924	33086.685697
507.518164	33257.321193
507.883347	32839.706967
508.248472	32965.871924
508.613540	33637.688853
508.978550	33849.676934
509.343503	33682.159392
509.708398	34041.938980
510.073236	34620.179491
510.438016	34718.464347
510.802738	34404.413065
511.167403	34926.802633
511.532010	35160.041698
511.896561	35662.480899
512.261053	36398.149082
512.625488	36169.999062
512.989866	36093.484429
513.354186	36152.181104
513.718449	36105.681501
514.082655	36957.865873
514.446803	36632.713971
514.810894	37248.639627
515.174927	37251.273630
515.538904	37252.397807
515.902822	37878.972901
516.266684	37566.786846
516.630488	37895.459995
516.994235	37897.630212
517.357925	38473.703026
517.721558	38708.837565
518.085133	39074.253163
518.448651	39281.663877
518.812112	39151.113115
519.175516	39310.131272
519.538863	39744.398950
519.902152	39815.227161
520.265385	40339.439106
520.628560	40359.510460
520.991678	40298.898147
521.354739	40505.479590
521.717743	40873.662782
522.080690	40780.474532
522.443580	41436.202619
522.806413	41442.607405
523.169189	41574.080697
523.531908	41807.791110
523.894569	41664.796261
524.257174	41846.434075
524.619722	42179.215764
524.982213	42340.444467
525.344647	42374.368911
525.707025	42484.785304
526.069345	42922.236470
526.431608	42837.592977
526.793815	43215.271182
527.155964	42760.072633
527.518057	43011.555634
527.880093	42864.550547
528.242072	43485.436698
528.603995	43234.462854
528.965860	43141.642609
529.327669	43367.347670
529.689421	43410.263012
530.051117	43372.464441
530.412755	43634.564112
530.774337	43691.040158
531.135862	43625.895848
531.497331	43788.294098
531.858743	43780.606338
532.220098	44175.948747
532.581396	43887.708172
532.942638	43668.574256
533.303824	43904.013785
533.664953	43978.269981
534.026025	43652.573634
534.387040	44221.372063
534.747999	44284.578050
535.108902	44613.919152
535.469748	43931.057054
535.830537	44199.715266
536.191270	44453.436539
536.551947	44188.942321
536.912567	44467.105628
537.273131	44596.038179
537.633638	44209.129621
537.994089	44402.818314
538.354483	44174.169219
538.714821	44805.971990
539.075103	45075.580459
539.435328	44959.752388
539.795497	44721.693980
540.155609	44856.678436
540.515665	45416.548982
540.875665	44722.608949
541.235609	44991.062994
541.595496	45136.810314
541.955328	45713.813221
542.315102	45159.445094
542.674821	45056.227469
543.034483	44952.863651
543.394090	44965.771525
543.753640	44951.091685
544.113134	46013.416556
544.472571	45113.401716
544.831953	46224.802219
545.191278	45498.145098
545.550548	45194.339961
545.909761	45818.066803
546.268918	45974.687892
546.628019	46364.575771
546.987064	45819.138048
547.346053	45136.081867
547.704986	46012.617533
548.063863	45674.487180
548.422684	45870.973713
548.781449	45462.988091
549.140158	45993.539286
549.498811	45755.221259
549.857408	45160.891906
550.215949	45984.893707
550.574434	45823.206260
550.932864	45779.416277
551.291237	46470.800444
551.649555	46216.585138
552.007817	46391.823208
552.366022	46111.106556
552.724173	46163.098496
553.082267	46551.668114
553.440305	46933.875796
553.798288	46204.483848
554.156215	46576.977227
554.514086	46781.421221
554.871902	46378.476753
555.229661	46547.640232
555.587365	46245.861639
555.945014	46357.593773
556.302606	46387.540747
556.660143	46488.504977
557.017625	46694.068107
557.375050	46392.692807
557.732421	46794.369425
558.089735	46847.120058
558.446994	46714.139461
558.804197	47201.054429
559.161345	47056.322902
559.518437	46417.016374
559.875474	46659.037129
560.232455	46873.518061
560.589381	46923.060000
560.946251	46757.755524
561.303065	47392.030981
561.659825	47066.730364
562.016528	46887.814773
562.373177	46471.407903
562.729770	47118.936553
563.086307	46626.471275
563.442789	47174.721962
563.799216	47018.063065
564.155587	46939.002649
564.511904	46886.166316
564.868164	46946.009853
565.224370	47248.436234
565.580520	46981.479411
565.936615	47172.161056
566.292654	46829.544076
566.648638	47195.297431
567.004567	47136.225190
567.360441	47223.409426
567.716260	46927.574353
568.072023	47321.066658
568.427732	47239.888957
568.783385	46791.478323
569.138982	47196.144345
569.494525	47341.397631
569.850013	46944.810058
570.205445	47070.218842
570.560823	46837.758636
570.916145	46692.306224
571.271412	46939.058102
571.626625	46584.309585
571.981782	46659.155596
572.336884	46274.429858
572.691931	46598.288705
573.046923	46275.324663
573.401860	46098.670029
573.756743	46129.894936
574.111570	46269.602953
574.466342	46175.842533
574.821059	46332.405648
575.175722	45829.991653
575.530330	45925.871878
575.884882	45566.256128
576.239380	45466.675695
576.593823	45580.973776
576.948211	45505.258166
577.302544	45046.142641
577.656823	45045.996448
578.011047	45310.503269
578.365216	45150.935627
578.719330	44876.631323
579.073389	44850.908835
579.427394	44916.292600
579.781344	44819.099154
580.135239	44574.560343
580.489080	44645.743956
580.842866	44131.735307
581.196597	44626.653106
581.550273	44621.894257
581.903895	44556.313887
582.257463	44973.456764
582.610975	44422.917394
582.964434	44752.034164
583.317837	44245.289818
583.671186	44213.802771
584.024481	44506.930743
584.377721	44054.197319
584.730906	44282.448163
585.084037	44428.928970
585.437113	44148.227442
585.790135	44252.211322
586.143103	43844.001369
586.496016	44010.283828
586.848874	44107.941061
587.201679	44132.037776
587.554428	43640.772292
587.907124	43905.982355
588.259765	43683.796020
588.612352	43828.172146
588.964884	43298.941733
589.317362	43602.124287
589.669786	43587.583078
590.022155	43474.610821
590.374470	43932.745841
590.726731	43535.024008
591.078937	42873.286866
591.431090	43223.798293
591.783188	42730.092891
592.135232	42549.538925
592.487222	42804.689365
592.839157	42949.083135
593.191038	42607.572688
593.542866	42427.343877
593.894639	41808.025524
594.246358	42097.786006
594.598022	42102.449073
594.949633	41689.505476
595.301190	41692.323481
595.652692	41640.560913
596.004141	42141.018941
596.355535	41035.254448
596.706876	41055.872767
597.058162	40768.209405
597.409395	41265.806578
597.760573	41499.806857
598.111698	41102.672319
598.462768	41023.700123
598.813785	41038.067412
599.164748	40654.717908
599.515657	40909.533112
599.866511	40443.468357
600.217312	41110.375202
600.568060	40069.291233
600.918753	40877.783925
601.269392	40799.046143
601.619978	40540.366895
601.970510	40742.307957
602.320988	40893.555175
602.671412	41126.950516
603.021783	40999.152224
603.372100	40585.621333
603.722363	40689.312827
604.072572	40724.331202
604.422728	40720.913300
604.772830	40504.922543
605.122878	40693.796933
605.472872	40549.277135
605.822813	40793.911728
606.172701	40536.790197
606.522534	40873.423327
606.872314	41070.514798
607.222041	40907.783832
607.571714	41241.104924
607.921333	40721.601417
608.270899	40928.611359
608.620411	41306.241673
608.969870	41067.969016
609.319276	41085.182035
609.668627	41112.656324
610.017926	41502.617300
610.367171	41652.452995
610.716362	41696.837834
611.065500	41588.223654
611.414585	41837.831346
611.763616	41984.274344
612.112594	41898.257136
612.461518	42014.856504
612.810389	42406.997780
613.159207	42182.863038
613.507971	42153.266424
613.856682	42659.398270
614.205340	42495.651511
614.553945	43178.833722
614.902496	42528.212324
615.250994	42949.204123
615.599439	43014.799617
615.947830	43129.080054
616.296169	43149.106037
616.644454	43174.785675
616.992686	43328.750075
617.340864	43765.382054
617.688990	43270.083647
618.037063	43943.763283
618.385082	43758.558852
618.733048	44104.734887
619.080961	43992.178524
619.428821	44023.957958
619.776628	44069.935802
620.124382	43882.266247
620.472083	44023.229511
620.819731	44130.107014
621.167326	43723.752205
621.514868	43682.359291
621.862357	43148.188547
622.209793	43248.583126
622.557176	42839.191022
622.904506	42599.559774
623.251783	42221.236302
623.599007	41923.457864
623.946179	41833.621982
624.293297	41583.747110
624.640363	41051.461757
624.987376	40899.425598
625.334336	40707.639942
625.681243	40296.415378
626.028097	40196.509791
626.374899	40030.746571
626.721647	40002.231284
627.068343	39768.475501
627.414987	39511.137200
627.761577	39235.043286
628.108115	39555.300228
628.454600	38797.405597
628.801032	39054.842200
629.147412	38960.474321
629.493739	38815.016868
629.840014	38399.174608
630.186236	38808.113008
630.532405	38244.204497
630.878521	38510.553861
631.224585	38262.057744
631.570597	37947.824980
631.916556	38104.776264
632.262462	38009.682459
632.608316	37965.050603
632.954117	37806.793660
633.299866	37775.712426
633.645562	37685.274126
633.991206	37186.663682
634.336797	36777.901722
634.682336	36678.936310
635.027823	36456.785263
635.373257	36348.297112
635.718639	35999.353484
636.063968	35899.069810
636.409245	35251.054689
636.754470	35205.245724
637.099642	34966.761339
637.444762	34395.404523
637.789829	34534.442067
638.134845	34158.402237
638.479808	34059.023451
638.824719	34017.794374
639.169577	33505.661034
639.514383	33627.450270
639.859137	33240.284613
640.203839	33413.352466
640.548489	33120.027888
640.893086	33101.985599
641.237632	32818.912207
641.582125	32908.004519
641.926566	32698.405945
642.270955	32728.983064
642.615292	32672.055834
642.959576	32544.481874
643.303809	32548.608059
643.647990	32650.285611
643.992118	32613.558285
644.336195	32443.857923
644.680219	32513.433408
645.024192	32690.728268
645.368112	33215.852661
645.711981	33233.922677
646.055797	33925.407668
646.399562	33731.756784
646.743274	34586.290334
647.086935	34998.467676
647.430544	34977.085622
647.774101	35008.272720
648.117606	35318.772509
648.461059	35455.261749
648.804460	35085.868681
649.147810	34577.327163
649.491108	34257.039974
649.834354	34155.380065
650.177548	33337.939325
650.520690	32836.793180
650.863781	32821.427743
651.206820	32639.679024
651.549807	32213.676318
651.892742	31635.488739
652.235626	31556.095607
652.578458	31413.748546
652.921238	30705.146317
653.263967	30989.976551
653.606644	30682.624963
653.949269	30589.119121
654.291843	30191.694716
654.634365	30553.405066
654.976836	30121.007657
655.319255	30191.740086
655.661622	30063.299048
656.003938	29925.642781
656.346203	29744.776263
656.688416	29996.294552
657.030577	29791.127152
657.372687	29601.547000
657.714746	29739.702342
658.056753	29937.439081
658.398708	29311.186621
658.740612	29376.688853
659.082465	29583.971017
659.424266	29473.426075
659.766016	29462.764034
660.107715	29317.921602
660.449362	29400.994776
660.790958	29391.088909
661.132503	29306.289140
661.473996	29387.673527
661.815438	29477.522012
662.156829	29594.648181
662.498168	29387.466840
662.839456	29372.655930
663.180693	29491.425515
663.521879	29551.626974
663.863013	29505.036630
664.204097	29488.015174
664.545129	29887.803880
664.886110	29816.721090
665.227040	29936.768607
665.567918	29938.205336
665.908746	29988.634518
666.249522	30069.086293
666.590248	30106.857138
666.930922	30203.604442
667.271545	30215.246987
667.612118	30272.948034
667.952639	30090.783419
668.293109	30127.664500
668.633528	29977.581789
668.973896	29933.663256
669.314213	29925.446176
669.654480	29727.769930
669.994695	29698.450580
670.334859	29625.333684
670.674973	29434.788151
671.015035	29628.247471
671.355047	29554.414732
671.695008	29472.130498
672.034918	29381.132630
672.374777	29484.831685
672.714585	29365.739467
673.054342	29477.254831
673.394049	29342.741723
673.733705	29566.611804
674.073310	29277.509192
674.412864	29358.530617
674.752368	29057.929134
675.091820	29310.105293
675.431223	28909.121834
675.770574	28700.833960
676.109875	28544.807728
676.449125	28326.205653
676.788324	28235.822806
677.127473	27757.936544
677.466571	27660.375094
677.805619	27376.578297
678.144616	27302.128017
678.483562	27251.736643
678.822458	26942.976052
679.161303	26885.085962
679.500098	26804.835834
679.838842	26709.247995
680.177535	26764.294874
680.516179	26982.561712
680.854771	27056.764977
681.193314	27744.426252
681.531805	28684.770323
681.870247	29440.156980
682.208638	30234.022764
682.546978	30590.124831
682.885268	30786.679419
683.223508	30369.176099
683.561697	30111.094228
683.899836	29954.140423
684.237925	29542.749502
684.575963	29366.694766
684.913951	28988.671242
685.251889	29120.487332
685.589776	29127.406316
685.927614	29120.424318
686.265401	29292.337746
686.603137	29385.830986
686.940824	29844.792755
687.278460	30169.753094
687.616046	30362.909945
687.953582	31033.645546
688.291068	30974.548100
688.628504	31334.980517
688.965889	31361.267614
689.303224	31106.959047
689.640510	30843.062204
689.977745	30254.318450
690.314930	29519.691264
690.652065	29106.286402
690.989150	28445.093705
691.326185	27603.979706
691.663170	26990.972878
692.000105	26274.884536
692.336990	25676.383628
692.673825	25248.810602
693.010610	24750.159828
693.347345	24257.626495
693.684030	23618.877014
694.020665	23434.615280
694.357251	22763.869596
694.693786	22758.079831
695.030272	22538.467004
695.366707	22045.306047
695.703093	21752.563723
696.039429	21819.570740
696.375716	21578.706929
696.711952	21561.191440
697.048139	21428.868714
697.384276	21270.158067
697.720363	21387.891695
698.056400	21279.534613
698.392388	21120.408072
698.728326	21114.260384
699.064214	20966.249587
699.400053	20980.342133
699.735842	20595.926425
700.071581	20410.200235
700.407270	20170.536220
700.742910	20003.868112
701.078501	19744.644419
701.414042	19544.926507
701.749533	19240.312265
702.084974	18934.614175
702.420366	19159.799997
702.755709	18760.994316
703.091002	18456.760682
703.426246	18513.735802
703.761440	18447.724413
704.096584	18222.243684
704.431679	18149.865318
704.766725	18092.126462
705.101721	18007.687135
705.436668	18130.862688
705.771565	17842.435592
706.106413	18145.540008
706.441212	18225.144868
706.775961	18302.380386
707.110661	18380.987098
707.445311	18745.404548
707.779913	18625.903996
708.114465	18916.415610
708.448967	19214.148677
708.783421	19816.178392
709.117825	20153.245062
709.452180	20366.889162
709.786485	20803.064916
710.120742	21545.417670
710.454949	21636.372688
710.789107	22147.956542
711.123216	22840.280885
711.457275	23061.027971
711.791286	23631.497543
712.125247	23807.635458
712.459159	23579.961827
712.793023	24338.486602
713.126837	23356.495039
713.460602	23630.985866
713.794318	23311.890910
714.127985	23039.469477
714.461602	22173.631139
714.795171	22146.986120
715.128691	21177.204231
715.462162	20665.940491
715.795584	20244.767210
716.128957	19968.854778
716.462281	19603.461865
716.795556	19317.847732
717.128782	18843.510443
717.461960	18252.588910
717.795088	18222.752841
718.128167	17880.395480
718.461198	17435.251513
718.794180	17302.263354
719.127113	16986.661918
719.459997	16794.344419
719.792833	16429.516115
720.125619	16467.037423
720.458357	16130.212729
720.791046	15989.604866
721.123686	15833.422358
721.456278	15614.230468
721.788821	15606.467091
722.121315	15346.991341
722.453761	15439.332677
722.786158	15326.834287
723.118506	15406.245063
723.450805	15295.627025
723.783056	15470.151771
724.115259	15343.666700
724.447412	15334.995916
724.779518	15543.893769
725.111574	15589.188537
725.443582	15846.536920
725.775542	15788.208249
726.107453	16298.393183
726.439315	16207.196189
726.771129	16596.264882
727.102895	16995.078124
727.434612	17276.540867
727.766281	17444.882638
728.097901	17780.774718
728.429473	17884.715749
728.760996	17911.703566
729.092471	18022.714815
729.423897	17909.540911
729.755276	17751.057117
730.086606	17835.062904
730.417887	18380.490545
730.749120	18919.770498
731.080305	19144.318614
731.411442	19556.044772
731.742530	19666.314971
732.073570	19799.096443
732.404562	20128.835795
732.735506	20025.509785
733.066401	19903.347504
733.397249	19459.650348
733.728048	18882.655003
734.058798	18034.783337
734.389501	17287.006302
734.720156	16763.747136
735.050762	16176.926581
735.381320	15779.217351
735.711831	15491.541387
736.042293	15108.282624
736.372707	15131.320697
736.703073	14920.003090
737.033391	15103.790956
737.363661	15076.286421
737.693883	15193.301684
738.024056	15387.408792
738.354182	15582.808956
738.684260	15926.625731
739.014290	16191.268664
739.344272	16420.689055
739.674207	16761.357629
740.004093	16949.279241
740.333931	17012.371802
740.663722	17109.441740
740.993464	17157.325140
741.323159	17031.729833
741.652806	16748.051503
741.982405	16582.870536
742.311956	16237.526292
742.641460	16131.747760
742.970915	15808.443441
743.300323	15468.936853
743.629683	15261.939514
743.958996	14959.097238
744.288260	14644.965298
744.617477	14334.021887
744.946647	14295.358758
745.275768	13994.089322
745.604842	13789.559628
745.933869	13616.401034
746.262847	13581.924583
746.591778	13488.559893
746.920662	13357.628525
747.249498	13350.434799
747.578286	13497.177746
747.907027	13649.430674
748.235720	13913.652671
748.564365	13997.736597
748.892963	13929.832254
749.221514	14041.347618
749.550017	13929.807048
749.878473	13900.999375
750.206881	13687.009956
750.535242	13613.661167
750.863555	13538.676524
751.191821	13428.940687
751.520039	13454.108648
751.848210	13364.328219
752.176334	13407.246082
752.504411	13341.713603
752.832440	13163.992765
753.160421	13279.846042
753.488356	13171.516687
753.816243	13088.133482
754.144082	12912.154363
754.471875	12847.128519
754.799620	12825.237309
755.127318	12793.878811
755.454969	12786.372533
755.782572	12751.092018
756.110129	12769.174637
756.437638	12676.104854
756.765100	12681.587109
757.092515	12697.015561
757.419882	12724.658728
757.747203	12734.599883
758.074477	12821.559787
758.401703	12806.201912
758.728882	12984.177328
759.056014	13024.924974
759.383099	13194.884956
759.710138	13319.058657
760.037129	13447.303090
760.364073	13525.380481
760.690970	13533.917675
761.017820	13546.084500
761.344623	13735.425197
761.671379	14056.879413
761.998088	14604.242857
762.324751	15988.750390
762.651366	18916.365198
762.977935	23209.144633
763.304456	26494.325963
763.630931	28090.360311
763.957359	27310.912227
764.283740	25279.763287
764.610074	23136.594867
764.936362	20520.208295
765.262602	18632.318864
765.588796	16648.428221
765.914943	15328.767570
766.241044	14186.265668
766.567097	13372.981359
766.893104	12628.652473
767.219064	12155.346100
767.544978	11668.393324
767.870845	11272.498910
768.196665	11046.463653
768.522438	10823.090127
768.848165	10609.236819
769.173846	10398.322503
769.499479	10266.566907
769.825066	10105.854922
770.150607	9883.474502
770.476101	9801.301174
770.801548	9683.988483
771.126949	9529.220019
771.452303	9411.322554
771.777611	9222.186023
772.102872	9217.424653
772.428087	9075.985000
772.753256	8927.233153
773.078378	8842.713167
773.403453	8658.688367
773.728482	8543.447590
774.053465	8464.704767
774.378401	8367.080302
774.703291	8246.604287
775.028135	8129.679764
775.352932	8099.823531
775.677683	7995.317891
776.002388	7885.546766
776.327046	7888.649596
776.651658	7796.038559
776.976224	7701.090947
777.300743	7698.446862
777.625216	7610.239272
777.949643	7565.231851
778.274024	7580.945127
778.598359	7499.371696
778.922647	7511.422574
779.246889	7465.923640
779.571086	7471.504198
779.895236	7477.104920
780.219339	7481.861248
780.543397	7484.626321
780.867409	7568.508601
781.191374	7577.325579
781.515294	7541.684621
781.839167	7640.100547
782.162995	7609.087368
782.486776	7553.433030
782.810511	7509.983325
783.134201	7427.278155
783.457844	7424.450068
783.781441	7364.966973
784.104993	7307.898591
784.428498	7289.740355
784.751958	7271.322499
785.075372	7238.360915
785.398739	7182.658685
785.722061	7222.347689
786.045337	7221.029428
786.368568	7355.671085
786.691752	7364.283897
787.014891	7650.926425
787.337983	7957.131151
787.661030	8509.543310
787.984031	9126.426785
788.306987	9566.154032
788.629897	9828.256224
788.952760	9823.421757
789.275579	9642.701433
789.598351	9273.562943
789.921078	8943.188405
790.243759	8532.263790
790.566395	8240.078513
790.888984	7988.930749
791.211529	7781.797299
791.534027	7554.411014
791.856480	7352.795107
792.178888	7271.314937
792.501249	7169.995307
792.823566	7016.479569
793.145836	7013.066708
793.468062	6976.064639
793.790241	6923.563542
794.112375	6984.425393
794.434464	7124.390508
794.756507	7148.981257
795.078505	7282.788603
795.400457	7571.845844
795.722364	7902.772389
796.044226	8195.605454
796.366042	8479.601376
796.687812	8452.442160
797.009538	8551.836070
797.331218	8459.426679
797.652852	8389.526039
797.974442	8248.353567
798.295986	8161.688571
798.617484	7972.972977
798.938938	7834.313519
799.260346	7737.510763
799.581709	7537.273611
799.903026	7463.624874
800.224299	7359.772064
800.545526	7192.569594
800.866708	7088.358861
801.187845	7024.043821
801.508936	6921.448778
801.829983	6884.353448
802.150984	6733.285190
802.471940	6687.279620
802.792851	6675.695049
803.113717	6645.052395
803.434538	6610.228104
803.755314	6554.087294
804.076045	6556.280196
804.396731	6490.581359
804.717372	6520.608992
805.037967	6518.988261
805.358518	6559.314971
805.679024	6637.427650
805.999485	6645.606922
806.319901	6689.354055
806.640272	6703.295366
806.960598	6791.530682
807.280879	6794.522607
807.601115	6874.480348
807.921306	6817.895916
808.241453	6832.122053
808.561554	6855.215578
808.881611	6819.188972
809.201623	6834.927455
809.521590	6779.038703
809.841513	6763.010354
810.161390	6802.071734
810.481223	6670.830335
810.801011	6656.909189
811.120755	6631.176619
811.440453	6555.430762
811.760107	6523.621081
812.079716	6496.930692
812.399281	6433.200425
812.718801	6419.990082
813.038276	6382.816613
813.357707	6315.207178
813.677093	6355.266707
813.996434	6258.020329
814.315731	6295.554240
814.634983	6285.015708
814.954191	6291.450741
815.273354	6392.079733
815.592473	6448.248269
815.911547	6560.413942
816.230577	6640.084338
816.549562	6778.869824
816.868502	6878.447736
817.187399	6969.135573
817.506250	7109.156142
817.825058	7135.738146
818.143821	7383.011783
818.462539	7616.132381
818.781213	7939.343439
819.099843	8419.644413
819.418429	9316.684973
819.736970	10216.921623
820.055466	11314.443830
820.373919	12677.498733
820.692327	14672.006047
821.010691	17976.868041
821.329011	25399.921709
821.647286	37055.699546
821.965517	51016.176974
822.283704	58495.626031
822.601847	61664.911233
822.919945	59491.899183
823.237999	55632.359031
823.556010	49655.725827
823.873976	43014.620656
824.191897	36528.004164
824.509775	31677.138752
824.827609	27034.110031
825.145398	24219.590989
825.463144	22564.262589
825.780845	22447.562398
826.098502	23671.463811
826.416116	26953.708668
826.733685	30677.911484
827.051210	32495.572600
827.368692	31584.192478
827.686129	28078.390092
828.003522	24073.218567
828.320872	20346.089361
828.638177	17459.272611
828.955439	15257.299132
829.272656	13426.790635
829.589830	11951.877569
829.906960	10651.509414
830.224046	9689.614411
830.541088	8907.464268
830.858086	8424.423427
831.175041	8016.820933
831.491952	7858.374947
831.808819	7847.198709
832.125642	8140.729974
832.442421	8843.996141
832.759157	10307.808586
833.075849	12871.323537
833.392497	15994.177193
833.709101	18486.077512
834.025662	18845.322738
834.342179	17513.853184
834.658653	15445.278718
834.975083	13532.919527
835.291469	11886.652600
835.607811	10558.784951
835.924110	9651.132763
836.240366	8785.115464
836.556578	7976.007751
836.872746	7327.937177
837.188871	6807.995090
837.504952	6383.224947
837.820990	6057.571449
838.136984	5828.352704
838.452935	5714.747782
838.768842	5692.458320
839.084706	5972.610363
839.400526	6932.841786
839.716303	8431.836444
840.032037	9663.039968
840.347727	9898.688705
840.663373	9101.773022
840.978977	8068.573418
841.294537	7235.114412
841.610054	6626.531196
841.925527	6183.711201
842.240957	5829.229865
842.556344	5504.448488
842.871687	5224.251074
843.186987	4938.034524
843.502244	4709.307291
843.817458	4539.130540
844.132629	4402.449736
844.447756	4308.255777
844.762840	4224.149166
845.077881	4153.880522
845.392879	4090.457766
845.707833	4039.700908
846.022745	3999.817820
846.337613	3969.676761
846.652438	3926.983229
846.967221	3912.356321
847.281960	3880.518914
847.596656	3862.388404
847.911309	3842.740507
848.225919	3816.314778
848.540485	3801.226605
848.855009	3790.665388
849.169490	3764.065739
849.483928	3751.215838
849.798323	3747.651743
850.112675	3727.424113
850.426984	3731.678847
850.741251	3720.863051
851.055474	3714.264181
851.369654	3718.292063
851.683792	3711.115980
851.997887	3722.009913
852.311938	3721.299111
852.625947	3726.161304
852.939914	3717.235941
853.253837	3726.436047
853.567718	3725.667271
853.881555	3715.348029
854.195350	3729.274216
854.509103	3724.613669
854.822812	3721.876323
855.136479	3713.974314
855.450103	3724.462435
855.763685	3709.033983
856.077224	3711.708316
856.390720	3729.387642
856.704173	3744.067482
857.017584	3758.565841
857.330953	3767.634876
857.644278	3792.626397
857.957561	3796.127478
858.270802	3801.471101
858.584000	3803.537974
858.897155	3796.843322
859.210268	3779.834469
859.523339	3759.120368
859.836367	3757.166920
860.149352	3749.756424
860.462295	3742.033377
860.775195	3732.624063
861.088054	3727.247672
861.400869	3723.386148
861.713642	3722.801375
862.026373	3733.196234
862.339062	3736.916605
862.651708	3751.246085
862.964312	3786.161117
863.276873	3795.701500
863.589392	3845.167823
863.901869	3890.606263
864.214303	3932.457922
864.526696	3967.405721
864.839045	4016.050335
865.151353	4037.097152
865.463619	4047.610479
865.775842	4056.067014
866.088023	4077.441507
866.400162	4065.650248
866.712258	4075.911516
867.024313	4077.292792
867.336325	4073.022935
867.648296	4079.561312
867.960224	4078.555602
868.272110	4086.767641
868.583954	4091.322324
868.895755	4103.090897
869.207515	4094.334413
869.519233	4137.766474
869.830909	4147.349708
870.142542	4170.486083
870.454134	4185.186088
870.765684	4214.881004
871.077191	4248.613885
871.388657	4269.206999
871.700081	4299.952996
872.011463	4340.136033
872.322803	4376.639028
872.634101	4404.617432
872.945357	4443.197383
873.256571	4499.081094
873.567744	4521.252088
873.878874	4544.411149
874.189963	4584.337088
874.501010	4593.055763
874.812015	4592.750773
875.122979	4635.827433
875.433900	4632.734685
875.744780	4643.628618
876.055618	4664.932535
876.366415	4665.083769
876.677169	4679.811500
876.987882	4724.256833
877.298554	4765.808544
877.609183	4837.869317
877.919771	4933.696611
878.230317	5059.775868
878.540822	5242.671451
878.851285	5520.088667
879.161707	5898.896091
879.472087	6546.210492
879.782425	7560.243629
880.092722	9388.773473
880.402977	12227.916031
880.713191	15753.885553
881.023363	19459.715883
881.333494	21944.135131
881.643583	23419.658176
881.953631	23647.230984
882.263637	22981.128203
882.573602	21688.891429
882.883526	20242.448279
883.193408	18659.160488
883.503248	17058.410140
883.813048	15569.664148
884.122806	14193.144323
884.432522	12765.252619
884.742197	11538.036647
885.051831	10452.048601
885.361424	9462.485224
885.670975	8637.437383
885.980485	7944.107330
886.289954	7373.073148
886.599382	6895.038173
886.908768	6521.657552
887.218113	6155.659700
887.527417	5869.019693
887.836680	5603.406337
888.145901	5386.508173
888.455082	5222.612699
888.764221	5071.793979
889.073319	4941.462508
889.382376	4859.780692
889.691392	4798.631496
890.000366	4768.866003
890.309300	4748.177108
890.618193	4751.930247
890.927044	4733.540118
891.235855	4755.970732
891.544625	4774.532260
891.853353	4825.841124
892.162041	4915.790432
892.470687	5077.288837
892.779293	5292.412516
893.087858	5609.624601
893.396381	6098.314055
893.704864	6780.455267
894.013306	7807.618089
894.321707	8943.639588
894.630068	9826.620369
894.938387	10181.938536
895.246665	10060.282891
895.554903	9534.346872
895.863100	8878.845637
896.171256	8356.564455
896.479371	7867.766616
896.787446	7380.997842
897.095480	6964.099460
897.403473	6649.972561
897.711425	6343.009142
898.019336	6083.745120
898.327207	5820.428011
898.635038	5596.162199
898.942827	5354.592628
899.250576	5156.626516
899.558284	4967.782373
899.865952	4844.866439
900.173579	4702.005180
900.481165	4594.623562
900.788711	4501.069829
901.096216	4429.054426
901.403681	4358.543807
901.711105	4334.290816
902.018489	4310.940191
902.325832	4363.937841
902.633135	4447.346252
902.940397	4706.209502
903.247619	5318.528213
903.554800	6510.781262
903.861941	8271.890714
904.169041	9851.364873
904.476101	10698.185458
904.783121	10553.547192
905.090100	9935.642883
905.397039	9149.936206
905.703938	8429.978778
906.010796	7753.206395
906.317614	7221.185703
906.624391	6708.026489
906.931129	6291.556605
907.237826	5905.925980
907.544483	5543.066247
907.851099	5185.106515
908.157675	4834.277495
908.464211	4509.259183
908.770707	4269.080970
909.077163	4061.380390
909.383578	3913.304058
909.689954	3791.681180
909.996289	3716.482288
910.302584	3649.871002
910.608839	3618.739356
910.915054	3586.869182
911.221229	3572.111204
911.527363	3577.369127
911.833458	3585.324068
912.139513	3607.384157
912.445527	3633.923312
912.751502	3703.171122
913.057436	3788.785037
913.363331	3899.589599
913.669186	4079.137855
913.975000	4294.884116
914.280775	4652.057428
914.586510	5148.921113
914.892205	5837.812430
915.197859	6762.312154
915.503475	7898.850371
915.809050	8958.188358
916.114585	9681.934213
916.420081	10042.762361
916.725536	10093.567109
917.030952	9729.605884
917.336328	9362.698104
917.641665	8989.446032
917.946961	8539.709574
918.252218	8133.889128
918.557435	7651.879203
918.862612	7241.758652
919.167750	6887.080712
919.472848	6483.851418
919.777906	6121.770543
920.082925	5775.223984
920.387904	5413.047327
920.692843	5143.663189
920.997743	4898.821908
921.302603	4660.491278
921.607423	4498.788707
921.912204	4337.441537
922.216946	4224.078590
922.521647	4107.156588
922.826310	4000.440402
923.130932	3912.021084
923.435516	3816.440807
923.740059	3749.985797
924.044564	3675.583407
924.349028	3616.067545
924.653454	3555.165365
924.957840	3489.877382
925.262186	3442.813169
925.566493	3383.395610
925.870761	3328.986436
926.174989	3295.485448
926.479178	3258.722834
926.783328	3217.561813
927.087438	3189.485106
927.391509	3157.312462
927.695541	3126.652165
927.999533	3101.965634
928.303486	3081.072572
928.607400	3066.284347
928.911275	3056.068449
929.215110	3035.061961
929.518906	3026.612987
929.822663	3028.609284
930.126381	3023.495034
930.430060	3028.095087
930.733699	3029.912423
931.037299	3038.961294
931.340861	3037.814431
931.644383	3048.219373
931.947866	3045.885318
932.251309	3045.247612
932.554714	3041.023126
932.858080	3035.470295
933.161407	3030.802186
933.464694	3020.498068
933.767943	3014.610000
934.071153	3011.723939
934.374323	3003.320336
934.677455	2993.669047
934.980548	2984.768890
935.283602	2983.642192
935.586617	2979.374855
935.889593	2988.239724
936.192530	2989.719303
936.495428	3001.659276
936.798287	3016.644106
937.101108	3046.792726
937.403890	3093.078080
937.706632	3142.932571
938.009336	3216.619117
938.312002	3286.522277
938.614628	3352.490816
938.917216	3407.167171
939.219765	3440.045576
939.522275	3475.189980
939.824747	3481.120898
940.127179	3476.866164
940.429573	3476.601503
940.731929	3474.890031
941.034246	3464.580872
941.336524	3452.348512
941.638763	3437.870318
941.940964	3428.430758
942.243126	3388.041033
942.545250	3368.365409
942.847335	3332.840398
943.149381	3299.740182
943.451389	3267.542333
943.753359	3236.519072
944.055290	3212.014023
944.357182	3184.680887
944.659036	3168.042558
944.960851	3156.921773
945.262628	3143.958446
945.564367	3144.200421
945.866067	3142.136069
946.167729	3135.943011
946.469352	3131.695839
946.770937	3128.706435
947.072484	3114.969291
947.373992	3119.768469
947.675462	3113.109105
947.976893	3095.555807
948.278286	3090.451639
948.579641	3080.311358
948.880958	3074.758527
949.182236	3075.958322
949.483476	3069.125038
949.784678	3070.072775
950.085841	3069.946746
950.386967	3080.926379
950.688054	3094.880293
950.989103	3112.534413
951.290114	3129.490334
951.591087	3156.173162
951.892021	3180.499250
952.192917	3207.063610
952.493776	3237.403794
952.794596	3245.031060
953.095378	3254.949530
953.396122	3248.302769
953.696828	3246.117429
953.997496	3231.419945
954.298126	3210.766337
954.598718	3194.498534
954.899272	3174.180163
955.199788	3148.684528
955.500266	3120.748974
955.800706	3083.462079
956.101108	3050.946637
956.401472	3021.528984
956.701798	2988.867348
957.002087	2951.918211
957.302337	2923.062646
957.602550	2897.130951
957.902724	2867.814121
958.202861	2843.092302
958.502960	2822.859631
958.803022	2801.217958
959.103045	2779.210801
959.403031	2765.279572
959.702979	2751.497057
960.002889	2740.078844
960.302762	2725.426730
960.602596	2715.631768
960.902393	2708.591797
961.202153	2699.762216
961.501875	2690.552028
961.801559	2686.158662
962.101205	2679.315296
962.400814	2675.216838
962.700385	2669.094357
962.999918	2661.290650
963.299414	2654.119609
963.598873	2653.733961
963.898293	2646.492343
964.197677	2647.424957
964.497022	2645.801705
964.796331	2644.133083
965.095601	2640.783237
965.394835	2637.554377
965.694030	2636.901548
965.993189	2636.790643
966.292309	2633.024901
966.591393	2633.168574
966.890439	2629.594396
967.189447	2633.526496
967.488419	2634.108749
967.787353	2635.651342
968.086249	2636.664614
968.385108	2634.386012
968.683930	2639.714512
968.982714	2641.947743
969.281462	2645.748773
969.580172	2651.679691
969.878844	2652.433343
970.177480	2663.211330
970.476078	2667.705519
970.774639	2675.325223
971.073162	2683.207067
971.371649	2689.006914
971.670098	2694.337934
971.968510	2699.699202
972.266885	2705.020139
972.565223	2708.652291
972.863524	2712.213866
973.161788	2713.403578
973.460014	2715.122612
973.758204	2719.962119
974.056356	2722.704507
974.354471	2726.409755
974.652550	2724.252141
974.950591	2724.567213
975.248595	2723.493448
975.546563	2722.732233
975.844493	2714.066490
976.142386	2711.674462
976.440243	2708.077599
976.738062	2702.572659
977.035845	2698.610312
977.333590	2689.425330
977.631299	2686.418282
977.928971	2680.857889
978.226606	2674.475788
978.524204	2669.858091
978.821765	2666.011691
979.119290	2668.476815
979.416777	2666.384736
979.714228	2669.366579
980.011642	2673.039059
980.309020	2677.568536
980.606360	2690.720907
980.903664	2709.262270
981.200931	2740.537589
981.498162	2777.123763
981.795356	2843.344360
982.092513	2923.327307
982.389633	3020.578726
982.686717	3113.751852
982.983764	3190.420240
983.280775	3247.773448
983.577749	3265.641818
983.874686	3259.060591
984.171587	3231.987074
984.468451	3196.890561
984.765279	3158.476969
985.062070	3112.806636
985.358824	3074.650142
985.655543	3019.827594
985.952224	2972.586942
986.248869	2911.843558
986.545478	2856.121164
986.842050	2799.597227
987.138586	2755.620721
987.435086	2716.403065
987.731549	2683.401151
988.027975	2659.417862
988.324366	2641.194091
988.620719	2629.105404
988.917037	2615.393465
989.213318	2606.508432
989.509563	2599.912082
989.805772	2596.108531
990.101944	2590.341451
990.398080	2589.111410
990.694180	2585.045719
990.990244	2586.938672
991.286271	2588.161152
991.582262	2586.421954
991.878217	2588.796337
992.174136	2590.606112
992.470019	2593.920670
992.765865	2596.514344
993.061676	2597.938470
993.357450	2609.999431
993.653188	2610.024636
993.948890	2629.191103
994.244556	2642.918165
994.540186	2667.745848
994.835780	2690.725948
995.131337	2726.445043
995.426859	2765.783687
995.722345	2808.711633
996.017795	2858.162832
996.313208	2895.111969
996.608586	2923.788572
996.903928	2942.166099
997.199234	2945.442849
997.494504	2948.591049
997.789738	2932.204779
998.084936	2912.869433
998.380099	2882.564537
998.675225	2856.136288
998.970316	2829.128306
999.265371	2792.779066
999.560390	2759.474683
999.855373	2731.440827
1000.150320	2700.833461
1000.445232	2675.161385
1000.740108	2655.987357
1001.034948	2634.945580
1001.329752	2624.946452
1001.624521	2612.028495
1001.919254	2598.913933
1002.213951	2594.079467
1002.508613	2582.439442
1002.803239	2578.734194
1003.097829	2570.749007
1003.392384	2566.499314
1003.686903	2561.052347
1003.981386	2560.018911
1004.275834	2557.210988
1004.570246	2554.904660
1004.864623	2551.698486
1005.158964	2549.424926
1005.453270	2546.329658
1005.747540	2542.306817
1006.041775	2542.982331
1006.335974	2540.958308
1006.630138	2539.874460
1006.924266	2537.631147
1007.218359	2535.314736
1007.512416	2537.752134
1007.806438	2533.265507
1008.100425	2536.174253
1008.394376	2533.126876
1008.688292	2533.845240
1008.982172	2539.009902
1009.276017	2537.384130
1009.569827	2532.675692
1009.863602	2536.774150
1010.157341	2533.005888
1010.451045	2532.365661
1010.744714	2529.996319
1011.038347	2532.511855
1011.331945	2529.088911
1011.625508	2532.451361
1011.919036	2526.520443
1012.212528	2528.441123
1012.505986	2525.517254
1012.799408	2527.258973
1013.092795	2525.570186
1013.386147	2526.049096
1013.679464	2525.282840
1013.972745	2524.080525
1014.265992	2524.337624
1014.559204	2523.382325
1014.852380	2523.377284
1015.145521	2523.374763
1015.438628	2523.215967
1015.731699	2524.919877
1016.024736	2524.771163
1016.317737	2525.136647
1016.610703	2528.478932
1016.903635	2529.623274
1017.196531	2530.979344
1017.489393	2529.353572
1017.782219	2534.309026
1018.075011	2533.830117
1018.367768	2534.180477
1018.660490	2535.869263
1018.953177	2535.869263
1019.245829	2535.869263
