Dividing Wavelength (nm)	Counts (n)	Blue Motor Position (mm): 45.500000	Red Motor Position (mm): 0.000000	
326.493990	2064.165977
326.888308	2064.165977
327.282561	2064.165977
327.676750	2040.535569
328.070874	2042.620086
328.464933	2047.139480
328.858929	2057.491490
329.252859	2064.846533
329.646726	2080.098544
330.040528	2098.949939
330.434265	2112.714809
330.827938	2132.924795
331.221547	2154.707621
331.615091	2174.519356
332.008571	2195.311595
332.401986	2216.718854
332.795338	2234.229302
333.188625	2253.806623
333.581847	2275.508791
333.975006	2291.900102
334.368100	2309.662608
334.761129	2322.721717
335.154095	2341.043791
335.546996	2393.950700
335.939833	2499.078922
336.332606	2507.800119
336.725315	2523.649506
337.117960	2531.498583
337.510540	2543.299924
337.903056	2554.796275
338.295508	2561.420352
338.687896	2567.116855
339.080220	2569.765982
339.472480	2572.425190
339.864676	2579.379462
340.256807	2581.584967
340.648875	2581.809298
341.040879	2584.150914
341.432818	2586.719382
341.824694	2588.539239
342.216506	2583.661922
342.608253	2588.335072
342.999937	2585.214598
343.391557	2585.882551
343.783113	2583.099834
344.174605	2583.283836
344.566033	2580.816191
344.957397	2581.035481
345.348697	2577.426015
345.739934	2574.058524
346.131106	2574.764286
346.522215	2575.593556
346.913260	2571.984089
347.304241	2574.711354
347.695159	2568.445199
348.086012	2566.879921
348.476802	2565.284396
348.867528	2562.088304
349.258191	2554.526574
349.648789	2561.322049
350.039324	2554.345092
350.429796	2559.736606
350.820203	2558.662840
351.210548	2558.191492
351.600828	2558.191493
351.991045	2557.112686
352.381198	2553.150339
352.771288	2555.542366
353.161314	2553.132695
353.551276	2554.844166
353.941175	2554.327448
354.331010	2553.931718
354.720782	2558.481359
355.110490	2558.614949
355.500135	2556.800134
355.889717	2557.233673
356.279235	2556.112017
356.668689	2555.958261
357.058080	2556.142263
357.447408	2558.965310
357.836672	2558.458674
358.225873	2560.215516
358.615010	2559.177038
359.004084	2560.984292
359.393095	2564.830692
359.782043	2561.611915
360.170927	2564.744992
360.559748	2559.144271
360.948505	2562.791545
361.337199	2564.845816
361.725830	2564.301371
362.114398	2565.347410
362.502903	2564.777760
362.891344	2565.954869
363.279722	2568.026784
363.668037	2566.842112
364.056289	2566.864798
364.444478	2570.859912
364.832603	2568.954356
365.220665	2568.649366
365.608665	2570.572566
365.996601	2567.832699
366.384474	2570.212124
366.772284	2566.890003
367.160031	2569.667679
367.547715	2570.756568
367.935336	2568.435117
368.322893	2569.677762
368.710388	2569.425704
369.097820	2570.640622
369.485189	2568.851012
369.872495	2572.112639
370.259738	2571.366548
370.646918	2575.258319
371.034035	2573.259501
371.421090	2577.022723
371.808081	2574.247568
372.195010	2575.089440
372.581875	2574.413926
372.968678	2578.746797
373.355418	2575.097002
373.742096	2578.766962
374.128710	2578.535069
374.515262	2579.984401
374.901751	2581.317786
375.288177	2584.244176
375.674540	2580.501119
376.060841	2581.368197
376.447079	2581.854669
376.833254	2584.614700
377.219367	2583.601428
377.605417	2584.193764
377.991404	2585.441450
378.377329	2587.599063
378.763191	2586.711820
379.148991	2591.450505
379.534727	2589.587799
379.920402	2593.194744
380.306013	2593.711462
380.691563	2597.212544
381.077049	2598.692122
381.462474	2601.016094
381.847835	2605.346446
382.233134	2609.223093
382.618371	2613.414812
383.003545	2620.152314
383.388657	2620.492592
383.773706	2632.130096
384.158693	2635.185035
384.543618	2644.307003
384.928480	2648.249185
385.313280	2659.127995
385.698017	2669.169974
386.082692	2680.532735
386.467305	2688.553210
386.851856	2701.025025
387.236344	2710.252857
387.620770	2722.515464
388.005133	2732.756568
388.389435	2750.745925
388.773674	2758.814292
389.157851	2780.486212
389.541965	2801.149902
389.926018	2814.945020
390.310008	2833.297340
390.693936	2852.783920
391.077802	2872.618340
391.461606	2895.764798
391.845348	2912.125863
392.229027	2936.973710
392.612645	2967.429841
392.996200	2991.965137
393.379694	3024.488141
393.763125	3054.977039
394.146494	3085.856627
394.529801	3118.296452
394.913047	3159.664161
395.296230	3176.153775
395.679351	3202.450954
396.062410	3247.082810
396.445408	3249.933582
396.828343	3291.064356
397.211217	3330.294616
397.594028	3332.001046
397.976778	3376.723643
398.359466	3415.066659
398.742092	3439.740586
399.124656	3464.948876
399.507158	3526.924821
399.889598	3546.681103
400.271977	3615.664252
400.654294	3619.760190
401.036549	3684.478523
401.418742	3698.913867
401.800874	3768.494393
402.182944	3808.115342
402.564952	3896.000297
402.946898	3908.424221
403.328783	3916.081734
403.710606	3972.005774
404.092367	4048.704409
404.474067	4117.130511
404.855705	4118.690748
405.237282	4106.377730
405.618797	4205.449006
406.000250	4284.559833
406.381642	4372.394377
406.762972	4382.511973
407.144240	4359.186554
407.525447	4427.872275
407.906593	4456.304383
408.287677	4539.964851
408.668700	4574.322835
409.049661	4616.837406
409.430560	4655.351822
409.811399	4645.196417
410.192176	4701.102813
410.572891	4786.502480
410.953545	4893.662287
411.334138	4794.059170
411.714669	4906.423968
412.095139	4824.560671
412.475547	4934.019245
412.855894	4946.473415
413.236180	5042.613260
413.616405	4975.495338
413.996568	5079.322942
414.376670	5084.346452
414.756711	5076.320935
415.136691	5147.242408
415.516609	5235.558383
415.896466	5271.171614
416.276262	5351.154561
416.655997	5460.943330
417.035670	5559.056787
417.415283	5692.821283
417.794834	5769.746770
418.174324	5724.714143
418.553753	5729.324278
418.933121	5891.339401
419.312428	5904.968161
419.691674	5833.182130
420.070859	6060.351646
420.449983	5937.322286
420.829045	6129.274301
421.208047	6055.890224
421.586988	6214.671447
421.965867	6288.806656
422.344686	6370.793461
422.723444	6533.680704
423.102141	6160.347973
423.480777	6542.132198
423.859352	6354.034145
424.237866	6721.677933
424.616319	6714.466563
424.994712	6875.407920
425.373044	6794.709129
425.751314	7103.996521
426.129524	6827.816907
426.507673	7095.645849
426.885762	7128.715818
427.263789	7173.345153
427.641756	7257.655931
428.019662	7331.082857
428.397508	7379.793006
428.775292	7361.707867
429.153016	7532.587859
429.530679	7458.069523
429.908282	7513.320569
430.285824	7456.330325
430.663305	7739.887667
431.040726	7623.434492
431.418086	7626.005481
431.795385	7755.699246
432.172624	7943.683873
432.549802	7833.970721
432.926920	7960.715411
433.303977	7910.182885
433.680974	7953.262065
434.057910	8145.531673
434.434786	8201.208696
434.811601	8155.931573
435.188355	8492.456319
435.565050	8383.229638
435.941683	8394.456288
436.318257	8724.367040
436.694770	8681.807098
437.071222	8898.405314
437.447614	8678.684103
437.823946	8648.570771
438.200218	8794.726424
438.576429	8674.560440
438.952580	8837.941715
439.328670	8849.594342
439.704700	8920.951875
440.080670	8818.634096
440.456580	9080.272501
440.832429	9062.202485
441.208218	8796.195920
441.583947	8911.189681
441.959616	9033.165439
442.335224	9062.953617
442.710773	9144.784147
443.086261	9323.175458
443.461689	9041.700113
443.837057	9212.950629
444.212365	9424.152290
444.587612	9400.428620
444.962800	9296.341396
445.337927	9435.598230
445.712995	8978.884815
446.088002	9640.556422
446.462949	9699.066574
446.837837	9685.992342
447.212664	9709.746258
447.587431	10541.617302
447.962139	11550.901672
448.336786	12460.945888
448.711374	12232.828635
449.085901	11030.803309
449.460369	10948.282141
449.834776	10734.872455
450.209124	11645.932463
450.583412	11470.081893
450.957640	11775.563214
451.331808	11362.269257
451.705917	10801.423247
452.079965	10681.615185
452.453954	10877.002746
452.827883	10824.305045
453.201752	10786.224168
453.575562	10799.943669
453.949311	11139.006635
454.323001	11200.803620
454.696632	11118.337904
455.070202	11700.734847
455.443713	11756.288362
455.817164	11936.365939
456.190556	12236.125550
456.563888	12107.288781
456.937160	12360.329498
457.310373	11848.952331
457.683526	11854.963907
458.056619	11873.538039
458.429653	11944.341044
458.802628	12086.312540
459.175542	12131.834159
459.548398	12679.926049
459.921194	13260.896345
460.293930	13540.592163
460.666607	14391.763263
461.039224	15187.877402
461.411782	15526.743764
461.784280	15176.181925
462.156719	15111.627430
462.529099	15017.148645
462.901419	14382.447211
463.273680	13982.454339
463.645882	14199.997771
464.018024	14086.244135
464.390106	14458.694663
464.762130	15525.846438
465.134094	17086.716219
465.505999	19395.857067
465.877845	21624.215946
466.249631	22830.248989
466.621358	22335.931087
466.993026	21501.085763
467.364634	20747.390413
467.736184	19947.961716
468.107674	19341.379838
468.479105	19207.953099
468.850477	18933.008568
469.221790	18502.209204
469.593043	17839.431064
469.964238	17450.700129
470.335373	17512.340838
470.706449	18231.963029
471.077467	19101.118446
471.448425	21573.890107
471.819324	23414.934615
472.190164	23301.922028
472.560945	21560.553734
472.931667	20012.120481
473.302330	19682.461787
473.672934	19125.631056
474.043479	19548.233504
474.413965	19333.006482
474.784393	19163.046500
475.154761	19827.866308
475.525070	19955.220977
475.895321	19791.398601
476.265513	20313.435287
476.635645	20897.347096
477.005719	20962.536777
477.375734	21334.319353
477.745691	21957.960495
478.115588	22585.803439
478.485427	23774.588174
478.855207	25589.544711
479.224928	27404.775991
479.594591	28807.338417
479.964194	28424.520756
480.333739	28866.811430
480.703226	29083.926364
481.072653	29526.567398
481.442022	30038.751149
481.811333	30443.180237
482.180584	29995.586270
482.549777	29771.348185
482.918912	29537.108451
483.287988	29478.868000
483.657005	29315.358175
484.025964	28953.441138
484.394864	29131.567788
484.763706	29058.697910
485.132489	28522.845941
485.501213	28597.775131
485.869879	28754.968390
486.238487	28697.368167
486.607036	28970.782707
486.975527	28650.402257
487.343959	29003.146915
487.712333	29341.718369
488.080648	29313.248453
488.448905	29726.494518
488.817104	29607.367012
489.185244	30420.066547
489.553326	31372.887474
489.921350	33281.256591
490.289315	35789.943953
490.657222	36687.264297
491.025070	37230.640187
491.392861	36950.755326
491.760593	36156.559346
492.128267	35141.966641
492.495883	34146.875639
492.863440	33241.277721
493.230939	32294.896868
493.598380	31732.672103
493.965763	31552.960010
494.333088	31082.955593
494.700354	30860.877642
495.067563	30838.268067
495.434713	30707.702183
495.801805	30992.008136
496.168839	30828.742807
496.535815	30686.065550
496.902733	30805.866051
497.269593	30626.847116
497.636395	30758.784194
498.003139	31022.068536
498.369825	30781.880241
498.736453	31179.927228
499.103023	31013.342299
499.469535	31092.506058
499.835989	31210.461497
500.202385	31056.817210
500.568723	31108.683121
500.935003	31408.241086
501.301226	31276.989604
501.667390	31986.781545
502.033497	32200.027394
502.399546	31986.784066
502.765537	31579.947827
503.131470	32049.082645
503.497345	32473.822542
503.863163	31427.979723
504.228923	32175.146779
504.594625	32558.161045
504.960269	32043.371018
505.325856	32704.200752
505.691385	32372.197921
506.056856	32680.880374
506.422270	33151.472086
506.787625	32678.795857
507.152924	33124.247334
507.518164	33296.463232
507.883347	32899.064033
508.248472	33008.744417
508.613540	33668.334028
508.978550	33900.842125
509.343503	33735.925818
509.708398	34089.789613
510.073236	34670.593550
510.438016	34756.204945
510.802738	34435.287612
511.167403	34975.976568
511.532010	35209.286209
511.896561	35730.909521
512.261053	36455.522454
512.625488	36233.953660
512.989866	36145.625083
513.354186	36213.925156
513.718449	36165.393968
514.082655	37031.116359
514.446803	36719.532722
514.810894	37325.610485
515.174927	37318.474731
515.538904	37334.011568
515.902822	37953.198850
516.266684	37645.668301
516.630488	37973.398754
516.994235	37987.680343
517.357925	38562.886079
517.721558	38804.301895
518.085133	39183.515132
518.448651	39367.297957
518.812112	39250.436449
519.175516	39423.143859
519.538863	39833.123258
519.902152	39895.444522
520.265385	40437.391246
520.628560	40441.459457
520.991678	40403.537377
521.354739	40622.570470
521.717743	40975.068112
522.080690	40877.408359
522.443580	41548.433827
522.806413	41556.741648
523.169189	41694.287011
523.531908	41903.328537
523.894569	41755.050558
524.257174	41964.800367
524.619722	42276.842749
524.982213	42427.691716
525.344647	42466.064979
525.707025	42609.692493
526.069345	43013.163762
526.431608	42938.325313
526.793815	43330.267463
527.155964	42855.491593
527.518057	43130.587359
527.880093	42988.462108
528.242072	43628.703770
528.603995	43336.435314
528.965860	43258.282306
529.327669	43463.520282
529.689421	43517.470711
530.051117	43498.798277
530.412755	43767.327939
530.774337	43811.180937
531.135862	43752.517029
531.497331	43924.306949
531.858743	43900.197631
532.220098	44329.119165
532.581396	44049.597267
532.942638	43825.835571
533.303824	44047.270774
533.664953	44126.865552
534.026025	43803.067199
534.387040	44362.884813
534.747999	44423.920584
535.108902	44756.074649
535.469748	44089.041775
535.830537	44349.455180
536.191270	44607.673162
536.551947	44362.524371
536.912567	44620.858300
537.273131	44758.847283
537.633638	44384.851641
537.994089	44548.376590
538.354483	44326.974154
538.714821	44968.224047
539.075103	45245.522796
539.435328	45111.407939
539.795497	44877.334563
540.155609	45005.198390
540.515665	45570.420121
540.875665	44895.412141
541.235609	45156.193550
541.595496	45288.614579
541.955328	45857.770931
542.315102	45298.591023
542.674821	45192.008428
543.034483	45092.745588
543.394090	45108.146313
543.753640	45090.179641
544.113134	46134.144629
544.472571	45280.077385
544.831953	46385.942702
545.191278	45657.564027
545.550548	45347.215472
545.909761	45981.140568
546.268918	46115.454551
546.628019	46507.018614
546.987064	45955.723071
547.346053	45268.981806
547.704986	46166.808785
548.063863	45805.857129
548.422684	46020.673297
548.781449	45600.760305
549.140158	46129.216901
549.498811	45875.155350
549.857408	45273.975069
550.215949	46113.561598
550.574434	45947.735362
550.932864	45904.963693
551.291237	46614.702702
551.649555	46360.852879
552.007817	46532.615073
552.366022	46224.333392
552.724173	46298.224104
553.082267	46691.696244
553.440305	47061.016216
553.798288	46304.644014
554.156215	46697.173458
554.514086	46874.150725
554.871902	46479.095663
555.229661	46673.112031
555.587365	46355.085799
555.945014	46476.960734
556.302606	46502.854621
556.660143	46583.293793
557.017625	46813.868608
557.375050	46511.384253
557.732421	46917.562622
558.089735	46973.912639
558.446994	46846.068978
558.804197	47306.890933
559.161345	47166.401537
559.518437	46523.266253
559.875474	46742.558966
560.232455	46976.564286
560.589381	47011.101231
560.946251	46850.600975
561.303065	47498.111981
561.659825	47173.028134
562.016528	46977.522106
562.373177	46567.457008
562.729770	47203.698514
563.086307	46723.954588
563.442789	47255.022501
563.799216	47094.320599
564.155587	46991.269332
564.511904	46959.759600
564.868164	47007.325407
565.224370	47315.165987
565.580520	47067.831856
565.936615	47243.412724
566.292654	46889.604383
566.648638	47251.208868
567.004567	47200.628451
567.360441	47288.591545
567.716260	46989.089033
568.072023	47382.881286
568.427732	47300.206363
568.783385	46856.622633
569.138982	47250.820700
569.494525	47397.256137
569.850013	47000.356012
570.205445	47128.958367
570.560823	46913.370902
570.916145	46784.118238
571.271412	47027.863068
571.626625	46656.720719
571.981782	46727.107829
572.336884	46337.134250
572.691931	46648.332239
573.046923	46314.615416
573.401860	46161.608835
573.756743	46167.118816
574.111570	46322.575398
574.466342	46234.902171
574.821059	46394.016110
575.175722	45880.836730
575.530330	45956.907742
575.884882	45630.805582
576.239380	45526.826743
576.593823	45632.408669
576.948211	45567.556745
577.302544	45127.474097
577.656823	45114.924144
578.011047	45396.434778
578.365216	45221.791565
578.719330	44926.175783
579.073389	44912.673052
579.427394	44961.874713
579.781344	44883.726747
580.135239	44619.595491
580.489080	44687.207446
580.842866	44206.694744
581.196597	44693.087952
581.550273	44674.418039
581.903895	44617.720182
582.257463	45067.597792
582.610975	44475.973018
582.964434	44819.404144
583.317837	44317.464017
583.671186	44290.871931
584.024481	44559.898147
584.377721	44107.298313
584.730906	44323.062219
585.084037	44482.266898
585.437113	44187.528277
585.790135	44300.903827
586.143103	43853.065363
586.496016	44033.271490
586.848874	44154.738092
587.201679	44179.260785
587.554428	43668.009647
587.907124	43944.383345
588.259765	43720.006628
588.612352	43870.908527
588.964884	43333.619830
589.317362	43635.264832
589.669786	43647.792099
590.022155	43513.135318
590.374470	43967.355883
590.726731	43570.796036
591.078937	42913.936210
591.431090	43259.199796
591.783188	42759.709670
592.135232	42572.700507
592.487222	42846.750232
592.839157	43009.594625
593.191038	42644.083245
593.542866	42463.441059
593.894639	41850.222502
594.246358	42156.071826
594.598022	42159.005778
594.949633	41718.560166
595.301190	41725.514438
595.652692	41672.156345
596.004141	42153.110148
596.355535	41073.766342
596.706876	41076.513771
597.058162	40782.057455
597.409395	41293.966463
597.760573	41525.546988
598.111698	41113.140275
598.462768	41051.086191
598.813785	41067.389283
599.164748	40683.639008
599.515657	40946.555346
599.866511	40465.861162
600.217312	41125.932203
600.568060	40097.771232
600.918753	40917.956880
601.269392	40832.872285
601.619978	40560.082848
601.970510	40768.952975
602.320988	40897.822512
602.671412	41166.503409
603.021783	41037.646475
603.372100	40608.545980
603.722363	40695.463034
604.072572	40723.733825
604.422728	40748.710222
604.772830	40518.435355
605.122878	40694.157376
605.472872	40544.248584
605.822813	40810.620632
606.172701	40570.568448
606.522534	40898.687069
606.872314	41095.213932
607.222041	40931.484816
607.571714	41253.750658
607.921333	40756.622313
608.270899	40940.747937
608.620411	41307.290233
608.969870	41102.475714
609.319276	41098.861206
609.668627	41126.874898
610.017926	41520.843592
610.367171	41673.489730
610.716362	41718.653428
611.065500	41617.936215
611.414585	41840.135153
611.763616	42011.297450
612.112594	41914.850094
612.461518	42041.526729
612.810389	42404.779672
613.159207	42206.120402
613.507971	42173.506657
613.856682	42676.361753
614.205340	42514.964172
614.553945	43214.056263
614.902496	42549.400293
615.250994	42961.580155
615.599439	43038.954305
615.947830	43160.400743
616.296169	43164.468954
616.644454	43190.665310
616.992686	43340.148124
617.340864	43783.532728
617.688990	43296.935353
618.037063	43961.929081
618.385082	43777.130463
618.733048	44114.930620
619.080961	44016.371022
619.428821	44038.738621
619.776628	44099.514772
620.124382	43919.331331
620.472083	44038.521852
620.819731	44170.552191
621.167326	43734.260491
621.514868	43729.080705
621.862357	43168.229654
622.209793	43272.543730
622.557176	42830.701719
622.904506	42612.586116
623.251783	42259.198711
623.599007	41919.727411
623.946179	41847.467511
624.293297	41571.166910
624.640363	41035.536752
624.987376	40918.773547
625.334336	40720.033618
625.681243	40294.527466
626.028097	40210.098222
626.374899	40046.767357
626.721647	40010.758396
627.068343	39761.009552
627.414987	39495.771763
627.761577	39243.898072
628.108115	39572.548536
628.454600	38832.136626
628.801032	39068.549098
629.147412	38958.233528
629.493739	38836.484622
629.840014	38402.469002
630.186236	38818.820418
630.532405	38248.557534
630.878521	38520.063997
631.224585	38273.334805
631.570597	37949.818757
631.916556	38123.846949
632.262462	38026.822382
632.608316	37953.907133
632.954117	37836.087805
633.299866	37796.313102
633.645562	37699.719553
633.991206	37196.708181
634.336797	36786.864894
634.682336	36666.270411
635.027823	36423.392660
635.373257	36319.285272
635.718639	35979.761039
636.063968	35890.502369
636.409245	35239.754943
636.754470	35194.699630
637.099642	34983.966797
637.444762	34401.244700
637.789829	34534.908374
638.134845	34164.920449
638.479808	34079.747634
638.824719	34033.346334
639.169577	33523.053015
639.514383	33640.832013
639.859137	33251.375152
640.203839	33419.643826
640.548489	33114.694348
640.893086	33106.610857
641.237632	32833.032479
641.582125	32915.921652
641.926566	32698.786552
642.270955	32736.222161
642.615292	32667.365041
642.959576	32543.473644
643.303809	32554.289439
643.647990	32659.190810
643.992118	32607.213993
644.336195	32444.364559
644.680219	32495.776767
645.024192	32704.682182
645.368112	33229.940166
645.711981	33251.097888
646.055797	33929.816157
646.399562	33724.570619
646.743274	34599.921614
647.086935	35006.909088
647.430544	34989.915358
647.774101	35014.846385
648.117606	35317.328218
648.461059	35475.524667
648.804460	35093.465699
649.147810	34580.188018
649.491108	34259.676497
649.834354	34170.175852
650.177548	33362.278016
650.520690	32844.261650
650.863781	32803.471153
651.206820	32620.497433
651.549807	32226.599316
651.892742	31637.416981
652.235626	31562.361762
652.578458	31411.180078
652.921238	30723.203731
653.263967	31016.137619
653.606644	30708.261751
653.949269	30607.242069
654.291843	30212.020648
654.634365	30577.910115
654.976836	30109.087848
655.319255	30202.029081
655.661622	30057.058100
656.003938	29920.508365
656.346203	29758.901576
656.688416	30004.214204
657.030577	29779.035944
657.372687	29590.033004
657.714746	29739.714944
658.056753	29932.798698
658.398708	29299.390321
658.740612	29363.738129
659.082465	29577.704863
659.424266	29465.055239
659.766016	29450.912282
660.107715	29307.073039
660.449362	29398.829601
660.790958	29363.864158
661.132503	29306.904160
661.473996	29403.462421
661.815438	29473.794079
662.156829	29588.525699
662.498168	29384.303516
662.839456	29346.804893
663.180693	29487.609361
663.521879	29547.987261
663.863013	29510.299595
664.204097	29490.329064
664.545129	29892.855116
664.886110	29840.096920
665.227040	29941.812282
665.567918	29912.676933
665.908746	29971.182044
666.249522	30074.190461
666.590248	30107.938465
666.930922	30206.939165
667.271545	30213.361595
667.612118	30286.710384
667.952639	30073.547714
668.293109	30124.380189
668.633528	29966.355139
668.973896	29944.433682
669.314213	29934.026219
669.654480	29739.750233
669.994695	29730.615662
670.334859	29645.465532
670.674973	29434.589026
671.015035	29622.916451
671.355047	29551.264011
671.695008	29486.250770
672.034918	29393.891791
672.374777	29491.929630
672.714585	29368.207112
673.054342	29487.241357
673.394049	29347.576190
673.733705	29565.089375
674.073310	29276.634552
674.412864	29347.800521
674.752368	29081.337732
675.091820	29310.874069
675.431223	28905.005732
675.770574	28700.619711
676.109875	28552.687051
676.449125	28340.343569
676.788324	28226.988183
677.127473	27741.076405
677.466571	27659.145053
677.805619	27383.703968
678.144616	27317.024626
678.483562	27251.262774
678.822458	26927.885358
679.161303	26893.769349
679.500098	26807.651318
679.838842	26711.531638
680.177535	26766.661696
680.516179	26990.274678
680.854771	27064.165390
681.193314	27739.110355
681.531805	28683.436938
681.870247	29451.376068
682.208638	30261.539903
682.546978	30596.567425
682.885268	30779.344540
683.223508	30380.301925
683.561697	30132.677928
683.899836	29960.058738
684.237925	29550.341480
684.575963	29391.570339
684.913951	29019.691982
685.251889	29150.356169
685.589776	29155.563681
685.927614	29136.455187
686.265401	29306.306784
686.603137	29408.387628
686.940824	29881.630987
687.278460	30194.149758
687.616046	30380.191020
687.953582	31063.869784
688.291068	31000.812511
688.628504	31354.877952
688.965889	31376.837218
689.303224	31139.845014
689.640510	30881.274151
689.977745	30273.855441
690.314930	29546.749657
690.652065	29150.504883
690.989150	28482.557039
691.326185	27633.077246
691.663170	27006.776895
692.000105	26293.496476
692.336990	25695.164446
692.673825	25279.874192
693.010610	24777.724858
693.347345	24276.316573
693.684030	23660.073324
694.020665	23453.509524
694.357251	22781.793418
694.693786	22790.622999
695.030272	22556.426115
695.366707	22062.203995
695.703093	21780.736211
696.039429	21838.964058
696.375716	21592.842325
696.711952	21577.713822
697.048139	21442.283224
697.384276	21297.677726
697.720363	21412.280797
698.056400	21302.045886
698.392388	21140.446658
698.728326	21149.490488
699.064214	21001.217551
699.400053	21012.497132
699.735842	20628.540170
700.071581	20452.727409
700.407270	20220.867100
700.742910	20031.070178
701.078501	19770.319016
701.414042	19573.414067
701.749533	19274.919786
702.084974	18965.443352
702.420366	19188.113638
702.755709	18788.607237
703.091002	18488.252770
703.426246	18554.818686
703.761440	18488.643459
704.096584	18255.152337
704.431679	18172.737033
704.766725	18132.939644
705.101721	18050.569711
705.436668	18166.370056
705.771565	17873.660499
706.106413	18176.590995
706.441212	18251.076564
706.775961	18349.190020
707.110661	18416.365916
707.445311	18781.068191
707.779913	18664.809101
708.114465	18943.413509
708.448967	19245.257637
708.783421	19860.893427
709.117825	20200.228616
709.452180	20418.049312
709.786485	20858.686487
710.120742	21596.416503
710.454949	21694.066173
710.789107	22221.471689
711.123216	22909.982399
711.457275	23134.119661
711.791286	23697.075393
712.125247	23870.937227
712.459159	23647.364575
712.793023	24398.499018
713.126837	23428.114712
713.460602	23696.833417
713.794318	23357.823383
714.127985	23095.413681
714.461602	22218.893139
714.795171	22203.792362
715.128691	21231.900751
715.462162	20725.302598
715.795584	20296.406270
716.128957	20012.967395
716.462281	19663.353293
716.795556	19376.297390
717.128782	18903.427077
717.461960	18302.922310
717.795088	18272.897198
718.128167	17934.040919
718.461198	17484.014594
718.794180	17367.821039
719.127113	17038.336265
719.459997	16837.670616
719.792833	16461.817308
720.125619	16504.467991
720.458357	16173.032290
720.791046	16035.340734
721.123686	15883.410440
721.456278	15652.449976
721.788821	15643.128883
722.121315	15399.283230
722.453761	15491.662374
722.786158	15367.345000
723.118506	15446.775940
723.450805	15331.754454
723.783056	15510.365055
724.115259	15394.108486
724.447412	15378.057452
724.779518	15588.145018
725.111574	15644.008564
725.443582	15901.717390
725.775542	15843.245046
726.107453	16342.520923
726.439315	16252.203611
726.771129	16639.656613
727.102895	17053.368986
727.434612	17338.428592
727.766281	17506.130136
728.097901	17843.325355
728.429473	17941.302701
728.760996	17961.744580
729.092471	18081.676150
729.423897	17968.885374
729.755276	17804.972257
730.086606	17900.141680
730.417887	18447.845401
730.749120	18995.720522
731.080305	19223.691581
731.411442	19626.721749
731.742530	19739.535210
732.073570	19891.712521
732.404562	20199.762309
732.735506	20102.427711
733.066401	19961.842533
733.397249	19529.677017
733.728048	18935.274567
734.058798	18108.918546
734.389501	17354.661107
734.720156	16823.134449
735.050762	16237.445633
735.381320	15828.499671
735.711831	15530.219639
736.042293	15161.688608
736.372707	15179.362893
736.703073	14964.017404
737.033391	15151.039171
737.363661	15140.392254
737.693883	15250.261681
738.024056	15433.096769
738.354182	15633.838036
738.684260	15983.197559
739.014290	16263.838594
739.344272	16489.253788
739.674207	16830.202146
740.004093	17009.024476
740.333931	17081.483501
740.663722	17181.925971
740.993464	17221.751086
741.323159	17101.506964
741.652806	16812.152295
741.982405	16647.198179
742.311956	16299.235056
742.641460	16191.377049
742.970915	15864.410331
743.300323	15523.930800
743.629683	15314.281814
743.958996	14994.166025
744.288260	14703.959401
744.617477	14383.291604
744.946647	14349.510832
745.275768	14038.882494
745.604842	13843.106764
745.933869	13665.758972
746.262847	13627.962921
746.591778	13526.093804
746.920662	13407.417481
747.249498	13400.342222
747.578286	13541.078634
747.907027	13706.688100
748.235720	13963.849960
748.564365	14048.884143
748.892963	13983.389473
749.221514	14101.228964
749.550017	13976.525942
749.878473	13951.894864
750.206881	13742.485333
750.535242	13672.047811
750.863555	13592.785749
751.191821	13487.939832
751.520039	13503.867357
751.848210	13418.049275
752.176334	13458.895224
752.504411	13388.510634
752.832440	13209.572357
753.160421	13334.149351
753.488356	13226.324112
753.816243	13133.808856
754.144082	12968.527066
754.471875	12915.720979
754.799620	12878.270247
755.127318	12847.539373
755.454969	12835.919514
755.782572	12800.165130
756.110129	12816.329590
756.437638	12718.188407
756.765100	12735.288001
757.092515	12750.436668
757.419882	12781.003704
757.747203	12789.631639
758.074477	12875.321172
758.401703	12847.867048
758.728882	13032.257333
759.056014	13083.871186
759.383099	13249.173141
759.710138	13369.724774
760.037129	13507.403727
760.364073	13579.640941
760.690970	13594.295575
761.017820	13603.755300
761.344623	13795.276296
761.671379	14113.776396
761.998088	14654.808151
762.324751	16060.949796
762.651366	19008.613273
762.977935	23317.521879
763.304456	26604.598682
763.630931	28218.009888
763.957359	27433.906299
764.283740	25400.478757
764.610074	23220.525037
764.936362	20599.293916
765.262602	18686.952369
765.588796	16722.326495
765.914943	15383.635488
766.241044	14238.978493
766.567097	13420.050613
766.893104	12680.107531
767.219064	12208.363915
767.544978	11709.173738
767.870845	11316.687144
768.196665	11078.832902
768.522438	10846.874290
768.848165	10646.654783
769.173846	10440.272465
769.499479	10308.940325
769.825066	10145.727928
770.150607	9922.735008
770.476101	9841.138892
770.801548	9712.483605
771.126949	9559.857631
771.452303	9453.585067
771.777611	9247.822811
772.102872	9236.268486
772.428087	9104.792673
772.753256	8952.937996
773.078378	8868.236529
773.403453	8695.377884
773.728482	8570.548833
774.053465	8492.365578
774.378401	8395.938387
774.703291	8276.223586
775.028135	8153.617683
775.352932	8124.343703
775.677683	8022.910647
776.002388	7912.476610
776.327046	7922.604288
776.651658	7824.725245
776.976224	7723.599699
777.300743	7720.837146
777.625216	7641.701113
777.949643	7597.868281
778.274024	7611.426464
778.598359	7519.581682
778.922647	7538.029784
779.246889	7490.653021
779.571086	7494.224678
779.895236	7500.508476
780.219339	7507.913931
780.543397	7515.808378
780.867409	7595.246881
781.191374	7603.247192
781.515294	7566.802170
781.839167	7665.288672
782.162995	7635.056873
782.486776	7584.867145
782.810511	7542.413068
783.134201	7449.582740
783.457844	7443.417409
783.781441	7394.982003
784.104993	7331.965059
784.428498	7310.373797
784.751958	7291.963503
785.075372	7262.724811
785.398739	7207.405709
785.722061	7247.477841
786.045337	7244.692604
786.368568	7379.787965
786.691752	7385.542442
787.014891	7682.819285
787.337983	7992.930905
787.661030	8548.004793
787.984031	9167.600409
788.306987	9604.628118
788.629897	9864.754178
788.952760	9862.447850
789.275579	9684.585860
789.598351	9313.403181
789.921078	8969.883835
790.243759	8559.990136
790.566395	8269.654963
790.888984	8020.422837
791.211529	7807.923079
791.534027	7578.903460
791.856480	7377.176648
792.178888	7297.760830
792.501249	7197.635953
792.823566	7045.917387
793.145836	7031.386261
793.468062	7000.181519
793.790241	6946.657068
794.112375	7009.280802
794.434464	7150.178531
794.756507	7177.909918
795.078505	7309.824312
795.400457	7593.681602
795.722364	7937.548788
796.044226	8225.912871
796.366042	8514.145883
796.687812	8484.277047
797.009538	8582.687931
797.331218	8488.284764
797.652852	8414.121829
797.974442	8271.545395
798.295986	8189.457767
798.617484	8003.897935
798.938938	7866.004733
799.260346	7765.491687
799.581709	7564.755462
799.903026	7484.858214
800.224299	7378.575568
800.545526	7215.532049
800.866708	7115.170238
801.187845	7043.394290
801.508936	6939.599452
801.829983	6905.569143
802.150984	6755.458705
802.471940	6710.917591
802.792851	6697.498039
803.113717	6666.169788
803.434538	6633.881198
803.755314	6576.780048
804.076045	6568.373924
804.396731	6515.409042
804.717372	6544.851901
805.037967	6544.267127
805.358518	6583.648621
805.679024	6658.653428
805.999485	6674.966602
806.319901	6708.092024
806.640272	6729.020374
806.960598	6812.751419
807.280879	6812.748898
807.601115	6898.014974
807.921306	6845.886923
808.241453	6861.695982
808.561554	6878.951851
808.881611	6843.593198
809.201623	6856.301947
809.521590	6806.460059
809.841513	6784.881400
810.161390	6820.287944
810.481223	6695.557195
810.801011	6680.348034
811.120755	6653.458519
811.440453	6575.197126
811.760107	6542.986674
812.079716	6512.520460
812.399281	6452.225740
812.718801	6442.219049
813.038276	6400.629530
813.357707	6333.587225
813.677093	6368.739191
813.996434	6276.050016
814.315731	6316.553166
814.634983	6307.274923
814.954191	6312.996632
815.273354	6409.391056
815.592473	6474.023689
815.911547	6585.818837
816.230577	6664.375138
816.549562	6802.855634
816.868502	6900.424646
817.187399	6995.957032
817.506250	7134.596324
817.825058	7159.587845
818.143821	7399.282107
818.462539	7647.639593
818.781213	7967.664642
819.099843	8451.975853
819.418429	9353.298873
819.736970	10256.590463
820.055466	11356.421518
820.373919	12735.134245
820.692327	14728.890427
821.010691	18046.193989
821.329011	25464.577028
821.647286	37106.716023
821.965517	51064.433420
822.283704	58514.038845
822.601847	61682.053677
822.919945	59543.447502
823.237999	55691.055706
823.556010	49723.262165
823.873976	43090.071605
824.191897	36617.101517
824.509775	31765.860539
824.827609	27126.002704
825.145398	24318.745444
825.463144	22644.827789
825.780845	22532.581457
826.098502	23765.874540
826.416116	27071.384323
826.733685	30825.314822
827.051210	32665.950997
827.368692	31729.332339
827.686129	28207.126037
828.003522	24183.433313
828.320872	20427.662792
828.638177	17532.969239
828.955439	15332.409804
829.272656	13492.900327
829.589830	12000.249961
829.906960	10703.004801
830.224046	9724.312672
830.541088	8945.250237
830.858086	8449.460318
831.175041	8041.399078
831.491952	7881.808750
831.808819	7874.892287
832.125642	8173.351280
832.442421	8867.674441
832.759157	10350.731491
833.075849	12918.670054
833.392497	16062.189920
833.709101	18550.881545
834.025662	18920.468698
834.342179	17587.600224
834.658653	15513.430077
834.975083	13587.225357
835.291469	11943.947834
835.607811	10603.817578
835.924110	9682.536631
836.240366	8810.535482
836.556578	8001.069847
836.872746	7349.868717
837.188871	6838.650347
837.504952	6406.983905
837.820990	6078.862762
838.136984	5844.592782
838.452935	5726.730605
838.768842	5707.874169
839.084706	5988.255584
839.400526	6950.432892
839.716303	8456.301163
840.032037	9705.491525
840.347727	9936.333521
840.663373	9141.303230
840.978977	8097.910413
841.294537	7263.130624
841.610054	6646.151367
841.925527	6210.731785
842.240957	5849.860787
842.556344	5517.253018
842.871687	5239.354371
843.186987	4953.888953
843.502244	4721.862285
843.817458	4547.095563
844.132629	4411.385181
844.447756	4316.918999
844.762840	4235.451433
845.077881	4164.207326
845.392879	4099.869600
845.707833	4051.293042
846.022745	4004.763192
846.337613	3978.218996
846.652438	3934.166873
846.967221	3918.574584
847.281960	3884.203997
847.596656	3865.576934
847.911309	3848.293338
848.225919	3824.456242
848.540485	3806.209786
848.855009	3791.655974
849.169490	3775.841875
849.483928	3761.519957
849.798323	3751.251126
850.112675	3735.089187
850.426984	3743.795260
850.741251	3729.014597
851.055474	3721.551168
851.369654	3722.647619
851.683792	3723.537383
851.997887	3727.953434
852.311938	3728.147518
852.625947	3732.208168
852.939914	3721.291549
853.253837	3734.196903
853.567718	3730.509299
853.881555	3723.658371
854.195350	3732.190524
854.509103	3729.470821
854.822812	3727.592991
855.136479	3721.016806
855.450103	3728.026531
855.763685	3716.540262
856.077224	3718.544120
856.390720	3734.486769
856.704173	3753.824635
857.017584	3765.409207
857.330953	3774.558901
857.644278	3799.421872
857.957561	3807.046617
858.270802	3804.820948
858.584000	3813.030467
858.897155	3805.032676
859.210268	3785.588946
859.523339	3765.232767
859.836367	3766.137654
860.149352	3755.331940
860.462295	3750.099223
860.775195	3737.236719
861.088054	3734.108683
861.400869	3728.346644
861.713642	3728.036613
862.026373	3741.304930
862.339062	3741.103284
862.651708	3763.375101
862.964312	3792.563382
863.276873	3802.559990
863.589392	3851.582691
863.901869	3895.554155
864.214303	3938.003191
864.526696	3970.347234
864.839045	4021.557796
865.151353	4044.376578
865.463619	4058.610276
865.775842	4064.876431
866.088023	4083.369903
866.400162	4072.342379
866.712258	4082.470057
867.024313	4085.295624
867.336325	4083.884101
867.648296	4087.730502
867.960224	4086.984411
868.272110	4096.184517
868.583954	4099.299950
868.895755	4113.689923
869.207515	4105.109879
869.519233	4143.450375
869.830909	4154.606448
870.142542	4175.794418
870.454134	4189.524001
870.765684	4222.117581
871.077191	4260.221142
871.388657	4276.178915
871.700081	4311.547650
872.011463	4351.876881
872.322803	4384.278897
872.634101	4417.784926
872.945357	4455.835555
873.256571	4507.910675
873.567744	4534.689284
873.878874	4555.136204
874.189963	4595.165486
874.501010	4607.133185
874.812015	4602.991877
875.122979	4647.807735
875.433900	4644.737672
875.744780	4655.820649
876.055618	4678.954504
876.366415	4677.827806
876.677169	4698.599881
876.987882	4735.319645
877.298554	4781.395791
877.609183	4851.949260
877.919771	4943.877221
878.230317	5071.020162
878.540822	5251.067492
878.851285	5533.873702
879.161707	5923.484319
879.472087	6564.177164
879.782425	7586.220695
880.092722	9414.014530
880.402977	12249.338414
880.713191	15779.487053
881.023363	19484.137753
881.333494	21956.349846
881.643583	23417.908896
881.953631	23644.642352
882.263637	22999.969516
882.573602	21688.982170
882.883526	20260.697256
883.193408	18687.587555
883.503248	17072.729537
883.813048	15599.497696
884.122806	14223.134147
884.432522	12794.551805
884.742197	11558.226468
885.051831	10486.169650
885.361424	9479.597421
885.670975	8657.778438
885.980485	7966.369065
886.289954	7388.047896
886.599382	6919.863335
886.908768	6537.000303
887.218113	6176.714079
887.527417	5887.820676
887.836680	5620.079954
888.145901	5404.452160
888.455082	5243.863683
888.764221	5088.460034
889.073319	4951.572542
889.382376	4877.475143
889.691392	4813.944001
890.000366	4783.316471
890.309300	4763.000621
890.618193	4763.524901
890.927044	4751.753807
891.235855	4766.267289
891.544625	4787.503149
891.853353	4835.336137
892.162041	4931.808699
892.470687	5095.089151
892.779293	5307.573786
893.087858	5626.653618
893.396381	6119.146623
893.704864	6798.253060
894.013306	7831.104825
894.321707	8967.222106
894.630068	9858.087252
894.938387	10212.719822
895.246665	10091.220452
895.554903	9571.669055
895.863100	8919.013551
896.171256	8383.239721
896.479371	7897.441368
896.787446	7406.874085
897.095480	6984.599312
897.403473	6674.515419
897.711425	6365.717019
898.019336	6106.425271
898.327207	5841.303429
898.635038	5612.119972
898.942827	5369.847159
899.250576	5171.316438
899.558284	4977.456347
899.865952	4858.500239
900.173579	4710.345769
900.481165	4603.692598
900.788711	4513.350080
901.096216	4435.832257
901.403681	4374.209192
901.711105	4341.681147
902.018489	4318.552333
902.325832	4371.129047
902.633135	4456.460658
902.940397	4716.692582
903.247619	5330.657229
903.554800	6521.503797
903.861941	8286.247921
904.169041	9869.699549
904.476101	10709.313805
904.783121	10583.826883
905.090100	9956.793044
905.397039	9167.706273
905.703938	8445.102240
906.010796	7774.263295
906.317614	7235.963846
906.624391	6719.225412
906.931129	6306.133101
907.237826	5916.507362
907.544483	5556.352207
907.851099	5193.656312
908.157675	4842.734031
908.464211	4522.598076
908.770707	4276.010036
909.077163	4071.059406
909.383578	3919.948299
909.689954	3796.850883
909.996289	3725.170717
910.302584	3659.494565
910.608839	3624.332517
910.915054	3592.883278
911.221229	3572.869897
911.527363	3581.288624
911.833458	3592.283381
912.139513	3611.843058
912.445527	3637.348776
912.751502	3705.991647
913.057436	3796.364412
913.363331	3909.346752
913.669186	4087.765790
913.975000	4305.054644
914.280775	4664.055374
914.586510	5162.277650
914.892205	5855.832034
915.197859	6780.518281
915.503475	7919.718227
915.809050	8974.458682
916.114585	9694.436274
916.420081	10057.386748
916.725536	10115.559143
917.030952	9745.253626
917.336328	9379.737204
917.641665	9007.319443
917.946961	8563.718069
918.252218	8163.631936
918.557435	7672.852923
918.862612	7260.673062
919.167750	6906.050574
919.472848	6499.393296
919.777906	6141.955323
920.082925	5788.522548
920.387904	5425.443524
920.692843	5154.400847
920.997743	4909.562087
921.302603	4668.335313
921.607423	4511.845295
921.912204	4348.650542
922.216946	4233.868510
922.521647	4112.772433
922.826310	4012.304758
923.130932	3919.781941
923.435516	3821.759225
923.740059	3754.457300
924.044564	3678.093902
924.349028	3621.154069
924.653454	3561.091242
924.957840	3495.039523
925.262186	3450.314406
925.566493	3387.229407
925.870761	3333.231088
926.174989	3295.331693
926.479178	3261.228287
926.783328	3223.858214
927.087438	3194.259079
927.391509	3159.031496
927.695541	3132.784728
927.999533	3104.733228
928.303486	3083.411668
928.607400	3070.337435
928.911275	3057.847977
929.215110	3037.779143
929.518906	3033.166487
929.822663	3030.461908
930.126381	3025.703059
930.430060	3027.643903
930.733699	3033.247146
931.037299	3041.159237
931.340861	3040.544216
931.644383	3050.074517
931.947866	3050.008982
932.251309	3042.389278
932.554714	3045.237530
932.858080	3037.600182
933.161407	3031.515509
933.464694	3022.186854
933.767943	3018.297604
934.071153	3014.012623
934.374323	3003.549708
934.677455	2999.985613
934.980548	2990.919098
935.283602	2985.096565
935.586617	2982.802840
935.889593	2987.533963
936.192530	2990.102431
936.495428	3001.349245
936.798287	3021.392872
937.101108	3048.494116
937.403890	3093.899788
937.706632	3148.871050
938.009336	3222.804613
938.312002	3292.216260
938.614628	3357.834439
938.917216	3409.362593
939.219765	3444.607820
939.522275	3478.953201
939.824747	3486.335971
940.127179	3486.383862
940.429573	3482.585353
940.731929	3477.574446
941.034246	3468.374340
941.336524	3455.668112
941.638763	3443.934826
941.940964	3430.548042
942.243126	3389.049264
942.545250	3372.075699
942.847335	3337.097653
943.149381	3299.213382
943.451389	3272.059206
943.753359	3238.774988
944.055290	3212.122408
944.357182	3187.236752
944.659036	3172.526665
944.960851	3161.451250
945.262628	3148.167809
945.564367	3151.210146
945.866067	3139.446613
946.167729	3139.751603
946.469352	3138.561891
946.770937	3137.538537
947.072484	3116.711009
947.373992	3119.072790
947.675462	3116.796709
947.976893	3100.796087
948.278286	3093.221753
948.579641	3084.361925
948.880958	3077.155596
949.182236	3081.987542
949.483476	3071.693506
949.784678	3073.815831
950.085841	3074.060327
950.386967	3081.869075
950.688054	3094.678647
950.989103	3112.801595
951.290114	3132.041158
951.591087	3159.611229
951.892021	3181.880526
952.192917	3212.860937
952.493776	3237.055955
952.794596	3245.633478
953.095378	3255.793923
953.396122	3251.067842
953.696828	3244.579877
953.997496	3238.492683
954.298126	3216.399827
954.598718	3198.909543
954.899272	3173.965914
955.199788	3150.922800
955.500266	3122.074797
955.800706	3090.693614
956.101108	3050.402192
956.401472	3021.196268
956.701798	2990.339365
957.002087	2950.781431
957.302337	2926.180600
957.602550	2896.616753
957.902724	2867.884697
958.202861	2844.428208
958.502960	2823.943479
958.803022	2802.579069
959.103045	2779.039401
959.403031	2766.194541
959.702979	2754.993097
960.002889	2738.533730
960.302762	2729.008470
960.602596	2714.494988
960.902393	2707.447455
961.202153	2699.832792
961.501875	2691.446833
961.801559	2684.754701
962.101205	2679.718588
962.400814	2675.337826
962.700385	2665.389108
962.999918	2660.927687
963.299414	2656.219250
963.598873	2653.670946
963.898293	2644.312044
964.197677	2647.087199
964.497022	2645.960502
964.796331	2644.604431
965.095601	2639.986734
965.394835	2638.769296
965.694030	2637.385499
965.993189	2632.220837
966.292309	2636.626805
966.591393	2634.582617
966.890439	2630.128758
967.189447	2630.814355
967.488419	2634.806949
967.787353	2632.684623
968.086249	2636.770478
968.385108	2636.470529
968.683930	2635.797535
968.982714	2642.625778
969.281462	2645.887405
969.580172	2648.463434
969.878844	2653.489465
970.177480	2659.604384
970.476078	2669.285920
970.774639	2676.855213
971.073162	2683.247396
971.371649	2689.909281
971.670098	2694.771474
971.968510	2701.637525
972.266885	2704.175746
972.565223	2707.999461
972.863524	2710.310830
973.161788	2716.067828
973.460014	2716.612273
973.758204	2716.970195
974.056356	2720.138560
974.354471	2724.673078
974.652550	2724.005125
974.950591	2722.197871
975.248595	2721.928169
975.546563	2717.214691
975.844493	2716.002293
976.142386	2713.181767
976.440243	2709.519369
976.738062	2703.948894
977.035845	2696.077132
977.333590	2691.225022
977.631299	2682.977694
977.928971	2680.905780
978.226606	2675.748680
978.524204	2668.287772
978.821765	2667.435817
979.119290	2667.516475
979.416777	2665.971362
979.714228	2665.989006
980.011642	2671.753565
980.309020	2677.800429
980.606360	2688.429702
980.903664	2709.020295
981.200931	2737.147413
981.498162	2780.375307
981.795356	2843.263701
982.092513	2924.040630
982.389633	3019.651154
982.686717	3115.090278
982.983764	3194.526260
983.280775	3249.593304
983.577749	3263.285078
983.874686	3254.982298
984.171587	3231.056982
984.468451	3197.198072
984.765279	3156.367246
985.062070	3115.181019
985.358824	3077.649629
985.655543	3020.437574
985.952224	2971.339256
986.248869	2915.117788
986.545478	2855.992615
986.842050	2798.498255
987.138586	2754.378077
987.435086	2717.078579
987.731549	2682.975174
988.027975	2658.013900
988.324366	2641.622589
988.620719	2626.342851
988.917037	2614.354987
989.213318	2605.069182
989.509563	2599.871752
989.805772	2593.401432
990.101944	2589.812130
990.398080	2586.492530
990.694180	2586.278281
990.990244	2585.383476
991.286271	2586.343816
991.582262	2586.908425
991.878217	2586.961357
992.174136	2591.944538
992.470019	2591.579054
992.765865	2595.044848
993.061676	2598.752616
993.357450	2609.482712
993.653188	2612.837600
993.948890	2625.483335
994.244556	2646.031078
994.540186	2663.612102
994.835780	2690.383149
995.131337	2725.530074
995.426859	2765.014911
995.722345	2808.910758
996.017795	2857.063860
996.313208	2892.888820
996.608586	2925.696649
996.903928	2940.787343
997.199234	2943.917900
997.494504	2945.584001
997.789738	2934.846343
998.084936	2910.162333
998.380099	2882.904815
998.675225	2856.232070
998.970316	2830.010508
999.265371	2796.214612
999.560390	2761.284457
999.855373	2730.125086
1000.150320	2705.393185
1000.445232	2674.924451
1000.740108	2655.977274
1001.034948	2637.178812
1001.329752	2623.819754
1001.624521	2608.736622
1001.919254	2598.906372
1002.213951	2591.631987
1002.508613	2583.661922
1002.803239	2575.066755
1003.097829	2574.524831
1003.392384	2565.019735
1003.686903	2561.876576
1003.981386	2556.439692
1004.275834	2553.104968
1004.570246	2552.895760
1004.864623	2548.744370
1005.158964	2549.152704
1005.453270	2546.001983
1005.747540	2544.676159
1006.041775	2542.911755
1006.335974	2539.869419
1006.630138	2540.323123
1006.924266	2540.761703
1007.218359	2538.898997
1007.512416	2535.627288
1007.806438	2533.358769
1008.100425	2533.825075
1008.394376	2531.047400
1008.688292	2533.028573
1008.982172	2534.424973
1009.276017	2534.848430
1009.569827	2533.777184
1009.863602	2532.680733
1010.157341	2533.429345
1010.451045	2528.730989
1010.744714	2530.243336
1011.038347	2529.582944
1011.331945	2529.129241
1011.625508	2528.531864
1011.919036	2525.842408
1012.212528	2526.480114
1012.505986	2524.272089
1012.799408	2525.993643
1013.092795	2524.415762
1013.386147	2522.212777
1013.679464	2525.277799
1013.972745	2523.735206
1014.265992	2522.691687
1014.559204	2522.479959
1014.852380	2519.586336
1015.145521	2521.809485
1015.438628	2521.756553
1015.731699	2522.210257
1016.024736	2521.330576
1016.317737	2525.260155
1016.610703	2526.885927
1016.903635	2526.812830
1017.196531	2527.460619
1017.489393	2530.795342
1017.782219	2530.694519
1018.075011	2532.153933
1018.367768	2532.529499
1018.660490	2533.696526
1018.953177	2533.696526
1019.245829	2533.696526
