Dividing Wavelength (nm)	Counts (n)	Blue Motor Position (mm): 47.500000	Red Motor Position (mm): 0.000000	
326.493990	2065.070864
326.888308	2065.070864
327.282561	2065.070864
327.676750	2039.580270
328.070874	2041.102698
328.464933	2046.532021
328.858929	2052.682229
329.252859	2065.693447
329.646726	2079.118040
330.040528	2094.528847
330.434265	2113.670108
330.827938	2135.475619
331.221547	2152.711324
331.615091	2172.656649
332.008571	2192.639783
332.401986	2216.877651
332.795338	2233.581514
333.188625	2253.657909
333.581847	2272.436207
333.975006	2288.235183
334.368100	2311.157310
334.761129	2325.650627
335.154095	2338.949191
335.546996	2390.232849
335.939833	2498.531957
336.332606	2508.374810
336.725315	2523.878879
337.117960	2533.343645
337.510540	2542.999975
337.903056	2553.006666
338.295508	2556.883313
338.687896	2563.840105
339.080220	2566.411094
339.472480	2574.056004
339.864676	2580.972467
340.256807	2581.196798
340.648875	2581.723599
341.040879	2585.181830
341.432818	2587.586461
341.824694	2588.914805
342.216506	2588.062850
342.608253	2586.114444
342.999937	2586.011100
343.391557	2583.465317
343.783113	2584.085379
344.174605	2579.215625
344.566033	2579.669328
344.957397	2578.910635
345.348697	2576.342167
345.739934	2575.371745
346.131106	2574.797053
346.522215	2569.934860
346.913260	2569.942422
347.304241	2571.295972
347.695159	2566.169118
348.086012	2566.448902
348.476802	2563.751885
348.867528	2564.077040
349.258191	2556.963972
349.648789	2558.320042
350.039324	2554.153528
350.429796	2561.362378
350.820203	2556.931204
351.210548	2555.234856
351.600828	2557.170659
351.991045	2554.594629
352.381198	2554.985319
352.771288	2556.802655
353.161314	2556.439692
353.551276	2557.112686
353.941175	2549.966850
354.331010	2556.018755
354.720782	2558.491441
355.110490	2559.968499
355.500135	2551.902653
355.889717	2557.808365
356.279235	2557.090000
356.668689	2552.885678
357.058080	2558.231822
357.447408	2554.851728
357.836672	2559.764332
358.225873	2556.341389
358.615010	2560.097049
359.004084	2557.722665
359.393095	2561.362378
359.782043	2561.886658
360.170927	2564.104766
360.559748	2561.301884
360.948505	2565.405384
361.337199	2567.051320
361.725830	2566.582493
362.114398	2566.012843
362.502903	2562.973027
362.891344	2565.213820
363.279722	2564.946639
363.668037	2567.953687
364.056289	2567.467216
364.444478	2568.692216
364.832603	2569.244222
365.220665	2568.659448
365.608665	2568.609037
365.996601	2570.146589
366.384474	2570.386044
366.772284	2568.286403
367.160031	2570.577607
367.547715	2574.502146
367.935336	2570.877556
368.322893	2568.598955
368.710388	2569.289593
369.097820	2572.662125
369.485189	2565.039900
369.872495	2574.832341
370.259738	2575.376786
370.646918	2574.696230
371.034035	2574.960891
371.421090	2575.689337
371.808081	2578.043556
372.195010	2575.706982
372.581875	2576.695048
372.968678	2578.837538
373.355418	2577.622620
373.742096	2578.693865
374.128710	2580.367528
374.515262	2583.636717
374.901751	2583.684607
375.288177	2584.443301
375.674540	2583.246027
376.060841	2588.181317
376.447079	2587.397417
376.833254	2589.965885
377.219367	2590.119640
377.605417	2592.630135
377.991404	2596.829416
378.377329	2599.095415
378.763191	2602.649428
379.148991	2608.114039
379.534727	2610.629575
379.920402	2617.230966
380.306013	2625.075001
380.691563	2630.398460
381.077049	2636.410036
381.462474	2642.116622
381.847835	2650.144659
382.233134	2656.539363
382.618371	2663.909530
383.003545	2678.475944
383.388657	2682.634896
383.773706	2699.994109
384.158693	2707.036601
384.543618	2721.638303
384.928480	2728.418655
385.313280	2747.343147
385.698017	2758.274889
386.082692	2778.245420
386.467305	2790.810496
386.851856	2807.088381
387.236344	2828.422544
387.620770	2843.288907
388.005133	2859.705425
388.389435	2887.177193
388.773674	2898.615571
389.157851	2929.532967
389.541965	2948.210442
389.926018	2967.084522
390.310008	2997.137361
390.693936	3019.590660
391.077802	3044.317520
391.461606	3074.438414
391.845348	3091.822833
392.229027	3122.057153
392.612645	3159.056702
392.996200	3188.318079
393.379694	3227.979357
393.763125	3270.501490
394.146494	3298.666416
394.529801	3334.975327
394.913047	3379.501318
395.296230	3393.871127
395.679351	3426.399173
396.062410	3474.171667
396.445408	3464.843012
396.828343	3509.303468
397.211217	3546.804612
397.594028	3533.014535
397.976778	3583.841969
398.359466	3618.570478
398.742092	3636.292654
399.124656	3654.365191
399.507158	3718.362639
399.889598	3731.426789
400.271977	3798.764001
400.654294	3796.069505
401.036549	3858.078217
401.418742	3861.354968
401.800874	3931.729475
402.182944	3959.297025
402.564952	4049.591652
402.946898	4050.423442
403.328783	4049.437897
403.710606	4098.868931
404.092367	4168.764529
404.474067	4236.754571
404.855705	4227.433478
405.237282	4202.363819
405.618797	4297.417296
406.000250	4377.072568
406.381642	4462.076504
406.762972	4463.140187
407.144240	4429.167852
407.525447	4496.212677
407.906593	4516.347046
408.287677	4595.629272
408.668700	4623.514415
409.049661	4667.344727
409.430560	4705.239080
409.811399	4687.844579
410.192176	4737.779728
410.572891	4823.686031
410.953545	4926.618831
411.334138	4822.322399
411.714669	4932.275005
412.095139	4843.923743
412.475547	4957.183347
412.855894	4962.383297
413.236180	5060.169078
413.616405	4989.088809
413.996568	5091.618317
414.376670	5093.468420
414.756711	5089.657308
415.136691	5157.342360
415.516609	5244.614815
415.896466	5279.547491
416.276262	5359.812743
416.655997	5467.113702
417.035670	5563.576181
417.415283	5704.151277
417.794834	5773.376401
418.174324	5728.621037
418.553753	5728.938630
418.933121	5898.170165
419.312428	5910.289098
419.691674	5835.894271
420.070859	6058.405760
420.449983	5942.905364
420.829045	6133.173633
421.208047	6056.666562
421.586988	6210.923349
421.965867	6291.138189
422.344686	6372.477207
422.723444	6532.445621
423.102141	6157.509804
423.480777	6545.860131
423.859352	6356.786615
424.237866	6724.687502
424.616319	6716.069650
424.994712	6876.600153
425.373044	6796.549150
425.751314	7103.038701
426.129524	6827.756413
426.507673	7086.977585
426.885762	7133.656149
427.263789	7173.077972
427.641756	7259.740448
428.019662	7339.403282
428.397508	7378.941051
428.775292	7355.724017
429.153016	7532.116511
429.530679	7460.005326
429.908282	7513.376022
430.285824	7458.014070
430.663305	7738.511432
431.040726	7620.457691
431.418086	7624.132692
431.795385	7758.585306
432.172624	7942.504243
432.549802	7830.658683
432.926920	7959.936553
433.303977	7903.858757
433.680974	7947.283257
434.057910	8149.342785
434.434786	8198.902368
434.811601	8158.116913
435.188355	8493.031010
435.565050	8387.065956
435.941683	8397.294458
436.318257	8727.757216
436.694770	8675.626644
437.071222	8903.514524
437.447614	8675.977004
437.823946	8642.178588
438.200218	8799.707084
438.576429	8674.109256
438.952580	8834.105397
439.328670	8843.582766
439.704700	8925.526722
440.080670	8818.903798
440.456580	9076.237058
440.832429	9056.508502
441.208218	8800.274214
441.583947	8911.429135
441.959616	9029.041775
442.335224	9058.913132
442.710773	9147.052666
443.086261	9320.954830
443.461689	9039.915544
443.837057	9209.096667
444.212365	9425.636910
444.587612	9396.307477
444.962800	9304.578642
445.337927	9431.945914
445.712995	8975.988672
446.088002	9645.950457
446.462949	9700.455412
446.837837	9687.713896
447.212664	9707.951608
447.587431	10537.576817
447.962139	11549.212885
448.336786	12470.244296
448.711374	12237.501785
449.085901	11029.628720
449.460369	10949.403798
449.834776	10733.324821
450.209124	11647.069243
450.583412	11474.550876
450.957640	11784.402877
451.331808	11378.539581
451.705917	10807.717128
452.079965	10684.395381
452.453954	10880.027439
452.827883	10822.215486
453.201752	10792.538214
453.575562	10807.979268
453.949311	11136.970009
454.323001	11212.277286
454.696632	11130.285439
455.070202	11709.153573
455.443713	11767.217583
455.817164	11933.663881
456.190556	12248.156263
456.563888	12110.643669
456.937160	12363.326464
457.310373	11848.402846
457.683526	11863.226358
458.056619	11883.338042
458.429653	11950.584513
458.802628	12087.305647
459.175542	12138.354891
459.548398	12682.829754
459.921194	13261.208896
460.293930	13546.480231
460.666607	14400.320622
461.039224	15190.665160
461.411782	15523.295615
461.784280	15185.215673
462.156719	15123.264933
462.529099	15019.848183
462.901419	14390.896185
463.273680	13992.864321
463.645882	14201.671434
464.018024	14093.992388
464.390106	14463.188852
464.762130	15533.501431
465.134094	17085.483657
465.505999	19382.682012
465.877845	21628.947069
466.249631	22836.220236
466.621358	22339.835461
466.993026	21511.334429
467.364634	20758.080180
467.736184	19950.893147
468.107674	19353.826447
468.479105	19217.987515
468.850477	18930.798022
469.221790	18508.803033
469.593043	17836.355960
469.964238	17455.874874
470.335373	17512.222371
470.706449	18236.855469
471.077467	19109.940465
471.448425	21565.262172
471.819324	23425.558847
472.190164	23313.284789
472.560945	21565.138664
472.931667	20009.819194
473.302330	19667.749179
473.672934	19135.466348
474.043479	19551.227949
474.413965	19345.014510
474.784393	19154.375716
475.154761	19820.912036
475.525070	19947.694535
475.895321	19783.131108
476.265513	20311.333126
476.635645	20888.101620
477.005719	20951.461362
477.375734	21326.167807
477.745691	21950.829783
478.115588	22578.700453
478.485427	23779.208392
478.855207	25579.444760
479.224928	27398.996308
479.594591	28788.706313
479.964194	28423.709130
480.333739	28862.239103
480.703226	29072.366998
481.072653	29522.584887
481.442022	30035.749142
481.811333	30428.437383
482.180584	29985.899693
482.549777	29765.694531
482.918912	29538.867813
483.287988	29472.034716
483.657005	29309.530602
484.025964	28951.177660
484.394864	29136.152718
484.763706	29059.781758
485.132489	28524.287711
485.501213	28592.572660
485.869879	28770.427089
486.238487	28688.672176
486.607036	28969.318252
486.975527	28645.875301
487.343959	28998.163734
487.712333	29351.278917
488.080648	29305.568255
488.448905	29744.241901
488.817104	29617.585431
489.185244	30430.017785
489.553326	31393.417573
489.921350	33302.099242
490.289315	35796.641126
490.657222	36696.439197
491.025070	37245.398165
491.392861	36978.663153
491.760593	36169.996542
492.128267	35160.160165
492.495883	34168.683670
492.863440	33272.542957
493.230939	32313.730619
493.598380	31754.744795
493.965763	31586.556779
494.333088	31091.812900
494.700354	30892.503321
495.067563	30851.241477
495.434713	30741.994632
495.801805	31017.269358
496.168839	30850.306343
496.535815	30697.947550
496.902733	30827.948825
497.269593	30638.988735
497.636395	30800.721553
498.003139	31046.752546
498.369825	30810.788738
498.736453	31201.198377
499.103023	31035.326771
499.469535	31117.810130
499.835989	31240.751270
500.202385	31093.226943
500.568723	31133.611627
500.935003	31433.877873
501.301226	31324.194969
501.667390	32024.305374
502.033497	32226.374984
502.399546	32014.701976
502.765537	31614.953599
503.131470	32070.401684
503.497345	32495.053361
503.863163	31467.222586
504.228923	32208.428477
504.594625	32594.318721
504.960269	32080.441142
505.325856	32732.461460
505.691385	32390.391445
506.056856	32718.023596
506.422270	33198.722821
506.787625	32715.775241
507.152924	33161.110772
507.518164	33319.365194
507.883347	32920.342743
508.248472	33042.986455
508.613540	33703.186045
508.978550	33930.040488
509.343503	33772.481746
509.708398	34127.535252
510.073236	34701.349630
510.438016	34795.026871
510.802738	34445.115342
511.167403	35011.574676
511.532010	35253.897900
511.896561	35757.957832
512.261053	36486.454974
512.625488	36279.394621
512.989866	36183.867276
513.354186	36249.908912
513.718449	36198.985697
514.082655	37058.648621
514.446803	36749.885510
514.810894	37353.712397
515.174927	37361.795887
515.538904	37349.845832
515.902822	37985.933583
516.266684	37668.756786
516.630488	38018.363326
516.994235	38037.658342
517.357925	38587.683515
517.721558	38832.446657
518.085133	39209.058658
518.448651	39408.496787
518.812112	39287.993045
519.175516	39436.646590
519.538863	39864.229697
519.902152	39930.183113
520.265385	40456.056118
520.628560	40465.840997
520.991678	40430.711717
521.354739	40670.572337
521.717743	41002.408810
522.080690	40905.621177
522.443580	41576.966758
522.806413	41578.000194
523.169189	41731.309244
523.531908	41944.645834
523.894569	41791.099850
524.257174	41983.934067
524.619722	42326.495594
524.982213	42467.105977
525.344647	42500.400278
525.707025	42626.028352
526.069345	43055.378384
526.431608	42982.916839
526.793815	43362.636711
527.155964	42907.473451
527.518057	43153.363292
527.880093	43027.641956
528.242072	43648.192871
528.603995	43360.012791
528.965860	43285.628045
529.327669	43510.944937
529.689421	43566.732866
530.051117	43525.173594
530.412755	43785.813850
530.774337	43848.341802
531.135862	43779.308241
531.497331	43940.423518
531.858743	43945.890650
532.220098	44353.097413
532.581396	44094.128299
532.942638	43848.775341
533.303824	44080.494498
533.664953	44161.634390
534.026025	43834.425697
534.387040	44402.626750
534.747999	44447.566116
535.108902	44795.640145
535.469748	44124.781035
535.830537	44383.321651
536.191270	44626.030524
536.551947	44395.977468
536.912567	44646.525335
537.273131	44780.002486
537.633638	44403.887038
537.994089	44578.026136
538.354483	44360.651582
538.714821	44998.957441
539.075103	45271.169667
539.435328	45135.192103
539.795497	44914.122384
540.155609	45024.571544
540.515665	45594.070694
540.875665	44904.942442
541.235609	45177.436972
541.595496	45307.657538
541.955328	45870.615791
542.315102	45311.808928
542.674821	45224.455814
543.034483	45115.304751
543.394090	45135.630684
543.753640	45126.115506
544.113134	46175.335897
544.472571	45296.408203
544.831953	46412.532268
545.191278	45679.976997
545.550548	45363.216095
545.909761	45994.106416
546.268918	46142.303736
546.628019	46529.333282
546.987064	45989.811353
547.346053	45305.295758
547.704986	46193.168979
548.063863	45842.907089
548.422684	46047.877884
548.781449	45622.371732
549.140158	46152.703637
549.498811	45903.295071
549.857408	45301.305684
550.215949	46145.114180
550.574434	45972.190000
550.932864	45926.650737
551.291237	46650.444482
551.649555	46374.837040
552.007817	46559.217242
552.366022	46244.172853
552.724173	46323.485326
553.082267	46724.569608
553.440305	47080.427179
553.798288	46340.675661
554.156215	46727.758138
554.514086	46907.833195
554.871902	46512.735283
555.229661	46699.308387
555.587365	46385.083185
555.945014	46514.177053
556.302606	46521.395985
556.660143	46605.096783
557.017625	46849.622991
557.375050	46532.539456
557.732421	46944.731920
558.089735	47002.037237
558.446994	46885.752941
558.804197	47339.691201
559.161345	47182.150102
559.518437	46560.873261
559.875474	46796.453942
560.232455	47015.575255
560.589381	47063.216680
560.946251	46898.950682
561.303065	47530.818987
561.659825	47225.912358
562.016528	47030.625620
562.373177	46596.030268
562.729770	47239.064729
563.086307	46752.661438
563.442789	47296.405333
563.799216	47126.853685
564.155587	47041.980819
564.511904	47004.139398
564.868164	47052.428611
565.224370	47380.627891
565.580520	47109.030686
565.936615	47299.457752
566.292654	46923.372552
566.648638	47304.831622
567.004567	47248.529495
567.360441	47324.580342
567.716260	47023.593211
568.072023	47437.978577
568.427732	47342.864607
568.783385	46889.400216
569.138982	47298.487330
569.494525	47436.191488
569.850013	47041.900161
570.205445	47153.760844
570.560823	46946.758464
570.916145	46827.837645
571.271412	47055.412974
571.626625	46687.174329
571.981782	46779.505583
572.336884	46366.546862
572.691931	46688.749690
573.046923	46358.392796
573.401860	46205.567697
573.756743	46222.558906
574.111570	46350.024481
574.466342	46281.923533
574.821059	46441.536546
575.175722	45912.008705
575.530330	45999.266037
575.884882	45661.861610
576.239380	45568.759060
576.593823	45663.197516
576.948211	45609.499145
577.302544	45150.207180
577.656823	45146.950595
578.011047	45426.805209
578.365216	45256.134425
578.719330	44964.208768
579.073389	44961.733561
579.427394	44987.665257
579.781344	44903.379685
580.135239	44657.915822
580.489080	44743.403709
580.842866	44231.139299
581.196597	44711.626795
581.550273	44702.527513
581.903895	44660.882541
582.257463	45079.134472
582.610975	44509.405950
582.964434	44853.036202
583.317837	44346.022154
583.671186	44313.940251
584.024481	44574.600672
584.377721	44131.218588
584.730906	44359.613105
585.084037	44496.077139
585.437113	44211.314961
585.790135	44335.261811
586.143103	43888.721444
586.496016	44062.053958
586.848874	44165.629505
587.201679	44193.807034
587.554428	43686.051936
587.907124	43949.215291
588.259765	43736.604627
588.612352	43898.087908
588.964884	43354.858211
589.317362	43670.802446
589.669786	43673.905276
590.022155	43526.191907
590.374470	43985.418337
590.726731	43574.710492
591.078937	42932.822893
591.431090	43285.156697
591.783188	42760.758230
592.135232	42585.565531
592.487222	42867.981052
592.839157	43024.355124
593.191038	42663.605113
593.542866	42490.083557
593.894639	41873.868034
594.246358	42169.501460
594.598022	42162.973166
594.949633	41731.634399
595.301190	41719.291134
595.652692	41677.736903
596.004141	42183.488142
596.355535	41082.933681
596.706876	41102.392535
597.058162	40807.721969
597.409395	41304.207567
597.760573	41525.330219
598.111698	41145.491879
598.462768	41059.633468
598.813785	41081.340676
599.164748	40707.962575
599.515657	40962.719806
599.866511	40465.767901
600.217312	41145.716211
600.568060	40111.760433
600.918753	40932.412389
601.269392	40836.791782
601.619978	40576.393501
601.970510	40785.087188
602.320988	40908.867680
602.671412	41174.418020
603.021783	41047.459081
603.372100	40599.784455
603.722363	40711.743441
604.072572	40743.273338
604.422728	40758.986614
604.772830	40543.363861
605.122878	40716.751827
605.472872	40559.440101
605.822813	40830.318941
606.172701	40591.847158
606.522534	40907.299881
606.872314	41098.780548
607.222041	40943.881014
607.571714	41290.803139
607.921333	40778.695005
608.270899	40952.163629
608.620411	41342.255676
608.969870	41112.699174
609.319276	41114.203958
609.668627	41139.412248
610.017926	41534.452187
610.367171	41690.188552
610.716362	41733.771848
611.065500	41641.029741
611.414585	41863.074924
611.763616	42027.219934
612.112594	41923.009202
612.461518	42042.839949
612.810389	42436.387707
613.159207	42216.031310
613.507971	42186.021321
613.856682	42690.184597
614.205340	42529.386913
614.553945	43221.476842
614.902496	42571.420053
615.250994	42989.011594
615.599439	43055.988364
615.947830	43185.195658
616.296169	43174.984801
616.644454	43203.477402
616.992686	43354.172614
617.340864	43796.947239
617.688990	43311.511850
618.037063	43982.496988
618.385082	43787.056495
618.733048	44143.047656
619.080961	44034.751068
619.428821	44059.223350
619.776628	44100.651552
620.124382	43931.984627
620.472083	44057.746292
620.819731	44168.528168
621.167326	43753.038789
621.514868	43745.661060
621.862357	43176.108978
622.209793	43284.811378
622.557176	42844.332999
622.904506	42614.040489
623.251783	42260.877415
623.599007	41937.328599
623.946179	41869.756973
624.293297	41609.890533
624.640363	41066.098748
624.987376	40929.445670
625.334336	40726.758517
625.681243	40317.076547
626.028097	40224.354605
626.374899	40058.024254
626.721647	40023.628461
627.068343	39787.432760
627.414987	39497.773101
627.761577	39270.152402
628.108115	39576.021891
628.454600	38837.071916
628.801032	39078.591076
629.147412	38957.873086
629.493739	38850.854431
629.840014	38421.068339
630.186236	38830.147891
630.532405	38273.876729
630.878521	38529.927015
631.224585	38296.259452
631.570597	37955.459808
631.916556	38141.937130
632.262462	38044.214362
632.608316	37973.953281
632.954117	37843.052159
633.299866	37805.006571
633.645562	37715.084990
633.991206	37211.307362
634.336797	36779.635879
634.682336	36677.383635
635.027823	36459.840202
635.373257	36328.747517
635.718639	36008.538466
636.063968	35880.001646
636.409245	35255.876553
636.754470	35193.230134
637.099642	34989.418805
637.444762	34404.811317
637.789829	34558.760593
638.134845	34164.870038
638.479808	34083.785598
638.824719	34041.318918
639.169577	33530.309756
639.514383	33640.559791
639.859137	33250.369442
640.203839	33414.176695
640.548489	33128.169352
640.893086	33114.371714
641.237632	32846.313399
641.582125	32938.987451
641.926566	32705.191338
642.270955	32744.033429
642.615292	32672.315454
642.959576	32559.696077
643.303809	32558.886972
643.647990	32654.709224
643.992118	32620.205046
644.336195	32448.941927
644.680219	32520.934645
645.024192	32720.680284
645.368112	33246.812908
645.711981	33259.383025
646.055797	33946.459527
646.399562	33740.782970
646.743274	34598.532777
647.086935	35019.486767
647.430544	34990.989124
647.774101	35026.693096
648.117606	35335.219273
648.461059	35467.337833
648.804460	35102.771669
649.147810	34590.000624
649.491108	34274.235350
649.834354	34179.416287
650.177548	33373.023235
650.520690	32852.405634
650.863781	32809.467606
651.206820	32643.656494
651.549807	32238.410739
651.892742	31660.112255
652.235626	31566.654304
652.578458	31427.657090
652.921238	30735.675545
653.263967	31020.236077
653.606644	30706.860310
653.949269	30620.369233
654.291843	30232.291128
654.634365	30563.686499
654.976836	30115.807707
655.319255	30203.554030
655.661622	30070.628886
656.003938	29935.415057
656.346203	29748.284906
656.688416	30010.891213
657.030577	29794.189653
657.372687	29600.291752
657.714746	29744.115872
658.056753	29933.764079
658.398708	29306.949531
658.740612	29370.163079
659.082465	29579.174359
659.424266	29466.489447
659.766016	29466.083634
660.107715	29316.719287
660.449362	29411.669420
660.790958	29384.147240
661.132503	29314.276848
661.473996	29400.231042
661.815438	29487.400153
662.156829	29599.709499
662.498168	29389.505987
662.839456	29343.656692
663.180693	29497.679066
663.521879	29556.426152
663.863013	29532.301711
664.204097	29497.293418
664.545129	29894.690096
664.886110	29834.975108
665.227040	29949.149681
665.567918	29924.027091
665.908746	29988.153088
666.249522	30099.655850
666.590248	30117.662851
666.930922	30214.803365
667.271545	30229.442876
667.612118	30292.966456
667.952639	30093.760220
668.293109	30134.976694
668.633528	29988.117800
668.973896	29942.412179
669.314213	29941.156932
669.654480	29747.286758
669.994695	29734.290663
670.334859	29644.847991
670.674973	29457.375041
671.015035	29640.585695
671.355047	29569.119778
671.695008	29493.046246
672.034918	29395.605783
672.374777	29500.033285
672.714585	29365.303407
673.054342	29498.016823
673.394049	29366.901453
673.733705	29583.015718
674.073310	29291.694999
674.412864	29349.960655
674.752368	29082.091384
675.091820	29322.141048
675.431223	28916.481918
675.770574	28719.760972
676.109875	28564.024606
676.449125	28342.110493
676.788324	28243.278672
677.127473	27753.437315
677.466571	27671.647114
677.805619	27392.082366
678.144616	27320.871027
678.483562	27268.498479
678.822458	26941.272142
679.161303	26888.647537
679.500098	26809.566957
679.838842	26718.662350
680.177535	26773.210155
680.516179	26994.617632
680.854771	27067.971462
681.193314	27743.062620
681.531805	28692.158134
681.870247	29453.906727
682.208638	30255.467833
682.546978	30612.016041
682.885268	30787.793514
683.223508	30385.380888
683.561697	30143.188734
683.899836	29985.672841
684.237925	29575.680839
684.575963	29390.415915
684.913951	29022.290697
685.251889	29160.758590
685.589776	29159.233641
685.927614	29146.018256
686.265401	29310.851384
686.603137	29415.667055
686.940824	29878.908764
687.278460	30196.917351
687.616046	30377.383097
687.953582	31071.096278
688.291068	31002.796205
688.628504	31364.022605
688.965889	31375.690355
689.303224	31141.392648
689.640510	30875.549920
689.977745	30266.129873
690.314930	29552.037828
690.652065	29153.514452
690.989150	28489.148348
691.326185	27634.342576
691.663170	27012.901897
692.000105	26308.332591
692.336990	25701.952360
692.673825	25275.029643
693.010610	24768.348312
693.347345	24274.337920
693.684030	23666.238655
694.020665	23457.194608
694.357251	22781.062451
694.693786	22786.335498
695.030272	22561.260582
695.366707	22064.349006
695.703093	21777.663628
696.039429	21836.428358
696.375716	21588.264957
696.711952	21597.770053
697.048139	21447.412598
697.384276	21296.891306
697.720363	21410.642422
698.056400	21307.003861
698.392388	21145.361783
698.728326	21142.503449
699.064214	20994.220429
699.400053	21006.102429
699.735842	20630.377671
700.071581	20445.493353
700.407270	20214.399299
700.742910	20025.136740
701.078501	19774.029305
701.414042	19570.555733
701.749533	19272.915928
702.084974	18966.307910
702.420366	19199.718374
702.755709	18795.122928
703.091002	18496.263163
703.426246	18546.934321
703.761440	18476.411099
704.096584	18247.121778
704.431679	18180.734823
704.766725	18134.164644
705.101721	18056.535916
705.436668	18164.847627
705.771565	17882.613588
706.106413	18191.986679
706.441212	18251.709228
706.775961	18343.002004
707.110661	18422.826155
707.445311	18789.426424
707.779913	18665.981169
708.114465	18945.442574
708.448967	19246.250744
708.783421	19860.616164
709.117825	20202.958401
709.452180	20426.752864
709.786485	20862.230418
710.120742	21598.075043
710.454949	21702.477339
710.789107	22211.848126
711.123216	22909.442995
711.457275	23144.060816
711.791286	23691.739332
712.125247	23870.601991
712.459159	23644.407938
712.793023	24397.014399
713.126837	23407.824067
713.460602	23689.112890
713.794318	23364.041646
714.127985	23110.998408
714.461602	22207.774874
714.795171	22196.560827
715.128691	21228.603836
715.462162	20718.895291
715.795584	20298.120262
716.128957	20025.779487
716.462281	19662.576955
716.795556	19378.129850
717.128782	18900.094874
717.461960	18297.329150
717.795088	18272.408206
718.128167	17940.397814
718.461198	17485.668093
718.794180	17362.787447
719.127113	17040.279630
719.459997	16838.827561
719.792833	16467.455839
720.125619	16511.293713
720.458357	16171.104048
720.791046	16032.159766
721.123686	15875.032042
721.456278	15646.735828
721.788821	15646.435880
722.121315	15385.934255
722.453761	15491.548948
722.786158	15366.404825
723.118506	15453.523525
723.450805	15331.514999
723.783056	15507.426062
724.115259	15397.155863
724.447412	15384.079110
724.779518	15593.007211
725.111574	15639.287523
725.443582	15895.637758
725.775542	15835.111145
726.107453	16344.771798
726.439315	16251.767551
726.771129	16637.209133
727.102895	17040.902213
727.434612	17323.317733
727.766281	17502.500506
728.097901	17837.606166
728.429473	17945.542311
728.760996	17971.594994
729.092471	18086.803004
729.423897	17955.344835
729.755276	17805.037792
730.086606	17897.099343
730.417887	18449.889589
730.749120	18990.815479
731.080305	19208.953768
731.411442	19625.688312
731.742530	19740.321630
732.073570	19879.701972
732.404562	20197.826506
732.735506	20104.290417
733.066401	19967.281938
733.397249	19537.279077
733.728048	18937.404454
734.058798	18096.250126
734.389501	17345.771032
734.720156	16814.453582
735.050762	16226.579426
735.381320	15838.423183
735.711831	15544.080292
736.042293	15158.971426
736.372707	15185.974367
736.703073	14967.485718
737.033391	15152.158307
737.363661	15136.780267
737.693883	15248.837555
738.024056	15443.143789
738.354182	15634.054806
738.684260	15980.054400
739.014290	16262.608553
739.344272	16479.423538
739.674207	16822.146383
740.004093	17012.339035
740.333931	17086.043225
740.663722	17170.895926
740.993464	17219.618678
741.323159	17100.609639
741.652806	16816.530537
741.982405	16644.589382
742.311956	16291.917821
742.641460	16199.916763
742.970915	15863.142481
743.300323	15531.258117
743.629683	15316.620910
743.958996	15007.366286
744.288260	14700.894379
744.617477	14399.337597
744.946647	14359.005846
745.275768	14037.798646
745.604842	13844.057022
745.933869	13663.132531
746.262847	13629.939053
746.591778	13536.448334
746.920662	13411.659612
747.249498	13410.542997
747.578286	13542.961505
747.907027	13701.828428
748.235720	13973.445797
748.564365	14055.087283
748.892963	13993.706194
749.221514	14100.742493
749.550017	13979.356550
749.878473	13965.090084
750.206881	13747.224018
750.535242	13670.520342
750.863555	13593.088218
751.191821	13491.110717
751.520039	13505.679652
751.848210	13425.031273
752.176334	13453.481024
752.504411	13390.638001
752.832440	13219.939490
753.160421	13335.649094
753.488356	13224.428638
753.816243	13140.753046
754.144082	12978.919404
754.471875	12915.945310
754.799620	12885.007749
755.127318	12845.948889
755.454969	12830.091940
755.782572	12795.033235
756.110129	12820.677585
756.437638	12732.883370
756.765100	12731.134090
757.092515	12762.595931
757.419882	12785.109724
757.747203	12794.574490
758.074477	12872.288918
758.401703	12851.340403
758.728882	13041.827963
759.056014	13082.731885
759.383099	13240.643509
759.710138	13372.898180
760.037129	13509.543696
760.364073	13580.404675
760.690970	13598.071399
761.017820	13598.043673
761.344623	13796.677737
761.671379	14115.991983
761.998088	14664.235108
762.324751	16077.172229
762.651366	19012.159724
762.977935	23332.032840
763.304456	26626.341179
763.630931	28232.538494
763.957359	27453.712992
764.283740	25407.140642
764.610074	23244.735179
764.936362	20611.289342
765.262602	18701.170944
765.588796	16729.865541
765.914943	15399.182407
766.241044	14247.465276
766.567097	13421.930963
766.893104	12690.406608
767.219064	12205.860982
767.544978	11719.626571
767.870845	11321.337608
768.196665	11092.789337
768.522438	10854.993069
768.848165	10649.545885
769.173846	10445.878228
769.499479	10309.686416
769.825066	10151.918465
770.150607	9928.872613
770.476101	9842.101753
770.801548	9713.756496
771.126949	9565.788549
771.452303	9456.405592
771.777611	9256.430581
772.102872	9240.303930
772.428087	9110.146379
772.753256	8963.801683
773.078378	8870.961273
773.403453	8692.196916
773.728482	8572.991272
774.053465	8499.680292
774.378401	8398.383347
774.703291	8277.577136
775.028135	8158.500041
775.352932	8130.478787
775.677683	8020.758074
776.002388	7918.188237
776.327046	7925.626460
776.651658	7825.715832
776.976224	7726.843681
777.300743	7729.913744
777.625216	7638.958726
777.949643	7596.050945
778.274024	7612.646423
778.598359	7525.668875
778.922647	7539.940382
779.246889	7491.464646
779.571086	7497.297261
779.895236	7505.511822
780.219339	7512.309817
780.543397	7515.445415
780.867409	7599.211748
781.191374	7611.083665
781.515294	7573.663180
781.839167	7667.290010
782.162995	7643.296638
782.486776	7590.246056
782.810511	7544.719396
783.134201	7456.012732
783.457844	7447.770445
783.781441	7398.714977
784.104993	7334.442786
784.428498	7314.724313
784.751958	7293.911909
785.075372	7266.929133
785.398739	7210.569033
785.722061	7248.372646
786.045337	7248.687718
786.368568	7387.027062
786.691752	7390.200468
787.014891	7683.446908
787.337983	7993.732448
787.661030	8549.842293
787.984031	9175.867902
788.306987	9609.636505
788.629897	9871.085867
788.952760	9878.022494
789.275579	9694.653044
789.598351	9318.353594
789.921078	8982.988314
790.243759	8573.747445
790.566395	8277.869523
790.888984	8030.852984
791.211529	7816.019172
791.534027	7587.299502
791.856480	7382.520271
792.178888	7302.522200
792.501249	7206.359670
792.823566	7041.823970
793.145836	7044.284053
793.468062	7005.169741
793.790241	6951.277285
794.112375	7010.783065
794.434464	7153.908985
794.756507	7185.050713
795.078505	7315.830846
795.400457	7601.407171
795.722364	7940.026516
796.044226	8229.913026
796.366042	8522.627624
796.687812	8497.081577
797.009538	8592.624046
797.331218	8499.294644
797.652852	8423.299250
797.974442	8278.595449
798.295986	8197.231226
798.617484	8012.407403
798.938938	7874.131073
799.260346	7773.630630
799.581709	7569.983138
799.903026	7495.202662
800.224299	7386.570838
800.545526	7212.441822
800.866708	7115.001359
801.187845	7053.121196
801.508936	6951.554549
801.829983	6909.148363
802.150984	6764.036229
802.471940	6721.496452
802.792851	6703.002979
803.113717	6670.600963
803.434538	6633.654346
803.755314	6576.328865
804.076045	6581.251552
804.396731	6517.443147
804.717372	6551.705349
805.037967	6548.761315
805.358518	6584.798004
805.679024	6667.316651
805.999485	6676.194123
806.319901	6716.982099
806.640272	6733.406178
806.960598	6812.796789
807.280879	6823.070661
807.601115	6904.724750
807.921306	6846.438929
808.241453	6863.074737
808.561554	6886.526185
808.881611	6853.698191
809.201623	6855.434868
809.521590	6807.458207
809.841513	6786.227388
810.161390	6826.299520
810.481223	6696.013419
810.801011	6686.561256
811.120755	6662.756927
811.440453	6585.912099
811.760107	6552.912706
812.079716	6521.740731
812.399281	6459.774868
812.718801	6449.448064
813.038276	6410.590850
813.357707	6338.419171
813.677093	6378.385439
813.996434	6283.387415
814.315731	6325.002140
814.634983	6310.712990
814.954191	6319.487118
815.273354	6419.498569
815.592473	6478.164997
815.911547	6589.690443
816.230577	6670.270767
816.549562	6806.437374
816.868502	6904.490337
817.187399	6998.278483
817.506250	7141.238045
817.825058	7163.209914
818.143821	7409.545896
818.462539	7653.023545
818.781213	7975.047411
819.099843	8457.997512
819.418429	9370.907623
819.736970	10270.418348
820.055466	11370.506502
820.373919	12757.350610
820.692327	14754.224746
821.010691	18073.741374
821.329011	25518.282961
821.647286	37190.719290
821.965517	51180.667304
822.283704	58613.218506
822.601847	61778.891722
822.919945	59639.761266
823.237999	55817.686970
823.556010	49857.860973
823.873976	43198.302658
824.191897	36714.214305
824.509775	31847.179392
824.827609	27185.447990
825.145398	24371.417940
825.463144	22703.494217
825.780845	22579.267583
826.098502	23814.912364
826.416116	27116.169933
826.733685	30880.790200
827.051210	32732.980699
827.368692	31785.899126
827.686129	28278.395350
828.003522	24240.163938
828.320872	20476.998044
828.638177	17565.877892
828.955439	15367.796183
829.272656	13525.463660
829.589830	12028.031760
829.906960	10727.784593
830.224046	9747.685982
830.541088	8958.339592
830.858086	8462.647976
831.175041	8054.690080
831.491952	7896.473467
831.808819	7890.900471
832.125642	8192.691667
832.442421	8881.010813
832.759157	10360.823881
833.075849	12944.984877
833.392497	16077.542754
833.709101	18576.120081
834.025662	18965.304720
834.342179	17626.356614
834.658653	15550.230500
834.975083	13619.609729
835.291469	11962.017850
835.607811	10622.658891
835.924110	9698.819557
836.240366	8830.135488
836.556578	8016.430243
836.872746	7362.446396
837.188871	6839.769483
837.504952	6415.516057
837.820990	6087.036993
838.136984	5854.634760
838.452935	5736.523046
838.768842	5716.461774
839.084706	5994.052911
839.400526	6963.582742
839.716303	8465.191238
840.032037	9716.942506
840.347727	9947.983628
840.663373	9151.050301
840.978977	8114.349616
841.294537	7271.461131
841.610054	6655.389281
841.925527	6218.076747
842.240957	5853.170305
842.556344	5526.556468
842.871687	5245.600361
843.186987	4959.653512
843.502244	4729.930652
843.817458	4555.720978
844.132629	4413.855347
844.447756	4321.897139
844.762840	4237.833378
845.077881	4165.210516
845.392879	4103.589972
845.707833	4052.875964
846.022745	4007.208151
846.337613	3979.801918
846.652438	3934.791976
846.967221	3920.770007
847.281960	3889.000655
847.596656	3868.470556
847.911309	3849.046990
848.225919	3825.169565
848.540485	3807.989313
848.855009	3798.501861
849.169490	3774.616874
849.483928	3759.679936
849.798323	3755.863782
850.112675	3739.737131
850.426984	3742.766864
850.741251	3726.131057
851.055474	3721.120150
851.369654	3727.003176
851.683792	3721.639389
851.997887	3728.366808
852.311938	3727.918146
852.625947	3736.384764
852.939914	3727.345975
853.253837	3734.867376
853.567718	3732.898806
853.881555	3723.726426
854.195350	3737.229157
854.509103	3730.539546
854.822812	3732.896285
855.136479	3722.821539
855.450103	3733.168508
855.763685	3717.303996
856.077224	3720.321127
856.390720	3734.325452
856.704173	3753.406220
857.017584	3766.225874
857.330953	3776.514869
857.644278	3800.682160
857.957561	3809.398315
858.270802	3806.933191
858.584000	3809.746155
858.897155	3805.861946
859.210268	3791.217394
859.523339	3770.687295
859.836367	3766.062036
860.149352	3759.024586
860.462295	3753.287753
860.775195	3741.483891
861.088054	3738.698653
861.400869	3735.011049
861.713642	3733.796131
862.026373	3741.609920
862.339062	3746.033532
862.651708	3767.012294
862.964312	3792.797796
863.276873	3804.904127
863.589392	3856.344061
863.901869	3900.048344
864.214303	3946.477371
864.526696	3973.553408
864.839045	4022.931510
865.151353	4050.627609
865.463619	4058.154052
865.775842	4064.478179
866.088023	4086.281170
866.400162	4075.929160
866.712258	4088.804267
867.024313	4088.728650
867.336325	4084.904935
867.648296	4089.426850
867.960224	4091.531532
868.272110	4099.272223
868.583954	4100.897995
868.895755	4114.103298
869.207515	4112.389306
869.519233	4149.030932
869.830909	4161.996780
870.142542	4183.935882
870.454134	4199.359292
870.765684	4227.345257
871.077191	4258.844907
871.388657	4281.555305
871.700081	4317.314730
872.011463	4362.559086
872.322803	4389.423395
872.634101	4416.627981
872.945357	4458.973674
873.256571	4511.832692
873.567744	4545.994071
873.878874	4561.142739
874.189963	4599.556331
874.501010	4604.733596
874.812015	4609.187455
875.122979	4650.414012
875.433900	4647.951408
875.744780	4662.379190
876.055618	4686.049928
876.366415	4681.659083
876.677169	4697.062329
876.987882	4743.229216
877.298554	4784.344866
877.609183	4857.156772
877.919771	4949.886276
878.230317	5079.315381
878.540822	5262.384883
878.851285	5541.969796
879.161707	5939.474859
879.472087	6575.512198
879.782425	7603.085875
880.092722	9434.776522
880.402977	12291.391719
880.713191	15823.143445
881.023363	19556.130471
881.333494	22041.678937
881.643583	23510.698894
881.953631	23757.418004
882.263637	23093.384617
882.573602	21773.668513
882.883526	20332.858853
883.193408	18747.554600
883.503248	17131.615255
883.813048	15651.666077
884.122806	14270.026960
884.432522	12836.292559
884.742197	11602.780186
885.051831	10514.735349
885.361424	9505.498869
885.670975	8679.969598
885.980485	7989.016449
886.289954	7404.434166
886.599382	6928.123266
886.908768	6553.497479
887.218113	6190.821748
887.527417	5894.659001
887.836680	5629.635461
888.145901	5417.496145
888.455082	5254.311475
888.764221	5095.124439
889.073319	4958.121001
889.382376	4882.992685
889.691392	4818.886852
890.000366	4790.878202
890.309300	4764.210498
890.618193	4772.508237
890.927044	4755.416205
891.235855	4769.206281
891.544625	4795.828615
891.853353	4844.185883
892.162041	4940.640800
892.470687	5098.512095
892.779293	5316.814221
893.087858	5637.303056
893.396381	6134.746473
893.704864	6821.956566
894.013306	7850.135181
894.321707	8983.827666
894.630068	9883.287980
894.938387	10232.390404
895.246665	10122.223548
895.554903	9590.273433
895.863100	8941.706305
896.171256	8410.814832
896.479371	7917.048936
896.787446	7424.371930
897.095480	7008.542273
897.403473	6688.204672
897.711425	6381.306787
898.019336	6122.088136
898.327207	5856.096695
898.635038	5623.533144
898.942827	5377.665989
899.250576	5181.819683
899.558284	4990.762472
899.865952	4863.276733
900.173579	4718.787181
900.481165	4613.023773
900.788711	4517.783774
901.096216	4441.541364
901.403681	4376.956621
901.711105	4347.402857
902.018489	4330.933407
902.325832	4376.520561
902.633135	4467.946928
902.940397	4726.028799
903.247619	5336.298280
903.554800	6539.125150
903.861941	8314.087693
904.169041	9893.055215
904.476101	10744.856460
904.783121	10616.440627
905.090100	9991.032561
905.397039	9201.827323
905.703938	8467.580745
906.010796	7791.877086
906.317614	7253.373471
906.624391	6740.178968
906.931129	6323.504917
907.237826	5932.787768
907.544483	5569.605401
907.851099	5209.888827
908.157675	4857.670970
908.464211	4528.740722
908.770707	4282.429945
909.077163	4075.956887
909.383578	3928.062036
909.689954	3804.916730
909.996289	3725.722723
910.302584	3663.961027
910.608839	3628.993063
910.915054	3592.651385
911.221229	3580.582863
911.527363	3584.383893
911.833458	3595.156839
912.139513	3617.816825
912.445527	3636.433806
912.751502	3708.219837
913.057436	3797.942293
913.363331	3911.824479
913.669186	4089.051284
913.975000	4311.593020
914.280775	4668.468904
914.586510	5169.647817
914.892205	5862.413260
915.197859	6797.902700
915.503475	7941.241434
915.809050	9004.864401
916.114585	9728.343075
916.420081	10092.016955
916.725536	10146.234564
917.030952	9778.270663
917.336328	9415.557123
917.641665	9042.327736
917.946961	8585.430319
918.252218	8188.119340
918.557435	7698.487191
918.862612	7284.401773
919.167750	6923.203100
919.472848	6517.319639
919.777906	6155.294217
920.082925	5801.034692
920.387904	5437.754022
920.692843	5169.166386
920.997743	4915.460237
921.302603	4678.946942
921.607423	4518.784443
921.912204	4356.338302
922.216946	4239.875045
922.521647	4122.416161
922.826310	4014.303575
923.130932	3924.329061
923.435516	3828.098476
923.740059	3757.222373
924.044564	3683.019109
924.349028	3625.895274
924.653454	3564.294895
924.957840	3495.982219
925.262186	3448.860033
925.566493	3391.433729
925.870761	3337.238805
926.174989	3299.974596
926.479178	3264.182403
926.783328	3221.214129
927.087438	3197.838298
927.391509	3163.558452
927.695541	3135.335552
927.999533	3105.791870
928.303486	3084.558530
928.607400	3070.705439
928.911275	3060.542473
929.215110	3039.979607
929.518906	3031.117258
929.822663	3029.672968
930.126381	3027.948893
930.430060	3032.306971
930.733699	3034.885521
931.037299	3044.123435
931.340861	3041.547406
931.644383	3054.586350
931.947866	3051.385217
932.251309	3045.547561
932.554714	3044.632592
932.858080	3038.953732
933.161407	3031.732279
933.464694	3025.304808
933.767943	3017.743077
934.071153	3013.841224
934.374323	3003.678258
934.677455	2999.148781
934.980548	2989.847852
935.283602	2986.548417
935.586617	2982.215545
935.889593	2988.607728
936.192530	2993.013697
936.495428	3004.278155
936.798287	3023.747091
937.101108	3051.249106
937.403890	3095.873400
937.706632	3150.758962
938.009336	3225.521795
938.312002	3296.818833
938.614628	3360.239069
938.917216	3412.909045
939.219765	3446.674693
939.522275	3482.368583
939.824747	3488.944768
940.127179	3488.256651
940.429573	3483.510404
940.731929	3484.848831
941.034246	3471.333497
941.336524	3463.744040
941.638763	3444.461627
941.940964	3435.349741
942.243126	3394.284502
942.545250	3376.489229
942.847335	3341.319619
943.149381	3305.088846
943.451389	3276.485339
943.753359	3237.358424
944.055290	3214.983262
944.357182	3187.027544
944.659036	3173.310564
944.960851	3164.463339
945.262628	3150.348108
945.564367	3151.031185
945.866067	3145.208652
946.167729	3142.471306
946.469352	3139.963332
946.770937	3135.297744
947.072484	3121.953809
947.373992	3125.538070
947.675462	3112.942747
947.976893	3100.526385
948.278286	3095.810386
948.579641	3084.843355
948.880958	3078.579722
949.182236	3084.619024
949.483476	3076.704412
949.784678	3076.664083
950.085841	3074.839186
950.386967	3086.988366
950.688054	3095.036568
950.989103	3113.272943
951.290114	3132.356230
951.591087	3158.769356
951.892021	3187.516536
952.192917	3213.551575
952.493776	3238.913620
952.794596	3249.747059
953.095378	3255.972884
953.396122	3253.273347
953.696828	3247.959970
953.997496	3238.207858
954.298126	3218.355794
954.598718	3203.565049
954.899272	3178.472706
955.199788	3152.384735
955.500266	3124.590333
955.800706	3088.130188
956.101108	3053.212636
956.401472	3023.830270
956.701798	2994.667195
957.002087	2951.570371
957.302337	2924.738830
957.602550	2899.102042
957.902724	2868.771940
958.202861	2842.981397
958.502960	2823.189827
958.803022	2803.141158
959.103045	2784.405710
959.403031	2765.912237
959.702979	2751.975967
960.002889	2740.146899
960.302762	2728.743809
960.602596	2716.632437
960.902393	2709.375696
961.202153	2699.520241
961.501875	2690.173941
961.801559	2685.178158
962.101205	2680.300842
962.400814	2674.584173
962.700385	2667.660148
962.999918	2661.404076
963.299414	2654.822850
963.598873	2650.520225
963.898293	2645.045532
964.197677	2647.104843
964.497022	2645.806746
964.796331	2644.755666
965.095601	2638.245016
965.394835	2637.113277
965.694030	2634.685961
965.993189	2636.957001
966.292309	2634.655714
966.591393	2635.109418
966.890439	2632.485497
967.189447	2630.408542
967.488419	2631.986423
967.787353	2631.547843
968.086249	2632.719911
968.385108	2638.716363
968.683930	2635.795015
968.982714	2639.994296
969.281462	2645.617703
969.580172	2651.488127
969.878844	2653.123981
970.177480	2661.361227
970.476078	2668.686023
970.774639	2678.118022
971.073162	2686.183868
971.371649	2686.367870
971.670098	2694.348017
971.968510	2702.181970
972.266885	2702.716332
972.565223	2708.559029
972.863524	2712.375183
973.161788	2714.600852
973.460014	2718.099413
973.758204	2721.590412
974.056356	2721.207284
974.354471	2724.370608
974.652550	2724.196689
974.950591	2725.469580
975.248595	2723.521174
975.546563	2722.107130
975.844493	2718.139742
976.142386	2710.048690
976.440243	2707.273535
976.738062	2703.611137
977.035845	2698.557380
977.333590	2694.093438
977.631299	2687.958354
977.928971	2679.234637
978.226606	2671.133503
978.524204	2671.869512
978.821765	2666.483039
979.119290	2669.205262
979.416777	2668.363389
979.714228	2668.113852
980.011642	2672.882784
980.309020	2677.402178
980.606360	2689.432892
980.903664	2710.023485
981.200931	2737.054152
981.498162	2782.437139
981.795356	2846.711851
982.092513	2923.322266
982.389633	3020.896319
982.686717	3118.929117
982.983764	3195.771425
983.280775	3252.421392
983.577749	3265.692229
983.874686	3261.039244
984.171587	3233.643093
984.468451	3199.872404
984.765279	3161.078204
985.062070	3116.337964
985.358824	3076.366655
985.655543	3026.721372
985.952224	2974.157261
986.248869	2914.722057
986.545478	2856.854652
986.842050	2801.001188
987.138586	2756.044178
987.435086	2716.861810
987.731549	2682.876871
988.027975	2656.062974
988.324366	2641.360449
988.620719	2625.601802
988.917037	2615.121243
989.213318	2605.429625
989.509563	2599.743203
989.805772	2591.390011
990.101944	2589.408838
990.398080	2588.345154
990.694180	2585.365832
990.990244	2583.861048
991.286271	2581.983218
991.582262	2586.164855
991.878217	2586.921028
992.174136	2590.099476
992.470019	2589.751636
992.765865	2596.103490
993.061676	2598.583738
993.357450	2603.773606
993.653188	2612.252826
993.948890	2627.882924
994.244556	2643.893628
994.540186	2664.799293
994.835780	2693.659899
995.131337	2729.696587
995.426859	2766.623039
995.722345	2808.772127
996.017795	2858.331710
996.313208	2893.776063
996.608586	2927.382915
996.903928	2946.509053
997.199234	2946.408230
997.494504	2945.982252
997.789738	2937.036725
998.084936	2911.964546
998.380099	2885.647202
998.675225	2857.825074
998.970316	2833.130982
999.265371	2796.310394
999.560390	2759.830085
999.855373	2731.022411
1000.150320	2704.984851
1000.445232	2674.034687
1000.740108	2657.613129
1001.034948	2640.090078
1001.329752	2622.619959
1001.624521	2608.063627
1001.919254	2596.509303
1002.213951	2590.444795
1002.508613	2581.716037
1002.803239	2575.701940
1003.097829	2568.722463
1003.392384	2564.795404
1003.686903	2558.761143
1003.981386	2554.944989
1004.275834	2552.598332
1004.570246	2551.411141
1004.864623	2547.912580
1005.158964	2545.828063
1005.453270	2544.109029
1005.747540	2544.182126
1006.041775	2541.220448
1006.335974	2541.921168
1006.630138	2538.034439
1006.924266	2537.278266
1007.218359	2534.873635
1007.512416	2537.600900
1007.806438	2532.443799
1008.100425	2531.864067
1008.394376	2528.078160
1008.688292	2535.471012
1008.982172	2536.726259
1009.276017	2533.167205
1009.569827	2533.174767
1009.863602	2532.350538
1010.157341	2531.044879
1010.451045	2532.111083
1010.744714	2529.799714
1011.038347	2529.777029
1011.331945	2530.558408
1011.625508	2526.459950
1011.919036	2524.682943
1012.212528	2527.453057
1012.505986	2524.357788
1012.799408	2523.243693
1013.092795	2519.903929
1013.386147	2521.650689
1013.679464	2520.002232
1013.972745	2522.764784
1014.265992	2521.171779
1014.559204	2524.176307
1014.852380	2523.354599
1015.145521	2523.704959
1015.438628	2522.127078
1015.731699	2524.007428
1016.024736	2523.014321
1016.317737	2522.734537
1016.610703	2525.436595
1016.903635	2528.315094
1017.196531	2529.025897
1017.489393	2526.674199
1017.782219	2529.368695
1018.075011	2530.651669
1018.367768	2530.908768
1018.660490	2534.193080
1018.953177	2534.193080
1019.245829	2534.193080
