Dividing Wavelength (nm)	Counts (n)	Blue Motor Position (mm): 49.500000	Red Motor Position (mm): 0.000000	
326.493990	2063.245967
326.888308	2063.245967
327.282561	2063.245967
327.676750	2037.074817
328.070874	2042.814170
328.464933	2046.642927
328.858929	2054.749102
329.252859	2067.924158
329.646726	2077.393965
330.040528	2094.952304
330.434265	2111.673811
330.827938	2132.292130
331.221547	2151.171252
331.615091	2170.040290
332.008571	2194.666327
332.401986	2213.074100
332.795338	2235.482029
333.188625	2252.090110
333.581847	2270.795312
333.975006	2288.630914
334.368100	2309.370221
334.761129	2324.450833
335.154095	2340.010354
335.546996	2389.849722
335.939833	2498.073212
336.332606	2508.783144
336.725315	2524.067922
337.117960	2531.843902
337.510540	2543.483926
337.903056	2550.425595
338.295508	2556.081770
338.687896	2564.505538
339.080220	2569.130796
339.472480	2572.994841
339.864676	2579.548341
340.256807	2581.695872
340.648875	2585.310380
341.040879	2582.948599
341.432818	2586.754670
341.824694	2582.870461
342.216506	2585.895153
342.608253	2587.246183
342.999937	2584.420616
343.391557	2582.056315
343.783113	2583.566140
344.174605	2578.754359
344.566033	2581.035481
344.957397	2579.170254
345.348697	2577.867116
345.739934	2573.151117
346.131106	2574.802094
346.522215	2572.221024
346.913260	2573.998030
347.304241	2567.580642
347.695159	2568.117524
348.086012	2565.755744
348.476802	2565.498645
348.867528	2559.653427
349.258191	2556.323745
349.648789	2561.831206
350.039324	2555.393652
350.429796	2558.864487
350.820203	2556.714434
351.210548	2556.553118
351.600828	2556.905998
351.991045	2555.726368
352.381198	2554.060267
352.771288	2556.560679
353.161314	2553.130174
353.551276	2555.431461
353.941175	2549.770245
354.331010	2556.878272
354.720782	2557.289126
355.110490	2558.501523
355.500135	2554.624876
355.889717	2554.970195
356.279235	2555.396173
356.668689	2558.688046
357.058080	2556.797613
357.447408	2558.748540
357.836672	2558.718293
358.225873	2557.672254
358.615010	2558.441030
359.004084	2560.220557
359.393095	2556.364074
359.782043	2561.228788
360.170927	2562.511761
360.559748	2560.754919
360.948505	2561.720300
361.337199	2564.906309
361.725830	2565.715415
362.114398	2565.070147
362.502903	2564.107287
362.891344	2564.578634
363.279722	2563.151988
363.668037	2568.205745
364.056289	2566.723645
364.444478	2568.654407
364.832603	2567.318502
365.220665	2568.064592
365.608665	2566.993347
365.996601	2568.508214
366.384474	2569.450910
366.772284	2571.046435
367.160031	2572.495767
367.547715	2572.384861
367.935336	2569.886969
368.322893	2570.181877
368.710388	2569.130796
369.097820	2567.489901
369.485189	2569.518965
369.872495	2576.448031
370.259738	2573.660273
370.646918	2574.197156
371.034035	2575.442321
371.421090	2577.544482
371.808081	2577.569688
372.195010	2578.973649
372.581875	2579.419791
372.968678	2579.954154
373.355418	2583.490523
373.742096	2584.539083
374.128710	2585.333065
374.515262	2588.481265
374.901751	2588.844228
375.288177	2593.779518
375.674540	2594.122317
376.060841	2599.632298
376.447079	2599.168512
376.833254	2609.155037
377.219367	2610.059924
377.605417	2618.161059
377.991404	2620.903446
378.377329	2628.918881
378.763191	2633.967597
379.148991	2637.718215
379.534727	2651.094917
379.920402	2657.280413
380.306013	2663.196207
380.691563	2673.543175
381.077049	2682.115657
381.462474	2689.868952
381.847835	2703.061651
382.233134	2715.767879
382.618371	2724.244580
383.003545	2742.816190
383.388657	2753.735330
383.773706	2773.095881
384.158693	2786.034002
384.543618	2803.945222
384.928480	2813.089875
385.313280	2835.896055
385.698017	2851.868951
386.082692	2876.666387
386.467305	2889.975033
386.851856	2913.252561
387.236344	2941.435131
387.620770	2955.373922
388.005133	2976.085502
388.389435	3008.427025
388.773674	3023.200126
389.157851	3054.878737
389.541965	3077.758014
389.926018	3092.299222
390.310008	3124.151752
390.693936	3149.060094
391.077802	3178.996986
391.461606	3207.948332
391.845348	3230.252917
392.229027	3255.388111
392.612645	3298.341262
392.996200	3328.961230
393.379694	3366.061602
393.763125	3408.878642
394.146494	3433.119031
394.529801	3472.813076
394.913047	3513.782533
395.296230	3519.645395
395.679351	3543.381668
396.062410	3594.579627
396.445408	3577.953901
396.828343	3617.955457
397.211217	3651.234634
397.594028	3626.938793
397.976778	3675.212882
398.359466	3704.512068
398.742092	3717.929099
399.124656	3731.648600
399.507158	3792.676808
399.889598	3799.847849
400.271977	3863.031151
400.654294	3852.185109
401.036549	3913.709871
401.418742	3911.534613
401.800874	3977.525837
402.182944	4003.628932
402.564952	4091.150924
402.946898	4086.142538
403.328783	4082.843103
403.710606	4129.093169
404.092367	4198.164538
404.474067	4260.286677
404.855705	4245.127928
405.237282	4220.262436
405.618797	4315.845234
406.000250	4395.235845
406.381642	4478.097291
406.762972	4476.763906
407.144240	4445.170994
407.525447	4507.895551
407.906593	4523.573540
408.287677	4606.072022
408.668700	4636.112258
409.049661	4672.617774
409.430560	4708.596489
409.811399	4687.317778
410.192176	4739.413062
410.572891	4826.259540
410.953545	4926.739818
411.334138	4823.249971
411.714669	4930.926497
412.095139	4843.033979
412.475547	4959.041012
412.855894	4966.968226
413.236180	5058.286208
413.616405	4990.240713
413.996568	5093.475982
414.376670	5097.793730
414.756711	5087.855095
415.136691	5160.871168
415.516609	5246.724538
415.896466	5273.782932
416.276262	5360.286611
416.655997	5468.908353
417.035670	5565.106171
417.415283	5702.943920
417.794834	5766.875833
418.174324	5725.518207
418.553753	5736.076904
418.933121	5900.153859
419.312428	5908.068470
419.691674	5831.498384
420.070859	6055.386109
420.449983	5937.846566
420.829045	6127.958560
421.208047	6057.397529
421.586988	6210.555345
421.965867	6285.668537
422.344686	6367.793975
422.723444	6527.880856
423.102141	6155.387478
423.480777	6540.554317
423.859352	6356.854671
424.237866	6718.063426
424.616319	6712.389608
424.994712	6876.421192
425.373044	6782.771677
425.751314	7099.099040
426.129524	6824.900600
426.507673	7086.730569
426.885762	7130.588607
427.263789	7169.644947
427.641756	7253.670899
428.019662	7329.694019
428.397508	7373.978035
428.775292	7353.677309
429.153016	7521.179728
429.530679	7459.395346
429.908282	7506.552820
430.285824	7457.759492
430.663305	7732.477171
431.040726	7617.349820
431.418086	7621.118082
431.795385	7752.629183
432.172624	7935.900331
432.549802	7815.999008
432.926920	7960.755740
433.303977	7901.746514
433.680974	7944.913914
434.057910	8143.447156
434.434786	8187.121192
434.811601	8151.326479
435.188355	8490.142429
435.565050	8376.895428
435.941683	8392.898571
436.318257	8715.862613
436.694770	8675.735028
437.071222	8897.066888
437.447614	8672.697733
437.823946	8632.013101
438.200218	8788.205691
438.576429	8667.827979
438.952580	8822.616607
439.328670	8847.373714
439.704700	8917.801154
440.080670	8812.882139
440.456580	9076.063138
440.832429	9052.092451
441.208218	8791.825240
441.583947	8906.791274
441.959616	9029.193010
442.335224	9052.097492
442.710773	9135.417683
443.086261	9317.345364
443.461689	9032.845326
443.837057	9204.234474
444.212365	9414.158203
444.587612	9397.202282
444.962800	9292.580695
445.337927	9424.948792
445.712995	8971.154206
446.088002	9635.172470
446.462949	9691.751860
446.837837	9674.947173
447.212664	9705.317605
447.587431	10528.575837
447.962139	11535.321986
448.336786	12467.403606
448.711374	12236.536404
449.085901	11027.221569
449.460369	10945.605288
449.834776	10726.133615
450.209124	11636.855866
450.583412	11467.735236
450.957640	11775.797627
451.331808	11363.330420
451.705917	10800.359564
452.079965	10675.187714
452.453954	10879.684640
452.827883	10830.407361
453.201752	10788.754828
453.575562	10798.784203
453.949311	11136.554114
454.323001	11197.909997
454.696632	11122.665735
455.070202	11707.532842
455.443713	11761.689958
455.817164	11935.282091
456.190556	12246.734658
456.563888	12106.988832
456.937160	12368.458359
457.310373	11849.476611
457.683526	11859.410205
458.056619	11868.587626
458.429653	11947.799276
458.802628	12088.018970
459.175542	12133.936320
459.548398	12685.365454
459.921194	13255.030962
460.293930	13546.810426
460.666607	14397.578234
461.039224	15193.828484
461.411782	15523.169586
461.784280	15187.847155
462.156719	15120.504902
462.529099	15021.090827
462.901419	14381.038209
463.273680	13991.115041
463.645882	14197.948542
464.018024	14089.276389
464.390106	14461.820178
464.762130	15525.861562
465.134094	17087.842917
465.505999	19395.320184
465.877845	21628.896657
466.249631	22832.333506
466.621358	22338.340758
466.993026	21492.992191
467.364634	20739.642160
467.736184	19942.103895
468.107674	19342.609880
468.479105	19199.718374
468.850477	18922.409542
469.221790	18498.554368
469.593043	17824.552098
469.964238	17442.193182
470.335373	17500.259713
470.706449	18219.062716
471.077467	19094.512014
471.448425	21543.678472
471.819324	23404.461618
472.190164	23297.480772
472.560945	21552.634082
472.931667	19990.435957
473.302330	19660.270627
473.672934	19105.166492
474.043479	19528.444454
474.413965	19316.894954
474.784393	19152.165170
475.154761	19812.374842
475.525070	19931.459499
475.895321	19762.981617
476.265513	20288.549631
476.635645	20878.662059
477.005719	20933.688774
477.375734	21299.348868
477.745691	21933.813368
478.115588	22560.728740
478.485427	23747.197065
478.855207	25560.414404
479.224928	27378.521662
479.594591	28771.881462
479.964194	28391.564213
480.333739	28834.963940
480.703226	29039.120589
481.072653	29483.334463
481.442022	30008.756284
481.811333	30406.694886
482.180584	29967.900253
482.549777	29731.931403
482.918912	29508.525108
483.287988	29440.330900
483.657005	29297.081472
484.025964	28934.932542
484.394864	29100.783983
484.763706	29044.859942
485.132489	28492.772938
485.501213	28573.176821
485.869879	28755.046528
486.238487	28675.275310
486.607036	28944.641804
486.975527	28616.321536
487.343959	28983.264604
487.712333	29321.553753
488.080648	29277.874676
488.448905	29721.249198
488.817104	29596.531052
489.185244	30409.109599
489.553326	31364.309950
489.921350	33272.573204
490.289315	35780.123785
490.657222	36678.754829
491.025070	37241.854234
491.392861	36953.475028
491.760593	36156.047669
492.128267	35143.592413
492.495883	34153.479550
492.863440	33262.664816
493.230939	32297.361992
493.598380	31735.822824
493.965763	31564.567266
494.333088	31071.572667
494.700354	30887.429399
495.067563	30852.947907
495.434713	30727.294627
495.801805	31011.903050
496.168839	30833.453765
496.535815	30701.947705
496.902733	30811.640692
497.269593	30635.026388
497.636395	30788.758895
498.003139	31040.655271
498.369825	30805.223304
498.736453	31197.966997
499.103023	31030.819979
499.469535	31116.106220
499.835989	31222.587992
500.202385	31084.795614
500.568723	31130.831431
500.935003	31439.748297
501.301226	31309.351291
501.667390	32027.317463
502.033497	32233.364544
502.399546	32021.835208
502.765537	31618.255555
503.131470	32076.846800
503.497345	32505.554084
503.863163	31454.841512
504.228923	32221.875755
504.594625	32601.625874
504.960269	32085.474734
505.325856	32747.968049
505.691385	32399.891500
506.056856	32719.256158
506.422270	33199.131154
506.787625	32709.312482
507.152924	33171.331711
507.518164	33332.053778
507.883347	32919.752928
508.248472	33062.261307
508.613540	33704.216961
508.978550	33934.852270
509.343503	33777.316212
509.708398	34123.804798
510.073236	34711.552925
510.438016	34805.343593
510.802738	34477.446782
511.167403	35021.082292
511.532010	35249.663331
511.896561	35759.414725
512.261053	36491.914544
512.625488	36274.124095
512.989866	36195.524945
513.354186	36244.219970
513.718449	36193.747938
514.082655	37060.584424
514.446803	36759.791377
514.810894	37368.248564
515.174927	37371.858030
515.538904	37361.102728
515.902822	37981.699014
516.266684	37676.197529
516.630488	38019.742081
516.994235	38033.688433
517.357925	38597.415462
517.721558	38838.987554
518.085133	39206.933812
518.448651	39389.695803
518.812112	39291.907501
519.175516	39436.666754
519.538863	39882.279549
519.902152	39937.364237
520.265385	40467.373508
520.628560	40484.899079
520.991678	40438.255803
521.354739	40650.087609
521.717743	41009.191682
522.080690	40896.862172
522.443580	41579.847777
522.806413	41569.044584
523.169189	41727.694737
523.531908	41945.034003
523.894569	41805.131901
524.257174	41982.361227
524.619722	42328.857374
524.982213	42473.788027
525.344647	42505.953109
525.707025	42633.559836
526.069345	43066.292483
526.431608	42976.595232
526.793815	43349.086090
527.155964	42910.596446
527.518057	43151.432530
527.880093	43016.380018
528.242072	43647.295546
528.603995	43378.523908
528.965860	43285.491934
529.327669	43499.307433
529.689421	43560.159201
530.051117	43521.664951
530.412755	43784.997183
530.774337	43845.301986
531.135862	43794.666117
531.497331	43939.962253
531.858743	43942.371924
532.220098	44354.549266
532.581396	44079.647585
532.942638	43851.190054
533.303824	44103.146923
533.664953	44156.046271
534.026025	43820.857431
534.387040	44405.306123
534.747999	44446.633502
535.108902	44770.290703
535.469748	44108.956853
535.830537	44375.422163
536.191270	44642.593235
536.551947	44392.761212
536.912567	44632.773067
537.273131	44774.681548
537.633638	44419.580150
537.994089	44574.875415
538.354483	44360.175193
538.714821	45010.698288
539.075103	45276.430111
539.435328	45131.595240
539.795497	44909.156847
540.155609	45038.170056
540.515665	45591.998780
540.875665	44917.731850
541.235609	45183.458631
541.595496	45319.292521
541.955328	45882.298665
542.315102	45304.958000
542.674821	45217.350308
543.034483	45118.228621
543.394090	45122.763138
543.753640	45122.974867
544.113134	46170.798858
544.472571	45299.810982
544.831953	46425.109947
545.191278	45672.642118
545.550548	45384.761986
545.909761	46009.295413
546.268918	46132.866696
546.628019	46526.338836
546.987064	45986.305231
547.346053	45298.712011
547.704986	46196.511264
548.063863	45853.972422
548.422684	46055.028760
548.781449	45626.722247
549.140158	46151.186249
549.498811	45920.868533
549.857408	45307.977651
550.215949	46152.537279
550.574434	45979.905486
550.932864	45941.000381
551.291237	46648.400294
551.649555	46392.745739
552.007817	46556.313537
552.366022	46256.707682
552.724173	46334.858169
553.082267	46728.163951
553.440305	47081.480780
553.798288	46344.103645
554.156215	46720.458547
554.514086	46920.622602
554.871902	46520.833896
555.229661	46690.123404
555.587365	46393.058290
555.945014	46516.095212
556.302606	46530.351595
556.660143	46622.050183
557.017625	46862.306534
557.375050	46546.455561
557.732421	46942.007177
558.089735	47003.940272
558.446994	46881.651962
558.804197	47337.962085
559.161345	47206.882003
559.518437	46546.591672
559.875474	46786.197714
560.232455	46996.670928
560.589381	47051.770740
560.946251	46905.110972
561.303065	47536.916263
561.659825	47212.129844
562.016528	47019.136831
562.373177	46606.057123
562.729770	47254.538551
563.086307	46756.916172
563.442789	47303.105027
563.799216	47139.265006
564.155587	47043.767908
564.511904	47008.147115
564.868164	47048.040286
565.224370	47368.221611
565.580520	47105.252341
565.936615	47295.825601
566.292654	46938.879141
566.648638	47300.579409
567.004567	47233.464007
567.360441	47326.306937
567.716260	47048.786377
568.072023	47442.757591
568.427732	47351.295937
568.783385	46888.671769
569.138982	47307.574010
569.494525	47446.094835
569.850013	47035.966723
570.205445	47168.150818
570.560823	46969.284860
570.916145	46831.905856
571.271412	47073.984584
571.626625	46697.642285
571.981782	46775.470139
572.336884	46392.266829
572.691931	46688.353959
573.046923	46369.500978
573.401860	46194.993876
573.756743	46224.913124
574.111570	46365.510905
574.466342	46280.325488
574.821059	46445.272041
575.175722	45928.495799
575.530330	46007.951945
575.884882	45683.818356
576.239380	45583.650629
576.593823	45671.601119
576.948211	45612.556605
577.302544	45154.976112
577.656823	45157.433674
578.011047	45445.588548
578.365216	45260.575682
578.719330	44967.934180
579.073389	44967.649355
579.427394	45001.316701
579.781344	44918.646819
580.135239	44666.309343
580.489080	44755.356284
580.842866	44245.057925
581.196597	44731.274692
581.550273	44724.196913
581.903895	44665.648952
582.257463	45090.041009
582.610975	44536.487028
582.964434	44857.202716
583.317837	44360.490265
583.671186	44337.182491
584.024481	44595.695380
584.377721	44154.866641
584.730906	44377.887287
585.084037	44504.379920
585.437113	44221.233432
585.790135	44352.742012
586.143103	43898.123196
586.496016	44075.934775
586.848874	44183.079459
587.201679	44203.002099
587.554428	43690.757853
587.907124	43971.731604
588.259765	43737.466664
588.612352	43910.078293
588.964884	43390.899940
589.317362	43681.950958
589.669786	43671.447714
590.022155	43549.930700
590.374470	43998.996685
590.726731	43594.844860
591.078937	42942.252372
591.431090	43294.329077
591.783188	42792.482211
592.135232	42621.186324
592.487222	42884.110224
592.839157	43043.140983
593.191038	42668.432018
593.542866	42503.213242
593.894639	41887.287586
594.246358	42174.330886
594.598022	42164.414936
594.949633	41744.696028
595.301190	41744.265010
595.652692	41691.806763
596.004141	42181.738861
596.355535	41104.716507
596.706876	41101.172575
597.058162	40810.547536
597.409395	41302.816209
597.760573	41545.759495
598.111698	41148.410708
598.462768	41050.597199
598.813785	41071.235683
599.164748	40698.671729
599.515657	40960.486574
599.866511	40483.943781
600.217312	41142.883082
600.568060	40110.351431
600.918753	40941.609974
601.269392	40839.060302
601.619978	40561.837169
601.970510	40784.429318
602.320988	40919.683475
602.671412	41190.040556
603.021783	41041.142515
603.372100	40612.856167
603.722363	40710.846115
604.072572	40760.428384
604.422728	40737.259241
604.772830	40526.407940
605.122878	40704.748840
605.472872	40545.211444
605.822813	40813.736065
606.172701	40558.462117
606.522534	40908.172000
606.872314	41106.584254
607.222041	40940.672319
607.571714	41271.258586
607.921333	40761.923086
608.270899	40952.599689
608.620411	41323.794970
608.969870	41101.472524
609.319276	41116.164967
609.668627	41122.589918
610.017926	41529.978163
610.367171	41671.916890
610.716362	41711.936090
611.065500	41617.979065
611.414585	41852.735517
611.763616	42001.620955
612.112594	41910.925556
612.461518	42034.156562
612.810389	42407.728747
613.159207	42210.201216
613.507971	42167.474916
613.856682	42684.344420
614.205340	42508.357739
614.553945	43203.230386
614.902496	42553.544122
615.250994	42965.998727
615.599439	43039.281980
615.947830	43154.116944
616.296169	43158.480063
616.644454	43182.284391
616.992686	43343.155172
617.340864	43790.645796
617.688990	43294.586176
618.037063	43968.555677
618.385082	43779.845124
618.733048	44119.762566
619.080961	44007.082696
619.428821	44050.101382
619.776628	44090.763329
620.124382	43925.509265
620.472083	44034.788877
620.819731	44150.402699
621.167326	43724.377308
621.514868	43721.133326
621.862357	43155.591482
622.209793	43283.472952
622.557176	42834.767410
622.904506	42605.614200
623.251783	42246.406783
623.599007	41919.709767
623.946179	41845.287212
624.293297	41568.013668
624.640363	41048.215254
624.987376	40919.353280
625.334336	40708.038193
625.681243	40285.917175
626.028097	40199.736130
626.374899	40038.769567
626.721647	40004.315801
627.068343	39768.735120
627.414987	39497.296712
627.761577	39255.936348
628.108115	39558.516484
628.454600	38819.241355
628.801032	39044.407012
629.147412	38941.194428
629.493739	38832.053447
629.840014	38411.711957
630.186236	38823.659926
630.532405	38253.986856
630.878521	38503.193776
631.224585	38287.051784
631.570597	37946.196688
631.916556	38119.708162
632.262462	38018.496916
632.608316	37961.078174
632.954117	37819.275557
633.299866	37792.829664
633.645562	37709.461582
633.991206	37177.718154
634.336797	36785.518906
634.682336	36664.546337
635.027823	36425.343587
635.373257	36333.047622
635.718639	35982.034600
636.063968	35879.247993
636.409245	35235.026341
636.754470	35196.915217
637.099642	34965.042305
637.444762	34403.919032
637.789829	34529.252199
638.134845	34155.301928
638.479808	34074.182200
638.824719	34018.147255
639.169577	33527.668191
639.514383	33618.850062
639.859137	33247.586725
640.203839	33407.540016
640.548489	33118.505460
640.893086	33111.362145
641.237632	32841.209231
641.582125	32922.802827
641.926566	32701.191183
642.270955	32735.821389
642.615292	32666.805473
642.959576	32544.920455
643.303809	32542.871226
643.647990	32639.321102
643.992118	32617.714716
644.336195	32442.048149
644.680219	32505.538961
645.024192	32701.060113
645.368112	33221.261819
645.711981	33237.431320
646.055797	33937.093063
646.399562	33727.867534
646.743274	34592.337198
647.086935	34999.733005
647.430544	34993.315617
647.774101	35026.342736
648.117606	35330.815825
648.461059	35461.737111
648.804460	35088.495122
649.147810	34590.986169
649.491108	34271.218219
649.834354	34172.472097
650.177548	33359.374311
650.520690	32843.066896
650.863781	32798.054433
651.206820	32638.506955
651.549807	32234.186252
651.892742	31644.144400
652.235626	31561.540053
652.578458	31407.729408
652.921238	30730.745297
653.263967	31011.966064
653.606644	30707.117409
653.949269	30620.885952
654.291843	30225.956918
654.634365	30577.879868
654.976836	30110.189341
655.319255	30213.351513
655.661622	30068.345243
656.003938	29932.251733
656.346203	29767.322823
656.688416	29995.424953
657.030577	29790.134045
657.372687	29592.908983
657.714746	29740.864327
658.056753	29935.977146
658.398708	29297.449476
658.740612	29369.240548
659.082465	29568.439222
659.424266	29458.436204
659.766016	29456.732294
660.107715	29290.858168
660.449362	29402.592822
660.790958	29378.627177
661.132503	29311.821806
661.473996	29395.691482
661.815438	29474.857762
662.156829	29589.312119
662.498168	29385.861233
662.839456	29349.272538
663.180693	29484.937550
663.521879	29556.310206
663.863013	29509.213226
664.204097	29492.847120
664.545129	29894.422915
664.886110	29838.241776
665.227040	29945.368816
665.567918	29924.442986
665.908746	29976.316459
666.249522	30070.805326
666.590248	30108.253537
666.930922	30204.816839
667.271545	30215.952748
667.612118	30282.538829
667.952639	30095.872464
668.293109	30126.326074
668.633528	29977.501130
668.973896	29945.431830
669.314213	29924.874005
669.654480	29745.318187
669.994695	29719.991430
670.334859	29634.715272
670.674973	29441.989439
671.015035	29634.284253
671.355047	29558.014116
671.695008	29499.934982
672.034918	29399.179961
672.374777	29493.661266
672.714585	29360.786533
673.054342	29484.655245
673.394049	29344.629635
673.733705	29563.319930
674.073310	29280.387691
674.412864	29347.072074
674.752368	29083.427290
675.091820	29314.881786
675.431223	28906.878520
675.770574	28699.319093
676.109875	28546.791422
676.449125	28315.709971
676.788324	28231.628566
677.127473	27750.848682
677.466571	27655.437284
677.805619	27382.680614
678.144616	27310.529099
678.483562	27258.978260
678.822458	26919.862362
679.161303	26868.379578
679.500098	26796.953990
679.838842	26709.179939
680.177535	26767.586748
680.516179	26971.188869
680.854771	27053.750367
681.193314	27733.867555
681.531805	28686.887608
681.870247	29451.008064
682.208638	30258.336249
682.546978	30599.392992
682.885268	30788.065737
683.223508	30380.929549
683.561697	30127.175508
683.899836	29974.647837
684.237925	29548.297292
684.575963	29391.151923
684.913951	29003.217491
685.251889	29153.393464
685.589776	29146.822320
685.927614	29121.044380
686.265401	29308.960951
686.603137	29407.606250
686.940824	29882.208199
687.278460	30196.720746
687.616046	30383.397194
687.953582	31059.126058
688.291068	31005.069766
688.628504	31350.635821
688.965889	31382.929452
689.303224	31146.564872
689.640510	30861.878311
689.977745	30264.862023
690.314930	29542.792352
690.652065	29144.858791
690.989150	28464.807137
691.326185	27624.688766
691.663170	27002.496955
692.000105	26284.858458
692.336990	25681.462590
692.673825	25262.799804
693.010610	24748.602112
693.347345	24270.892291
693.684030	23641.592454
694.020665	23446.446868
694.357251	22765.669288
694.693786	22782.383233
695.030272	22541.554711
695.366707	22055.148900
695.703093	21765.600147
696.039429	21825.239517
696.375716	21572.241650
696.711952	21572.912123
697.048139	21437.705856
697.384276	21283.287752
697.720363	21400.363509
698.056400	21291.542642
698.392388	21130.349227
698.728326	21136.983385
699.064214	20985.620221
699.400053	20992.617342
699.735842	20622.203440
700.071581	20437.084709
700.407270	20189.165804
700.742910	20008.808443
701.078501	19765.252656
701.414042	19560.175997
701.749533	19267.703375
702.084974	18965.415625
702.420366	19186.082053
702.755709	18776.276574
703.091002	18476.824474
703.426246	18528.808852
703.761440	18461.965673
704.096584	18224.421463
704.431679	18178.032765
704.766725	18111.544987
705.101721	18026.833438
705.436668	18148.723497
705.771565	17860.490484
706.106413	18167.365683
706.441212	18241.838649
706.775961	18333.398606
707.110661	18415.362726
707.445311	18769.796171
707.779913	18652.780908
708.114465	18938.841183
708.448967	19235.089630
708.783421	19846.619400
709.117825	20186.867038
709.452180	20418.641647
709.786485	20853.045436
710.120742	21598.006987
710.454949	21692.490813
710.789107	22211.250749
711.123216	22912.679416
711.457275	23137.189723
711.791286	23693.642367
712.125247	23878.196489
712.459159	23636.705055
712.793023	24390.483584
713.126837	23413.800355
713.460602	23686.980482
713.794318	23358.685420
714.127985	23090.750614
714.461602	22207.540460
714.795171	22195.245086
715.128691	21222.148638
715.462162	20704.255780
715.795584	20279.861203
716.128957	20019.059629
716.462281	19641.315889
716.795556	19361.105873
717.128782	18886.778667
717.461960	18283.695350
717.795088	18255.701822
718.128167	17915.502076
718.461198	17471.348695
718.794180	17350.739090
719.127113	17020.457813
719.459997	16827.815160
719.792833	16463.548945
720.125619	16501.070253
720.458357	16153.883467
720.791046	16020.555030
721.123686	15867.319077
721.456278	15642.899510
721.788821	15650.955274
722.121315	15379.983173
722.453761	15481.280118
722.786158	15359.138001
723.118506	15440.124138
723.450805	15322.040150
723.783056	15506.511093
724.115259	15386.090530
724.447412	15376.756834
724.779518	15587.557723
725.111574	15625.384021
725.443582	15883.498660
725.775542	15835.675754
726.107453	16339.362640
726.439315	16247.515338
726.771129	16635.459853
727.102895	17053.449644
727.434612	17327.365780
727.766281	17504.348088
728.097901	17846.211416
728.429473	17936.463193
728.760996	17957.822562
729.092471	18084.163960
729.423897	17953.673693
729.755276	17804.770611
730.086606	17889.482160
730.417887	18433.941899
730.749120	18981.779211
731.080305	19196.376089
731.411442	19618.781931
731.742530	19726.609692
732.073570	19878.303052
732.404562	20188.122285
732.735506	20092.602502
733.066401	19969.021136
733.397249	19523.148722
733.728048	18935.909752
734.058798	18089.641173
734.389501	17324.532651
734.720156	16805.744988
735.050762	16226.047584
735.381320	15820.078424
735.711831	15530.580082
736.042293	15155.979501
736.372707	15170.666903
736.703073	14952.768069
737.033391	15137.145751
737.363661	15129.342044
737.693883	15237.580659
738.024056	15436.285299
738.354182	15628.272602
738.684260	15979.583052
739.014290	16259.994714
739.344272	16482.551574
739.674207	16828.815829
740.004093	17012.477667
740.333931	17076.316318
740.663722	17173.996236
740.993464	17220.763020
741.323159	17093.557064
741.652806	16808.308415
741.982405	16642.431768
742.311956	16290.166020
742.641460	16193.534662
742.970915	15862.923190
743.300323	15509.984448
743.629683	15304.938036
743.958996	14999.897817
744.288260	14686.453994
744.617477	14383.336975
744.946647	14347.075955
745.275768	14028.258262
745.604842	13836.946474
745.933869	13653.274554
746.262847	13616.302732
746.591778	13523.540460
746.920662	13402.693920
747.249498	13396.140420
747.578286	13528.523641
747.907027	13701.379765
748.235720	13959.701091
748.564365	14056.198858
748.892963	13979.651457
749.221514	14091.209671
749.550017	13963.766781
749.878473	13953.107262
750.206881	13731.982089
750.535242	13661.090863
750.863555	13589.582096
751.191821	13479.495899
751.520039	13497.530627
751.848210	13420.310232
752.176334	13456.228453
752.504411	13378.277091
752.832440	13208.594373
753.160421	13333.914937
753.488356	13221.381260
753.816243	13132.344401
754.144082	12969.633599
754.471875	12905.268147
754.799620	12869.428063
755.127318	12850.185979
755.454969	12825.254953
755.782572	12791.617854
756.110129	12819.578613
756.437638	12719.602450
756.765100	12726.712998
757.092515	12748.616811
757.419882	12781.351544
757.747203	12786.231381
758.074477	12870.673228
758.401703	12851.121113
758.728882	13037.563147
759.056014	13080.715424
759.383099	13247.605342
759.710138	13375.718706
760.037129	13505.722502
760.364073	13579.981218
760.690970	13596.163322
761.017820	13600.707923
761.344623	13794.066419
761.671379	14119.084731
761.998088	14657.200178
762.324751	16068.882051
762.651366	19011.879940
762.977935	23347.211754
763.304456	26623.560982
763.630931	28239.767508
763.957359	27445.972300
764.283740	25410.583750
764.610074	23234.728488
764.936362	20598.469687
765.262602	18693.899079
765.588796	16715.432717
765.914943	15386.151024
766.241044	14237.345159
766.567097	13421.963731
766.893104	12668.621262
767.219064	12202.942154
767.544978	11707.618542
767.870845	11317.929788
768.196665	11084.801628
768.522438	10848.147182
768.848165	10644.328291
769.173846	10433.189644
769.499479	10306.855808
769.825066	10143.625767
770.150607	9917.023381
770.476101	9828.722530
770.801548	9718.669101
771.126949	9560.649092
771.452303	9445.917472
771.777611	9252.120395
772.102872	9236.792766
772.428087	9107.572870
772.753256	8950.931617
773.078378	8865.925160
773.403453	8683.480761
773.728482	8567.645128
774.053465	8491.531267
774.378401	8394.171463
774.703291	8270.350642
775.028135	8151.394535
775.352932	8121.830688
775.677683	8019.497785
776.002388	7917.613546
776.327046	7923.189062
776.651658	7821.040161
776.976224	7724.701191
777.300743	7723.413176
777.625216	7640.856720
777.949643	7595.196469
778.274024	7612.354036
778.598359	7518.512957
778.922647	7536.837552
779.246889	7486.816703
779.571086	7492.866087
779.895236	7496.604103
780.219339	7506.610793
780.543397	7515.584047
780.867409	7595.534226
781.191374	7604.542768
781.515294	7574.149652
781.839167	7659.017477
782.162995	7634.600648
782.486776	7583.435457
782.810511	7542.569343
783.134201	7448.806403
783.457844	7443.843387
783.781441	7393.565439
784.104993	7331.392888
784.428498	7309.703324
784.751958	7288.800179
785.075372	7258.064264
785.398739	7204.769186
785.722061	7247.561020
786.045337	7245.042964
786.368568	7382.883234
786.691752	7392.259780
787.014891	7678.977925
787.337983	7994.980134
787.661030	8546.749546
787.984031	9169.700050
788.306987	9615.136404
788.629897	9868.681236
788.952760	9872.978820
789.275579	9693.380153
789.598351	9322.812495
789.921078	8979.648550
790.243759	8563.960045
790.566395	8270.353163
790.888984	8019.470059
791.211529	7807.532390
791.534027	7579.667195
791.856480	7372.385031
792.178888	7300.634288
792.501249	7199.213834
792.823566	7038.743825
793.145836	7032.923813
793.468062	7003.664956
793.790241	6944.438960
794.112375	7005.915831
794.434464	7150.483521
794.756507	7180.760691
795.078505	7310.658623
795.400457	7598.657221
795.722364	7936.606093
796.044226	8232.368068
796.366042	8520.961523
796.687812	8490.056729
797.009538	8598.749048
797.331218	8495.070157
797.652852	8421.668436
797.974442	8276.400027
798.295986	8189.452726
798.617484	8003.640836
798.938938	7863.451389
799.260346	7759.485152
799.581709	7568.760658
799.903026	7491.323494
800.224299	7383.178141
800.545526	7211.630196
800.866708	7119.798017
801.187845	7052.904426
801.508936	6946.795700
801.829983	6905.460759
802.150984	6760.257884
802.471940	6714.988322
802.792851	6700.505087
803.113717	6668.024933
803.434538	6634.526466
803.755314	6576.974133
804.076045	6575.766777
804.396731	6518.615215
804.717372	6548.599998
805.037967	6547.059926
805.358518	6586.310350
805.679024	6667.263719
805.999485	6671.520973
806.319901	6716.725000
806.640272	6730.787298
806.960598	6816.890206
807.280879	6820.716442
807.601115	6904.369349
807.921306	6844.135122
808.241453	6858.184818
808.561554	6890.080198
808.881611	6849.377922
809.201623	6861.874942
809.521590	6804.947713
809.841513	6789.307533
810.161390	6822.904303
810.481223	6697.253543
810.801011	6683.387849
811.120755	6659.122255
811.440453	6582.300112
811.760107	6545.774432
812.079716	6519.394074
812.399281	6454.106090
812.718801	6443.330624
813.038276	6402.023409
813.357707	6336.256516
813.677093	6375.244800
813.996434	6274.484737
814.315731	6325.042469
814.634983	6311.136447
814.954191	6317.193393
815.273354	6409.093627
815.592473	6466.628316
815.911547	6586.166677
816.230577	6667.939233
816.549562	6805.398896
816.868502	6897.634367
817.187399	6994.185066
817.506250	7140.819629
817.825058	7163.535068
818.143821	7407.310145
818.462539	7652.859707
818.781213	7971.178326
819.099843	8459.356103
819.418429	9363.325728
819.736970	10266.589592
820.055466	11374.373067
820.373919	12748.783169
820.692327	14746.887346
821.010691	18067.366835
821.329011	25523.429979
821.647286	37180.102620
821.965517	51189.847245
822.283704	58625.786102
822.601847	61793.745482
822.919945	59651.028245
823.237999	55803.049979
823.556010	49840.683241
823.873976	43179.297508
824.191897	36677.885230
824.509775	31810.560451
824.827609	27161.545359
825.145398	24351.835578
825.463144	22687.173481
825.780845	22563.972722
826.098502	23798.770589
826.416116	27118.743443
826.733685	30896.997509
827.051210	32757.977260
827.368692	31797.980251
827.686129	28288.447411
828.003522	24243.906995
828.320872	20469.121242
828.638177	17563.380000
828.955439	15360.438619
829.272656	13507.839786
829.589830	12018.607323
829.906960	10720.142203
830.224046	9735.670392
830.541088	8956.232390
830.858086	8459.104045
831.175041	8046.659522
831.491952	7889.211685
831.808819	7879.872947
832.125642	8176.781785
832.442421	8878.875884
832.759157	10365.802020
833.075849	12948.949745
833.392497	16094.506236
833.709101	18596.002392
834.025662	18983.369695
834.342179	17631.357439
834.658653	15553.754266
834.975083	13615.334830
835.291469	11958.342849
835.607811	10620.120670
835.924110	9698.391059
836.240366	8821.759611
836.556578	8017.443515
836.872746	7365.004782
837.188871	6845.357602
837.504952	6411.591519
837.820990	6087.208393
838.136984	5848.018246
838.452935	5733.294187
838.768842	5715.657710
839.084706	5991.204659
839.400526	6963.854964
839.716303	8467.429510
840.032037	9715.841013
840.347727	9950.436149
840.663373	9153.422164
840.978977	8111.304759
841.294537	7273.810308
841.610054	6655.268293
841.925527	6213.340582
842.240957	5849.586044
842.556344	5521.038925
842.871687	5240.206326
843.186987	4955.774344
843.502244	4725.108788
843.817458	4555.970515
844.132629	4412.801746
844.447756	4319.313548
844.762840	4238.844129
845.077881	4163.723375
845.392879	4100.353551
845.707833	4055.257909
846.022745	4008.415507
846.337613	3976.058862
846.652438	3934.981019
846.967221	3920.822939
847.281960	3888.675501
847.596656	3869.587172
847.911309	3845.727391
848.225919	3827.153259
848.540485	3809.458809
848.855009	3792.898619
849.169490	3772.292903
849.483928	3760.221860
849.798323	3750.734408
850.112675	3736.155391
850.426984	3742.338366
850.741251	3729.183475
851.055474	3726.350347
851.369654	3727.260275
851.683792	3721.936817
851.997887	3730.947879
852.311938	3733.072726
852.625947	3734.574989
852.939914	3724.117116
853.253837	3736.956935
853.567718	3731.043661
853.881555	3723.111406
854.195350	3733.775967
854.509103	3733.226481
854.822812	3734.191862
855.136479	3722.408165
855.450103	3730.017786
855.763685	3718.821384
856.077224	3722.546796
856.390720	3734.532140
856.704173	3755.074842
857.017584	3766.006584
857.330953	3773.462450
857.644278	3799.976399
857.957561	3808.470743
858.270802	3804.276503
858.584000	3814.179850
858.897155	3806.005619
859.210268	3786.904687
859.523339	3767.607150
859.836367	3767.803755
860.149352	3761.141870
860.462295	3753.459152
860.775195	3740.992378
861.088054	3738.222264
861.400869	3732.631625
861.713642	3730.070718
862.026373	3744.044797
862.339062	3743.815424
862.651708	3761.608177
862.964312	3795.139412
863.276873	3803.825320
863.589392	3853.359698
863.901869	3896.837129
864.214303	3944.458389
864.526696	3976.134479
864.839045	4025.540307
865.151353	4048.901014
865.463619	4059.789906
865.775842	4066.497162
866.088023	4085.391406
866.400162	4076.939912
866.712258	4088.320317
867.024313	4090.949278
867.336325	4084.925099
867.648296	4091.897015
867.960224	4090.304011
868.272110	4099.811627
868.583954	4099.509157
868.895755	4111.711270
869.207515	4108.381588
869.519233	4147.130417
869.830909	4157.255575
870.142542	4179.787012
870.454134	4194.776883
870.765684	4223.879464
871.077191	4261.912449
871.388657	4278.253349
871.700081	4317.619720
872.011463	4356.418960
872.322803	4391.810381
872.634101	4421.296090
872.945357	4462.860403
873.256571	4511.091643
873.567744	4540.169018
873.878874	4562.443356
874.189963	4598.364098
874.501010	4605.898103
874.812015	4611.672744
875.122979	4649.844361
875.433900	4650.716481
875.744780	4661.617976
876.055618	4685.107232
876.366415	4683.441131
876.677169	4705.662537
876.987882	4743.304833
877.298554	4787.435094
877.609183	4859.490826
877.919771	4949.818221
878.230317	5074.823713
878.540822	5259.093009
878.851285	5545.929622
879.161707	5935.746925
879.472087	6580.515543
879.782425	7607.577543
880.092722	9433.029762
880.402977	12294.434056
880.713191	15837.208265
881.023363	19568.070444
881.333494	22051.476419
881.643583	23531.236555
881.953631	23762.567543
882.263637	23110.204427
882.573602	21797.513171
882.883526	20332.057310
883.193408	18762.718391
883.503248	17136.449722
883.813048	15650.612476
884.122806	14269.837917
884.432522	12836.680728
884.742197	11596.067890
885.051831	10507.687816
885.361424	9506.149178
885.670975	8679.208383
885.980485	7985.263310
886.289954	7404.512304
886.599382	6926.230313
886.908768	6551.501183
887.218113	6189.218661
887.527417	5896.952726
887.836680	5630.195029
888.145901	5409.924332
888.455082	5252.501701
888.764221	5095.159727
889.073319	4957.979849
889.382376	4885.760279
889.691392	4817.240916
890.000366	4790.215290
890.309300	4770.683339
890.618193	4769.165952
890.927044	4751.592490
891.235855	4775.900934
891.544625	4794.379283
891.853353	4844.344679
892.162041	4941.487714
892.470687	5101.443526
892.779293	5319.947298
893.087858	5637.945803
893.396381	6133.685311
893.704864	6816.318035
894.013306	7852.870007
894.321707	8984.974529
894.630068	9897.372963
894.938387	10242.407177
895.246665	10129.049271
895.554903	9602.715001
895.863100	8947.458262
896.171256	8415.069566
896.479371	7917.495078
896.787446	7428.518279
897.095480	7006.132601
897.403473	6694.090219
897.711425	6380.369133
898.019336	6121.553774
898.327207	5852.701478
898.635038	5628.539010
898.942827	5381.310743
899.250576	5181.209703
899.558284	4991.629551
899.865952	4862.971743
900.173579	4718.540165
900.481165	4612.222230
900.788711	4521.846944
901.096216	4443.567908
901.403681	4379.641036
901.711105	4347.531406
902.018489	4326.293025
902.325832	4375.280437
902.633135	4464.362667
902.940397	4727.062235
903.247619	5340.389177
903.554800	6537.690942
903.861941	8305.784912
904.169041	9903.208099
904.476101	10756.564540
904.783121	10623.553696
905.090100	9994.092541
905.397039	9200.209113
905.703938	8473.463772
906.010796	7793.301212
906.317614	7257.623163
906.624391	6735.296611
906.931129	6323.474671
907.237826	5936.775321
907.544483	5569.265123
907.851099	5205.593764
908.157675	4851.548488
908.464211	4525.098489
908.770707	4284.852220
909.077163	4074.230292
909.383578	3925.085234
909.689954	3803.190134
909.996289	3730.443764
910.302584	3662.920029
910.608839	3623.422588
910.915054	3595.371088
911.221229	3579.912389
911.527363	3584.479675
911.833458	3596.336469
912.139513	3614.688789
912.445527	3642.195845
912.751502	3710.062379
913.057436	3794.232004
913.363331	3915.522166
913.669186	4088.584977
913.975000	4308.694357
914.280775	4674.745141
914.586510	5177.365823
914.892205	5867.845104
915.197859	6804.859493
915.503475	7949.324924
915.809050	9016.731278
916.114585	9731.645031
916.420081	10100.642369
916.725536	10157.864506
917.030952	9785.645871
917.336328	9425.273947
917.641665	9046.748828
917.946961	8591.961134
918.252218	8194.698046
918.557435	7702.341153
918.862612	7288.901002
919.167750	6928.516476
919.472848	6522.806935
919.777906	6157.156923
920.082925	5807.041227
920.387904	5440.435916
920.692843	5170.749309
920.997743	4920.846710
921.302603	4682.730328
921.607423	4518.514742
921.912204	4354.866285
922.216946	4240.270776
922.521647	4120.624030
922.826310	4016.728370
923.130932	3923.252775
923.435516	3830.583764
923.740059	3758.084410
924.044564	3683.223276
924.349028	3628.481386
924.653454	3563.596695
924.957840	3495.692353
925.262186	3453.616362
925.566493	3390.864079
925.870761	3335.197138
926.174989	3300.433341
926.479178	3265.493103
926.783328	3221.816547
927.087438	3197.724872
927.391509	3161.872186
927.695541	3133.394708
927.999533	3105.870008
928.303486	3084.581215
928.607400	3069.256108
928.911275	3057.961403
929.215110	3039.772919
929.518906	3031.772608
929.822663	3028.518543
930.126381	3027.633821
930.430060	3033.163967
930.733699	3032.112886
931.037299	3043.377344
931.340861	3043.410112
931.644383	3050.371945
931.947866	3050.359343
932.251309	3041.945657
932.554714	3043.258877
932.858080	3038.563043
933.161407	3031.565921
933.464694	3026.980992
933.767943	3021.702903
934.071153	3014.307531
934.374323	3005.077178
934.677455	2998.760612
934.980548	2991.980260
935.283602	2983.727892
935.586617	2981.497181
935.889593	2988.252327
936.192530	2989.678974
936.495428	3005.266221
936.798287	3022.670805
937.101108	3048.037891
937.403890	3095.197885
937.706632	3150.544713
938.009336	3229.027917
938.312002	3299.168011
938.614628	3361.945500
938.917216	3415.419539
939.219765	3449.525466
939.522275	3482.968480
939.824747	3488.569202
940.127179	3488.458297
940.429573	3485.582319
940.731929	3486.036023
941.034246	3475.305927
941.336524	3462.239256
941.638763	3447.740897
941.940964	3435.707663
942.243126	3396.757188
942.545250	3375.574259
942.847335	3339.454392
943.149381	3306.699495
943.451389	3273.611882
943.753359	3240.410842
944.055290	3215.321020
944.357182	3191.151208
944.659036	3177.582942
944.960851	3163.853360
945.262628	3148.684528
945.564367	3149.995228
945.866067	3143.981131
946.167729	3141.747900
946.469352	3139.582724
946.770937	3136.767240
947.072484	3120.617904
947.373992	3124.489510
947.675462	3116.476596
947.976893	3103.009153
948.278286	3095.220571
948.579641	3086.189343
948.880958	3081.231369
949.182236	3081.639702
949.483476	3074.022519
949.784678	3075.328177
950.085841	3072.366500
950.386967	3084.238417
950.688054	3101.799276
950.989103	3117.507512
951.290114	3134.695326
951.591087	3161.602484
951.892021	3182.455217
952.192917	3214.660629
952.493776	3241.981162
952.794596	3251.826535
953.095378	3257.943976
953.396122	3253.278388
953.696828	3248.814446
953.997496	3239.964700
954.298126	3220.909139
954.598718	3200.764688
954.899272	3178.669311
955.199788	3153.816422
955.500266	3127.219295
955.800706	3087.978953
956.101108	3054.654406
956.401472	3025.130888
956.701798	2991.730723
957.002087	2951.391410
957.302337	2926.228491
957.602550	2898.388719
957.902724	2869.918802
958.202861	2843.548527
958.502960	2823.467090
958.803022	2803.504121
959.103045	2782.739608
959.403031	2764.478028
959.702979	2752.333889
960.002889	2739.801580
960.302762	2728.103583
960.602596	2718.001111
960.902393	2706.837475
961.202153	2698.471681
961.501875	2691.033458
961.801559	2686.365350
962.101205	2681.001562
962.400814	2672.618123
962.700385	2668.502021
962.999918	2665.479849
963.299414	2652.985349
963.598873	2652.191368
963.898293	2646.867909
964.197677	2647.185502
964.497022	2645.665594
964.796331	2643.913793
965.095601	2640.349697
965.394835	2637.105715
965.694030	2633.738224
965.993189	2634.393574
966.292309	2630.804272
966.591393	2632.109931
966.890439	2632.593882
967.189447	2632.533388
967.488419	2631.638583
967.787353	2633.150930
968.086249	2634.423821
968.385108	2638.257618
968.683930	2638.169398
968.982714	2642.033443
969.281462	2644.470841
969.580172	2651.208343
969.878844	2654.316214
970.177480	2665.164777
970.476078	2670.097546
970.774639	2674.803463
971.073162	2682.985256
971.371649	2689.753005
971.670098	2694.143850
971.968510	2699.759695
972.266885	2703.956456
972.565223	2708.972404
972.863524	2711.712271
973.161788	2713.970708
973.460014	2718.270812
973.758204	2720.257027
974.056356	2721.635782
974.354471	2725.371277
974.652550	2724.804148
974.950591	2722.933880
975.248595	2722.346585
975.546563	2719.347099
975.844493	2718.026316
976.142386	2710.404092
976.440243	2705.746066
976.738062	2703.182639
977.035845	2698.086032
977.333590	2691.875331
977.631299	2686.582119
977.928971	2678.738084
978.226606	2673.018895
978.524204	2671.783812
978.821765	2663.208809
979.119290	2668.249963
979.416777	2665.605878
979.714228	2667.992864
980.011642	2671.970335
980.309020	2676.333453
980.606360	2691.242666
980.903664	2709.128680
981.200931	2737.396950
981.498162	2781.282715
981.795356	2846.114474
982.092513	2926.780497
982.389633	3023.172400
982.686717	3119.193778
982.983764	3193.132381
983.280775	3253.553131
983.577749	3269.584000
983.874686	3261.981940
984.171587	3234.535378
984.468451	3201.440203
984.765279	3162.358657
985.062070	3118.631689
985.358824	3075.106367
985.655543	3023.094262
985.952224	2976.531644
986.248869	2914.527973
986.545478	2856.337934
986.842050	2802.816003
987.138586	2754.239445
987.435086	2718.492623
987.731549	2685.316790
988.027975	2657.172028
988.324366	2639.878349
988.620719	2624.870834
988.917037	2614.362549
989.213318	2605.086826
989.509563	2599.786053
989.805772	2593.053592
990.101944	2587.712489
990.398080	2589.335741
990.694180	2583.321644
990.990244	2584.143353
991.286271	2583.762745
991.582262	2584.687797
991.878217	2587.994794
992.174136	2588.216605
992.470019	2592.801534
992.765865	2598.384612
993.061676	2599.919643
993.357450	2607.252002
993.653188	2612.608228
993.948890	2631.714201
994.244556	2644.095275
994.540186	2662.626556
994.835780	2693.889272
995.131337	2726.026627
995.426859	2761.725558
995.722345	2806.947229
996.017795	2858.495548
996.313208	2897.957700
996.608586	2927.627411
996.903928	2943.907817
997.199234	2948.709516
997.494504	2948.838066
997.789738	2936.066303
998.084936	2914.336409
998.380099	2884.139897
998.675225	2860.685929
998.970316	2833.408246
999.265371	2797.326187
999.560390	2759.641041
999.855373	2731.158522
1000.150320	2700.709953
1000.445232	2675.058042
1000.740108	2657.814775
1001.034948	2636.836013
1001.329752	2620.575771
1001.624521	2608.981117
1001.919254	2597.036103
1002.213951	2591.062336
1002.508613	2581.169072
1002.803239	2573.811508
1003.097829	2569.208934
1003.392384	2565.241546
1003.686903	2559.013201
1003.981386	2557.374826
1004.275834	2554.198899
1004.570246	2551.390976
1004.864623	2547.421067
1005.158964	2545.328988
1005.453270	2543.068031
1005.747540	2543.373021
1006.041775	2543.927548
1006.335974	2540.721374
1006.630138	2540.411343
1006.924266	2538.853626
1007.218359	2538.004192
1007.512416	2535.017308
1007.806438	2530.999509
1008.100425	2533.930940
1008.394376	2530.013963
1008.688292	2535.138296
1008.982172	2532.973120
1009.276017	2534.525796
1009.569827	2530.588655
1009.863602	2536.252391
1010.157341	2529.472039
1010.451045	2530.565969
1010.744714	2528.297450
1011.038347	2529.459436
1011.331945	2530.268541
1011.625508	2526.850639
1011.919036	2525.144208
1012.212528	2525.381143
1012.505986	2523.233611
1012.799408	2523.447860
1013.092795	2523.044568
1013.386147	2524.113293
1013.679464	2520.294618
1013.972745	2524.967768
1014.265992	2522.250586
1014.559204	2524.130937
1014.852380	2520.644979
1015.145521	2521.554907
1015.438628	2523.405010
1015.731699	2522.043899
1016.024736	2522.328724
1016.317737	2522.928621
1016.610703	2522.469876
1016.903635	2526.210413
1017.196531	2529.313243
1017.489393	2528.836854
1017.782219	2530.583613
1018.075011	2533.900693
1018.367768	2532.403470
1018.660490	2533.091588
1018.953177	2533.091588
1019.245829	2533.091588
