Dividing Wavelength (nm)	Counts (n)	Blue Motor Position (mm): 23.000000	Red Motor Position (mm): 0.000000	
326.493990	2070.348953
326.888308	2070.348953
327.282561	2070.348953
327.676750	2042.665456
328.070874	2042.660415
328.464933	2050.063349
328.858929	2057.085677
329.252859	2068.753427
329.646726	2081.603328
330.040528	2097.798035
330.434265	2114.511981
330.827938	2134.820269
331.221547	2154.775677
331.615091	2174.423574
332.008571	2196.587007
332.401986	2219.380584
332.795338	2239.116701
333.188625	2258.378950
333.581847	2277.807557
333.975006	2294.629887
334.368100	2312.518422
334.761129	2327.813282
335.154095	2341.943637
335.546996	2394.162429
335.939833	2486.584423
336.332606	2495.111534
336.725315	2511.472599
337.117960	2518.623476
337.510540	2530.792821
337.903056	2539.340098
338.295508	2546.682538
338.687896	2555.174362
339.080220	2560.795248
339.472480	2563.378840
339.864676	2566.267421
340.256807	2571.989131
340.648875	2569.014850
341.040879	2568.893862
341.432818	2574.159347
341.824694	2578.068762
342.216506	2576.110274
342.608253	2574.461817
342.999937	2574.197156
343.391557	2574.857547
343.783113	2574.071127
344.174605	2569.125755
344.566033	2567.394119
344.957397	2569.312278
345.348697	2566.469067
345.739934	2563.167111
346.131106	2563.976217
346.522215	2559.645865
346.913260	2560.356668
347.304241	2559.310629
347.695159	2554.488765
348.086012	2553.949362
348.476802	2552.726882
348.867528	2551.385935
349.258191	2544.497198
349.648789	2545.177754
350.039324	2540.759182
350.429796	2545.802857
350.820203	2544.172044
351.210548	2545.782692
351.600828	2543.347815
351.991045	2541.938812
352.381198	2541.464944
352.771288	2542.233720
353.161314	2540.275232
353.551276	2540.655839
353.941175	2539.491332
354.331010	2541.701878
354.720782	2543.420912
355.110490	2547.710934
355.500135	2539.927392
355.889717	2540.371014
356.279235	2539.456044
356.668689	2540.872608
357.058080	2542.667259
357.447408	2543.839328
357.836672	2543.060469
358.225873	2542.926879
358.615010	2545.107178
359.004084	2546.710265
359.393095	2548.073897
359.782043	2544.842517
360.170927	2548.746891
360.559748	2547.335368
360.948505	2550.614638
361.337199	2550.375183
361.725830	2550.309648
362.114398	2551.607746
362.502903	2549.487940
362.891344	2550.294525
363.279722	2548.396531
363.668037	2549.767724
364.056289	2552.487427
364.444478	2550.057591
364.832603	2552.202602
365.220665	2553.200750
365.608665	2553.669577
365.996601	2554.970195
366.384474	2553.717468
366.772284	2552.928528
367.160031	2551.713610
367.547715	2556.112017
367.935336	2555.456667
368.322893	2552.948692
368.710388	2549.513146
369.097820	2552.182437
369.485189	2550.607077
369.872495	2556.611091
370.259738	2554.433312
370.646918	2556.716955
371.034035	2557.674774
371.421090	2559.020762
371.808081	2557.241235
372.195010	2559.023283
372.581875	2558.476318
372.968678	2557.284085
373.355418	2555.925494
373.742096	2558.130999
374.128710	2562.078222
374.515262	2559.792059
374.901751	2559.965979
375.288177	2560.331462
375.674540	2558.798952
376.060841	2562.105948
376.447079	2562.602502
376.833254	2561.309446
377.219367	2558.446071
377.605417	2561.992523
377.991404	2561.700136
378.377329	2564.515620
378.763191	2560.833057
379.148991	2561.495969
379.534727	2562.307595
379.920402	2561.541339
380.306013	2561.939590
380.691563	2563.207441
381.077049	2564.697102
381.462474	2563.504869
381.847835	2564.613923
382.233134	2564.402194
382.618371	2566.436300
383.003545	2565.463357
383.388657	2564.848336
383.773706	2566.942936
384.158693	2566.058213
384.543618	2565.491083
384.928480	2567.436969
385.313280	2566.083419
385.698017	2566.360682
386.082692	2563.522513
386.467305	2568.036866
386.851856	2568.835889
387.236344	2569.138358
387.620770	2566.101063
388.005133	2566.920250
388.389435	2568.732545
388.773674	2564.258521
389.157851	2569.917216
389.541965	2571.527865
389.926018	2572.074830
390.310008	2572.672207
390.693936	2569.246743
391.077802	2570.844789
391.461606	2571.701785
391.845348	2570.905282
392.229027	2574.227403
392.612645	2572.848647
392.996200	2573.314954
393.379694	2570.464182
393.763125	2569.828996
394.146494	2573.380489
394.529801	2573.834193
394.913047	2572.362176
395.296230	2575.162537
395.679351	2573.040211
396.062410	2572.541137
396.445408	2573.640108
396.828343	2575.880901
397.211217	2575.633885
397.594028	2574.933164
397.976778	2572.916703
398.359466	2575.417115
398.742092	2573.844275
399.124656	2575.336457
399.507158	2573.428380
399.889598	2578.739236
400.271977	2575.323854
400.654294	2575.772517
401.036549	2575.165057
401.418742	2579.039184
401.800874	2577.937692
402.182944	2577.098340
402.564952	2578.288052
402.946898	2579.364339
403.328783	2576.813515
403.710606	2577.226889
404.092367	2581.083372
404.474067	2578.693865
404.855705	2579.286201
405.237282	2579.737384
405.618797	2579.142528
406.000250	2578.658577
406.381642	2578.696386
406.762972	2577.975501
407.144240	2577.436097
407.525447	2580.687642
407.906593	2574.363514
408.287677	2580.672518
408.668700	2581.567323
409.049661	2583.112437
409.430560	2581.595049
409.811399	2584.347519
410.192176	2583.961871
410.572891	2582.802406
410.953545	2585.179310
411.334138	2583.258630
411.714669	2584.244176
412.095139	2582.691500
412.475547	2584.473548
412.855894	2583.661922
413.236180	2582.767118
413.616405	2584.508836
413.996568	2583.566140
414.376670	2584.163517
414.756711	2582.988928
415.136691	2586.805082
415.516609	2586.351378
415.896466	2583.672005
416.276262	2584.597056
416.655997	2588.491348
417.035670	2584.551686
417.415283	2588.680391
417.794834	2587.079825
418.174324	2584.586974
418.553753	2588.146029
418.933121	2586.618559
419.312428	2585.643096
419.691674	2591.266503
420.070859	2586.232911
420.449983	2588.231728
420.829045	2590.220463
421.208047	2588.871955
421.586988	2588.209043
421.965867	2590.679208
422.344686	2589.791965
422.723444	2589.247521
423.102141	2591.125351
423.480777	2587.939341
423.859352	2588.355237
424.237866	2590.606112
424.616319	2590.895978
424.994712	2590.727099
425.373044	2590.449836
425.751314	2587.886409
426.129524	2589.176945
426.507673	2589.121492
426.885762	2587.130236
427.263789	2589.860021
427.641756	2590.404466
428.019662	2591.495875
428.397508	2592.012594
428.775292	2590.500247
429.153016	2592.698191
429.530679	2592.012594
429.908282	2591.826071
430.285824	2591.803386
430.663305	2594.502924
431.040726	2591.873962
431.418086	2592.027717
431.795385	2594.906216
432.172624	2593.996288
432.549802	2594.162646
432.926920	2594.875969
433.303977	2592.340269
433.680974	2594.460074
434.057910	2595.649786
434.434786	2596.554673
434.811601	2599.065168
435.188355	2596.068202
435.565050	2593.837491
435.941683	2595.581731
436.318257	2599.289499
436.694770	2595.942173
437.071222	2595.584251
437.447614	2596.569797
437.823946	2596.834457
438.200218	2598.896289
438.576429	2599.770929
438.952580	2597.575507
439.328670	2599.458378
439.704700	2599.770929
440.080670	2596.723552
440.456580	2596.158943
440.832429	2597.593151
441.208218	2601.210179
441.583947	2600.229674
441.959616	2599.541557
442.335224	2601.157247
442.710773	2601.331167
443.086261	2601.570621
443.461689	2601.003492
443.837057	2602.525920
444.212365	2600.741352
444.587612	2598.956783
444.962800	2599.992740
445.337927	2601.857967
445.712995	2599.039962
446.088002	2604.915427
446.462949	2602.672113
446.837837	2603.569439
447.212664	2607.446086
447.587431	2608.018257
447.962139	2607.834255
448.336786	2610.516149
448.711374	2610.785851
449.085901	2612.492281
449.460369	2610.591766
449.834776	2610.841303
450.209124	2612.353649
450.583412	2615.539659
450.957640	2613.921448
451.331808	2614.854062
451.705917	2615.292642
452.079965	2614.297014
452.453954	2615.544700
452.827883	2614.634772
453.201752	2614.697786
453.575562	2618.453446
453.949311	2617.843466
454.323001	2618.881944
454.696632	2623.141719
455.070202	2624.008797
455.443713	2623.497120
455.817164	2620.727006
456.190556	2626.269755
456.563888	2626.103397
456.937160	2625.392594
457.310373	2626.063067
457.683526	2627.131792
458.056619	2624.313787
458.429653	2628.399642
458.802628	2632.009108
459.175542	2632.419962
459.548398	2635.772330
459.921194	2637.224182
460.293930	2636.127731
460.666607	2641.302475
461.039224	2642.948412
461.411782	2648.740698
461.784280	2649.685914
462.156719	2650.142139
462.529099	2651.717499
462.901419	2651.399907
463.273680	2650.784886
463.645882	2648.624751
464.018024	2655.689928
464.390106	2657.683705
464.762130	2670.097546
465.134094	2682.879392
465.505999	2701.640046
465.877845	2718.986656
466.249631	2725.096535
466.621358	2728.975702
466.993026	2729.399159
467.364634	2731.266907
467.736184	2732.050806
468.107674	2733.285889
468.479105	2738.952146
468.850477	2747.075965
469.221790	2751.817171
469.593043	2753.649630
469.964238	2760.248500
470.335373	2768.763009
470.706449	2787.563992
471.077467	2811.391006
471.448425	2854.006400
471.819324	2896.694891
472.190164	2903.931467
472.560945	2895.686660
472.931667	2894.653224
473.302330	2902.663617
473.672934	2911.692324
474.043479	2938.286931
474.413965	2955.661268
474.784393	2970.270531
475.154761	3011.335771
475.525070	3032.611960
475.895321	3055.433264
476.265513	3091.865683
476.635645	3138.357724
477.005719	3168.634894
477.375734	3212.077037
477.745691	3265.137702
478.115588	3322.443018
478.485427	3404.142478
478.855207	3523.053215
479.224928	3645.933861
479.594591	3756.136004
479.964194	3784.999131
480.333739	3851.809543
480.703226	3923.671191
481.072653	4013.186960
481.442022	4115.071199
481.811333	4206.081670
482.180584	4244.220520
482.549777	4308.769974
482.918912	4364.046226
483.287988	4446.990851
483.657005	4511.875542
484.025964	4565.639448
484.394864	4660.423222
484.763706	4738.112444
485.132489	4779.596099
485.501213	4874.221078
485.869879	4980.286955
486.238487	5076.439403
486.607036	5191.866702
486.975527	5260.953195
487.343959	5397.850769
487.712333	5539.229928
488.080648	5643.735568
488.448905	5808.508202
488.817104	5913.366723
489.185244	6137.236803
489.553326	6399.883439
489.921350	6810.987015
490.289315	7308.001934
490.657222	7601.921368
491.025070	7849.555448
491.392861	7975.947257
491.760593	8021.794031
492.128267	8018.638269
492.495883	8023.949124
492.863440	8030.462295
493.230939	8042.147690
493.598380	8110.104964
493.965763	8251.307683
494.333088	8330.920105
494.700354	8466.151578
495.067563	8638.627095
495.434713	8787.217625
495.801805	9029.752578
496.168839	9188.201084
496.535815	9337.865380
496.902733	9559.189678
497.269593	9706.240136
497.636395	9937.729921
498.003139	10198.413027
498.369825	10345.095481
498.736453	10657.276494
499.103023	10817.559981
499.469535	11052.389530
499.835989	11303.738940
500.202385	11471.203550
500.568723	11697.548837
500.935003	12012.578103
501.301226	12194.069724
501.667390	12663.945591
502.033497	12980.706493
502.399546	13140.609373
502.765537	13238.407757
503.131470	13632.346204
503.497345	14021.220812
503.863163	13881.457342
504.228923	14391.866607
504.594625	14797.271158
504.960269	14830.031097
505.325856	15345.302555
505.691385	15453.064780
506.056856	15825.931203
506.422270	16294.022503
506.787625	16327.175651
507.152924	16777.002850
507.518164	17119.022453
507.883347	17168.324938
508.248472	17485.305130
508.613540	18090.440196
508.978550	18460.067679
509.343503	18641.017375
509.708398	19074.801102
510.073236	19641.227669
510.438016	19961.177101
510.802738	20045.273629
511.167403	20585.234138
511.532010	20977.574539
511.896561	21521.053773
512.261053	22212.805945
512.625488	22352.597142
512.989866	22574.503693
513.354186	22860.243854
513.718449	23076.113624
514.082655	23865.265929
514.446803	23934.107926
514.810894	24566.303907
515.174927	24817.754140
515.538904	25073.907770
515.902822	25725.000515
516.266684	25763.804797
516.630488	26243.352118
516.994235	26483.684087
517.357925	27107.693233
517.721558	27526.580350
518.085133	28012.701336
518.448651	28382.938798
518.812112	28535.844556
519.175516	28881.617298
519.538863	29436.970971
519.902152	29706.675222
520.265385	30343.955206
520.628560	30561.947301
520.991678	30735.501625
521.354739	31098.991503
521.717743	31613.504267
522.080690	31759.823758
522.443580	32468.360451
522.806413	32688.928576
523.169189	33016.217928
523.531908	33392.058632
523.894569	33474.297496
524.257174	33822.132070
524.619722	34295.526663
524.982213	34599.641830
525.344647	34825.951829
525.707025	35113.201817
526.069345	35639.470552
526.431608	35749.150936
526.793815	36246.319611
527.155964	36050.412811
527.518057	36430.888856
527.880093	36474.520043
528.242072	37169.027205
528.603995	37101.584128
528.965860	37189.244753
529.327669	37546.743219
529.689421	37730.291630
530.051117	37854.114972
530.412755	38234.137313
530.774337	38419.853421
531.135862	38505.938684
531.497331	38785.823546
531.858743	38931.427192
532.220098	39419.302500
532.581396	39297.026793
532.942638	39214.135100
533.303824	39555.045650
533.664953	39748.620916
534.026025	39574.005429
534.387040	40204.419362
534.747999	40371.992357
535.108902	40775.430858
535.469748	40276.628849
535.830537	40628.355194
536.191270	40952.960132
536.551947	40831.808602
536.912567	41179.018073
537.273131	41401.648030
537.633638	41127.310958
537.994089	41387.346276
538.354483	41255.479774
538.714821	41940.562499
539.075103	42299.749752
539.435328	42260.695933
539.795497	42117.300312
540.155609	42325.787312
540.515665	42939.903194
540.875665	42350.562062
541.235609	42690.219885
541.595496	42895.064651
541.955328	43507.060728
542.315102	43036.307699
542.674821	42990.226512
543.034483	42972.148934
543.394090	43055.396028
543.753640	43116.313332
544.113134	44181.796485
544.472571	43363.397926
544.831953	44517.812074
545.191278	43865.600192
545.550548	43613.471924
545.909761	44270.331749
546.268918	44466.530937
546.628019	44886.370832
546.987064	44405.870732
547.346053	43773.089978
547.704986	44699.775043
548.063863	44393.479576
548.422684	44620.717148
548.781449	44260.108289
549.140158	44809.215972
549.498811	44614.849244
549.857408	44066.139813
550.215949	44911.833700
550.574434	44778.502742
550.932864	44755.701603
551.291237	45483.561040
551.649555	45258.886895
552.007817	45476.644577
552.366022	45191.562286
552.724173	45283.447397
553.082267	45707.042952
553.440305	46097.240862
553.798288	45371.362599
554.156215	45782.241843
554.514086	45988.886301
554.871902	45626.891126
555.229661	45820.045456
555.587365	45534.098607
555.945014	45675.112283
556.302606	45701.923660
556.660143	45814.094374
557.017625	46049.254119
557.375050	45751.077430
557.732421	46160.025913
558.089735	46234.095586
558.446994	46124.256406
558.804197	46615.431148
559.161345	46485.311406
559.518437	45878.611061
559.875474	46112.485311
560.232455	46328.975143
560.589381	46400.655309
560.946251	46241.730414
561.303065	46876.625932
561.659825	46586.177332
562.016528	46407.410455
562.373177	46002.968765
562.729770	46645.985582
563.086307	46159.375604
563.442789	46711.462608
563.799216	46558.007365
564.155587	46477.414438
564.511904	46447.764892
564.868164	46520.607044
565.224370	46837.524222
565.580520	46568.417347
565.936615	46770.552493
566.292654	46431.650844
566.648638	46793.041081
567.004567	46737.817761
567.360441	46825.065010
567.716260	46555.091057
568.072023	46969.342833
568.427732	46871.456229
568.783385	46424.404185
569.138982	46840.072525
569.494525	46967.676732
569.850013	46590.316120
570.205445	46722.633805
570.560823	46487.247209
570.916145	46361.314145
571.271412	46604.937987
571.626625	46262.084072
571.981782	46327.304000
572.336884	45956.882536
572.691931	46284.582742
573.046923	45950.944057
573.401860	45792.850952
573.756743	45806.898127
574.111570	45951.937164
574.466342	45884.143727
574.821059	46026.977260
575.175722	45538.938115
575.530330	45650.392985
575.884882	45293.456608
576.239380	45192.948603
576.593823	45306.361962
576.948211	45250.087561
577.302544	44804.378985
577.656823	44779.886539
578.011047	45056.275360
578.365216	44910.901086
578.719330	44623.343589
579.073389	44600.555053
579.427394	44658.765256
579.781344	44572.251494
580.135239	44339.398078
580.489080	44411.365590
580.842866	43919.417030
581.196597	44392.236932
581.550273	44393.056119
581.903895	44329.532540
582.257463	44759.495072
582.610975	44209.036360
582.964434	44537.079364
583.317837	44027.922826
583.671186	44000.735883
584.024481	44282.876661
584.377721	43839.212273
584.730906	44072.705916
585.084037	44229.649638
585.437113	43936.496459
585.790135	44060.990274
586.143103	43627.317453
586.496016	43812.829394
586.848874	43917.629941
587.201679	43946.029281
587.554428	43458.537102
587.907124	43705.709916
588.259765	43498.699974
588.612352	43642.458558
588.964884	43122.813899
589.317362	43421.792131
589.669786	43420.826750
590.022155	43298.450220
590.374470	43771.035708
590.726731	43358.412224
591.078937	42716.322980
591.431090	43064.172677
591.783188	42571.326792
592.135232	42389.883062
592.487222	42660.998837
592.839157	42792.855257
593.191038	42469.659322
593.542866	42270.775720
593.894639	41665.378514
594.246358	41965.712816
594.598022	41981.232008
594.949633	41538.291025
595.301190	41548.932901
595.652692	41506.193999
596.004141	41973.939979
596.355535	40899.067677
596.706876	40911.007649
597.058162	40630.227983
597.409395	41115.234874
597.760573	41363.002544
598.111698	40974.243883
598.462768	40899.153376
598.813785	40918.818917
599.164748	40533.808354
599.515657	40792.391820
599.866511	40317.913379
600.217312	40996.631647
600.568060	39960.384666
600.918753	40772.887596
601.269392	40681.574656
601.619978	40423.149986
601.970510	40654.836376
602.320988	40765.078848
602.671412	41036.943234
603.021783	40883.755172
603.372100	40488.979893
603.722363	40587.668042
604.072572	40619.187856
604.422728	40619.981838
604.772830	40387.146065
605.122878	40568.950237
605.472872	40420.052197
605.822813	40664.419609
606.172701	40417.912227
606.522534	40764.350402
606.872314	40956.556995
607.222041	40797.211163
607.571714	41129.594601
607.921333	40639.130661
608.270899	40817.184215
608.620411	41206.820037
608.969870	40980.971303
609.319276	40994.519404
609.668627	41034.087421
610.017926	41407.127764
610.367171	41568.127094
610.716362	41584.130237
611.065500	41508.013855
611.414585	41734.938875
611.763616	41897.102712
612.112594	41806.261120
612.461518	41930.452465
612.810389	42318.628873
613.159207	42107.207922
613.507971	42065.933475
613.856682	42568.213880
614.205340	42408.603387
614.553945	43076.510901
614.902496	42428.359669
615.250994	42850.914226
615.599439	42931.524796
615.947830	43032.725960
616.296169	43046.846232
616.644454	43094.444806
616.992686	43248.646141
617.340864	43667.651725
617.688990	43179.688197
618.037063	43836.926109
618.385082	43663.633925
618.733048	44042.068303
619.080961	43915.482410
619.428821	43957.664264
619.776628	43996.415614
620.124382	43817.384076
620.472083	43934.961428
620.819731	44029.523392
621.167326	43623.997853
621.514868	43618.389569
621.862357	43080.143053
622.209793	43180.111654
622.557176	42753.861932
622.904506	42513.845035
623.251783	42164.908969
623.599007	41865.751776
623.946179	41787.674386
624.293297	41525.350383
624.640363	40988.464978
624.987376	40833.721720
625.334336	40645.046455
625.681243	40247.329663
626.028097	40146.045321
626.374899	39979.606585
626.721647	39949.248757
627.068343	39685.298983
627.414987	39405.948483
627.761577	39170.791259
628.108115	39490.521401
628.454600	38739.137420
628.801032	38983.678752
629.147412	38877.617916
629.493739	38754.283567
629.840014	38334.952828
630.186236	38748.435828
630.532405	38187.799027
630.878521	38428.836757
631.224585	38202.821665
631.570597	37881.274188
631.916556	38044.335350
632.262462	37935.615306
632.608316	37900.241529
632.954117	37755.154601
633.299866	37702.673669
633.645562	37629.846640
633.991206	37136.791547
634.336797	36741.756649
634.682336	36615.957175
635.027823	36376.527573
635.373257	36278.736751
635.718639	35947.033869
636.063968	35844.794228
636.409245	35217.223506
636.754470	35161.589332
637.099642	34934.528201
637.444762	34364.512333
637.789829	34499.743805
638.134845	34102.095069
638.479808	34011.341697
638.824719	33983.794312
639.169577	33461.412306
639.514383	33583.700616
639.859137	33198.488407
640.203839	33357.751060
640.548489	33072.394026
640.893086	33059.009762
641.237632	32781.955509
641.582125	32867.087994
641.926566	32655.251148
642.270955	32677.780064
642.615292	32616.862761
642.959576	32496.013701
643.303809	32502.146264
643.647990	32612.038377
643.992118	32560.910995
644.336195	32392.536456
644.680219	32458.336117
645.024192	32652.924655
645.368112	33168.722914
645.711981	33186.276212
646.055797	33881.768920
646.399562	33676.669576
646.743274	34519.550499
647.086935	34943.166218
647.430544	34921.322898
647.774101	34942.405004
648.117606	35266.674704
648.461059	35401.805354
648.804460	35029.243920
649.147810	34523.646436
649.491108	34237.765122
649.834354	34106.274186
650.177548	33309.038390
650.520690	32784.738226
650.863781	32777.168933
651.206820	32599.725359
651.549807	32184.503161
651.892742	31593.032142
652.235626	31490.537922
652.578458	31348.659688
652.921238	30659.067651
653.263967	30942.110795
653.606644	30631.217796
653.949269	30544.719158
654.291843	30169.979946
654.634365	30505.587201
654.976836	30068.690562
655.319255	30157.455199
655.661622	30013.197541
656.003938	29896.613296
656.346203	29714.284844
656.688416	29954.352152
657.030577	29752.700957
657.372687	29549.111438
657.714746	29683.264104
658.056753	29887.100639
658.398708	29270.809499
658.740612	29337.355250
659.082465	29536.311948
659.424266	29419.765513
659.766016	29427.455793
660.107715	29277.186558
660.449362	29368.466731
660.790958	29352.934936
661.132503	29271.646330
661.473996	29347.888741
661.815438	29435.496433
662.156829	29547.987261
662.498168	29349.070892
662.839456	29330.267388
663.180693	29463.512646
663.521879	29515.812096
663.863013	29447.781725
664.204097	29443.791652
664.545129	29860.178357
664.886110	29783.081470
665.227040	29902.289635
665.567918	29875.982374
665.908746	29941.610635
666.249522	30029.498112
666.590248	30059.795446
666.930922	30173.165955
667.271545	30168.306283
667.612118	30229.727701
667.952639	30041.571675
668.293109	30071.720296
668.633528	29932.783575
668.973896	29903.862475
669.314213	29881.310874
669.654480	29685.333497
669.994695	29659.913479
670.334859	29577.412476
670.674973	29409.557176
671.015035	29604.559089
671.355047	29512.558032
671.695008	29443.771487
672.034918	29353.257570
672.374777	29439.620097
672.714585	29318.493773
673.054342	29449.921695
673.394049	29317.682147
673.733705	29515.360913
674.073310	29233.734333
674.412864	29286.275759
674.752368	29031.828560
675.091820	29259.431615
675.431223	28869.972233
675.770574	28664.779627
676.109875	28505.481687
676.449125	28284.215362
676.788324	28185.373458
677.127473	27713.934833
677.466571	27626.211194
677.805619	27350.339091
678.144616	27276.967618
678.483562	27229.164876
678.822458	26899.359989
679.161303	26853.056991
679.500098	26761.060974
679.838842	26676.936719
680.177535	26738.496770
680.516179	26949.176671
680.854771	27025.068722
681.193314	27708.934008
681.531805	28654.571291
681.870247	29398.380938
682.208638	30196.814008
682.546978	30552.041434
682.885268	30737.346688
683.223508	30328.677989
683.561697	30071.929503
683.899836	29911.661140
684.237925	29492.970628
684.575963	29322.435955
684.913951	28929.021789
685.251889	29079.011239
685.589776	29071.552852
685.927614	29077.889582
686.265401	29246.841333
686.603137	29352.617343
686.940824	29808.849328
687.278460	30144.650668
687.616046	30312.800875
687.953582	30981.560345
688.291068	30923.461047
688.628504	31282.371036
688.965889	31322.773363
689.303224	31074.844376
689.640510	30798.561419
689.977745	30215.491483
690.314930	29490.669342
690.652065	29085.670603
690.989150	28403.940245
691.326185	27564.646103
691.663170	26966.840874
692.000105	26261.961538
692.336990	25647.422199
692.673825	25230.586831
693.010610	24734.567540
693.347345	24227.823193
693.684030	23597.207615
694.020665	23413.986878
694.357251	22749.575404
694.693786	22750.767637
695.030272	22510.884331
695.366707	22026.290815
695.703093	21734.614694
696.039429	21791.763735
696.375716	21557.932334
696.711952	21545.974718
697.048139	21410.173595
697.384276	21236.735217
697.720363	21366.176924
698.056400	21270.546236
698.392388	21101.476018
698.728326	21088.805078
699.064214	20939.786050
699.400053	20959.965789
699.735842	20572.699309
700.071581	20389.133253
700.407270	20153.413941
700.742910	19976.938268
701.078501	19737.024715
701.414042	19536.028870
701.749533	19237.310258
702.084974	18921.174459
702.420366	19157.937291
702.755709	18761.238812
703.091002	18448.099979
703.426246	18500.807763
703.761440	18441.362477
704.096584	18207.634420
704.431679	18138.434502
704.766725	18084.312674
705.101721	18006.663781
705.436668	18113.901726
705.771565	17834.619283
706.106413	18147.475811
706.441212	18196.735446
706.775961	18296.409140
707.110661	18366.700468
707.445311	18734.109843
707.779913	18607.486141
708.114465	18899.232837
708.448967	19199.128559
708.783421	19807.414347
709.117825	20144.234000
709.452180	20352.373160
709.786485	20779.671442
710.120742	21533.913757
710.454949	21624.772993
710.789107	22124.106843
711.123216	22829.621365
711.457275	23043.157081
711.791286	23613.672023
712.125247	23786.185349
712.459159	23557.407705
712.793023	24319.431041
713.126837	23345.558256
713.460602	23601.212811
713.794318	23299.414054
714.127985	23035.648282
714.461602	22157.932986
714.795171	22138.547229
715.128691	21164.011532
715.462162	20652.790641
715.795584	20231.700539
716.128957	19956.342634
716.462281	19601.531103
716.795556	19315.685077
717.128782	18847.250979
717.461960	18251.386595
717.795088	18209.159369
718.128167	17879.319194
718.461198	17424.934792
718.794180	17298.023744
719.127113	16982.084550
719.459997	16793.409285
719.792833	16418.662511
720.125619	16451.702233
720.458357	16125.511853
720.791046	15981.972559
721.123686	15825.699310
721.456278	15608.652432
721.788821	15594.796820
722.121315	15345.917575
722.453761	15434.699856
722.786158	15322.929914
723.118506	15406.880249
723.450805	15283.104798
723.783056	15465.219002
724.115259	15341.730897
724.447412	15322.629965
724.779518	15532.715011
725.111574	15581.856178
725.443582	15835.458984
725.775542	15791.580781
726.107453	16276.648166
726.439315	16188.531317
726.771129	16587.946978
727.102895	16983.881721
727.434612	17265.581398
727.766281	17439.201257
728.097901	17761.194877
728.429473	17856.404629
728.760996	17895.143376
729.092471	18009.174276
729.423897	17884.758599
729.755276	17739.933811
730.086606	17823.521182
730.417887	18365.800622
730.749120	18899.368948
731.080305	19127.642477
731.411442	19528.464619
731.742530	19651.070522
732.073570	19788.197468
732.404562	20112.504977
732.735506	20019.412510
733.066401	19897.829961
733.397249	19455.582137
733.728048	18865.525162
734.058798	18038.423050
734.389501	17279.210158
734.720156	16760.326713
735.050762	16177.183680
735.381320	15778.098215
735.711831	15486.026364
736.042293	15103.080153
736.372707	15126.834070
736.703073	14911.050001
737.033391	15096.947590
737.363661	15075.124435
737.693883	15181.258367
738.024056	15368.320463
738.354182	15568.373612
738.684260	15914.547126
739.014290	16187.099630
739.344272	16410.732776
739.674207	16749.100063
740.004093	16930.473217
740.333931	17014.557143
740.663722	17101.448991
740.993464	17149.604613
741.323159	17024.120211
741.652806	16736.161942
741.982405	16578.058754
742.311956	16235.020838
742.641460	16130.217770
742.970915	15813.547609
743.300323	15462.040554
743.629683	15254.438277
743.958996	14946.892604
744.288260	14646.444876
744.617477	14332.118852
744.946647	14292.011432
745.275768	13980.730264
745.604842	13783.495120
745.933869	13604.483747
746.262847	13567.595103
746.591778	13471.482985
746.920662	13349.625693
747.249498	13351.808513
747.578286	13482.676867
747.907027	13634.932316
748.235720	13900.530547
748.564365	13976.281446
748.892963	13920.002004
749.221514	14036.780333
749.550017	13913.889605
749.878473	13893.120051
750.206881	13676.509232
750.535242	13605.549951
750.863555	13530.446841
751.191821	13425.595882
751.520039	13436.426801
751.848210	13351.848842
752.176334	13398.998754
752.504411	13324.823217
752.832440	13153.338286
753.160421	13276.856638
753.488356	13163.871777
753.816243	13071.999269
754.144082	12907.322417
754.471875	12840.448990
754.799620	12805.123105
755.127318	12790.791104
755.454969	12769.411571
755.782572	12736.621386
756.110129	12749.151174
756.437638	12659.958039
756.765100	12669.279132
757.092515	12686.751771
757.419882	12720.998850
757.747203	12732.096950
758.074477	12802.471458
758.401703	12781.205350
758.728882	12960.854429
759.056014	13011.535670
759.383099	13178.483562
759.710138	13295.944967
760.037129	13433.147530
760.364073	13508.321217
760.690970	13511.968491
761.017820	13519.315973
761.344623	13717.934914
761.671379	14044.359708
761.998088	14579.120267
762.324751	15976.071888
762.651366	18898.854751
762.977935	23176.445188
763.304456	26447.707892
763.630931	28042.275265
763.957359	27266.192151
764.283740	25236.086730
764.610074	23083.929933
764.936362	20482.828139
765.262602	18599.175798
765.588796	16630.605222
765.914943	15310.236288
766.241044	14168.830837
766.567097	13354.253473
766.893104	12616.838529
767.219064	12138.347330
767.544978	11653.358083
767.870845	11259.407033
768.196665	11026.510767
768.522438	10797.246651
768.848165	10598.935221
769.173846	10395.698583
769.499479	10259.632799
769.825066	10097.627759
770.150607	9861.560607
770.476101	9792.703486
770.801548	9672.081277
771.126949	9517.012865
771.452303	9404.862315
771.777611	9204.332777
772.102872	9203.879073
772.428087	9058.061177
772.753256	8913.180936
773.078378	8833.986930
773.403453	8651.081266
773.728482	8532.077267
774.053465	8457.715207
774.378401	8354.096810
774.703291	8237.573060
775.028135	8119.272302
775.352932	8084.836180
775.677683	7984.479410
776.002388	7876.298769
776.327046	7886.141622
776.651658	7785.739482
776.976224	7690.607867
777.300743	7689.884462
777.625216	7602.899352
777.949643	7556.677013
778.274024	7571.203097
778.598359	7491.930953
778.922647	7498.474371
779.246889	7452.940149
779.571086	7456.158925
779.895236	7463.594627
780.219339	7470.130483
780.543397	7475.751370
780.867409	7554.867238
781.191374	7560.949390
781.515294	7532.481995
781.839167	7618.141281
782.162995	7594.578928
782.486776	7546.095631
782.810511	7501.410843
783.134201	7411.615290
783.457844	7408.961122
783.781441	7353.770570
784.104993	7290.012577
784.428498	7272.928107
784.751958	7254.101918
785.075372	7229.606951
785.398739	7172.440266
785.722061	7205.787499
786.045337	7201.941099
786.368568	7352.490117
786.691752	7347.224632
787.014891	7645.418964
787.337983	7950.217208
787.661030	8499.372782
787.984031	9107.119166
788.306987	9549.137617
788.629897	9800.580289
788.952760	9800.499631
789.275579	9623.361046
789.598351	9255.313966
789.921078	8919.870548
790.243759	8520.376749
790.566395	8234.709684
790.888984	7977.106723
791.211529	7766.779702
791.534027	7538.866616
791.856480	7333.119483
792.178888	7255.936898
792.501249	7163.088926
792.823566	7003.533886
793.145836	6996.960222
793.468062	6970.766386
793.790241	6912.876296
794.112375	6964.921168
794.434464	7109.945082
794.756507	7133.986345
795.078505	7273.323837
795.400457	7554.111065
795.722364	7886.098772
796.044226	8172.501846
796.366042	8461.836350
796.687812	8432.650590
797.009538	8534.431486
797.331218	8446.342364
797.652852	8372.819656
797.974442	8224.584527
798.295986	8148.536200
798.617484	7960.347407
798.938938	7827.349165
799.260346	7717.111734
799.581709	7522.566045
799.903026	7443.687111
800.224299	7340.840011
800.545526	7175.263312
800.866708	7076.597849
801.187845	7006.319124
801.508936	6908.828249
801.829983	6868.385593
802.150984	6724.259004
802.471940	6672.985428
802.792851	6660.460682
803.113717	6627.365507
803.434538	6595.361742
803.755314	6536.203801
804.076045	6535.815632
804.396731	6477.905377
804.717372	6505.621641
805.037967	6505.843452
805.358518	6541.910387
805.679024	6622.750330
805.999485	6628.167050
806.319901	6673.814698
806.640272	6686.094949
806.960598	6772.502847
807.280879	6777.851511
807.601115	6855.185331
807.921306	6802.011241
808.241453	6818.246277
808.561554	6838.698238
808.881611	6808.559699
809.201623	6811.644886
809.521590	6755.677996
809.841513	6744.905050
810.161390	6778.998373
810.481223	6651.626060
810.801011	6639.176930
811.120755	6614.475276
811.440453	6539.528442
811.760107	6507.587691
812.079716	6475.253731
812.399281	6415.672333
812.718801	6401.496609
813.038276	6359.723087
813.357707	6295.506349
813.677093	6336.032185
813.996434	6246.718062
814.315731	6284.083094
814.634983	6270.666063
814.954191	6272.438029
815.273354	6371.332865
815.592473	6429.923675
815.911547	6546.512961
816.230577	6618.548529
816.549562	6762.554129
816.868502	6858.378902
817.187399	6949.286030
817.506250	7089.694767
817.825058	7121.023018
818.143821	7360.447578
818.462539	7596.028259
818.781213	7914.092300
819.099843	8396.016525
819.418429	9287.378225
819.736970	10183.811325
820.055466	11269.532191
820.373919	12622.066206
820.692327	14609.561274
821.010691	17904.461949
821.329011	25258.424083
821.647286	36789.057796
821.965517	50616.511777
822.283704	58146.974789
822.601847	61355.013862
822.919945	59154.504838
823.237999	55285.832636
823.556010	49282.914856
823.873976	42698.411760
824.191897	36282.986443
824.509775	31482.353609
824.827609	26888.254327
825.145398	24096.120528
825.463144	22448.273200
825.780845	22337.564421
826.098502	23559.005751
826.416116	26824.980284
826.733685	30504.178199
827.051210	32289.097021
827.368692	31359.364578
827.686129	27891.696000
828.003522	23933.417288
828.320872	20228.905220
828.638177	17366.838014
828.955439	15191.862434
829.272656	13375.549827
829.589830	11895.575443
829.906960	10610.567683
830.224046	9639.286051
830.541088	8873.265080
830.858086	8393.846308
831.175041	7994.831420
831.491952	7836.075403
831.808819	7823.326325
832.125642	8112.837269
832.442421	8811.200915
832.759157	10279.885635
833.075849	12805.912045
833.392497	15908.170067
833.709101	18359.746197
834.025662	18721.829592
834.342179	17402.196668
834.658653	15361.207395
834.975083	13455.946149
835.291469	11830.463900
835.607811	10509.386684
835.924110	9603.168704
836.240366	8745.013085
836.556578	7946.796785
836.872746	7298.325440
837.188871	6784.921729
837.504952	6361.726946
837.820990	6040.295415
838.136984	5804.722296
838.452935	5694.651222
838.768842	5674.088356
839.084706	5953.065809
839.400526	6909.823877
839.716303	8396.540805
840.032037	9611.829407
840.347727	9842.240384
840.663373	9059.165190
840.978977	8036.393212
841.294537	7201.066458
841.610054	6597.998265
841.925527	6168.819632
842.240957	5806.509385
842.556344	5487.253112
842.871687	5204.668712
843.186987	4922.422070
843.502244	4696.359088
843.817458	4526.530176
844.132629	4389.448600
844.447756	4296.812357
844.762840	4218.230851
845.077881	4141.678409
845.392879	4080.914862
845.707833	4035.047923
846.022745	3986.990604
846.337613	3958.109833
846.652438	3917.710026
846.967221	3900.486924
847.281960	3871.018859
847.596656	3849.223431
847.911309	3831.624763
848.225919	3805.730876
848.540485	3789.868885
848.855009	3779.617699
849.169490	3760.168928
849.483928	3747.308944
849.798323	3737.425762
850.112675	3720.265674
850.426984	3726.191551
850.741251	3712.877863
851.055474	3704.600289
851.369654	3711.458778
851.683792	3705.931153
851.997887	3713.402143
852.311938	3711.645301
852.625947	3717.782906
852.939914	3707.647666
853.253837	3716.426836
853.567718	3716.378945
853.881555	3702.785473
854.195350	3718.692834
854.509103	3714.208728
854.822812	3715.027915
855.136479	3702.793035
855.450103	3714.922051
855.763685	3697.588044
856.077224	3705.278324
856.390720	3716.295766
856.704173	3735.351327
857.017584	3748.191146
857.330953	3754.182557
857.644278	3778.896814
857.957561	3783.912762
858.270802	3788.464924
858.584000	3787.862506
858.897155	3784.510139
859.210268	3768.272582
859.523339	3747.911362
859.836367	3744.763161
860.149352	3740.241246
860.462295	3733.344948
860.775195	3722.183833
861.088054	3715.055642
861.400869	3713.266032
861.713642	3710.876525
862.026373	3722.297259
862.339062	3724.255748
862.651708	3742.066144
862.964312	3777.462606
863.276873	3782.965025
863.589392	3835.219105
863.901869	3876.029766
864.214303	3920.633896
864.526696	3952.824183
864.839045	4000.150536
865.151353	4024.395965
865.463619	4036.736710
865.775842	4038.375085
866.088023	4059.457190
866.400162	4050.768762
866.712258	4057.919638
867.024313	4061.927356
867.336325	4059.961306
867.648296	4067.606215
867.960224	4066.179569
868.272110	4072.959921
868.583954	4075.495621
868.895755	4088.786623
869.207515	4082.311261
869.519233	4117.745532
869.830909	4130.222387
870.142542	4150.306344
870.454134	4167.322759
870.765684	4196.722768
871.077191	4230.944641
871.388657	4254.063373
871.700081	4284.781644
872.011463	4324.614321
872.322803	4353.331254
872.634101	4385.861819
872.945357	4427.675670
873.256571	4477.479749
873.567744	4503.746682
873.878874	4525.211915
874.189963	4560.023603
874.501010	4574.960541
874.812015	4571.124223
875.122979	4609.351293
875.433900	4608.794245
875.744780	4620.814877
876.055618	4644.122652
876.366415	4641.496210
876.677169	4662.439684
876.987882	4701.375036
877.298554	4744.055965
877.609183	4817.127490
877.919771	4909.509155
878.230317	5034.880130
878.540822	5215.194642
878.851285	5489.332588
879.161707	5871.293253
879.472087	6507.358319
879.782425	7509.832090
880.092722	9314.857554
880.402977	12110.900767
880.713191	15564.335648
881.023363	19207.632985
881.333494	21624.213425
881.643583	23069.799579
881.953631	23294.980359
882.263637	22659.822701
882.573602	21387.488402
882.883526	19974.067331
883.193408	18428.129448
883.503248	16840.211357
883.813048	15390.128495
884.122806	14041.082958
884.432522	12613.571862
884.742197	11414.155333
885.051831	10355.760042
885.361424	9363.668526
885.670975	8557.252790
885.980485	7876.636527
886.289954	7303.653939
886.599382	6841.632189
886.908768	6478.369164
887.218113	6113.303926
887.527417	5830.462427
887.836680	5571.891564
888.145901	5356.730077
888.455082	5190.319068
888.764221	5043.044279
889.073319	4906.943207
889.382376	4842.116489
889.691392	4772.956900
890.000366	4740.643104
890.309300	4721.821956
890.618193	4726.991659
890.927044	4714.328281
891.235855	4728.899736
891.544625	4749.775154
891.853353	4796.206701
892.162041	4891.076176
892.470687	5043.805493
892.779293	5261.452269
893.087858	5573.562707
893.396381	6056.134720
893.704864	6729.882411
894.013306	7739.817091
894.321707	8851.625927
894.630068	9730.866172
894.938387	10073.105066
895.246665	9963.742274
895.554903	9439.721894
895.863100	8798.255232
896.171256	8276.712578
896.479371	7796.066285
896.787446	7321.340827
897.095480	6904.069400
897.403473	6594.529951
897.711425	6293.280680
898.019336	6035.188726
898.327207	5777.805055
898.635038	5559.480243
898.942827	5316.988141
899.250576	5124.075786
899.558284	4936.512095
899.865952	4816.777130
900.173579	4670.739944
900.481165	4568.028955
900.788711	4475.249039
901.096216	4400.781114
901.403681	4339.450437
901.711105	4310.216785
902.018489	4288.023106
902.325832	4339.836085
902.633135	4420.393723
902.940397	4676.312939
903.247619	5283.015805
903.554800	6459.923582
903.861941	8191.479269
904.169041	9733.870700
904.476101	10559.233614
904.783121	10436.743657
905.090100	9821.914452
905.397039	9050.353253
905.703938	8333.584355
906.010796	7675.134046
906.317614	7153.399828
906.624391	6642.725903
906.931129	6236.562658
907.237826	5854.619637
907.544483	5500.463455
907.851099	5143.559845
908.157675	4802.861024
908.464211	4480.940502
908.770707	4241.553749
909.077163	4038.748130
909.383578	3892.978126
909.689954	3775.788943
909.996289	3699.637273
910.302584	3637.232829
910.608839	3601.480966
910.915054	3571.571800
911.221229	3552.662432
911.527363	3562.805234
911.833458	3574.374682
912.139513	3591.617949
912.445527	3615.208028
912.751502	3682.578008
913.057436	3770.105042
913.363331	3884.466137
913.669186	4054.819329
913.975000	4268.962503
914.280775	4626.365187
914.586510	5114.401812
914.892205	5791.441376
915.197859	6703.439039
915.503475	7815.303328
915.809050	8850.249692
916.114585	9557.430316
916.420081	9902.552749
916.725536	9956.997211
917.030952	9598.334238
917.336328	9247.270805
917.641665	8882.376966
917.946961	8440.111498
918.252218	8043.342443
918.557435	7559.648773
918.862612	7167.867940
919.167750	6814.278888
919.472848	6415.437920
919.777906	6062.804167
920.082925	5720.535027
920.387904	5365.877251
920.692843	5103.548207
920.997743	4856.418243
921.302603	4632.777535
921.607423	4466.235456
921.912204	4308.006239
922.216946	4197.368036
922.521647	4085.151951
922.826310	3978.813852
923.130932	3893.237745
923.435516	3796.167807
923.740059	3730.040472
924.044564	3657.319307
924.349028	3599.744289
924.653454	3539.956204
924.957840	3472.044300
925.262186	3427.465377
925.566493	3370.664176
925.870761	3316.247440
926.174989	3279.562964
926.479178	3245.421749
926.783328	3206.713250
927.087438	3179.049918
927.391509	3147.888025
927.695541	3118.102368
927.999533	3094.285437
928.303486	3073.052097
928.607400	3056.451577
928.911275	3044.816594
929.215110	3029.342772
929.518906	3021.561751
929.822663	3013.775689
930.126381	3015.678725
930.430060	3020.339271
930.733699	3021.957482
931.037299	3034.593134
931.340861	3030.784542
931.644383	3038.200079
931.947866	3035.472815
932.251309	3031.623894
932.554714	3031.245808
932.858080	3027.001156
933.161407	3020.009076
933.464694	3013.405164
933.767943	3008.069103
934.071153	3002.629698
934.374323	2993.923625
934.677455	2989.129488
934.980548	2980.844352
935.283602	2975.861171
935.586617	2969.713484
935.889593	2978.618682
936.192530	2983.178406
936.495428	2991.302225
936.798287	3009.026922
937.101108	3036.208824
937.403890	3079.560226
937.706632	3133.571148
938.009336	3206.683003
938.312002	3276.054321
938.614628	3339.212417
938.917216	3390.964902
939.219765	3421.312648
939.522275	3456.998976
939.824747	3462.481231
940.127179	3463.933083
940.429573	3457.987043
940.731929	3457.225828
941.034246	3446.513376
941.336524	3435.425358
941.638763	3422.099068
941.940964	3410.179260
942.243126	3369.494628
942.545250	3352.163141
942.847335	3315.750887
943.149381	3283.427008
943.451389	3252.587750
943.753359	3219.631206
944.055290	3195.514326
944.357182	3172.032632
944.659036	3157.161228
944.960851	3147.898108
945.262628	3132.348669
945.564367	3133.533340
945.866067	3129.238277
946.167729	3124.038327
946.469352	3122.155456
946.770937	3116.564816
947.072484	3105.728856
947.373992	3106.190121
947.675462	3100.574276
947.976893	3083.691452
948.278286	3077.296748
948.579641	3071.849781
948.880958	3064.489697
949.182236	3070.208886
949.483476	3059.872000
949.784678	3057.268244
950.085841	3059.161197
950.386967	3067.642938
950.688054	3081.082655
950.989103	3098.542691
951.290114	3116.214456
951.591087	3140.732107
951.892021	3170.023732
952.192917	3195.042978
952.493776	3220.891495
952.794596	3231.719893
953.095378	3235.977148
953.396122	3230.426837
953.696828	3229.922722
953.997496	3221.009962
954.298126	3200.815100
954.598718	3184.307841
954.899272	3160.337155
955.199788	3137.296561
955.500266	3108.561984
955.800706	3072.255594
956.101108	3037.491797
956.401472	3009.289062
956.701798	2983.760659
957.002087	2942.150975
957.302337	2915.183323
957.602550	2888.596277
957.902724	2858.868593
958.202861	2833.625015
958.502960	2815.880154
958.803022	2795.854170
959.103045	2778.825152
959.403031	2758.879827
959.702979	2747.887591
960.002889	2735.206569
960.302762	2722.674260
960.602596	2711.026674
960.902393	2703.469985
961.202153	2695.552852
961.501875	2689.503468
961.801559	2680.678928
962.101205	2674.314471
962.400814	2670.538647
962.700385	2663.327277
962.999918	2660.506751
963.299414	2648.796151
963.598873	2648.014772
963.898293	2643.845737
964.197677	2643.281128
964.497022	2643.623927
964.796331	2639.137300
965.095601	2638.038328
965.394835	2637.486322
965.694030	2632.336783
965.993189	2633.503810
966.292309	2630.307719
966.591393	2631.575569
966.890439	2632.798049
967.189447	2628.941566
967.488419	2630.950466
967.787353	2627.741772
968.086249	2632.432565
968.385108	2635.621095
968.683930	2633.589510
968.982714	2638.817187
969.281462	2640.813483
969.580172	2645.975625
969.878844	2651.818322
970.177480	2659.790907
970.476078	2666.846002
970.774639	2672.240037
971.073162	2676.721622
971.371649	2685.120185
971.670098	2688.976667
971.968510	2694.559745
972.266885	2698.741382
972.565223	2704.919316
972.863524	2707.926365
973.161788	2710.426777
973.460014	2712.115563
973.758204	2714.812581
974.056356	2717.464228
974.354471	2721.043447
974.652550	2720.516646
974.950591	2717.355843
975.248595	2716.597149
975.546563	2714.608414
975.844493	2712.009699
976.142386	2707.921323
976.440243	2703.636343
976.738062	2699.474870
977.035845	2693.609488
977.333590	2686.975329
977.631299	2681.533404
977.928971	2675.909997
978.226606	2671.307423
978.524204	2665.663851
978.821765	2661.623367
979.119290	2667.917247
979.416777	2661.822492
979.714228	2665.394150
980.011642	2669.933709
980.309020	2672.441683
980.606360	2687.151770
980.903664	2704.584080
981.200931	2732.575086
981.498162	2773.257198
981.795356	2834.484532
982.092513	2911.790626
982.389633	3007.842251
982.686717	3098.509923
982.983764	3174.497756
983.280775	3227.545818
983.577749	3248.317892
983.874686	3239.460585
984.171587	3213.922100
984.468451	3181.583098
984.765279	3141.863847
985.062070	3100.274327
985.358824	3060.217319
985.655543	3006.516428
985.952224	2962.222329
986.248869	2902.575397
986.545478	2844.062724
986.842050	2793.134467
987.138586	2747.938003
987.435086	2710.111705
987.731549	2681.845955
988.027975	2655.934424
988.324366	2640.873977
988.620719	2624.366719
988.917037	2615.411109
989.213318	2604.638163
989.509563	2599.024839
989.805772	2593.678695
990.101944	2588.405648
990.398080	2586.643765
990.694180	2583.437591
990.990244	2587.246183
991.286271	2584.176120
991.582262	2584.695359
991.878217	2586.424475
992.174136	2589.063519
992.470019	2591.611822
992.765865	2593.910588
993.061676	2597.361258
993.357450	2607.665376
993.653188	2612.189812
993.948890	2625.747995
994.244556	2643.933958
994.540186	2662.417348
994.835780	2689.891637
995.131337	2720.887171
995.426859	2756.697007
995.722345	2801.903555
996.017795	2848.977849
996.313208	2884.286091
996.608586	2916.105854
996.903928	2928.441557
997.199234	2932.396343
997.494504	2935.090839
997.789738	2923.302101
998.084936	2902.512383
998.380099	2874.168495
998.675225	2845.925431
998.970316	2821.649754
999.265371	2784.682973
999.560390	2754.158787
999.855373	2726.198027
1000.150320	2697.990250
1000.445232	2674.115346
1000.740108	2651.316727
1001.034948	2635.159829
1001.329752	2619.247427
1001.624521	2609.326437
1001.919254	2596.229519
1002.213951	2589.824733
1002.508613	2578.701427
1002.803239	2577.136149
1003.097829	2569.859243
1003.392384	2563.467060
1003.686903	2560.263407
1003.981386	2558.652758
1004.275834	2553.967006
1004.570246	2551.383414
1004.864623	2546.851417
1005.158964	2548.898125
1005.453270	2545.754966
1005.747540	2542.833617
1006.041775	2541.656508
1006.335974	2540.865047
1006.630138	2540.721374
1006.924266	2538.664583
1007.218359	2539.602238
1007.512416	2535.279448
1007.806438	2532.090918
1008.100425	2532.753830
1008.394376	2533.671320
1008.688292	2537.250539
1008.982172	2534.430014
1009.276017	2536.307844
1009.569827	2534.538399
1009.863602	2533.941022
1010.157341	2533.280631
1010.451045	2529.162008
1010.744714	2531.307019
1011.038347	2530.258459
1011.331945	2529.434230
1011.625508	2529.194776
1011.919036	2526.472552
1012.212528	2527.095135
1012.505986	2528.075639
1012.799408	2524.645134
1013.092795	2525.108920
1013.386147	2525.514733
1013.679464	2525.645803
1013.972745	2526.074301
1014.265992	2523.767973
1014.559204	2524.072963
1014.852380	2523.057171
1015.145521	2523.790659
1015.438628	2523.407531
1015.731699	2525.663447
1016.024736	2523.016842
1016.317737	2523.994825
1016.610703	2525.408869
1016.903635	2531.433048
1017.196531	2526.669157
1017.489393	2530.702081
1017.782219	2530.618902
1018.075011	2531.299457
1018.367768	2531.385157
1018.660490	2532.413552
1018.953177	2532.413552
1019.245829	2532.413552
