Dividing Wavelength (nm)	Counts (n)	Blue Motor Position (mm): 21.500000	Red Motor Position (mm): 0.000000	
326.493990	2071.437842
326.888308	2071.437842
327.282561	2071.437842
327.676750	2041.989942
328.070874	2042.766279
328.464933	2049.047557
328.858929	2058.540050
329.252859	2068.269477
329.646726	2080.799264
330.040528	2099.451534
330.434265	2115.983998
330.827938	2137.456793
331.221547	2159.930256
331.615091	2177.055056
332.008571	2199.379806
332.401986	2218.994935
332.795338	2238.254664
333.188625	2256.354927
333.581847	2274.969387
333.975006	2293.218364
334.368100	2312.384831
334.761129	2326.278251
335.154095	2344.134018
335.546996	2391.183107
335.939833	2486.009731
336.332606	2496.986844
336.725315	2504.679644
337.117960	2517.819412
337.510540	2528.259642
337.903056	2534.888759
338.295508	2547.433670
338.687896	2551.406099
339.080220	2556.827860
339.472480	2561.904302
339.864676	2565.039900
340.256807	2565.697771
340.648875	2568.435117
341.040879	2571.278328
341.432818	2570.650704
341.824694	2572.793195
342.216506	2572.468040
342.608253	2572.354614
342.999937	2572.790674
343.391557	2569.849161
343.783113	2570.338153
344.174605	2566.844633
344.566033	2567.225240
344.957397	2564.742472
345.348697	2561.924467
345.739934	2560.780125
346.131106	2559.855073
346.522215	2557.883982
346.913260	2555.287788
347.304241	2555.010524
347.695159	2552.558003
348.086012	2552.348795
348.476802	2549.974412
348.867528	2544.938299
349.258191	2540.708771
349.648789	2540.754141
350.039324	2539.050231
350.429796	2544.282949
350.820203	2542.102650
351.210548	2542.637012
351.600828	2539.735828
351.991045	2540.456713
352.381198	2539.249357
352.771288	2540.870088
353.161314	2538.596528
353.551276	2538.861188
353.941175	2535.559232
354.331010	2536.741383
354.720782	2544.005686
355.110490	2542.725232
355.500135	2538.914120
355.889717	2541.008720
356.279235	2539.735828
356.668689	2542.284132
357.058080	2541.704399
357.447408	2539.967721
357.836672	2541.956457
358.225873	2541.951415
358.615010	2543.211704
359.004084	2542.319420
359.393095	2544.046015
359.782043	2543.617517
360.170927	2542.188350
360.559748	2544.535007
360.948505	2542.339584
361.337199	2549.583722
361.725830	2546.674977
362.114398	2546.276725
362.502903	2546.788403
362.891344	2549.624052
363.279722	2544.620706
363.668037	2547.660522
364.056289	2546.811088
364.444478	2549.273691
364.832603	2548.923331
365.220665	2549.157745
365.608665	2549.568599
365.996601	2548.555327
366.384474	2547.799154
366.772284	2549.336706
367.160031	2551.022972
367.547715	2550.400389
367.935336	2550.332334
368.322893	2549.278732
368.710388	2546.518701
369.097820	2551.146480
369.485189	2548.951057
369.872495	2553.475493
370.259738	2552.807540
370.646918	2555.350802
371.034035	2551.663198
371.421090	2553.717468
371.808081	2552.767211
372.195010	2554.377860
372.581875	2554.821481
372.968678	2555.370967
373.355418	2554.531615
373.742096	2558.685526
374.128710	2557.279044
374.515262	2554.453477
374.901751	2557.747871
375.288177	2557.654610
375.674540	2557.394990
376.060841	2558.899775
376.447079	2556.467418
376.833254	2557.750392
377.219367	2557.881462
377.605417	2559.396328
377.991404	2557.740309
378.377329	2561.102759
378.763191	2558.191493
379.148991	2557.435319
379.534727	2559.502192
379.920402	2558.378015
380.306013	2559.592933
380.691563	2560.550752
381.077049	2562.322718
381.462474	2560.056719
381.847835	2561.322049
382.233134	2558.378015
382.618371	2561.120403
383.003545	2561.972358
383.388657	2563.608212
383.773706	2562.153839
384.158693	2561.306926
384.543618	2567.053841
384.928480	2562.693243
385.313280	2561.987481
385.698017	2562.282389
386.082692	2561.349775
386.467305	2566.204407
386.851856	2564.712225
387.236344	2562.952862
387.620770	2563.812379
388.005133	2563.126782
388.389435	2560.815413
388.773674	2560.608726
389.157851	2566.728687
389.541965	2565.233984
389.926018	2569.627350
390.310008	2565.609550
390.693936	2564.654252
391.077802	2566.577452
391.461606	2569.375292
391.845348	2566.650549
392.229027	2569.007288
392.612645	2566.401012
392.996200	2567.482339
393.379694	2568.891342
393.763125	2568.619119
394.146494	2567.008471
394.529801	2569.014850
394.913047	2569.584500
395.296230	2569.047617
395.679351	2569.168605
396.062410	2570.154151
396.445408	2571.263204
396.828343	2572.112639
397.211217	2571.847978
397.594028	2573.481312
397.976778	2569.634912
398.359466	2568.659448
398.742092	2573.856878
399.124656	2573.957701
399.507158	2569.944943
399.889598	2572.163050
400.271977	2568.835889
400.654294	2570.292782
401.036549	2573.408215
401.418742	2573.907290
401.800874	2571.391754
402.182944	2570.963256
402.564952	2571.880746
402.946898	2573.768658
403.328783	2574.000551
403.710606	2573.254460
404.092367	2575.119687
404.474067	2573.715726
404.855705	2576.768144
405.237282	2573.377968
405.618797	2574.708833
406.000250	2575.843093
406.381642	2577.574729
406.762972	2574.308061
407.144240	2571.374110
407.525447	2574.655901
407.906593	2571.946281
408.287677	2575.767475
408.668700	2577.204204
409.049661	2578.343505
409.430560	2576.720253
409.811399	2578.842579
410.192176	2580.138156
410.572891	2576.498443
410.953545	2580.798547
411.334138	2578.371231
411.714669	2578.235120
412.095139	2578.855182
412.475547	2579.790316
412.855894	2579.152610
413.236180	2579.709658
413.616405	2580.831314
413.996568	2580.521283
414.376670	2582.681418
414.756711	2579.374421
415.136691	2579.409709
415.516609	2582.126891
415.896466	2581.196798
416.276262	2580.478434
416.655997	2581.758887
417.035670	2583.235945
417.415283	2583.611511
417.794834	2581.297621
418.174324	2581.222004
418.553753	2583.540935
418.933121	2582.043712
419.312428	2579.649164
419.691674	2580.549010
420.070859	2582.721747
420.449983	2582.903229
420.829045	2582.958681
421.208047	2582.008424
421.586988	2580.362487
421.965867	2586.129567
422.344686	2584.244176
422.723444	2584.087900
423.102141	2583.808116
423.480777	2581.158989
423.859352	2582.285687
424.237866	2584.697879
424.616319	2584.014803
424.994712	2587.442788
425.373044	2583.790472
425.751314	2583.472879
426.129524	2579.813001
426.507673	2582.782241
426.885762	2580.299473
427.263789	2585.512026
427.641756	2582.976325
428.019662	2586.139649
428.397508	2585.217118
428.775292	2587.289033
429.153016	2585.552355
429.530679	2587.712489
429.908282	2589.726430
430.285824	2587.150401
430.663305	2586.840370
431.040726	2589.252562
431.418086	2586.260637
431.795385	2589.645772
432.172624	2589.184506
432.549802	2588.332551
432.926920	2587.415061
433.303977	2589.378591
433.680974	2590.739702
434.057910	2587.828436
434.434786	2591.120309
434.811601	2590.845567
435.188355	2590.792634
435.565050	2588.599732
435.941683	2589.935638
436.318257	2592.178952
436.694770	2590.938828
437.071222	2588.745926
437.447614	2591.004363
437.823946	2593.582913
438.200218	2590.343972
438.576429	2591.148036
438.952580	2588.330031
439.328670	2591.435382
439.704700	2592.234404
440.080670	2589.169383
440.456580	2589.073601
440.832429	2593.905547
441.208218	2592.168869
441.583947	2592.678026
441.959616	2593.550146
442.335224	2591.863880
442.710773	2593.328335
443.086261	2592.292378
443.461689	2591.112748
443.837057	2595.135588
444.212365	2593.812286
444.587612	2592.599888
444.962800	2590.507809
445.337927	2590.371698
445.712995	2590.855649
446.088002	2594.956627
446.462949	2594.586103
446.837837	2595.375043
447.212664	2596.668099
447.587431	2596.030393
447.962139	2600.078440
448.336786	2598.465271
448.711374	2599.690271
449.085901	2599.352514
449.460369	2596.174066
449.834776	2598.790425
450.209124	2601.222782
450.583412	2599.695312
450.957640	2601.467278
451.331808	2600.275045
451.705917	2600.685899
452.079965	2603.385437
452.453954	2598.712287
452.827883	2598.931577
453.201752	2602.646908
453.575562	2604.822166
453.949311	2602.677155
454.323001	2603.571959
454.696632	2604.320571
455.070202	2604.665890
455.443713	2607.433483
455.817164	2604.358379
456.190556	2607.002465
456.563888	2608.371138
456.937160	2608.706375
457.310373	2606.372320
457.683526	2610.846344
458.056619	2609.560850
458.429653	2609.054214
458.802628	2610.921962
459.175542	2610.420367
459.548398	2611.267281
459.921194	2612.000769
460.293930	2618.140894
460.666607	2616.116871
461.039224	2617.029320
461.411782	2620.142232
461.784280	2622.524177
462.156719	2619.428909
462.529099	2620.908487
462.901419	2619.360853
463.273680	2618.418157
463.645882	2618.476131
464.018024	2619.446553
464.390106	2617.314145
464.762130	2625.760598
465.134094	2627.744292
465.505999	2636.946918
465.877845	2641.287352
466.249631	2645.307672
466.621358	2642.824904
466.993026	2642.769451
467.364634	2645.796664
467.736184	2644.871612
468.107674	2644.690131
468.479105	2642.524955
468.850477	2647.982004
469.221790	2646.305821
469.593043	2645.431180
469.964238	2647.145173
470.335373	2646.943527
470.706449	2652.085503
471.077467	2653.479382
471.448425	2663.445744
471.819324	2671.622495
472.190164	2675.799091
472.560945	2671.297341
472.931667	2669.210303
473.302330	2671.383040
473.672934	2671.506549
474.043479	2678.420491
474.413965	2678.622137
474.784393	2680.018537
475.154761	2688.412058
475.525070	2692.964220
475.895321	2698.191897
476.265513	2706.207331
476.635645	2713.879967
477.005719	2719.505895
477.375734	2727.226422
477.745691	2741.865933
478.115588	2750.398086
478.485427	2770.691251
478.855207	2797.311063
479.224928	2822.836946
479.594591	2850.275946
479.964194	2854.586133
480.333739	2868.313195
480.703226	2884.454969
481.072653	2911.883888
481.442022	2938.140737
481.811333	2964.251394
482.180584	2973.438897
482.549777	2995.776249
482.918912	3012.671676
483.287988	3042.164947
483.657005	3065.228226
484.025964	3085.947368
484.394864	3112.373097
484.763706	3142.211686
485.132489	3161.514264
485.501213	3192.923173
485.869879	3233.060840
486.238487	3267.438989
486.607036	3310.737459
486.975527	3340.049248
487.343959	3390.183523
487.712333	3443.874332
488.080648	3489.489213
488.448905	3552.758214
488.817104	3600.513065
489.185244	3680.929551
489.553326	3789.543731
489.921350	3935.971606
490.289315	4121.135707
490.657222	4237.674582
491.025070	4342.399512
491.392861	4406.417124
491.760593	4444.664358
492.128267	4468.814006
492.495883	4494.410465
492.863440	4526.542779
493.230939	4551.909865
493.598380	4602.071867
493.965763	4677.583310
494.333088	4733.406527
494.700354	4814.228826
495.067563	4903.303494
495.434713	4993.341023
495.801805	5115.339466
496.168839	5202.611922
496.535815	5292.125170
496.902733	5411.008180
497.269593	5506.021327
497.636395	5627.689576
498.003139	5772.327841
498.369825	5864.492736
498.736453	6025.532396
499.103023	6131.157172
499.469535	6270.940806
499.835989	6410.714358
500.202385	6528.513521
500.568723	6654.953221
500.935003	6838.995666
501.301226	6961.901517
501.667390	7207.022582
502.033497	7396.615337
502.399546	7511.294025
502.765537	7602.327181
503.131470	7830.537695
503.497345	8066.065444
503.863163	8035.783233
504.228923	8332.220723
504.594625	8576.837672
504.960269	8641.384606
505.325856	8941.436604
505.691385	9053.135970
506.056856	9293.553638
506.422270	9573.458664
506.787625	9655.634513
507.152924	9935.852091
507.518164	10163.969343
507.883347	10256.441749
508.248472	10469.490993
508.613540	10833.003556
508.978550	11084.564694
509.343503	11254.602813
509.708398	11549.941332
510.073236	11916.700398
510.438016	12153.584217
510.802738	12265.029005
511.167403	12655.131134
511.532010	12953.509468
511.896561	13340.186133
512.261053	13801.522286
512.625488	13958.639928
512.989866	14161.863963
513.354186	14401.182659
513.718449	14610.196460
514.082655	15149.710827
514.446803	15272.586431
514.810894	15736.687657
515.174927	15965.112420
515.538904	16210.949328
515.902822	16687.930703
516.266684	16804.068805
516.630488	17192.267898
516.994235	17440.096062
517.357925	17942.810006
517.721558	18304.706879
518.085133	18717.519406
518.448651	19053.376198
518.812112	19253.144522
519.175516	19567.946936
519.538863	20022.858138
519.902152	20300.615633
520.265385	20813.777368
520.628560	21075.098181
520.991678	21305.504117
521.354739	21663.345382
521.717743	22101.489707
522.080690	22298.371970
522.443580	22898.256675
522.806413	23169.687522
523.169189	23495.315813
523.531908	23865.737277
523.894569	24039.888978
524.257174	24391.040631
524.619722	24839.542007
524.982213	25173.662122
525.344647	25447.265706
525.707025	25751.179227
526.069345	26267.259790
526.431608	26451.619828
526.793815	26918.460921
527.155964	26889.892702
527.518057	27284.960367
527.880093	27420.403568
528.242072	28070.238546
528.603995	28127.309448
528.965860	28324.136259
529.327669	28696.372539
529.689421	28956.370048
530.051117	29167.100361
530.412755	29558.346832
530.774337	29819.072788
531.135862	30001.618010
531.497331	30318.202472
531.858743	30549.414993
532.220098	31046.513091
532.581396	31052.086087
532.942638	31103.740270
533.303824	31485.325369
533.664953	31735.767372
534.026025	31708.807281
534.387040	32335.735255
534.747999	32569.042376
535.108902	33023.162117
535.469748	32707.482543
535.830537	33109.491877
536.191270	33491.712162
536.551947	33475.633401
536.912567	33873.272055
537.273131	34163.201416
537.633638	34062.297680
537.994089	34372.525247
538.354483	34362.841190
538.714821	35056.572015
539.075103	35446.122137
539.435328	35538.377773
539.795497	35507.730078
540.155609	35786.384898
540.515665	36413.270023
540.875665	36006.431264
541.235609	36393.223875
541.595496	36682.465118
541.955328	37311.240676
542.315102	37001.355908
542.674821	37070.092040
543.034483	37149.084400
543.394090	37313.559606
543.753640	37463.584345
544.113134	38516.058801
544.472571	37879.270329
544.831953	38992.790638
545.191278	38524.500213
545.550548	38403.686440
545.909761	39083.433104
546.268918	39341.799801
546.628019	39828.404737
546.987064	39472.877362
547.346053	39003.230867
547.704986	39930.546076
548.063863	39733.159697
548.422684	40047.768027
548.781449	39794.117330
549.140158	40381.608358
549.498811	40292.518566
549.857408	39887.461855
550.215949	40749.534451
550.574434	40722.644936
550.932864	40795.177058
551.291237	41532.508822
551.649555	41397.925138
552.007817	41676.837057
552.366022	41516.273786
552.724173	41659.160251
553.082267	42140.923159
553.440305	42587.506375
553.798288	41981.910043
554.156215	42455.329842
554.514086	42736.369128
554.871902	42454.757671
555.229661	42717.774832
555.587365	42519.221426
555.945014	42732.124476
556.302606	42817.871983
556.660143	42996.076771
557.017625	43292.748675
557.375050	43067.961104
557.732421	43542.898291
558.089735	43683.586812
558.446994	43626.417607
558.804197	44176.074775
559.161345	44121.804234
559.518437	43568.083895
559.875474	43891.801589
560.232455	44170.965566
560.589381	44276.320640
560.946251	44181.839335
561.303065	44866.740579
561.659825	44624.172858
562.016528	44516.977763
562.373177	44175.270711
562.729770	44852.942941
563.086307	44432.525833
563.442789	45028.518767
563.799216	44932.396566
564.155587	44892.558848
564.511904	44917.625986
564.868164	45010.186611
565.224370	45375.176232
565.580520	45155.623900
565.936615	45382.208642
566.292654	45107.435510
566.648638	45500.504358
567.004567	45481.799157
567.360441	45603.046468
567.716260	45379.007509
568.072023	45802.325800
568.427732	45769.543177
568.783385	45350.391399
569.138982	45789.601928
569.494525	45951.657380
569.850013	45614.721781
570.205445	45759.838956
570.560823	45577.079485
570.916145	45461.082535
571.271412	45722.461321
571.626625	45389.399848
571.981782	45509.840575
572.336884	45159.041802
572.691931	45506.268917
573.046923	45205.778339
573.401860	45062.496144
573.756743	45109.393998
574.111570	45271.245284
574.466342	45207.268000
574.821059	45391.060908
575.175722	44908.539306
575.530330	45029.532039
575.884882	44711.606631
576.239380	44620.959123
576.593823	44744.875726
576.948211	44711.062186
577.302544	44276.708809
577.656823	44283.146362
578.011047	44570.328294
578.365216	44415.665694
578.719330	44157.467877
579.073389	44145.900949
579.427394	44215.090786
579.781344	44149.891022
580.135239	43919.938790
580.489080	43988.795910
580.842866	43514.347716
581.196597	43996.859236
581.550273	44005.577911
581.903895	43945.399137
582.257463	44408.406433
582.610975	43837.992313
582.964434	44194.308629
583.317837	43693.258266
583.671186	43688.002863
584.024481	43956.706445
584.377721	43528.636866
584.730906	43768.976397
585.084037	43927.702167
585.437113	43633.686951
585.790135	43774.057880
586.143103	43359.617060
586.496016	43526.827092
586.848874	43643.479392
587.201679	43680.678066
587.554428	43182.075183
587.907124	43466.348369
588.259765	43238.730191
588.612352	43411.619083
588.964884	42894.414342
589.317362	43188.810165
589.669786	43187.280175
590.022155	43076.178185
590.374470	43557.159715
590.726731	43152.501254
591.078937	42508.914787
591.431090	42868.036505
591.783188	42383.856363
592.135232	42191.581714
592.487222	42455.627270
592.839157	42603.544806
593.191038	42257.484718
593.542866	42081.782863
593.894639	41484.151554
594.246358	41794.500108
594.598022	41802.384473
594.949633	41370.712989
595.301190	41374.350182
595.652692	41328.200939
596.004141	41809.621049
596.355535	40745.730900
596.706876	40756.478640
597.058162	40473.435496
597.409395	40981.805614
597.760573	41215.021994
598.111698	40824.788795
598.462768	40754.457137
598.813785	40782.186004
599.164748	40392.182178
599.515657	40674.559890
599.866511	40174.510196
600.217312	40857.273991
600.568060	39830.912712
600.918753	40623.795471
601.269392	40563.334392
601.619978	40312.796608
601.970510	40516.131548
602.320988	40654.054997
602.671412	40905.543039
603.021783	40756.150965
603.372100	40374.759950
603.722363	40463.496861
604.072572	40496.917190
604.422728	40505.020845
604.772830	40283.988934
605.122878	40460.756994
605.472872	40326.100213
605.822813	40565.595350
606.172701	40314.755096
606.522534	40649.795222
606.872314	40870.096165
607.222041	40694.296007
607.571714	41030.036853
607.921333	40546.509541
608.270899	40737.957441
608.620411	41119.993723
608.969870	40886.560574
609.319276	40907.511609
609.668627	40930.963057
610.017926	41331.684376
610.367171	41476.443629
610.716362	41505.760460
611.065500	41415.624629
611.414585	41647.167346
611.763616	41838.484175
612.112594	41731.873854
612.461518	41848.430372
612.810389	42238.653488
613.159207	42022.458564
613.507971	41985.665703
613.856682	42503.177954
614.205340	42333.470030
614.553945	43014.925645
614.902496	42349.566434
615.250994	42779.486117
615.599439	42866.670352
615.947830	42963.621823
616.296169	42977.789986
616.644454	43028.899724
616.992686	43176.872713
617.340864	43608.715595
617.688990	43114.342240
618.037063	43782.116164
618.385082	43623.140857
618.733048	43978.970701
619.080961	43863.074574
619.428821	43911.946040
619.776628	43936.587200
620.124382	43776.104588
620.472083	43884.406217
620.819731	43992.261703
621.167326	43583.915639
621.514868	43564.275303
621.862357	43022.731872
622.209793	43125.843633
622.557176	42691.286089
622.904506	42463.816625
623.251783	42115.588840
623.599007	41817.896103
623.946179	41733.106416
624.293297	41482.218271
624.640363	40936.624273
624.987376	40810.348410
625.334336	40614.555036
625.681243	40209.984796
626.028097	40108.420669
626.374899	39941.848343
626.721647	39899.157332
627.068343	39653.446452
627.414987	39375.018484
627.761577	39131.069488
628.108115	39444.044483
628.454600	38717.558761
628.801032	38946.255747
629.147412	38843.927885
629.493739	38728.094773
629.840014	38286.976167
630.186236	38720.505316
630.532405	38154.701331
630.878521	38407.263139
631.224585	38169.620626
631.570597	37860.602937
631.916556	38003.796912
632.262462	37896.785818
632.608316	37865.281127
632.954117	37721.451967
633.299866	37680.464866
633.645562	37609.828218
633.991206	37094.534075
634.336797	36700.850206
634.682336	36594.330625
635.027823	36349.106217
635.373257	36247.501761
635.718639	35918.833654
636.063968	35808.003887
636.409245	35186.593455
636.754470	35124.977952
637.099642	34896.318775
637.444762	34333.910008
637.789829	34468.556707
638.134845	34076.372582
638.479808	33977.412211
638.824719	33944.964824
639.169577	33442.437403
639.514383	33541.541447
639.859137	33171.737524
640.203839	33320.706141
640.548489	33051.140521
640.893086	33028.873745
641.237632	32740.849940
641.582125	32834.572552
641.926566	32616.464510
642.270955	32650.487258
642.615292	32598.412138
642.959576	32478.866216
643.303809	32474.853458
643.647990	32584.148193
643.992118	32540.635474
644.336195	32373.690103
644.680219	32426.574327
645.024192	32612.567698
645.368112	33150.715913
645.711981	33160.213446
646.055797	33858.347719
646.399562	33655.673170
646.743274	34516.155282
647.086935	34937.986433
647.430544	34901.687604
647.774101	34927.732726
648.117606	35231.043829
648.461059	35390.223303
648.804460	35004.580075
649.147810	34511.507338
649.491108	34200.228691
649.834354	34080.927264
650.177548	33276.643936
650.520690	32778.706485
650.863781	32741.008737
651.206820	32581.307503
651.549807	32154.944355
651.892742	31570.107494
652.235626	31477.309934
652.578458	31333.226196
652.921238	30642.908232
653.263967	30929.762489
653.606644	30614.952513
653.949269	30529.217610
654.291843	30140.940379
654.634365	30499.963794
654.976836	30035.731498
655.319255	30124.919592
655.661622	29999.417547
656.003938	29860.606855
656.346203	29686.639156
656.688416	29943.407807
657.030577	29718.080833
657.372687	29537.811692
657.714746	29676.347641
658.056753	29856.256339
658.398708	29241.843029
658.740612	29311.834409
659.082465	29520.714618
659.424266	29415.684699
659.766016	29409.718493
660.107715	29247.519368
660.449362	29363.556647
660.790958	29328.447531
661.132503	29249.863505
661.473996	29333.014817
661.815438	29422.147458
662.156829	29539.477793
662.498168	29331.547841
662.839456	29309.898606
663.180693	29429.268088
663.521879	29485.890328
663.863013	29438.959706
664.204097	29416.783670
664.545129	29822.389868
664.886110	29756.486863
665.227040	29866.436949
665.567918	29849.838950
665.908746	29917.738251
666.249522	30009.043630
666.590248	30053.899817
666.930922	30150.024538
667.271545	30152.910599
667.612118	30206.251048
667.952639	30016.756595
668.293109	30049.186338
668.633528	29910.128630
668.973896	29878.941531
669.314213	29852.800628
669.654480	29659.159827
669.994695	29642.771035
670.334859	29558.863550
670.674973	29378.196158
671.015035	29567.514170
671.355047	29489.532561
671.695008	29418.971531
672.034918	29323.648353
672.374777	29416.987837
672.714585	29293.492171
673.054342	29435.297308
673.394049	29296.040474
673.733705	29508.315901
674.073310	29212.080057
674.412864	29282.318453
674.752368	29011.132102
675.091820	29242.158101
675.431223	28839.639610
675.770574	28640.854311
676.109875	28477.815834
676.449125	28273.104659
676.788324	28170.418876
677.127473	27695.085959
677.466571	27608.577238
677.805619	27316.245768
678.144616	27244.547957
678.483562	27199.583386
678.822458	26876.412657
679.161303	26828.383063
679.500098	26751.724757
679.838842	26668.457499
680.177535	26712.141617
680.516179	26942.781967
680.854771	26995.893044
681.193314	27694.002111
681.531805	28622.557443
681.870247	29384.568177
682.208638	30182.663489
682.546978	30538.768076
682.885268	30719.289275
683.223508	30322.953759
683.561697	30052.296730
683.899836	29888.522244
684.237925	29481.449071
684.575963	29297.845207
684.913951	28923.209338
685.251889	29055.552230
685.589776	29072.339272
685.927614	29070.458922
686.265401	29228.294928
686.603137	29325.614403
686.940824	29810.371757
687.278460	30118.834919
687.616046	30305.090431
687.953582	30984.834574
688.291068	30918.674471
688.628504	31267.439138
688.965889	31291.175411
689.303224	31047.972505
689.640510	30788.892486
689.977745	30194.522803
690.314930	29465.866865
690.652065	29054.004595
690.989150	28375.692140
691.326185	27541.552577
691.663170	26939.648890
692.000105	26226.504582
692.336990	25619.796676
692.673825	25204.080444
693.010610	24719.832247
693.347345	24206.791499
693.684030	23592.375669
694.020665	23392.161202
694.357251	22722.398544
694.693786	22725.642526
695.030272	22496.088545
695.366707	21995.542297
695.703093	21721.016182
696.039429	21778.830655
696.375716	21530.485772
696.711952	21533.870907
697.048139	21391.854042
697.384276	21223.539997
697.720363	21343.312771
698.056400	21251.956981
698.392388	21077.923748
698.728326	21072.804456
699.064214	20933.562745
699.400053	20942.760331
699.735842	20547.392717
700.071581	20369.755058
700.407270	20126.703387
700.742910	19962.213058
701.078501	19712.527228
701.414042	19514.510705
701.749533	19229.496470
702.084974	18903.527900
702.420366	19130.107601
702.755709	18736.151510
703.091002	18422.730373
703.426246	18481.391759
703.761440	18427.973173
704.096584	18184.377057
704.431679	18126.711298
704.766725	18066.507318
705.101721	17980.563207
705.436668	18096.013192
705.771565	17813.317887
706.106413	18117.599413
706.441212	18182.479063
706.775961	18273.628165
707.110661	18355.418366
707.445311	18705.710503
707.779913	18595.727649
708.114465	18875.746101
708.448967	19183.634572
708.783421	19780.418968
709.117825	20131.807555
709.452180	20340.324802
709.786485	20773.168353
710.120742	21501.587358
710.454949	21613.415274
710.789107	22118.102829
711.123216	22809.287871
711.457275	23025.770141
711.791286	23608.988791
712.125247	23772.836373
712.459159	23544.935890
712.793023	24303.581653
713.126837	23324.458506
713.460602	23591.453138
713.794318	23268.670577
714.127985	23006.543180
714.461602	22128.021299
714.795171	22102.318977
715.128691	21144.338429
715.462162	20637.384875
715.795584	20207.180367
716.128957	19933.377658
716.462281	19568.299817
716.795556	19279.396331
717.128782	18822.070416
717.461960	18224.696206
717.795088	18189.372841
718.128167	17854.788939
718.461198	17407.058860
718.794180	17273.054909
719.127113	16954.887525
719.459997	16770.857683
719.792833	16402.409831
720.125619	16434.416117
720.458357	16102.743482
720.791046	15948.358145
721.123686	15802.930939
721.456278	15591.199957
721.788821	15580.618575
722.121315	15320.348843
722.453761	15412.987607
722.786158	15302.208251
723.118506	15378.833789
723.450805	15259.804585
723.783056	15449.878771
724.115259	15323.771787
724.447412	15308.098839
724.779518	15523.240162
725.111574	15561.890688
725.443582	15810.575849
725.775542	15768.903151
726.107453	16269.817402
726.439315	16175.676375
726.771129	16571.409473
727.102895	16970.951162
727.434612	17246.540960
727.766281	17412.478101
728.097901	17743.939007
728.429473	17844.096652
728.760996	17870.958440
729.092471	17991.452099
729.423897	17869.622534
729.755276	17714.652424
730.086606	17798.663253
730.417887	18338.908587
730.749120	18878.987563
731.080305	19106.704044
731.411442	19516.723772
731.742530	19629.784250
732.073570	19773.741959
732.404562	20079.137580
732.735506	20001.327370
733.066401	19863.630774
733.397249	19436.130845
733.728048	18847.064457
734.058798	18002.923245
734.389501	17256.025891
734.720156	16735.962816
735.050762	16157.036709
735.381320	15745.376086
735.711831	15462.471573
736.042293	15086.744294
736.372707	15110.155413
736.703073	14893.441250
737.033391	15077.899590
737.363661	15060.341251
737.693883	15163.105172
738.024056	15349.920252
738.354182	15546.149686
738.684260	15899.673202
739.014290	16166.796382
739.344272	16388.319806
739.674207	16730.740181
740.004093	16914.568377
740.333931	16994.637023
740.663722	17085.460971
740.993464	17130.652395
741.323159	16999.428640
741.652806	16728.078452
741.982405	16570.940645
742.311956	16214.672221
742.641460	16119.999351
742.970915	15784.185408
743.300323	15437.918633
743.629683	15237.915895
743.958996	14927.542135
744.288260	14622.378408
744.617477	14310.119256
744.946647	14277.442497
745.275768	13964.031442
745.604842	13760.880504
745.933869	13587.537908
746.262847	13542.240620
746.591778	13465.789002
746.920662	13332.079957
747.249498	13325.123165
747.578286	13462.424031
747.907027	13625.422179
748.235720	13878.447773
748.564365	13963.771823
748.892963	13906.219490
749.221514	14020.293239
749.550017	13905.014654
749.878473	13868.884704
750.206881	13665.910206
750.535242	13592.657200
750.863555	13517.009645
751.191821	13412.761104
751.520039	13421.318463
751.848210	13336.052387
752.176334	13374.949930
752.504411	13312.197647
752.832440	13138.103919
753.160421	13257.995161
753.488356	13150.275785
753.816243	13061.823700
754.144082	12891.352041
754.471875	12830.558247
754.799620	12794.430818
755.127318	12767.894184
755.454969	12754.404056
755.782572	12728.031260
756.110129	12735.401427
756.437638	12646.246100
756.765100	12652.355979
757.092515	12671.353567
757.419882	12702.996890
757.747203	12702.056714
758.074477	12790.775981
758.401703	12774.195626
758.728882	12954.031228
759.056014	12997.536385
759.383099	13167.355214
759.710138	13289.983802
760.037129	13421.741920
760.364073	13487.042506
760.690970	13513.483358
761.017820	13508.071679
761.344623	13700.495042
761.671379	14025.334393
761.998088	14566.872783
762.324751	15965.157790
762.651366	18897.685203
762.977935	23170.289939
763.304456	26444.378210
763.630931	28027.227421
763.957359	27233.893479
764.283740	25200.657501
764.610074	23059.757600
764.936362	20466.182249
765.262602	18563.542403
765.588796	16609.056809
765.914943	15287.518329
766.241044	14144.103978
766.567097	13331.759844
766.893104	12590.962287
767.219064	12116.486366
767.544978	11634.930145
767.870845	11245.064950
768.196665	11013.484425
768.522438	10787.081165
768.848165	10581.253374
769.173846	10378.069668
769.499479	10247.168547
769.825066	10084.671993
770.150607	9858.427529
770.476101	9780.738307
770.801548	9655.420264
771.126949	9506.698664
771.452303	9390.931086
771.777611	9202.074340
772.102872	9193.217033
772.428087	9049.559271
772.753256	8901.336745
773.078378	8819.430598
773.403453	8638.047362
773.728482	8524.613839
774.053465	8442.513608
774.378401	8347.807971
774.703291	8226.016214
775.028135	8106.301413
775.352932	8075.562978
775.677683	7972.572205
776.002388	7865.185546
776.327046	7875.701393
776.651658	7773.812112
776.976224	7677.175713
777.300743	7671.380907
777.625216	7592.867456
777.949643	7545.410034
778.274024	7561.395533
778.598359	7477.624158
778.922647	7493.014801
779.246889	7447.052081
779.571086	7451.662216
779.895236	7454.437371
780.219339	7461.457178
780.543397	7466.263918
780.867409	7542.516411
781.191374	7554.274903
781.515294	7522.051847
781.839167	7611.486958
782.162995	7584.897392
782.486776	7538.675052
782.810511	7490.171590
783.134201	7406.753097
783.457844	7402.571460
783.781441	7346.768408
784.104993	7284.129550
784.428498	7265.878053
784.751958	7251.142760
785.075372	7216.593212
785.398739	7162.327712
785.722061	7199.889349
786.045337	7198.523196
786.368568	7343.897470
786.691752	7345.661874
787.014891	7635.061914
787.337983	7942.607586
787.661030	8492.017738
787.984031	9106.491542
788.306987	9538.341987
788.629897	9795.130802
788.952760	9793.048805
789.275579	9612.303275
789.598351	9240.765196
789.921078	8911.222448
790.243759	8508.051128
790.566395	8213.085655
790.888984	7962.000905
791.211529	7760.374916
791.534027	7531.410749
791.856480	7328.022877
792.178888	7247.676967
792.501249	7149.646689
792.823566	6995.140365
793.145836	6993.902762
793.468062	6961.261291
793.790241	6902.562095
794.112375	6956.918337
794.434464	7099.792198
794.756507	7130.679348
795.078505	7265.812518
795.400457	7545.611680
795.722364	7886.421406
796.044226	8173.961260
796.366042	8456.956513
796.687812	8424.751102
797.009538	8520.112089
797.331218	8429.648583
797.652852	8370.220941
797.974442	8213.272178
798.295986	8132.391905
798.617484	7955.384391
798.938938	7814.012793
799.260346	7709.403809
799.581709	7512.450970
799.903026	7432.410050
800.224299	7333.182498
800.545526	7166.794174
800.866708	7073.164824
801.187845	6997.628174
801.508936	6897.523462
801.829983	6860.027360
802.150984	6711.441871
802.471940	6670.878226
802.792851	6651.058930
803.113717	6620.265042
803.434538	6590.350835
803.755314	6529.725918
804.076045	6531.732298
804.396731	6468.677545
804.717372	6498.506053
805.037967	6496.252657
805.358518	6537.383431
805.679024	6615.758250
805.999485	6623.219158
806.319901	6666.885632
806.640272	6681.215112
806.960598	6767.691065
807.280879	6767.774244
807.601115	6853.443613
807.921306	6796.420601
808.241453	6809.656150
808.561554	6832.898390
808.881611	6800.866899
809.201623	6808.506767
809.521590	6755.478870
809.841513	6739.208546
810.161390	6770.403206
810.481223	6646.055585
810.801011	6638.592156
811.120755	6603.518328
811.440453	6533.335385
811.760107	6500.225086
812.079716	6471.808102
812.399281	6408.723103
812.718801	6395.464868
813.038276	6354.071954
813.357707	6293.235309
813.677093	6326.716132
813.996434	6236.267750
814.315731	6275.218225
814.634983	6262.607779
814.954191	6266.527276
815.273354	6368.489654
815.592473	6422.729949
815.911547	6537.378390
816.230577	6616.106090
816.549562	6756.691268
816.868502	6853.241967
817.187399	6939.513753
817.506250	7086.264262
817.825058	7110.895340
818.143821	7351.028182
818.462539	7586.906292
818.781213	7905.303048
819.099843	8385.218373
819.418429	9288.144480
819.736970	10176.325212
820.055466	11264.206212
820.373919	12623.452523
820.692327	14607.018012
821.010691	17894.097336
821.329011	25261.378199
821.647286	36814.220715
821.965517	50616.473968
822.283704	58157.110029
822.601847	61360.440665
822.919945	59148.402522
823.237999	55252.538335
823.556010	49233.072968
823.873976	42656.721418
824.191897	36239.934989
824.509775	31435.604469
824.827609	26844.134148
825.145398	24057.888418
825.463144	22416.650042
825.780845	22310.011994
826.098502	23534.135218
826.416116	26801.974979
826.733685	30490.302423
827.051210	32281.310958
827.368692	31347.457373
827.686129	27875.375264
828.003522	23914.379371
828.320872	20205.352949
828.638177	17339.736771
828.955439	15166.008877
829.272656	13350.795241
829.589830	11878.707742
829.906960	10593.876423
830.224046	9632.112489
830.541088	8860.236218
830.858086	8383.872385
831.175041	7970.535579
831.491952	7815.474728
831.808819	7810.350395
832.125642	8110.094882
832.442421	8802.764544
832.759157	10270.461198
833.075849	12808.782983
833.392497	15909.397588
833.709101	18354.543726
834.025662	18718.532677
834.342179	17386.858957
834.658653	15350.636095
834.975083	13448.112196
835.291469	11809.447329
835.607811	10490.137038
835.924110	9592.501623
836.240366	8732.377433
836.556578	7931.965711
836.872746	7287.711290
837.188871	6778.017869
837.504952	6350.296130
837.820990	6033.694024
838.136984	5803.323376
838.452935	5686.681158
838.768842	5667.098796
839.084706	5950.547753
839.400526	6907.757004
839.716303	8393.392604
840.032037	9609.437379
840.347727	9835.495321
840.663373	9052.105054
840.978977	8023.404680
841.294537	7195.995058
841.610054	6592.367296
841.925527	6160.274877
842.240957	5797.831038
842.556344	5479.532585
842.871687	5202.828691
843.186987	4919.662038
843.502244	4693.326834
843.817458	4521.310062
844.132629	4385.360225
844.447756	4294.067449
844.762840	4206.726938
845.077881	4134.681288
845.392879	4079.526024
845.707833	4027.834032
846.022745	3982.887104
846.337613	3956.673104
846.652438	3917.538627
846.967221	3896.564907
847.281960	3864.838405
847.596656	3850.947505
847.911309	3832.335565
848.225919	3806.945794
848.540485	3788.580871
848.855009	3774.836165
849.169490	3757.973505
849.483928	3743.928850
849.798323	3737.813931
850.112675	3715.153944
850.426984	3721.689800
850.741251	3708.938202
851.055474	3703.564332
851.369654	3707.940053
851.683792	3705.631205
851.997887	3711.819221
852.311938	3711.418449
852.625947	3715.358111
852.939914	3704.290258
853.253837	3714.276783
853.567718	3715.244685
853.881555	3704.348231
854.195350	3717.583780
854.509103	3714.218810
854.822812	3710.329560
855.136479	3700.232129
855.450103	3712.348542
855.763685	3697.882951
856.077224	3697.300698
856.390720	3715.675704
856.704173	3734.582551
857.017584	3748.213831
857.330953	3756.660284
857.644278	3775.491515
857.957561	3781.404788
858.270802	3783.655663
858.584000	3791.038433
858.897155	3783.277577
859.210268	3766.997170
859.523339	3744.299375
859.836367	3745.438676
860.149352	3741.110845
860.462295	3733.223960
860.775195	3722.909759
861.088054	3715.315261
861.400869	3711.874674
861.713642	3709.863253
862.026373	3719.857341
862.339062	3722.382959
862.651708	3741.846854
862.964312	3773.638891
863.276873	3778.793470
863.589392	3831.700380
863.901869	3876.448182
864.214303	3918.186415
864.526696	3953.172023
864.839045	3994.080987
865.151353	4023.954864
865.463619	4035.337790
865.775842	4039.287534
866.088023	4056.145152
866.400162	4045.775499
866.712258	4058.930390
867.024313	4058.950554
867.336325	4058.648085
867.648296	4063.477510
867.960224	4062.428950
868.272110	4072.551587
868.583954	4071.019077
868.895755	4084.660439
869.207515	4080.504008
869.519233	4117.995069
869.830909	4131.061739
870.142542	4151.612003
870.454134	4164.739168
870.765684	4192.974670
871.077191	4231.110999
871.388657	4248.200511
871.700081	4285.492446
872.011463	4320.662056
872.322803	4354.130277
872.634101	4383.361407
872.945357	4420.176954
873.256571	4476.037979
873.567744	4503.048482
873.878874	4524.060011
874.189963	4562.271957
874.501010	4568.681784
874.812015	4568.621290
875.122979	4605.769553
875.433900	4609.575624
875.744780	4619.748673
876.055618	4645.662724
876.366415	4641.140809
876.677169	4655.538344
876.987882	4696.033933
877.298554	4742.462960
877.609183	4810.150533
877.919771	4905.758536
878.230317	5025.329664
878.540822	5208.799938
878.851285	5490.028267
879.161707	5871.376432
879.472087	6505.311610
879.782425	7507.621544
880.092722	9310.927975
880.402977	12110.308432
880.713191	15568.393777
881.023363	19207.466627
881.333494	21636.690281
881.643583	23074.644127
881.953631	23296.641419
882.263637	22649.858860
882.573602	21378.736959
882.883526	19963.455702
883.193408	18420.247604
883.503248	16831.457394
883.813048	15372.615526
884.122806	14025.881358
884.432522	12603.353443
884.742197	11402.069166
885.051831	10343.734369
885.361424	9355.922793
885.670975	8550.921100
885.980485	7871.897842
886.289954	7305.289794
886.599382	6836.316293
886.908768	6462.918027
887.218113	6112.393997
887.527417	5823.119987
887.836680	5563.576181
888.145901	5352.866033
888.455082	5191.942319
888.764221	5040.440523
889.073319	4907.590996
889.382376	4832.558462
889.691392	4768.044295
890.000366	4738.606477
890.309300	4717.443714
890.618193	4724.476123
890.927044	4707.442064
891.235855	4730.243203
891.544625	4743.057816
891.853353	4791.770486
892.162041	4886.395464
892.470687	5044.181059
892.779293	5260.844810
893.087858	5571.858797
893.396381	6048.817486
893.704864	6725.249591
894.013306	7741.223573
894.321707	8857.070373
894.630068	9732.930525
894.938387	10074.188914
895.246665	9956.203229
895.554903	9442.479405
895.863100	8793.007390
896.171256	8273.576980
896.479371	7795.340359
896.787446	7311.871020
897.095480	6898.788792
897.403473	6592.329488
897.711425	6288.577283
898.019336	6036.096134
898.327207	5768.723416
898.635038	5551.903389
898.942827	5313.015711
899.250576	5119.463130
899.558284	4930.097227
899.865952	4811.914937
900.173579	4670.654244
900.481165	4567.734047
900.788711	4472.214264
901.096216	4404.428389
901.403681	4335.011701
901.711105	4308.775015
902.018489	4286.966984
902.325832	4336.113193
902.633135	4423.191564
902.940397	4677.001057
903.247619	5278.887100
903.554800	6455.978879
903.861941	8187.141357
904.169041	9739.978058
904.476101	10566.863400
904.783121	10431.463049
905.090100	9812.129572
905.397039	9047.983911
905.703938	8333.695261
906.010796	7670.796133
906.317614	7147.806668
906.624391	6639.401262
906.931129	6231.647533
907.237826	5848.837433
907.544483	5499.482951
907.851099	5139.146315
908.157675	4798.424809
908.464211	4478.182990
908.770707	4242.446034
909.077163	4039.463974
909.383578	3891.153228
909.689954	3774.846247
909.996289	3703.022407
910.302584	3635.496152
910.608839	3603.865432
910.915054	3568.126172
911.221229	3552.097823
911.527363	3558.863052
911.833458	3568.771439
912.139513	3591.373453
912.445527	3615.669294
912.751502	3681.315199
913.057436	3772.290382
913.363331	3879.427504
913.669186	4054.544586
913.975000	4271.556177
914.280775	4623.627841
914.586510	5111.682109
914.892205	5789.722343
915.197859	6710.161418
915.503475	7822.827250
915.809050	8855.638686
916.114585	9560.117251
916.420081	9910.658924
916.725536	9970.142019
917.030952	9602.525957
917.336328	9247.719467
917.641665	8876.327581
917.946961	8436.635622
918.252218	8039.344808
918.557435	7559.391674
918.862612	7159.194635
919.167750	6813.903323
919.472848	6412.619915
919.777906	6067.245423
920.082925	5716.683585
920.387904	5363.613772
920.692843	5097.811374
920.997743	4855.679714
921.302603	4625.039364
921.607423	4468.057833
921.912204	4305.326866
922.216946	4194.504661
922.521647	4082.162547
922.826310	3980.182525
923.130932	3887.881519
923.435516	3795.938435
923.740059	3730.950400
924.044564	3655.872496
924.349028	3599.081377
924.653454	3537.410421
924.957840	3470.405925
925.262186	3426.714245
925.566493	3368.299874
925.870761	3312.993376
926.174989	3282.955660
926.479178	3246.538365
926.783328	3204.779967
927.087438	3178.873477
927.391509	3145.977428
927.695541	3116.365690
927.999533	3090.323090
928.303486	3070.574369
928.607400	3058.125240
928.911275	3043.006820
929.215110	3027.056609
929.518906	3021.173582
929.822663	3016.994466
930.126381	3013.553878
930.430060	3019.517563
930.733699	3018.804240
931.037299	3029.481404
931.340861	3030.782022
931.644383	3037.106149
931.947866	3037.542209
932.251309	3030.464429
932.554714	3032.806045
932.858080	3028.205992
933.161407	3020.072090
933.464694	3013.425329
933.767943	3007.776716
934.071153	3001.755058
934.374323	2993.999243
934.677455	2990.077225
934.980548	2979.606748
935.283602	2973.040645
935.586617	2969.663072
935.889593	2980.241934
936.192530	2980.647747
936.495428	2992.872545
936.798287	3008.366531
937.101108	3035.906354
937.403890	3081.082655
937.706632	3132.550315
938.009336	3204.890872
938.312002	3277.992644
938.614628	3337.163188
938.917216	3390.745612
939.219765	3425.620314
939.522275	3459.007876
939.824747	3464.359061
940.127179	3467.691264
940.429573	3456.121816
940.731929	3456.101651
941.034246	3450.107719
941.336524	3435.395112
941.638763	3422.870365
941.940964	3411.946184
942.243126	3371.531254
942.545250	3352.785723
942.847335	3321.127277
943.149381	3285.471196
943.451389	3255.214191
943.753359	3219.298490
944.055290	3194.826209
944.357182	3171.006757
944.659036	3157.955210
944.960851	3147.895587
945.262628	3132.807414
945.564367	3134.556694
945.866067	3128.335910
946.167729	3126.851290
946.469352	3123.239304
946.770937	3118.591360
947.072484	3101.007815
947.373992	3108.657766
947.675462	3100.491097
947.976893	3084.160279
948.278286	3078.753642
948.579641	3071.247363
948.880958	3064.822413
949.182236	3068.880542
949.483476	3060.290416
949.784678	3057.598439
950.085841	3060.015673
950.386967	3069.581262
950.688054	3078.506625
950.989103	3099.034203
951.290114	3116.600104
951.591087	3143.293014
951.892021	3169.300326
952.192917	3196.804862
952.493776	3222.043398
952.794596	3230.908267
953.095378	3234.479925
953.396122	3234.933629
953.696828	3227.344172
953.997496	3221.319993
954.298126	3198.891899
954.598718	3183.539065
954.899272	3160.979902
955.199788	3136.898310
955.500266	3108.970318
955.800706	3073.891449
956.101108	3037.227137
956.401472	3010.960205
956.701798	2980.166316
957.002087	2940.499997
957.302337	2912.120822
957.602550	2888.520660
957.902724	2858.591330
958.202861	2833.463698
958.502960	2814.882005
958.803022	2796.837195
959.103045	2776.866664
959.403031	2759.104158
959.702979	2748.273239
960.002889	2734.765468
960.302762	2722.333982
960.602596	2710.908207
960.902393	2701.244315
961.202153	2694.902544
961.501875	2688.525484
961.801559	2680.005934
962.101205	2675.184070
962.400814	2670.679799
962.700385	2665.084119
962.999918	2657.696308
963.299414	2651.964516
963.598873	2648.876809
963.898293	2641.415901
964.197677	2644.939668
964.497022	2643.812970
964.796331	2638.192083
965.095601	2639.485139
965.394835	2635.868112
965.694030	2635.797535
965.993189	2633.158491
966.292309	2631.409211
966.591393	2630.723614
966.890439	2630.216978
967.189447	2629.450723
967.488419	2628.238325
967.787353	2630.789149
968.086249	2631.895682
968.385108	2637.128400
968.683930	2636.485653
968.982714	2641.352887
969.281462	2642.345994
969.580172	2647.447642
969.878844	2650.943682
970.177480	2658.840650
970.476078	2664.378357
970.774639	2673.054183
971.073162	2681.982066
971.371649	2684.669001
971.670098	2691.098993
971.968510	2696.871114
972.266885	2699.628625
972.565223	2702.975952
972.863524	2704.702547
973.161788	2711.533310
973.460014	2712.798640
973.758204	2716.408106
974.056356	2716.551779
974.354471	2719.553786
974.652550	2718.719475
974.950591	2719.155535
975.248595	2716.960112
975.546563	2716.894577
975.844493	2712.660008
976.142386	2706.613144
976.440243	2702.307999
976.738062	2698.131403
977.035845	2691.882892
977.333590	2688.901050
977.631299	2684.124557
977.928971	2678.344874
978.226606	2670.710046
978.524204	2668.023111
978.821765	2663.990188
979.119290	2666.296516
979.416777	2666.218378
979.714228	2665.063954
980.011642	2666.167967
980.309020	2674.090140
980.606360	2683.902746
980.903664	2702.789429
981.200931	2732.746486
981.498162	2772.858947
981.795356	2834.986127
982.092513	2915.974784
982.389633	3008.921058
982.686717	3100.372630
982.983764	3176.988086
983.280775	3233.698546
983.577749	3247.183633
983.874686	3237.401274
984.171587	3209.800956
984.468451	3180.063190
984.765279	3141.019453
985.062070	3098.862804
985.358824	3058.430230
985.655543	3009.626819
985.952224	2958.819550
986.248869	2901.763771
986.545478	2845.002899
986.842050	2794.465332
987.138586	2749.843559
987.435086	2709.864688
987.731549	2680.610872
988.027975	2657.812254
988.324366	2641.854482
988.620719	2624.754888
988.917037	2612.567898
989.213318	2604.502052
989.509563	2599.261773
989.805772	2594.215578
990.101944	2587.102510
990.398080	2588.934969
990.694180	2585.222159
990.990244	2586.926069
991.286271	2583.193095
991.582262	2583.664443
991.878217	2588.536718
992.174136	2591.737851
992.470019	2591.803386
992.765865	2593.847574
993.061676	2598.624067
993.357450	2605.255705
993.653188	2611.201746
993.948890	2628.639097
994.244556	2643.323978
994.540186	2663.367606
994.835780	2689.369877
995.131337	2722.339023
995.426859	2759.285640
995.722345	2803.347845
996.017795	2847.278980
996.313208	2886.799106
996.608586	2917.761873
996.903928	2927.899633
997.199234	2933.845674
997.494504	2931.763678
997.789738	2924.978285
998.084936	2899.928791
998.380099	2876.237889
998.675225	2849.991121
998.970316	2820.316369
999.265371	2786.364198
999.560390	2752.172572
999.855373	2723.576627
1000.150320	2697.831454
1000.445232	2672.199707
1000.740108	2655.526091
1001.034948	2632.319139
1001.329752	2621.031996
1001.624521	2609.810387
1001.919254	2596.128696
1002.213951	2591.125351
1002.508613	2582.230235
1002.803239	2573.975345
1003.097829	2568.417473
1003.392384	2566.554767
1003.686903	2561.962276
1003.981386	2557.868859
1004.275834	2555.822150
1004.570246	2554.675288
1004.864623	2549.908877
1005.158964	2551.101110
1005.453270	2545.649102
1005.747540	2544.829914
1006.041775	2544.280428
1006.335974	2542.097609
1006.630138	2542.364790
1006.924266	2543.514173
1007.218359	2540.741538
1007.512416	2538.641898
1007.806438	2530.936494
1008.100425	2537.810108
1008.394376	2532.716022
1008.688292	2538.223482
1008.982172	2535.357586
1009.276017	2534.946732
1009.569827	2534.896321
1009.863602	2534.160312
1010.157341	2531.264169
1010.451045	2530.823068
1010.744714	2528.168901
1011.038347	2532.189221
1011.331945	2531.148223
1011.625508	2533.187369
1011.919036	2524.415762
1012.212528	2528.700742
1012.505986	2528.567152
1012.799408	2525.111441
1013.092795	2525.875176
1013.386147	2527.962213
1013.679464	2521.156656
1013.972745	2525.368540
1014.265992	2521.635565
1014.559204	2523.649506
1014.852380	2523.982222
1015.145521	2525.519774
1015.438628	2523.180679
1015.731699	2526.286030
1016.024736	2524.020031
1016.317737	2524.541791
1016.610703	2527.339631
1016.903635	2529.671165
1017.196531	2530.828109
1017.489393	2531.392719
1017.782219	2531.886752
1018.075011	2530.374406
1018.367768	2531.319622
1018.660490	2534.503111
1018.953177	2534.503111
1019.245829	2534.503111
