Dividing Wavelength (nm)	Counts (n)	Blue Motor Position (mm): 50.000000	Red Motor Position (mm): 0.000000	
326.493990	2061.962993
326.888308	2061.962993
327.282561	2061.962993
327.676750	2037.049611
328.070874	2039.043387
328.464933	2047.015972
328.858929	2054.015614
329.252859	2064.095401
329.646726	2076.552092
330.040528	2095.179156
330.434265	2110.073245
330.827938	2131.326749
331.221547	2154.069915
331.615091	2173.513645
332.008571	2195.268745
332.401986	2214.107537
332.795338	2234.806514
333.188625	2252.833681
333.581847	2271.100302
333.975006	2290.176028
334.368100	2308.276291
334.761129	2324.642397
335.154095	2340.297700
335.546996	2390.895761
335.939833	2496.641525
336.332606	2508.745335
336.725315	2523.392408
337.117960	2532.388347
337.510540	2541.197763
337.903056	2552.147149
338.295508	2560.855742
338.687896	2564.306412
339.080220	2568.914027
339.472480	2572.589028
339.864676	2578.303176
340.256807	2579.984401
340.648875	2583.505647
341.040879	2582.131932
341.432818	2587.767942
341.824694	2587.478076
342.216506	2587.072263
342.608253	2585.665781
342.999937	2586.283322
343.391557	2582.643609
343.783113	2583.931624
344.174605	2580.294432
344.566033	2580.894329
344.957397	2578.371231
345.348697	2577.894842
345.739934	2575.006261
346.131106	2571.505180
346.522215	2574.446693
346.913260	2570.428893
347.304241	2568.684654
347.695159	2566.007802
348.086012	2566.060734
348.476802	2562.768860
348.867528	2560.034034
349.258191	2556.800134
349.648789	2557.097562
350.039324	2555.885165
350.429796	2558.884651
350.820203	2557.619322
351.210548	2555.270144
351.600828	2557.256358
351.991045	2555.827191
352.381198	2555.607901
352.771288	2553.964485
353.161314	2553.813250
353.551276	2553.329300
353.941175	2553.641851
354.331010	2553.057077
354.720782	2557.926832
355.110490	2558.264589
355.500135	2553.566234
355.889717	2558.080587
356.279235	2552.905843
356.668689	2555.524722
357.058080	2557.642007
357.447408	2556.565720
357.836672	2557.538663
358.225873	2557.231153
358.615010	2554.524053
359.004084	2560.112172
359.393095	2557.828529
359.782043	2558.985474
360.170927	2562.211813
360.559748	2560.384394
360.948505	2563.008315
361.337199	2566.794222
361.725830	2565.435631
362.114398	2564.223233
362.502903	2564.016546
362.891344	2564.520661
363.279722	2563.023438
363.668037	2564.616443
364.056289	2564.969324
364.444478	2568.692216
364.832603	2566.728687
365.220665	2569.145920
365.608665	2568.442679
365.996601	2569.970148
366.384474	2568.228430
366.772284	2568.278841
367.160031	2569.576938
367.547715	2572.261353
367.935336	2570.345714
368.322893	2571.391754
368.710388	2569.347566
369.097820	2571.482495
369.485189	2569.864284
369.872495	2576.518607
370.259738	2575.323854
370.646918	2574.471899
371.034035	2577.047928
371.421090	2574.297979
371.808081	2574.305541
372.195010	2576.982393
372.581875	2581.242168
372.968678	2584.203846
373.355418	2583.329206
373.742096	2583.805595
374.128710	2588.685432
374.515262	2591.531163
374.901751	2591.339600
375.288177	2598.253542
375.674540	2597.832606
376.060841	2604.008019
376.447079	2606.760489
376.833254	2611.458845
377.219367	2619.020575
377.605417	2623.968468
377.991404	2627.545167
378.377329	2633.602113
378.763191	2640.727784
379.148991	2647.815646
379.534727	2658.225629
379.920402	2666.379695
380.306013	2673.278514
380.691563	2684.973991
381.077049	2694.378264
381.462474	2702.232381
381.847835	2718.815257
382.233134	2731.692884
382.618371	2741.334091
383.003545	2757.541401
383.388657	2771.306271
383.773706	2791.332255
384.158693	2800.023204
384.543618	2819.325782
384.928480	2835.601147
385.313280	2859.009745
385.698017	2877.823332
386.082692	2900.697567
386.467305	2915.420257
386.851856	2937.659307
387.236344	2963.621249
387.620770	2978.696820
388.005133	2999.030314
388.389435	3031.243287
388.773674	3047.463200
389.157851	3079.393868
389.541965	3105.749020
389.926018	3117.613376
390.310008	3152.853562
390.693936	3177.333405
391.077802	3200.454657
391.461606	3234.298443
391.845348	3247.375197
392.229027	3281.932306
392.612645	3318.929334
392.996200	3348.684745
393.379694	3386.906773
393.763125	3428.508895
394.146494	3453.447483
394.529801	3486.688852
394.913047	3534.327756
395.296230	3537.576779
395.679351	3563.294226
396.062410	3612.768110
396.445408	3589.165427
396.828343	3631.440543
397.211217	3663.073784
397.594028	3638.137716
397.976778	3685.625386
398.359466	3716.099161
398.742092	3722.312383
399.124656	3743.918768
399.507158	3796.946665
399.889598	3806.635763
400.271977	3869.211606
400.654294	3857.664843
401.036549	3917.520983
401.418742	3914.332453
401.800874	3982.201507
402.182944	4012.576980
402.564952	4090.344340
402.946898	4085.777054
403.328783	4088.683280
403.710606	4130.174496
404.092367	4201.035475
404.474067	4264.634672
404.855705	4252.593876
405.237282	4224.426429
405.618797	4316.482940
406.000250	4395.747522
406.381642	4479.476046
406.762972	4479.158454
407.144240	4447.222744
407.525447	4508.261035
407.906593	4526.560423
408.287677	4609.202579
408.668700	4631.192092
409.049661	4674.094832
409.430560	4708.573803
409.811399	4690.896997
410.192176	4742.828444
410.572891	4823.002955
410.953545	4924.294859
411.334138	4824.923634
411.714669	4934.936735
412.095139	4846.464485
412.475547	4957.997493
412.855894	4961.256599
413.236180	5055.687493
413.616405	4988.771217
413.996568	5095.164768
414.376670	5098.446560
414.756711	5090.771403
415.136691	5161.377804
415.516609	5246.500207
415.896466	5284.984375
416.276262	5355.676476
416.655997	5470.934897
417.035670	5563.767745
417.415283	5701.131625
417.794834	5773.386483
418.174324	5728.996603
418.553753	5733.301749
418.933121	5892.957612
419.312428	5903.425568
419.691674	5833.643395
420.070859	6057.344597
420.449983	5932.767603
420.829045	6126.960411
421.208047	6059.053548
421.586988	6217.612960
421.965867	6285.141737
422.344686	6370.022165
422.723444	6530.653491
423.102141	6154.802704
423.480777	6539.936776
423.859352	6356.673189
424.237866	6719.795063
424.616319	6714.305246
424.994712	6872.224431
425.373044	6784.770494
425.751314	7095.660973
426.129524	6822.427914
426.507673	7089.838440
426.885762	7132.584904
427.263789	7172.442787
427.641756	7258.409583
428.019662	7337.971594
428.397508	7377.164045
428.775292	7357.314501
429.153016	7527.493773
429.530679	7454.797814
429.908282	7512.650095
430.285824	7447.357071
430.663305	7730.201090
431.040726	7616.507947
431.418086	7618.574820
431.795385	7757.083043
432.172624	7942.307638
432.549802	7823.069226
432.926920	7957.441182
433.303977	7903.422698
433.680974	7940.649098
434.057910	8144.662074
434.434786	8192.716873
434.811601	8149.930079
435.188355	8484.672777
435.565050	8373.601034
435.941683	8390.582161
436.318257	8721.801092
436.694770	8668.899224
437.071222	8898.632166
437.447614	8672.372579
437.823946	8635.990572
438.200218	8789.954972
438.576429	8669.627671
438.952580	8828.018204
439.328670	8838.176129
439.704700	8918.028006
440.080670	8807.286459
440.456580	9079.491122
440.832429	9056.634531
441.208218	8792.520919
441.583947	8905.316736
441.959616	9022.395014
442.335224	9055.780055
442.710773	9135.072364
443.086261	9315.338984
443.461689	9041.077530
443.837057	9203.022077
444.212365	9416.948481
444.587612	9398.432323
444.962800	9294.458525
445.337927	9431.819885
445.712995	8971.025656
446.088002	9631.815061
446.462949	9694.259834
446.837837	9677.848358
447.212664	9703.928767
447.587431	10530.373008
447.962139	11541.174766
448.336786	12468.147176
448.711374	12228.568860
449.085901	11026.883812
449.460369	10947.072264
449.834776	10735.522764
450.209124	11650.948411
450.583412	11477.507513
450.957640	11776.579006
451.331808	11368.268230
451.705917	10806.618156
452.079965	10683.682058
452.453954	10886.951463
452.827883	10824.030302
453.201752	10798.943000
453.575562	10798.519543
453.949311	11144.531740
454.323001	11210.545649
454.696632	11126.464244
455.070202	11709.564428
455.443713	11772.127667
455.817164	11934.581371
456.190556	12250.487797
456.563888	12111.903957
456.937160	12362.035929
457.310373	11853.817045
457.683526	11870.473017
458.056619	11877.167669
458.429653	11948.144595
458.802628	12080.313567
459.175542	12141.137608
459.548398	12684.579034
459.921194	13264.185698
460.293930	13546.124829
460.666607	14407.126180
461.039224	15184.222566
461.411782	15530.252407
461.784280	15194.269585
462.156719	15124.182423
462.529099	15020.886661
462.901419	14389.426689
463.273680	13998.729704
463.645882	14205.086816
464.018024	14101.629736
464.390106	14464.428976
464.762130	15533.642583
465.134094	17084.142710
465.505999	19391.451099
465.877845	21633.678192
466.249631	22840.595957
466.621358	22327.454387
466.993026	21514.820387
467.364634	20750.987277
467.736184	19945.630182
468.107674	19342.803964
468.479105	19219.038596
468.850477	18932.290203
469.221790	18505.669956
469.593043	17830.561154
469.964238	17442.989684
470.335373	17506.944283
470.706449	18228.053614
471.077467	19096.906562
471.448425	21564.911812
471.819324	23424.306120
472.190164	23306.552328
472.560945	21565.937687
472.931667	20005.037660
473.302330	19661.477984
473.672934	19128.073495
474.043479	19543.300735
474.413965	19319.632300
474.784393	19156.016611
475.154761	19817.287446
475.525070	19950.683939
475.895321	19772.640467
476.265513	20291.778490
476.635645	20879.836648
477.005719	20947.070517
477.375734	21317.275212
477.745691	21933.906629
478.115588	22578.987799
478.485427	23764.999900
478.855207	25581.398207
479.224928	27371.474129
479.594591	28781.258008
479.964194	28398.158042
480.333739	28850.588997
480.703226	29044.711228
481.072653	29488.909979
481.442022	30004.521715
481.811333	30406.094989
482.180584	29975.353599
482.549777	29744.017569
482.918912	29508.504944
483.287988	29445.097311
483.657005	29294.175247
484.025964	28928.772252
484.394864	29127.360946
484.763706	29038.344251
485.132489	28508.166101
485.501213	28580.151257
485.869879	28748.959335
486.238487	28662.841304
486.607036	28940.707183
486.975527	28635.493044
487.343959	28984.232506
487.712333	29319.756582
488.080648	29284.213927
488.448905	29725.072913
488.817104	29601.410889
489.185244	30412.194785
489.553326	31373.386548
489.921350	33270.874335
490.289315	35787.884642
490.657222	36678.449839
491.025070	37228.843016
491.392861	36947.188709
491.760593	36168.181726
492.128267	35154.985420
492.495883	34154.949047
492.863440	33271.169242
493.230939	32306.625113
493.598380	31739.520511
493.965763	31582.453280
494.333088	31088.964648
494.700354	30887.303371
495.067563	30850.868431
495.434713	30726.505686
495.801805	31027.999454
496.168839	30850.681908
496.535815	30707.984487
496.902733	30833.879743
497.269593	30649.365950
497.636395	30788.133792
498.003139	31048.479141
498.369825	30807.771607
498.736453	31205.952185
499.103023	31050.072146
499.469535	31128.010905
499.835989	31241.464593
500.202385	31099.354466
500.568723	31144.631589
500.935003	31450.339761
501.301226	31312.615438
501.667390	32031.118493
502.033497	32237.266397
502.399546	32021.706659
502.765537	31629.162091
503.131470	32096.812289
503.497345	32509.024919
503.863163	31478.756746
504.228923	32224.325755
504.594625	32609.364045
504.960269	32087.604622
505.325856	32743.567122
505.691385	32406.402150
506.056856	32720.483679
506.422270	33217.783423
506.787625	32722.510222
507.152924	33166.330887
507.518164	33334.317256
507.883347	32930.851029
508.248472	33057.754515
508.613540	33729.221084
508.978550	33931.295736
509.343503	33784.189825
509.708398	34137.604957
510.073236	34717.430911
510.438016	34811.035055
510.802738	34476.506607
511.167403	35010.644583
511.532010	35256.907469
511.896561	35769.035768
512.261053	36495.955029
512.625488	36290.071785
512.989866	36200.356891
513.354186	36258.138596
513.718449	36213.108489
514.082655	37066.492656
514.446803	36753.621005
514.810894	37376.488330
515.174927	37358.440999
515.538904	37360.134827
515.902822	38000.116869
516.266684	37679.312962
516.630488	38024.511013
516.994235	38026.464460
517.357925	38600.851008
517.721558	38853.059935
518.085133	39225.810413
518.448651	39409.711705
518.812112	39294.685177
519.175516	39432.167525
519.538863	39872.817303
519.902152	39941.422366
520.265385	40466.773611
520.628560	40492.705306
520.991678	40443.478439
521.354739	40677.519047
521.717743	41006.479542
522.080690	40915.179204
522.443580	41598.157248
522.806413	41592.143151
523.169189	41729.864954
523.531908	41947.065588
523.894569	41820.043634
524.257174	41987.621671
524.619722	42321.703977
524.982213	42462.881491
525.344647	42512.100796
525.707025	42637.242399
526.069345	43071.326075
526.431608	42986.289371
526.793815	43367.887073
527.155964	42895.266297
527.518057	43149.050585
527.880093	43023.901420
528.242072	43655.172348
528.603995	43378.521387
528.965860	43276.927014
529.327669	43512.301007
529.689421	43556.890013
530.051117	43517.316955
530.412755	43780.382007
530.774337	43842.584804
531.135862	43785.970126
531.497331	43936.015029
531.858743	43949.490033
532.220098	44346.826218
532.581396	44067.543774
532.942638	43839.421480
533.303824	44093.074698
533.664953	44151.153831
534.026025	43826.911857
534.387040	44396.728600
534.747999	44445.837000
535.108902	44781.056087
535.469748	44094.239204
535.830537	44377.743614
536.191270	44623.111696
536.551947	44357.679822
536.912567	44645.663297
537.273131	44767.598727
537.633638	44408.761834
537.994089	44560.596347
538.354483	44333.381461
538.714821	44985.600904
539.075103	45265.891578
539.435328	45130.932328
539.795497	44887.298404
540.155609	45027.840732
540.515665	45603.512775
540.875665	44894.812244
541.235609	45164.251835
541.595496	45294.457277
541.955328	45869.698301
542.315102	45295.417617
542.674821	45203.419079
543.034483	45101.202123
543.394090	45117.399351
543.753640	45098.043841
544.113134	46158.392579
544.472571	45285.652902
544.831953	46402.270999
545.191278	45668.838567
545.550548	45364.425972
545.909761	45988.099881
546.268918	46125.279760
546.628019	46513.985489
546.987064	45975.502038
547.346053	45292.352595
547.704986	46186.597835
548.063863	45829.621128
548.422684	46039.171811
548.781449	45616.345032
549.140158	46133.456511
549.498811	45894.112609
549.857408	45310.195759
550.215949	46140.315001
550.574434	45984.583677
550.932864	45934.235153
551.291237	46632.976884
551.649555	46388.274235
552.007817	46553.009061
552.366022	46255.202897
552.724173	46324.664956
553.082267	46723.332005
553.440305	47080.197807
553.798288	46335.175762
554.156215	46728.481544
554.514086	46910.174811
554.871902	46514.918102
555.229661	46705.037658
555.587365	46397.040802
555.945014	46506.953079
556.302606	46523.057045
556.660143	46631.739281
557.017625	46852.609875
557.375050	46560.419557
557.732421	46949.299206
558.089735	47012.432096
558.446994	46893.274342
558.804197	47352.531020
559.161345	47207.134060
559.518437	46566.746205
559.875474	46795.944785
560.232455	47023.963735
560.589381	47061.732060
560.946251	46907.273627
561.303065	47556.264211
561.659825	47233.645488
562.016528	47046.485090
562.373177	46616.754451
562.729770	47265.364428
563.086307	46771.530477
563.442789	47316.859815
563.799216	47155.094229
564.155587	47061.772389
564.511904	47008.782301
564.868164	47067.216835
565.224370	47385.734579
565.580520	47113.345914
565.936615	47322.644539
566.292654	46944.124461
566.648638	47316.083477
567.004567	47259.841844
567.360441	47360.014613
567.716260	47057.368941
568.072023	47445.046275
568.427732	47362.668780
568.783385	46922.460103
569.138982	47312.675657
569.494525	47454.367368
569.850013	47056.786688
570.205445	47191.849282
570.560823	46969.327710
570.916145	46849.393619
571.271412	47076.003567
571.626625	46722.296048
571.981782	46796.484189
572.336884	46403.813592
572.691931	46712.359934
573.046923	46380.246198
573.401860	46228.323465
573.756743	46239.754281
574.111570	46389.156437
574.466342	46295.504402
574.821059	46455.916438
575.175722	45943.800742
575.530330	46026.074893
575.884882	45689.013265
576.239380	45590.297390
576.593823	45684.934971
576.948211	45638.291695
577.302544	45178.009143
577.656823	45173.850192
578.011047	45457.339478
578.365216	45282.668538
578.719330	44983.067724
579.073389	44975.153113
579.427394	45019.434608
579.781344	44920.862406
580.135239	44689.861614
580.489080	44758.232263
580.842866	44256.622332
581.196597	44734.339714
581.550273	44745.379841
581.903895	44675.640519
582.257463	45121.964116
582.610975	44537.896031
582.964434	44873.024377
583.317837	44360.994381
583.671186	44335.634856
584.024481	44623.888033
584.377721	44170.106049
584.730906	44373.272111
585.084037	44525.973702
585.437113	44254.714255
585.790135	44367.033683
586.143103	43924.289305
586.496016	44099.585348
586.848874	44206.987131
587.201679	44223.804420
587.554428	43724.218512
587.907124	43983.414478
588.259765	43763.259728
588.612352	43929.862301
588.964884	43402.519800
589.317362	43691.224160
589.669786	43704.890728
590.022155	43576.479937
590.374470	44019.526784
590.726731	43616.751194
591.078937	42956.324752
591.431090	43310.342302
591.783188	42815.248062
592.135232	42613.145684
592.487222	42896.690423
592.839157	43044.386148
593.191038	42698.731873
593.542866	42519.150850
593.894639	41900.918866
594.246358	42206.876575
594.598022	42201.404402
594.949633	41763.852413
595.301190	41759.302772
595.652692	41697.634337
596.004141	42216.870662
596.355535	41108.300767
596.706876	41119.025822
597.058162	40829.482109
597.409395	41329.904849
597.760573	41550.631770
598.111698	41164.255054
598.462768	41084.062899
598.813785	41109.694646
599.164748	40732.568447
599.515657	40991.134269
599.866511	40505.078818
600.217312	41179.945645
600.568060	40132.794648
600.918753	40967.851700
601.269392	40875.240663
601.619978	40604.122368
601.970510	40822.789978
602.320988	40946.653648
602.671412	41216.390667
603.021783	41086.286048
603.372100	40648.071147
603.722363	40748.281724
604.072572	40780.224995
604.422728	40781.482763
604.772830	40562.789948
605.122878	40743.537998
605.472872	40589.049318
605.822813	40853.178053
606.172701	40602.340320
606.522534	40931.106730
606.872314	41140.410396
607.222041	40982.181180
607.571714	41289.696606
607.921333	40806.708697
608.270899	40987.476912
608.620411	41364.189736
608.969870	41136.468214
609.319276	41133.325055
609.668627	41163.710609
610.017926	41564.096692
610.367171	41730.858061
610.716362	41755.121135
611.065500	41662.958760
611.414585	41891.174315
611.763616	42053.998543
612.112594	41953.765281
612.461518	42087.940632
612.810389	42458.168012
613.159207	42237.415885
613.507971	42217.775549
613.856682	42723.431007
614.205340	42557.370358
614.553945	43249.311573
614.902496	42602.609672
615.250994	42999.910569
615.599439	43082.338475
615.947830	43217.471645
616.296169	43191.663458
616.644454	43225.053541
616.992686	43394.945466
617.340864	43841.884084
617.688990	43316.716841
618.037063	44002.734700
618.385082	43812.645392
618.733048	44160.109441
619.080961	44040.182912
619.428821	44089.097227
619.776628	44126.598371
620.124382	43965.112569
620.472083	44070.593672
620.819731	44190.583216
621.167326	43766.702836
621.514868	43773.198363
621.862357	43195.829972
622.209793	43312.872961
622.557176	42877.297104
622.904506	42650.094821
623.251783	42294.418732
623.599007	41947.725979
623.946179	41876.665874
624.293297	41628.184881
624.640363	41083.926788
624.987376	40951.740173
625.334336	40752.793557
625.681243	40328.315800
626.028097	40240.551832
626.374899	40077.588972
626.721647	40040.193693
627.068343	39797.424327
627.414987	39524.211432
627.761577	39281.076582
628.108115	39595.805899
628.454600	38852.230666
628.801032	39086.656922
629.147412	38978.682969
629.493739	38855.078917
629.840014	38440.159188
630.186236	38835.645269
630.532405	38294.016138
630.878521	38541.284735
631.224585	38308.385948
631.570597	37963.170253
631.916556	38155.112185
632.262462	38053.293481
632.608316	37981.852769
632.954117	37856.237297
633.299866	37826.249994
633.645562	37736.129286
633.991206	37211.355253
634.336797	36786.852291
634.682336	36680.317587
635.027823	36459.600748
635.373257	36355.158122
635.718639	36009.554259
636.063968	35902.588536
636.409245	35266.412564
636.754470	35206.460642
637.099642	34985.431252
637.444762	34425.162455
637.789829	34562.085234
638.134845	34178.400494
638.479808	34087.455558
638.824719	34042.342273
639.169577	33527.968140
639.514383	33645.956346
639.859137	33267.809313
640.203839	33419.628703
640.548489	33138.221413
640.893086	33130.261431
641.237632	32843.432380
641.582125	32946.004737
641.926566	32713.738615
642.270955	32754.335027
642.615292	32692.873279
642.959576	32563.197158
643.303809	32570.287541
643.647990	32655.167969
643.992118	32628.084370
644.336195	32459.120016
644.680219	32526.492517
645.024192	32721.421333
645.368112	33243.717639
645.711981	33246.568412
646.055797	33951.147800
646.399562	33744.193311
646.743274	34615.483656
647.086935	35014.826220
647.430544	34993.608003
647.774101	35040.349582
648.117606	35354.806677
648.461059	35471.479141
648.804460	35101.919714
649.147810	34599.800627
649.491108	34280.604848
649.834354	34181.810835
650.177548	33364.891854
650.520690	32858.026520
650.863781	32820.205263
651.206820	32649.332833
651.549807	32244.528179
651.892742	31658.587306
652.235626	31582.440677
652.578458	31422.822623
652.921238	30743.312893
653.263967	31033.723684
653.606644	30715.460518
653.949269	30633.887087
654.291843	30239.326058
654.634365	30590.286148
654.976836	30129.091147
655.319255	30222.042462
655.661622	30081.850494
656.003938	29949.731934
656.346203	29776.520409
656.688416	30019.579641
657.030577	29806.963937
657.372687	29600.412740
657.714746	29748.123589
658.056753	29944.973085
658.398708	29312.212495
658.740612	29379.186745
659.082465	29581.883979
659.424266	29479.488062
659.766016	29465.859303
660.107715	29322.085595
660.449362	29423.206100
660.790958	29393.997655
661.132503	29318.571911
661.473996	29418.296016
661.815438	29497.936165
662.156829	29612.602250
662.498168	29398.320444
662.839456	29375.809172
663.180693	29508.222639
663.521879	29569.397041
663.863013	29527.358859
664.204097	29506.052422
664.545129	29906.073021
664.886110	29859.853202
665.227040	29957.782657
665.567918	29942.283629
665.908746	30000.196405
666.249522	30096.192577
666.590248	30122.547729
666.930922	30230.937578
667.271545	30233.422867
667.612118	30305.977674
667.952639	30110.254876
668.293109	30153.117286
668.633528	29990.333387
668.973896	29953.699322
669.314213	29949.021132
669.654480	29763.819222
669.994695	29740.718134
670.334859	29662.103860
670.674973	29464.120105
671.015035	29652.631532
671.355047	29590.890001
671.695008	29508.522588
672.034918	29414.575645
672.374777	29505.354223
672.714585	29378.934687
673.054342	29507.143832
673.394049	29367.163593
673.733705	29576.580685
674.073310	29293.088878
674.412864	29375.572238
674.752368	29095.775596
675.091820	29326.370576
675.431223	28932.081769
675.770574	28728.638444
676.109875	28561.562003
676.449125	28360.908956
676.788324	28254.654036
677.127473	27762.052647
677.466571	27678.815635
677.805619	27404.402946
678.144616	27346.527979
678.483562	27279.969625
678.822458	26955.112630
679.161303	26898.205565
679.500098	26825.625552
679.838842	26736.119866
680.177535	26795.925594
680.516179	27004.672213
680.854771	27074.925733
681.193314	27758.314631
681.531805	28710.412152
681.870247	29467.606063
682.208638	30269.023495
682.546978	30621.027104
682.885268	30784.647834
683.223508	30401.963763
683.561697	30142.293929
683.899836	29990.797173
684.237925	29578.798793
684.575963	29407.316383
684.913951	29019.321457
685.251889	29160.937551
685.589776	29155.228444
685.927614	29147.608740
686.265401	29323.900411
686.603137	29421.981100
686.940824	29896.986342
687.278460	30214.639528
687.616046	30409.480124
687.953582	31078.557186
688.291068	31007.975991
688.628504	31368.874715
688.965889	31389.833312
689.303224	31155.039051
689.640510	30897.168909
689.977745	30285.656782
690.314930	29567.183975
690.652065	29150.920778
690.989150	28483.018305
691.326185	27632.167318
691.663170	27023.644596
692.000105	26305.726315
692.336990	25697.206113
692.673825	25281.336127
693.010610	24774.669918
693.347345	24286.741679
693.684030	23655.022088
694.020665	23458.691830
694.357251	22787.366414
694.693786	22798.530049
695.030272	22556.448800
695.366707	22058.581926
695.703093	21775.914347
696.039429	21842.127382
696.375716	21590.626738
696.711952	21577.098801
697.048139	21446.369079
697.384276	21303.696864
697.720363	21408.270559
698.056400	21305.602420
698.392388	21142.087554
698.728326	21138.379785
699.064214	20995.029534
699.400053	21004.222078
699.735842	20627.680653
700.071581	20445.357242
700.407270	20198.151661
700.742910	20025.751761
701.078501	19758.653786
701.414042	19564.627336
701.749533	19272.008520
702.084974	18965.995358
702.420366	19186.220684
702.755709	18782.628428
703.091002	18484.708839
703.426246	18540.063228
703.761440	18470.132342
704.096584	18237.117609
704.431679	18177.450512
704.766725	18126.691134
705.101721	18045.309267
705.436668	18157.356472
705.771565	17865.264457
706.106413	18184.755144
706.441212	18251.212675
706.775961	18337.343309
707.110661	18414.155370
707.445311	18775.046533
707.779913	18664.383123
708.114465	18931.710471
708.448967	19243.654550
708.783421	19847.962867
709.117825	20197.629901
709.452180	20408.216541
709.786485	20842.905155
710.120742	21587.753280
710.454949	21684.001510
710.789107	22195.698790
711.123216	22893.311303
711.457275	23117.461168
711.791286	23687.300596
712.125247	23866.100240
712.459159	23625.687613
712.793023	24386.521237
713.126837	23405.737030
713.460602	23662.235979
713.794318	23351.905068
714.127985	23089.780192
714.461602	22198.869676
714.795171	22199.005787
715.128691	21219.053370
715.462162	20700.636232
715.795584	20273.763927
716.128957	20015.697179
716.462281	19644.524583
716.795556	19359.280975
717.128782	18887.166835
717.461960	18287.889590
717.795088	18260.173326
718.128167	17920.404598
718.461198	17471.187378
718.794180	17354.724122
719.127113	17020.326743
719.459997	16831.235583
719.792833	16457.444107
720.125619	16493.291752
720.458357	16159.519477
720.791046	16020.393713
721.123686	15862.197264
721.456278	15632.721421
721.788821	15639.998326
722.121315	15371.952614
722.453761	15476.478419
722.786158	15355.155490
723.118506	15434.657007
723.450805	15329.622046
723.783056	15503.448592
724.115259	15383.632968
724.447412	15363.770822
724.779518	15573.525672
725.111574	15625.439474
725.443582	15876.337701
725.775542	15825.351471
726.107453	16332.115982
726.439315	16233.311887
726.771129	16629.952392
727.102895	17031.175306
727.434612	17314.425138
727.766281	17494.389289
728.097901	17825.704002
728.429473	17928.916586
728.760996	17942.366384
729.092471	18075.137774
729.423897	17951.964741
729.755276	17795.699054
730.086606	17884.504021
730.417887	18424.225075
730.749120	18970.464341
731.080305	19204.136945
731.411442	19614.028123
731.742530	19717.641479
732.073570	19853.782880
732.404562	20183.628096
732.735506	20083.460369
733.066401	19951.258630
733.397249	19511.455766
733.728048	18920.781249
734.058798	18075.841015
734.389501	17330.435842
734.720156	16803.453784
735.050762	16225.815691
735.381320	15810.684234
735.711831	15527.893147
736.042293	15151.555889
736.372707	15169.651111
736.703073	14943.653663
737.033391	15136.014012
737.363661	15124.119409
737.693883	15234.059413
738.024056	15422.709472
738.354182	15619.924452
738.684260	15965.303984
739.014290	16241.037455
739.344272	16459.621886
739.674207	16813.089950
740.004093	16992.300448
740.333931	17057.394347
740.663722	17157.521745
740.993464	17215.346300
741.323159	17091.036487
741.652806	16798.001776
741.982405	16621.790764
742.311956	16278.679751
742.641460	16182.250040
742.970915	15854.708630
743.300323	15507.562173
743.629683	15302.971986
743.958996	14986.039685
744.288260	14685.430640
744.617477	14374.683834
744.946647	14341.291231
745.275768	14023.587633
745.604842	13832.117049
745.933869	13647.567968
746.262847	13608.788892
746.591778	13520.629194
746.920662	13392.031880
747.249498	13390.716138
747.578286	13523.159853
747.907027	13685.628680
748.235720	13950.692549
748.564365	14039.484912
748.892963	13971.184839
749.221514	14086.082818
749.550017	13961.657058
749.878473	13943.130818
750.206881	13726.487232
750.535242	13655.197754
750.863555	13580.792844
751.191821	13467.818066
751.520039	13487.854132
751.848210	13407.120053
752.176334	13449.238893
752.504411	13376.318603
752.832440	13203.364176
753.160421	13328.155419
753.488356	13217.504613
753.816243	13122.758647
754.144082	12962.742342
754.471875	12903.602045
754.799620	12865.130480
755.127318	12835.463289
755.454969	12818.862770
755.782572	12784.638376
756.110129	12800.523052
756.437638	12712.151625
756.765100	12715.834188
757.092515	12739.499885
757.419882	12781.689301
757.747203	12777.094289
758.074477	12860.618647
758.401703	12839.599556
758.728882	13035.438301
759.056014	13082.202564
759.383099	13234.205956
759.710138	13358.241025
760.037129	13500.121780
760.364073	13564.772057
760.690970	13585.166045
761.017820	13593.035286
761.344623	13779.792392
761.671379	14092.061626
761.998088	14640.387930
762.324751	16050.197015
762.651366	18989.479573
762.977935	23308.672133
763.304456	26587.882216
763.630931	28205.129740
763.957359	27418.974401
764.283740	25367.716298
764.610074	23216.494635
764.936362	20597.726117
765.262602	18682.964817
765.588796	16701.057867
765.914943	15375.993099
766.241044	14228.208068
766.567097	13407.856062
766.893104	12665.765448
767.219064	12194.367152
767.544978	11707.311032
767.870845	11312.845784
768.196665	11078.873232
768.522438	10839.388177
768.848165	10642.271500
769.173846	10439.324728
769.499479	10303.664758
769.825066	10134.662596
770.150607	9913.797043
770.476101	9827.961316
770.801548	9708.554026
771.126949	9551.708606
771.452303	9447.213048
771.777611	9241.014733
772.102872	9236.888548
772.428087	9100.941232
772.753256	8940.478784
773.078378	8862.267803
773.403453	8686.104682
773.728482	8558.893685
774.053465	8491.911874
774.378401	8395.620794
774.703291	8269.949870
775.028135	8148.606777
775.352932	8115.241900
775.677683	8016.465531
776.002388	7902.966473
776.327046	7912.864779
776.651658	7817.624780
776.976224	7715.339768
777.300743	7719.773463
777.625216	7634.116697
777.949643	7588.060716
778.274024	7607.184333
778.598359	7511.047008
778.922647	7529.888321
779.246889	7484.021383
779.571086	7492.001529
779.895236	7494.292734
780.219339	7501.940164
780.543397	7507.195567
780.867409	7588.181703
781.191374	7593.971469
781.515294	7569.410967
781.839167	7656.398597
782.162995	7632.647201
782.486776	7580.856907
782.810511	7537.271091
783.134201	7446.061494
783.457844	7446.852955
783.781441	7387.384984
784.104993	7328.214441
784.428498	7304.813405
784.751958	7284.250538
785.075372	7256.125941
785.398739	7198.853392
785.722061	7237.428301
786.045337	7237.435863
786.368568	7373.688169
786.691752	7383.999849
787.014891	7673.397368
787.337983	7984.620562
787.661030	8539.447434
787.984031	9166.342641
788.306987	9601.426986
788.629897	9859.385349
788.952760	9862.543632
789.275579	9684.661477
789.598351	9308.039394
789.921078	8969.044483
790.243759	8564.106238
790.566395	8268.666897
790.888984	8014.917897
791.211529	7802.264384
791.534027	7579.510919
791.856480	7369.841769
792.178888	7293.420397
792.501249	7193.953390
792.823566	7036.084617
793.145836	7039.968826
793.468062	6994.306054
793.790241	6939.980060
794.112375	7005.593197
794.434464	7149.540825
794.756507	7174.267685
795.078505	7305.879609
795.400457	7587.922084
795.722364	7933.407481
796.044226	8221.650575
796.366042	8517.336933
796.687812	8485.849887
797.009538	8582.897139
797.331218	8490.843149
797.652852	8406.928103
797.974442	8268.482894
798.295986	8185.530708
798.617484	8001.596648
798.938938	7859.173970
799.260346	7761.249556
799.581709	7561.514000
799.903026	7484.064232
800.224299	7377.494240
800.545526	7208.056018
800.866708	7111.520443
801.187845	7045.415792
801.508936	6937.230110
801.829983	6899.993627
802.150984	6754.672285
802.471940	6708.079421
802.792851	6698.329829
803.113717	6664.334808
803.434538	6627.995651
803.755314	6571.655716
804.076045	6568.620941
804.396731	6514.877200
804.717372	6542.482558
805.037967	6542.850562
805.358518	6576.482620
805.679024	6661.070661
805.999485	6668.405540
806.319901	6710.514298
806.640272	6728.453244
806.960598	6811.957437
807.280879	6813.883158
807.601115	6896.391723
807.921306	6838.000038
808.241453	6854.222471
808.561554	6879.138374
808.881611	6846.653178
809.201623	6853.146185
809.521590	6801.968391
809.841513	6783.696729
810.161390	6823.872204
810.481223	6693.901176
810.801011	6678.208064
811.120755	6653.801318
811.440453	6576.008752
811.760107	6542.580861
812.079716	6516.780235
812.399281	6454.216996
812.718801	6444.979081
813.038276	6397.078037
813.357707	6339.692062
813.677093	6370.780858
813.996434	6270.968533
814.315731	6315.829761
814.634983	6307.912629
814.954191	6314.524102
815.273354	6416.708290
815.592473	6465.282328
815.911547	6579.288022
816.230577	6660.077554
816.549562	6799.437732
816.868502	6895.443986
817.187399	6992.261866
817.506250	7135.682693
817.825058	7156.439644
818.143821	7406.329640
818.462539	7639.127604
818.781213	7971.022050
819.099843	8446.667518
819.418429	9358.466056
819.736970	10253.802705
820.055466	11365.730009
820.373919	12738.718506
820.692327	14740.588424
821.010691	18065.322647
821.329011	25495.260011
821.647286	37196.899745
821.965517	51214.725339
822.283704	58660.842286
822.601847	61824.524247
822.919945	59675.644199
823.237999	55835.071389
823.556010	49870.423528
823.873976	43211.762538
824.191897	36703.670732
824.509775	31838.632116
824.827609	27173.664293
825.145398	24365.703792
825.463144	22686.447555
825.780845	22563.183782
826.098502	23798.652122
826.416116	27121.410213
826.733685	30862.382427
827.051210	32728.211767
827.368692	31789.856432
827.686129	28269.008721
828.003522	24228.380241
828.320872	20466.920778
828.638177	17565.610711
828.955439	15353.812022
829.272656	13510.264581
829.589830	12016.699246
829.906960	10712.560308
830.224046	9736.129137
830.541088	8946.795350
830.858086	8454.698076
831.175041	8045.873102
831.491952	7884.856128
831.808819	7884.611632
832.125642	8176.534769
832.442421	8873.479329
832.759157	10355.359270
833.075849	12933.062548
833.392497	16071.316929
833.709101	18572.808043
834.025662	18962.448906
834.342179	17616.438144
834.658653	15537.867070
834.975083	13609.529942
835.291469	11953.558794
835.607811	10614.144382
835.924110	9692.465183
836.240366	8818.450094
836.556578	8013.355139
836.872746	7359.754420
837.188871	6837.831159
837.504952	6409.169245
837.820990	6083.533392
838.136984	5854.687692
838.452935	5727.451490
838.768842	5711.715528
839.084706	5992.459906
839.400526	6951.098324
839.716303	8463.268038
840.032037	9707.596206
840.347727	9939.741341
840.663373	9147.980238
840.978977	8104.915096
841.294537	7265.893176
841.610054	6649.710421
841.925527	6209.748760
842.240957	5847.309963
842.556344	5520.902814
842.871687	5241.340586
843.186987	4954.965239
843.502244	4724.702975
843.817458	4553.364238
844.132629	4412.375768
844.447756	4322.814629
844.762840	4239.945621
845.077881	4162.755474
845.392879	4099.161318
845.707833	4050.005027
846.022745	4008.823841
846.337613	3974.770847
846.652438	3932.069753
846.967221	3915.930499
847.281960	3883.190725
847.596656	3869.158674
847.911309	3849.583873
848.225919	3823.402641
848.540485	3809.297492
848.855009	3798.237201
849.169490	3774.833644
849.483928	3760.415944
849.798323	3756.619955
850.112675	3737.602202
850.426984	3744.720312
850.741251	3725.110223
851.055474	3724.096951
851.369654	3727.008218
851.683792	3721.525963
851.997887	3728.903691
852.311938	3729.266654
852.625947	3737.017428
852.939914	3722.151066
853.253837	3732.142633
853.567718	3733.390318
853.881555	3722.977815
854.195350	3736.621698
854.509103	3733.375195
854.822812	3728.931418
855.136479	3721.783062
855.450103	3733.097931
855.763685	3717.228379
856.077224	3717.228379
856.390720	3733.077767
856.704173	3749.990838
857.017584	3767.433230
857.330953	3774.132924
857.644278	3796.187972
857.957561	3805.632573
858.270802	3807.439827
858.584000	3811.631547
858.897155	3803.936225
859.210268	3788.008700
859.523339	3762.934000
859.836367	3764.297632
860.149352	3759.548866
860.462295	3750.394130
860.775195	3738.277717
861.088054	3734.156574
861.400869	3731.235225
861.713642	3728.896130
862.026373	3740.241246
862.339062	3744.327102
862.651708	3766.213271
862.964312	3794.685708
863.276873	3802.527223
863.589392	3850.897094
863.901869	3898.142788
864.214303	3942.883028
864.526696	3976.285713
864.839045	4022.359339
865.151353	4050.189029
865.463619	4058.494330
865.775842	4066.424065
866.088023	4086.155141
866.400162	4075.606527
866.712258	4082.402002
867.024313	4088.559771
867.336325	4081.431580
867.648296	4091.886933
867.960224	4088.027930
868.272110	4097.986729
868.583954	4097.288529
868.895755	4114.882156
869.207515	4110.017443
869.519233	4145.716374
869.830909	4160.867562
870.142542	4181.380017
870.454134	4195.613714
870.765684	4224.776789
871.077191	4259.351543
871.388657	4281.522538
871.700081	4313.531344
872.011463	4354.780585
872.322803	4387.333836
872.634101	4418.304165
872.945357	4459.301349
873.256571	4512.440151
873.567744	4539.974934
873.878874	4560.898243
874.189963	4597.993573
874.501010	4611.619812
874.812015	4605.862814
875.122979	4649.405781
875.433900	4652.276718
875.744780	4656.019775
876.055618	4683.219320
876.366415	4682.327036
876.677169	4695.739026
876.987882	4740.353237
877.298554	4785.007778
877.609183	4851.452706
877.919771	4950.125731
878.230317	5076.903189
878.540822	5261.679121
878.851285	5542.536925
879.161707	5936.233397
879.472087	6577.846253
879.782425	7603.363138
880.092722	9438.290206
880.402977	12300.780868
880.713191	15856.548651
881.023363	19605.974880
881.333494	22098.457453
881.643583	23590.061779
881.953631	23813.994874
882.263637	23149.543071
882.573602	21828.677584
882.883526	20373.649349
883.193408	18789.131517
883.503248	17150.635529
883.813048	15671.543346
884.122806	14289.813489
884.432522	12854.496166
884.742197	11611.808893
885.051831	10518.717860
885.361424	9508.949539
885.670975	8686.830608
885.980485	7985.631314
886.289954	7405.467603
886.599382	6934.215500
886.908768	6548.300050
887.218113	6193.879208
887.527417	5896.269650
887.836680	5632.793744
888.145901	5411.061112
888.455082	5250.220578
888.764221	5095.515129
889.073319	4954.466165
889.382376	4882.019743
889.691392	4815.169002
890.000366	4788.037512
890.309300	4769.251652
890.618193	4772.389770
890.927044	4756.316051
891.235855	4772.150315
891.544625	4798.303821
891.853353	4840.158001
892.162041	4940.653403
892.470687	5098.970840
892.779293	5310.953879
893.087858	5634.462366
893.396381	6130.413602
893.704864	6818.188303
894.013306	7848.973195
894.321707	8992.760591
894.630068	9892.490606
894.938387	10244.544626
895.246665	10128.046081
895.554903	9611.864695
895.863100	8946.205535
896.171256	8417.501923
896.479371	7922.412724
896.787446	7432.536078
897.095480	7005.850296
897.403473	6689.701895
897.711425	6385.344752
898.019336	6123.534947
898.327207	5853.215675
898.635038	5627.533300
898.942827	5374.835381
899.250576	5180.060320
899.558284	4987.175691
899.865952	4865.802351
900.173579	4720.599476
900.481165	4608.491776
900.788711	4518.474413
901.096216	4444.790387
901.403681	4375.575345
901.711105	4353.283363
902.018489	4326.996266
902.325832	4379.094070
902.633135	4465.323007
902.940397	4727.059715
903.247619	5338.970092
903.554800	6541.388628
903.861941	8318.319741
904.169041	9906.449561
904.476101	10761.908163
904.783121	10632.315221
905.090100	10003.728707
905.397039	9209.956184
905.703938	8477.181622
906.010796	7798.785988
906.317614	7259.654748
906.624391	6744.930256
906.931129	6328.543551
907.237826	5933.929589
907.544483	5571.989867
907.851099	5208.704156
908.157675	4854.202656
908.464211	4526.837687
908.770707	4286.324237
909.077163	4076.408070
909.383578	3922.814195
909.689954	3803.235505
909.996289	3729.264134
910.302584	3663.348527
910.608839	3627.611787
910.915054	3592.747167
911.221229	3579.365424
911.527363	3584.199891
911.833458	3596.197837
912.139513	3614.817339
912.445527	3642.838592
912.751502	3710.569015
913.057436	3799.684012
913.363331	3912.061413
913.669186	4089.283177
913.975000	4308.464984
914.280775	4669.857742
914.586510	5171.208054
914.892205	5867.371235
915.197859	6804.524256
915.503475	7955.525543
915.809050	9019.022482
916.114585	9746.700437
916.420081	10109.227454
916.725536	10164.493623
917.030952	9793.694073
917.336328	9427.436602
917.641665	9053.516577
917.946961	8594.267462
918.252218	8200.865898
918.557435	7704.579425
918.862612	7294.350490
919.167750	6929.156702
919.472848	6521.551687
919.777906	6162.324106
920.082925	5807.056350
920.387904	5441.464311
920.692843	5171.918856
920.997743	4919.314199
921.302603	4681.540616
921.607423	4520.049773
921.912204	4360.376266
922.216946	4239.093666
922.521647	4123.676449
922.826310	4021.381355
923.130932	3924.729833
923.435516	3828.337930
923.740059	3761.058691
924.044564	3684.665046
924.349028	3627.127836
924.653454	3563.823547
924.957840	3497.393742
925.262186	3453.165179
925.566493	3392.605798
925.870761	3337.009433
926.174989	3301.224802
926.479178	3263.920263
926.783328	3223.112123
927.087438	3198.581868
927.391509	3161.010149
927.695541	3130.722897
927.999533	3107.266408
928.303486	3086.620362
928.607400	3070.047569
928.911275	3057.157338
929.215110	3038.426931
929.518906	3032.901827
929.822663	3029.574665
930.126381	3023.222811
930.430060	3029.705735
930.733699	3034.336035
931.037299	3045.187119
931.340861	3042.543033
931.644383	3051.337326
931.947866	3049.295659
932.251309	3046.601162
932.554714	3046.500339
932.858080	3039.972045
933.161407	3032.904347
933.464694	3023.696680
933.767943	3017.246523
934.071153	3013.838703
934.374323	3004.764627
934.677455	2999.052999
934.980548	2991.851711
935.283602	2983.112871
935.586617	2981.333343
935.889593	2991.188799
936.192530	2994.785662
936.495428	3005.321674
936.798287	3020.034282
937.101108	3050.044270
937.403890	3094.373657
937.706632	3150.232162
938.009336	3221.577092
938.312002	3296.639873
938.614628	3362.716797
938.917216	3414.529776
939.219765	3448.958336
939.522275	3482.507215
939.824747	3488.211280
940.127179	3487.739933
940.429573	3486.945951
940.731929	3484.707678
941.034246	3473.483549
941.336524	3461.246148
941.638763	3447.088068
941.940964	3434.870832
942.243126	3393.684605
942.545250	3377.010988
942.847335	3342.060669
943.149381	3306.157571
943.451389	3276.013992
943.753359	3241.247674
944.055290	3217.617265
944.357182	3188.217256
944.659036	3177.567819
944.960851	3164.705315
945.262628	3148.891215
945.564367	3151.212666
945.866067	3144.611275
946.167729	3139.582724
946.469352	3139.151706
946.770937	3134.690285
947.072484	3122.271402
947.373992	3123.766104
947.675462	3119.208901
947.976893	3099.245932
948.278286	3091.520364
948.579641	3087.225301
948.880958	3078.380596
949.182236	3082.801688
949.483476	3074.919844
949.784678	3076.719536
950.085841	3075.978486
950.386967	3082.937799
950.688054	3098.714090
950.989103	3116.501802
951.290114	3131.862197
951.591087	3162.099038
951.892021	3184.259950
952.192917	3215.963767
952.493776	3243.755648
952.794596	3252.181937
953.095378	3258.821136
953.396122	3255.758635
953.696828	3249.926020
953.997496	3241.255236
954.298126	3220.132801
954.598718	3200.036241
954.899272	3179.806091
955.199788	3151.147131
955.500266	3125.288533
955.800706	3091.197730
956.101108	3054.883778
956.401472	3023.726927
956.701798	2991.513954
957.002087	2951.719085
957.302337	2927.151022
957.602550	2898.136661
957.902724	2868.431662
958.202861	2847.180678
958.502960	2823.046154
958.803022	2803.577218
959.103045	2782.590894
959.403031	2767.248142
959.702979	2752.462438
960.002889	2737.210427
960.302762	2725.588047
960.602596	2714.477344
960.902393	2707.321426
961.202153	2698.396063
961.501875	2690.037830
961.801559	2686.120854
962.101205	2677.807991
962.400814	2674.740449
962.700385	2667.191321
962.999918	2658.964158
963.299414	2653.562562
963.598873	2653.398724
963.898293	2644.067548
964.197677	2648.465955
964.497022	2645.242137
964.796331	2642.051087
965.095601	2641.970428
965.394835	2635.313585
965.694030	2635.321146
965.993189	2634.045734
966.292309	2631.540281
966.591393	2631.598254
966.890439	2631.189921
967.189447	2632.934160
967.488419	2633.347535
967.787353	2632.535909
968.086249	2632.989613
968.385108	2635.618574
968.683930	2637.138482
968.982714	2642.121663
969.281462	2644.382620
969.580172	2646.136942
969.878844	2653.834784
970.177480	2662.455157
970.476078	2669.885818
970.774639	2677.563495
971.073162	2684.918538
971.371649	2689.581606
971.670098	2697.836495
971.968510	2701.728266
972.266885	2702.723894
972.565223	2709.060624
972.863524	2709.592466
973.161788	2714.084134
973.460014	2718.984136
973.758204	2720.385576
974.056356	2720.680484
974.354471	2724.184086
974.652550	2722.631410
974.950591	2720.753581
975.248595	2725.162070
975.546563	2721.066132
975.844493	2717.668394
976.142386	2711.697148
976.440243	2706.613144
976.738062	2704.614327
977.035845	2694.814323
977.333590	2690.478931
977.631299	2684.298477
977.928971	2679.096006
978.226606	2672.418997
978.524204	2671.390602
978.821765	2664.960610
979.119290	2669.338852
979.416777	2666.588903
979.714228	2668.547391
980.011642	2672.524862
980.309020	2678.334792
980.606360	2692.815506
980.903664	2707.465099
981.200931	2741.674369
981.498162	2779.876233
981.795356	2845.444000
982.092513	2930.485745
982.389633	3023.074097
982.686717	3119.118160
982.983764	3197.855942
983.280775	3254.959612
983.577749	3274.325205
983.874686	3264.401694
984.171587	3235.805748
984.468451	3203.607899
984.765279	3163.578617
985.062070	3120.607821
985.358824	3078.219279
985.655543	3022.423788
985.952224	2977.822180
986.248869	2915.926893
986.545478	2854.654188
986.842050	2802.911785
987.138586	2755.126688
987.435086	2716.834083
987.731549	2685.974660
988.027975	2657.958448
988.324366	2639.540592
988.620719	2627.030969
988.917037	2615.655605
989.213318	2604.370982
989.509563	2598.636670
989.805772	2593.560228
990.101944	2587.054619
990.398080	2583.946747
990.694180	2582.767117
990.990244	2583.520770
991.286271	2584.236614
991.582262	2588.055288
991.878217	2587.830957
992.174136	2590.636359
992.470019	2594.031576
992.765865	2596.373192
993.061676	2598.160281
993.357450	2606.717639
993.653188	2611.572271
993.948890	2628.024076
994.244556	2643.941519
994.540186	2665.258038
994.835780	2694.020342
995.131337	2725.431771
995.426859	2766.562546
995.722345	2808.237764
996.017795	2858.220805
996.313208	2896.813358
996.608586	2927.030034
996.903928	2945.853703
997.199234	2949.659774
997.494504	2946.433435
997.789738	2936.550253
998.084936	2914.412026
998.380099	2884.911194
998.675225	2859.350023
998.970316	2834.678616
999.265371	2797.066567
999.560390	2762.600199
999.855373	2730.311608
1000.150320	2701.282124
1000.445232	2675.819256
1000.740108	2657.711431
1001.034948	2636.440282
1001.329752	2622.299846
1001.624521	2610.238885
1001.919254	2597.946032
1002.213951	2590.235587
1002.508613	2580.556572
1002.803239	2574.479461
1003.097829	2567.038718
1003.392384	2565.092832
1003.686903	2558.380536
1003.981386	2559.746688
1004.275834	2553.210833
1004.570246	2552.189999
1004.864623	2546.659853
1005.158964	2547.940306
1005.453270	2545.265974
1005.747540	2541.490150
1006.041775	2540.444110
1006.335974	2537.585776
1006.630138	2536.751465
1006.924266	2539.917310
1007.218359	2535.642411
1007.512416	2534.180477
1007.806438	2531.493542
1008.100425	2532.690816
1008.394376	2528.415917
1008.688292	2534.518234
1008.982172	2535.281969
1009.276017	2534.949253
1009.569827	2532.093439
1009.863602	2530.248377
1010.157341	2530.162677
1010.451045	2529.109076
1010.744714	2529.978675
1011.038347	2527.705115
1011.331945	2527.034641
1011.625508	2527.682429
1011.919036	2526.906092
1012.212528	2524.788807
1012.505986	2523.525998
1012.799408	2524.093128
1013.092795	2521.277643
1013.386147	2520.332427
1013.679464	2523.483148
1013.972745	2521.217150
1014.265992	2520.365195
1014.559204	2522.353930
1014.852380	2521.018024
1015.145521	2522.084228
1015.438628	2521.287726
1015.731699	2524.781245
1016.024736	2518.726820
1016.317737	2524.889630
1016.610703	2522.490041
1016.903635	2525.139167
1017.196531	2527.747964
1017.489393	2525.257634
1017.782219	2528.499096
1018.075011	2530.525640
1018.367768	2529.214940
1018.660490	2531.811134
1018.953177	2531.811134
1019.245829	2531.811134
