Dividing Wavelength (nm)	Counts (n)	Blue Motor Position (mm): 39.500000	Red Motor Position (mm): 0.000000	
326.493990	2065.469116
326.888308	2065.469116
327.282561	2065.469116
327.676750	2039.514735
328.070874	2040.996834
328.464933	2048.462783
328.858929	2054.060984
329.252859	2065.713612
329.646726	2076.068142
330.040528	2093.046748
330.434265	2113.491147
330.827938	2133.963273
331.221547	2154.309370
331.615091	2174.007678
332.008571	2194.537778
332.401986	2215.413196
332.795338	2232.820300
333.188625	2253.060533
333.581847	2272.968049
333.975006	2288.981274
334.368100	2307.872998
334.761129	2325.993426
335.154095	2340.038080
335.546996	2391.382232
335.939833	2498.141268
336.332606	2506.731394
336.725315	2521.446522
337.117960	2532.839530
337.510540	2540.950746
337.903056	2551.030533
338.295508	2555.663354
338.687896	2564.765157
339.080220	2566.615261
339.472480	2572.311764
339.864676	2575.966601
340.256807	2579.671849
340.648875	2583.233424
341.040879	2584.211408
341.432818	2585.670822
341.824694	2588.687953
342.216506	2583.919021
342.608253	2585.489341
342.999937	2583.450194
343.391557	2586.885740
343.783113	2582.794844
344.174605	2579.707137
344.566033	2577.110943
344.957397	2581.446335
345.348697	2576.954667
345.739934	2575.313772
346.131106	2572.924265
346.522215	2572.120201
346.913260	2570.854871
347.304241	2567.091650
347.695159	2567.769685
348.086012	2565.541495
348.476802	2559.731565
348.867528	2561.138047
349.258191	2553.987170
349.648789	2557.843653
350.039324	2553.077242
350.429796	2558.294836
350.820203	2550.571788
351.210548	2555.744012
351.600828	2554.398024
351.991045	2555.202088
352.381198	2550.594474
352.771288	2555.857438
353.161314	2551.393497
353.551276	2551.224618
353.941175	2551.075904
354.331010	2554.667726
354.720782	2554.985319
355.110490	2558.309960
355.500135	2552.116902
355.889717	2554.070349
356.279235	2552.230328
356.668689	2553.848538
357.058080	2556.706873
357.447408	2554.415668
357.836672	2555.799465
358.225873	2555.524722
358.615010	2555.370967
359.004084	2556.890875
359.393095	2558.715772
359.782043	2560.860783
360.170927	2558.849363
360.559748	2560.802810
360.948505	2561.110321
361.337199	2562.249621
361.725830	2561.377502
362.114398	2561.213664
362.502903	2560.923798
362.891344	2562.133675
363.279722	2561.627039
363.668037	2564.908830
364.056289	2561.662327
364.444478	2562.652914
364.832603	2561.233829
365.220665	2564.452606
365.608665	2567.273131
365.996601	2565.279355
366.384474	2565.095353
366.772284	2565.627194
367.160031	2566.126269
367.547715	2567.759602
367.935336	2566.305230
368.322893	2568.644325
368.710388	2564.936556
369.097820	2567.232802
369.485189	2567.074006
369.872495	2569.680282
370.259738	2570.378482
370.646918	2570.184397
371.034035	2570.116342
371.421090	2570.287741
371.808081	2569.627350
372.195010	2570.895200
372.581875	2571.979048
372.968678	2573.763617
373.355418	2573.141034
373.742096	2572.462999
374.128710	2574.388720
374.515262	2576.349729
374.901751	2577.025243
375.288177	2575.769996
375.674540	2576.437949
376.060841	2576.657239
376.447079	2578.124215
376.833254	2578.225038
377.219367	2578.272929
377.605417	2577.955336
377.991404	2575.966601
378.377329	2578.051118
378.763191	2578.661098
379.148991	2580.117991
379.534727	2577.695717
379.920402	2578.414081
380.306013	2580.100347
380.691563	2579.646643
381.077049	2580.780903
381.462474	2580.851479
381.847835	2584.143353
382.233134	2582.174782
382.618371	2582.653692
383.003545	2584.592015
383.388657	2583.203177
383.773706	2583.954309
384.158693	2585.640575
384.543618	2587.321800
384.928480	2583.601428
385.313280	2584.496233
385.698017	2586.421954
386.082692	2587.339444
386.467305	2591.405135
386.851856	2590.306163
387.236344	2586.177458
387.620770	2589.522264
388.005133	2587.329362
388.389435	2587.286512
388.773674	2586.759711
389.157851	2591.379929
389.541965	2590.626276
389.926018	2595.397728
390.310008	2594.797831
390.693936	2597.860332
391.077802	2597.638521
391.461606	2599.733121
391.845348	2596.476535
392.229027	2602.309150
392.612645	2600.574993
392.996200	2601.779829
393.379694	2604.416353
393.763125	2607.017588
394.146494	2608.471961
394.529801	2612.272991
394.913047	2612.646036
395.296230	2616.835235
395.679351	2622.577109
396.062410	2626.499127
396.445408	2630.658079
396.828343	2634.204531
397.211217	2641.957825
397.594028	2645.952940
397.976778	2653.343271
398.359466	2662.427431
398.742092	2668.907834
399.124656	2678.874195
399.507158	2693.818696
399.889598	2705.239430
400.271977	2717.411296
400.654294	2733.295971
401.036549	2751.996132
401.418742	2764.054572
401.800874	2783.589043
402.182944	2803.441107
402.564952	2829.859273
402.946898	2848.385514
403.328783	2867.849409
403.710606	2891.056360
404.092367	2925.885692
404.474067	2956.672019
404.855705	2981.449290
405.237282	2995.037720
405.618797	3041.698640
406.000250	3084.818150
406.381642	3131.814306
406.762972	3156.384890
407.144240	3172.204031
407.525447	3223.482648
407.906593	3252.854931
408.287677	3312.043118
408.668700	3352.803368
409.049661	3400.530492
409.430560	3446.057152
409.811399	3470.968014
410.192176	3527.282743
410.572891	3592.613577
410.953545	3676.637008
411.334138	3664.134947
411.714669	3749.854727
412.095139	3745.605034
412.475547	3833.316070
412.855894	3874.598079
413.236180	3961.968837
413.616405	3962.944300
413.996568	4056.175399
414.376670	4092.665791
414.756711	4126.048312
415.136691	4210.190211
415.516609	4299.819406
415.896466	4360.608159
416.276262	4453.030153
416.655997	4568.830498
417.035670	4667.952186
417.415283	4804.431344
417.794834	4894.063059
418.174324	4906.575203
418.553753	4945.762613
418.933121	5103.885965
419.312428	5150.884642
419.691674	5135.171365
420.070859	5346.922512
420.449983	5284.071927
420.829045	5481.806145
421.208047	5454.266322
421.586988	5622.900479
421.965867	5714.127720
422.344686	5812.707483
422.723444	5985.775336
423.102141	5694.535276
423.480777	6061.707716
423.859352	5932.024033
424.237866	6284.902282
424.616319	6309.571168
424.994712	6480.297405
425.373044	6426.200783
425.751314	6741.381283
426.129524	6513.430389
426.507673	6773.385048
426.885762	6836.593556
427.263789	6894.977679
427.641756	6998.154975
428.019662	7093.188287
428.397508	7147.708366
428.775292	7149.802965
429.153016	7328.768968
429.530679	7275.814167
429.908282	7347.816968
430.285824	7307.848179
430.663305	7586.064419
431.040726	7481.185734
431.418086	7502.202304
431.795385	7643.919221
432.172624	7836.637491
432.549802	7730.949701
432.926920	7871.534879
433.303977	7825.889751
433.680974	7876.883543
434.057910	8080.994821
434.434786	8136.550857
434.811601	8097.237419
435.188355	8435.322402
435.565050	8324.711924
435.941683	8345.050460
436.318257	8675.639247
436.694770	8629.731979
437.071222	8864.314512
437.447614	8649.614290
437.823946	8607.911345
438.200218	8762.137885
438.576429	8648.795102
438.952580	8815.528745
439.328670	8822.906474
439.704700	8902.261797
440.080670	8801.917630
440.456580	9067.185666
440.832429	9045.352428
441.208218	8789.460939
441.583947	8900.696519
441.959616	9020.481896
442.335224	9050.630517
442.710773	9132.161098
443.086261	9317.942740
443.461689	9035.149133
443.837057	9200.413280
444.212365	9414.697606
444.587612	9400.405935
444.962800	9298.141088
445.337927	9426.161190
445.712995	8964.474677
446.088002	9634.237336
446.462949	9691.761942
446.837837	9682.440849
447.212664	9707.071926
447.587431	10529.505929
447.962139	11542.671988
448.336786	12462.735497
448.711374	12228.296638
449.085901	11024.718636
449.460369	10949.764240
449.834776	10730.479089
450.209124	11646.686116
450.583412	11465.900256
450.957640	11778.126640
451.331808	11375.794673
451.705917	10810.492283
452.079965	10683.435042
452.453954	10879.092305
452.827883	10829.557927
453.201752	10798.827053
453.575562	10807.381891
453.949311	11147.107769
454.323001	11207.752850
454.696632	11126.802002
455.070202	11719.583721
455.443713	11773.937442
455.817164	11939.967843
456.190556	12251.732962
456.563888	12117.539967
456.937160	12369.350643
457.310373	11867.622245
457.683526	11874.563913
458.056619	11888.497663
458.429653	11955.701285
458.802628	12095.963829
459.175542	12142.849080
459.548398	12687.787728
459.921194	13265.259463
460.293930	13548.957958
460.666607	14408.638526
461.039224	15198.110945
461.411782	15544.685230
461.784280	15192.979050
462.156719	15119.637823
462.529099	15029.461663
462.901419	14392.138829
463.273680	14005.331095
463.645882	14198.815621
464.018024	14103.361373
464.390106	14468.005674
464.762130	15538.345979
465.134094	17096.516222
465.505999	19388.701149
465.877845	21631.573510
466.249631	22831.438701
466.621358	22347.450123
466.993026	21514.195284
467.364634	20771.474526
467.736184	19964.174067
468.107674	19358.297950
468.479105	19223.406756
468.850477	18952.195199
469.221790	18513.801337
469.593043	17846.677723
469.964238	17459.852344
470.335373	17530.509156
470.706449	18248.419876
471.077467	19115.115209
471.448425	21574.686609
471.819324	23431.232665
472.190164	23319.283762
472.560945	21582.170202
472.931667	20021.008035
473.302330	19680.548669
473.672934	19148.545621
474.043479	19558.552746
474.413965	19351.109265
474.784393	19171.361883
475.154761	19840.675880
475.525070	19968.385951
475.895321	19792.946235
476.265513	20335.079481
476.635645	20918.167062
477.005719	20969.876697
477.375734	21341.238336
477.745691	21965.960806
478.115588	22602.189710
478.485427	23785.091418
478.855207	25601.598110
479.224928	27398.363643
479.594591	28821.645212
479.964194	28427.099306
480.333739	28866.324958
480.703226	29091.246119
481.072653	29538.388904
481.442022	30054.426617
481.811333	30440.883992
482.180584	30015.715597
482.549777	29770.599573
482.918912	29555.206193
483.287988	29486.349073
483.657005	29343.137454
484.025964	28963.349526
484.394864	29157.799433
484.763706	29070.849611
485.132489	28529.807774
485.501213	28626.751683
485.869879	28768.897098
486.238487	28706.338900
486.607036	28977.527771
486.975527	28661.144956
487.343959	29005.725465
487.712333	29345.017804
488.080648	29307.302412
488.448905	29727.893439
488.817104	29617.968558
489.185244	30440.571440
489.553326	31383.952806
489.921350	33285.997797
490.289315	35795.438811
490.657222	36694.145472
491.025070	37231.414004
491.392861	36975.477144
491.760593	36187.854829
492.128267	35163.746946
492.495883	34175.446378
492.863440	33264.870321
493.230939	32293.276137
493.598380	31741.642836
493.965763	31593.085074
494.333088	31083.880644
494.700354	30886.753885
495.067563	30852.146364
495.434713	30731.924927
495.801805	31011.782062
496.168839	30836.533910
496.535815	30688.490345
496.902733	30816.021455
497.269593	30656.070685
497.636395	30786.266045
498.003139	31036.796267
498.369825	30798.689968
498.736453	31190.120441
499.103023	31043.861444
499.469535	31119.400614
499.835989	31242.119943
500.202385	31093.864649
500.568723	31118.888937
500.935003	31429.252615
501.301226	31301.126649
501.667390	31997.690602
502.033497	32205.509649
502.399546	32006.686541
502.765537	31599.610847
503.131470	32053.919632
503.497345	32476.995948
503.863163	31445.071756
504.228923	32195.697043
504.594625	32582.943358
504.960269	32058.731413
505.325856	32711.936402
505.691385	32363.484287
506.056856	32688.179965
506.422270	33178.273380
506.787625	32692.641386
507.152924	33132.048520
507.518164	33303.120076
507.883347	32892.364340
508.248472	33009.722401
508.613540	33678.474309
508.978550	33890.411978
509.343503	33734.473966
509.708398	34093.562916
510.073236	34694.455852
510.438016	34781.032628
510.802738	34447.731700
511.167403	34974.237370
511.532010	35220.369186
511.896561	35733.238534
512.261053	36455.870294
512.625488	36243.756184
512.989866	36161.093864
513.354186	36202.290173
513.718449	36179.123551
514.082655	37009.454521
514.446803	36711.658440
514.810894	37335.556681
515.174927	37321.204516
515.538904	37332.075764
515.902822	37947.973694
516.266684	37640.483474
516.630488	37970.913465
516.994235	37992.620673
517.357925	38543.477637
517.721558	38804.201072
518.085133	39171.726393
518.448651	39374.153926
518.812112	39252.059701
519.175516	39385.766224
519.538863	39832.485552
519.902152	39903.018856
520.265385	40439.513571
520.628560	40453.442279
520.991678	40372.985464
521.354739	40592.338671
521.717743	40958.644033
522.080690	40864.692048
522.443580	41537.605428
522.806413	41555.040259
523.169189	41683.829137
523.531908	41897.899214
523.894569	41773.670060
524.257174	41953.724952
524.619722	42272.149435
524.982213	42424.649380
525.344647	42475.933038
525.707025	42589.951335
526.069345	43030.840568
526.431608	42934.131073
526.793815	43316.308508
527.155964	42854.760626
527.518057	43114.029689
527.880093	42968.839417
528.242072	43585.836318
528.603995	43330.272504
528.965860	43251.622942
529.327669	43484.168848
529.689421	43510.972663
530.051117	43496.877597
530.412755	43760.955921
530.774337	43805.648270
531.135862	43741.320627
531.497331	43918.610446
531.858743	43888.628183
532.220098	44309.123428
532.581396	44024.628432
532.942638	43798.830110
533.303824	44033.495821
533.664953	44095.353299
534.026025	43770.884473
534.387040	44332.312736
534.747999	44405.379220
535.108902	44738.896917
535.469748	44053.741095
535.830537	44329.298126
536.191270	44572.170836
536.551947	44318.575592
536.912567	44583.924286
537.273131	44712.098143
537.633638	44338.677193
537.994089	44518.674111
538.354483	44298.310153
538.714821	44931.158963
539.075103	45196.810127
539.435328	45095.039313
539.795497	44837.154047
540.155609	44981.699051
540.515665	45551.813222
540.875665	44840.680334
541.235609	45127.045599
541.595496	45265.475683
541.955328	45837.560945
542.315102	45279.434638
542.674821	45177.888156
543.034483	45072.714563
543.394090	45091.273571
543.753640	45088.523622
544.113134	46137.310473
544.472571	45252.207366
544.831953	46362.087962
545.191278	45620.980373
545.550548	45327.849880
545.909761	45945.597913
546.268918	46080.395847
546.628019	46491.350708
546.987064	45941.940556
547.346053	45273.670079
547.704986	46149.578121
548.063863	45790.589994
548.422684	45997.176479
548.781449	45579.700885
549.140158	46104.467356
549.498811	45850.988058
549.857408	45271.530109
550.215949	46113.274252
550.574434	45939.195648
550.932864	45883.238840
551.291237	46592.814012
551.649555	46341.693974
552.007817	46518.451951
552.366022	46217.752165
552.724173	46281.419418
553.082267	46668.728747
553.440305	47056.937923
553.798288	46309.239025
554.156215	46692.447376
554.514086	46887.260246
554.871902	46479.904768
555.229661	46656.861871
555.587365	46328.261819
555.945014	46469.779611
556.302606	46475.576938
556.660143	46571.852894
557.017625	46809.044223
557.375050	46490.145872
557.732421	46888.109680
558.089735	46967.749829
558.446994	46833.299735
558.804197	47304.191395
559.161345	47151.630957
559.518437	46529.106430
559.875474	46759.512366
560.232455	46968.127915
560.589381	47010.244235
560.946251	46861.406688
561.303065	47491.596290
561.659825	47176.093156
562.016528	47006.581837
562.373177	46568.916422
562.729770	47212.273517
563.086307	46730.528252
563.442789	47258.422760
563.799216	47108.970192
564.155587	47023.676390
564.511904	46966.260168
564.868164	47023.091616
565.224370	47330.934717
565.580520	47066.359839
565.936615	47267.164120
566.292654	46904.546363
566.648638	47280.336655
567.004567	47214.494145
567.360441	47309.469483
567.716260	47014.206582
568.072023	47408.165193
568.427732	47321.714446
568.783385	46861.958695
569.138982	47277.604350
569.494525	47424.100281
569.850013	47031.041515
570.205445	47160.435332
570.560823	46923.342305
570.916145	46789.832386
571.271412	47021.128086
571.626625	46664.322779
571.981782	46738.483193
572.336884	46358.377673
572.691931	46684.565532
573.046923	46344.738831
573.401860	46181.241609
573.756743	46193.539503
574.111570	46344.322936
574.466342	46259.835718
574.821059	46417.654080
575.175722	45912.880825
575.530330	45977.941956
575.884882	45657.120405
576.239380	45535.426951
576.593823	45642.949722
576.948211	45578.312047
577.302544	45120.287932
577.656823	45127.272451
578.011047	45380.852571
578.365216	45239.818731
578.719330	44937.480570
579.073389	44913.303196
579.427394	44989.248179
579.781344	44905.958235
580.135239	44657.273075
580.489080	44725.038785
580.842866	44212.451742
581.196597	44700.531216
581.550273	44708.922216
581.903895	44630.693591
582.257463	45062.725517
582.610975	44486.942568
582.964434	44818.857179
583.317837	44312.531248
583.671186	44272.481802
584.024481	44568.515999
584.377721	44142.926668
584.730906	44349.097258
585.084037	44499.671482
585.437113	44195.425244
585.790135	44320.788658
586.143103	43894.677568
586.496016	44065.590327
586.848874	44173.496225
587.201679	44207.506370
587.554428	43699.489132
587.907124	43963.554853
588.259765	43733.363165
588.612352	43882.916556
588.964884	43365.270714
589.317362	43658.292823
589.669786	43644.694310
590.022155	43545.408785
590.374470	44012.577553
590.726731	43600.160757
591.078937	42946.738998
591.431090	43275.644040
591.783188	42807.383862
592.135232	42611.658543
592.487222	42866.821587
592.839157	43028.559446
593.191038	42671.577698
593.542866	42470.140752
593.894639	41867.090203
594.246358	42153.190807
594.598022	42162.451407
594.949633	41746.203333
595.301190	41751.040321
595.652692	41708.140101
596.004141	42187.851260
596.355535	41106.556528
596.706876	41110.372681
597.058162	40809.196506
597.409395	41318.625267
597.760573	41544.327807
598.111698	41148.940029
598.462768	41066.706207
598.813785	41090.825607
599.164748	40708.650693
599.515657	40980.391570
599.866511	40471.935752
600.217312	41158.803046
600.568060	40123.067742
600.918753	40942.744233
601.269392	40848.320901
601.619978	40592.341191
601.970510	40800.392131
602.320988	40928.263519
602.671412	41180.837930
603.021783	41045.505634
603.372100	40626.908383
603.722363	40732.102141
604.072572	40771.952462
604.422728	40769.845259
604.772830	40547.820241
605.122878	40726.289690
605.472872	40578.770405
605.822813	40846.891734
606.172701	40570.119785
606.522534	40916.474781
606.872314	41103.042843
607.222041	40943.097114
607.571714	41275.291509
607.921333	40774.059664
608.270899	40978.238998
608.620411	41361.654036
608.969870	41110.869235
609.319276	41118.637653
609.668627	41150.490183
610.017926	41554.236195
610.367171	41693.601414
610.716362	41733.376118
611.065500	41644.109886
611.414585	41895.615572
611.763616	42040.223590
612.112594	41951.705970
612.461518	42054.154819
612.810389	42459.450985
613.159207	42226.695871
613.507971	42199.473640
613.856682	42698.497460
614.205340	42543.252606
614.553945	43234.941764
614.902496	42571.099940
615.250994	42996.044004
615.599439	43057.107500
615.947830	43172.355839
616.296169	43183.262375
616.644454	43208.339595
616.992686	43365.666445
617.340864	43801.587621
617.688990	43327.469622
618.037063	43993.726158
618.385082	43795.676868
618.733048	44173.241647
619.080961	44034.025142
619.428821	44092.066467
619.776628	44123.934121
620.124382	43956.058657
620.472083	44067.266511
620.819731	44172.142675
621.167326	43749.414199
621.514868	43739.127725
621.862357	43215.026686
622.209793	43287.853715
622.557176	42869.924417
622.904506	42630.819969
623.251783	42270.390072
623.599007	41953.356948
623.946179	41884.819941
624.293297	41620.666000
624.640363	41082.522827
624.987376	40940.211054
625.334336	40760.146079
625.681243	40332.575575
626.028097	40241.688612
626.374899	40058.770345
626.721647	40052.471423
627.068343	39826.446249
627.414987	39527.379797
627.761577	39266.288357
628.108115	39594.172565
628.454600	38837.870939
628.801032	39094.190927
629.147412	38986.106068
629.493739	38872.299499
629.840014	38430.679299
630.186236	38847.537351
630.532405	38291.014131
630.878521	38533.539002
631.224585	38322.549069
631.570597	37993.402052
631.916556	38153.529263
632.262462	38057.051661
632.608316	38001.566201
632.954117	37842.963939
633.299866	37811.517222
633.645562	37739.015347
633.991206	37217.941521
634.336797	36813.562844
634.682336	36720.014152
635.027823	36475.987018
635.373257	36364.907714
635.718639	36024.960025
636.063968	35932.805212
636.409245	35287.343435
636.754470	35240.284264
637.099642	35002.861041
637.444762	34425.666570
637.789829	34566.962551
638.134845	34183.176988
638.479808	34097.784883
638.824719	34052.170002
639.169577	33537.760581
639.514383	33672.021632
639.859137	33280.397075
640.203839	33442.029070
640.548489	33145.228617
640.893086	33114.013792
641.237632	32845.796681
641.582125	32931.125772
641.926566	32713.385734
642.270955	32753.210849
642.615292	32705.430793
642.959576	32560.482497
643.303809	32568.540781
643.647990	32684.308359
643.992118	32639.356390
644.336195	32461.436427
644.680219	32538.477860
645.024192	32723.815881
645.368112	33250.805502
645.711981	33248.882301
646.055797	33962.681960
646.399562	33756.327368
646.743274	34609.106597
647.086935	35016.794791
647.430544	34996.090772
647.774101	35025.458013
648.117606	35332.234910
648.461059	35485.952294
648.804460	35109.806600
649.147810	34605.328252
649.491108	34287.450734
649.834354	34186.468861
650.177548	33372.693040
650.520690	32870.430279
650.863781	32840.347194
651.206820	32661.519823
651.549807	32236.575759
651.892742	31652.169917
652.235626	31589.316811
652.578458	31435.848965
652.921238	30739.368190
653.263967	31009.614366
653.606644	30707.319055
653.949269	30607.778952
654.291843	30228.432125
654.634365	30580.624776
654.976836	30123.155188
655.319255	30211.884537
655.661622	30077.162221
656.003938	29951.826534
656.346203	29766.642268
656.688416	30022.957214
657.030577	29795.228131
657.372687	29619.909403
657.714746	29766.483471
658.056753	29945.958631
658.398708	29318.546705
658.740612	29391.804753
659.082465	29595.142214
659.424266	29478.169801
659.766016	29481.771705
660.107715	29328.404682
660.449362	29425.855227
660.790958	29402.277750
661.132503	29325.145576
661.473996	29405.650282
661.815438	29493.058848
662.156829	29595.802605
662.498168	29410.940973
662.839456	29388.225534
663.180693	29510.463432
663.521879	29565.868233
663.863013	29531.101916
664.204097	29495.496246
664.545129	29902.087989
664.886110	29836.800006
665.227040	29942.694483
665.567918	29949.767222
665.908746	30005.338382
666.249522	30086.377450
666.590248	30118.502203
666.930922	30226.929861
667.271545	30247.449878
667.612118	30287.821958
667.952639	30105.178434
668.293109	30140.751336
668.633528	29990.381278
668.973896	29942.225656
669.314213	29931.099830
669.654480	29732.284284
669.994695	29709.654544
670.334859	29656.213272
670.674973	29455.928230
671.015035	29639.703493
671.355047	29583.114021
671.695008	29490.835700
672.034918	29405.473842
672.374777	29492.320319
672.714585	29375.042916
673.054342	29505.878503
673.394049	29366.614107
673.733705	29590.060731
674.073310	29290.583425
674.412864	29360.605052
674.752368	29074.519571
675.091820	29328.538272
675.431223	28913.167360
675.770574	28716.738800
676.109875	28560.568895
676.449125	28355.620786
676.788324	28248.720598
677.127473	27780.911603
677.466571	27681.437035
677.805619	27386.166572
678.144616	27309.583883
678.483562	27273.857226
678.822458	26948.160879
679.161303	26893.792034
679.500098	26810.839848
679.838842	26730.166263
680.177535	26784.378831
680.516179	27008.344694
680.854771	27084.461076
681.193314	27774.723587
681.531805	28711.299395
681.870247	29455.466964
682.208638	30256.513872
682.546978	30617.291609
682.885268	30806.864199
683.223508	30395.581663
683.561697	30138.452570
683.899836	29971.061056
684.237925	29566.440404
684.575963	29399.784899
684.913951	29017.466312
685.251889	29153.640481
685.589776	29144.886517
685.927614	29135.421751
686.265401	29312.393977
686.603137	29406.635828
686.940824	29885.313550
687.278460	30203.629648
687.616046	30390.848019
687.953582	31060.930791
688.291068	30997.225730
688.628504	31367.032173
688.965889	31388.479762
689.303224	31131.872429
689.640510	30877.500847
689.977745	30283.736103
690.314930	29549.499607
690.652065	29145.045313
690.989150	28461.295973
691.326185	27629.177913
691.663170	27016.130756
692.000105	26307.999875
692.336990	25711.185233
692.673825	25268.027481
693.010610	24786.962772
693.347345	24266.957671
693.684030	23648.271983
694.020665	23452.352579
694.357251	22783.172174
694.693786	22798.809833
695.030272	22558.722361
695.366707	22061.803223
695.703093	21777.434255
696.039429	21831.074653
696.375716	21607.111311
696.711952	21590.483065
697.048139	21461.064043
697.384276	21289.185902
697.720363	21403.615053
698.056400	21302.849950
698.392388	21142.914303
698.728326	21134.770319
699.064214	20985.199284
699.400053	21009.565701
699.735842	20622.382401
700.071581	20436.583114
700.407270	20202.171981
700.742910	20030.064468
701.078501	19769.502349
701.414042	19569.986083
701.749533	19270.231513
702.084974	18967.747159
702.420366	19182.870838
702.755709	18779.497872
703.091002	18483.342686
703.426246	18535.014513
703.761440	18480.804465
704.096584	18238.017455
704.431679	18176.127209
704.766725	18118.043034
705.101721	18033.076907
705.436668	18151.675092
705.771565	17869.486423
706.106413	18174.458587
706.441212	18253.995392
706.775961	18331.631682
707.110661	18410.268640
707.445311	18771.560575
707.779913	18652.962389
708.114465	18936.068548
708.448967	19236.160875
708.783421	19847.531849
709.117825	20179.905204
709.452180	20398.424100
709.786485	20840.588745
710.120742	21569.431206
710.454949	21677.717712
710.789107	22194.836753
711.123216	22877.466957
711.457275	23109.700311
711.791286	23682.798845
712.125247	23849.411500
712.459159	23617.964566
712.793023	24383.715835
713.126837	23405.439602
713.460602	23668.955837
713.794318	23352.721735
714.127985	23088.416560
714.461602	22213.990617
714.795171	22202.617773
715.128691	21221.294163
715.462162	20714.577543
715.795584	20276.934813
716.128957	20010.555202
716.462281	19634.787595
716.795556	19350.010293
717.128782	18881.102327
717.461960	18280.476573
717.795088	18253.705525
718.128167	17916.318743
718.461198	17463.855020
718.794180	17346.502000
719.127113	17018.859767
719.459997	16829.352712
719.792833	16449.854650
720.125619	16495.714027
720.458357	16164.326217
720.791046	16022.208528
721.123686	15876.829213
721.456278	15633.606143
721.788821	15635.196627
722.121315	15384.613472
722.453761	15478.147041
722.786158	15356.688001
723.118506	15427.642241
723.450805	15315.857175
723.783056	15496.295195
724.115259	15375.960332
724.447412	15360.746129
724.779518	15570.939560
725.111574	15624.784124
725.443582	15882.384565
725.775542	15829.172665
726.107453	16334.071949
726.439315	16238.950417
726.771129	16637.136036
727.102895	17034.641099
727.434612	17309.552863
727.766281	17494.414495
728.097901	17818.013722
728.429473	17920.467612
728.760996	17944.755891
729.092471	18058.706133
729.423897	17951.495914
729.755276	17790.574722
730.086606	17879.001601
730.417887	18417.419517
730.749120	18973.925093
731.080305	19178.285908
731.411442	19610.910170
731.742530	19715.153669
732.073570	19861.626915
732.404562	20177.553506
732.735506	20077.156407
733.066401	19959.132913
733.397249	19521.719555
733.728048	18923.891641
734.058798	18070.991425
734.389501	17326.909555
734.720156	16804.018393
735.050762	16222.160855
735.381320	15815.196066
735.711831	15517.349574
736.042293	15150.144366
736.372707	15172.474157
736.703073	14954.315703
737.033391	15136.747499
737.363661	15120.898112
737.693883	15232.753754
738.024056	15417.950623
738.354182	15616.352794
738.684260	15967.464118
739.014290	16247.192704
739.344272	16458.235569
739.674207	16808.031152
740.004093	16980.166391
740.333931	17057.515335
740.663722	17158.691293
740.993464	17195.587498
741.323159	17079.840085
741.652806	16793.104295
741.982405	16630.885006
742.311956	16280.983558
742.641460	16178.290213
742.970915	15846.322671
743.300323	15508.605692
743.629683	15300.653055
743.958996	14990.135622
744.288260	14684.530794
744.617477	14369.955232
744.946647	14333.033821
745.275768	14019.229556
745.604842	13827.179238
745.933869	13643.663594
746.262847	13600.914610
746.591778	13503.622861
746.920662	13395.520358
747.249498	13384.081980
747.578286	13527.732179
747.907027	13694.997664
748.235720	13945.694245
748.564365	14031.096432
748.892963	13972.926558
749.221514	14081.150049
749.550017	13967.726608
749.878473	13935.730404
750.206881	13720.183269
750.535242	13651.154749
750.863555	13573.505856
751.191821	13473.358294
751.520039	13483.228873
751.848210	13401.897418
752.176334	13442.375363
752.504411	13372.759548
752.832440	13201.808980
753.160421	13315.686125
753.488356	13203.946430
753.816243	13119.461732
754.144082	12942.892798
754.471875	12894.780026
754.799620	12852.953573
755.127318	12825.645642
755.454969	12819.429899
755.782572	12784.784570
756.110129	12792.295889
756.437638	12708.239690
756.765100	12712.345709
757.092515	12730.120818
757.419882	12766.656580
757.747203	12770.379473
758.074477	12850.654806
758.401703	12832.690655
758.728882	13022.071681
759.056014	13054.811455
759.383099	13222.694481
759.710138	13352.516795
760.037129	13483.367505
760.364073	13553.323597
760.690970	13579.537597
761.017820	13578.060539
761.344623	13775.648564
761.671379	14084.946037
761.998088	14627.258245
762.324751	16041.727876
762.651366	18968.520976
762.977935	23281.154995
763.304456	26568.693064
763.630931	28175.021449
763.957359	27394.978509
764.283740	25353.769946
764.610074	23202.248334
764.936362	20579.698951
765.262602	18681.623870
765.588796	16703.580965
765.914943	15367.793663
766.241044	14215.111150
766.567097	13399.921285
766.893104	12660.946105
767.219064	12179.798217
767.544978	11691.277642
767.870845	11293.210490
768.196665	11069.663043
768.522438	10839.342807
768.848165	10637.573144
769.173846	10427.185630
769.499479	10294.419282
769.825066	10127.897367
770.150607	9909.875025
770.476101	9817.815994
770.801548	9707.495383
771.126949	9551.716168
771.452303	9441.839178
771.777611	9244.011699
772.102872	9227.143998
772.428087	9097.929142
772.753256	8948.285011
773.078378	8857.980302
773.403453	8674.378958
773.728482	8561.532729
774.053465	8488.425916
774.378401	8377.820480
774.703291	8262.688088
775.028135	8146.887743
775.352932	8115.761139
775.677683	8012.903956
776.002388	7904.866988
776.327046	7911.594408
776.651658	7813.370046
776.976224	7717.139460
777.300743	7713.809778
777.625216	7625.332487
777.949643	7582.868327
778.274024	7595.617405
778.598359	7512.985332
778.922647	7527.808845
779.246889	7482.783779
779.571086	7484.477607
779.895236	7488.727300
780.219339	7497.803897
780.543397	7502.298086
780.867409	7578.840445
781.191374	7597.596058
781.515294	7560.588948
781.839167	7650.611353
782.162995	7627.185111
782.486776	7572.549085
782.810511	7529.986623
783.134201	7439.467665
783.457844	7440.390196
783.781441	7384.806434
784.104993	7320.325035
784.428498	7303.240565
784.751958	7283.769108
785.075372	7250.621001
785.398739	7195.710233
785.722061	7236.742704
786.045337	7237.801347
786.368568	7373.990638
786.691752	7374.214970
787.014891	7669.508118
787.337983	7979.166034
787.661030	8534.113893
787.984031	9150.215990
788.306987	9589.502136
788.629897	9846.457310
788.952760	9850.454945
789.275579	9670.972224
789.598351	9293.752764
789.921078	8963.589954
790.243759	8554.263385
790.566395	8257.057119
790.888984	8011.341198
791.211529	7798.357490
791.534027	7573.950526
791.856480	7366.076027
792.178888	7288.212885
792.501249	7188.128337
792.823566	7031.958432
793.145836	7029.072372
793.468062	6995.841085
793.790241	6941.260513
794.112375	7000.501632
794.434464	7139.261912
794.756507	7165.435583
795.078505	7302.670914
795.400457	7583.518636
795.722364	7923.378105
796.044226	8211.089358
796.366042	8496.320363
796.687812	8471.157444
797.009538	8576.207528
797.331218	8482.489957
797.652852	8412.488495
797.974442	8259.174404
798.295986	8184.837549
798.617484	7994.685226
798.938938	7852.189451
799.260346	7755.134637
799.581709	7556.727424
799.903026	7477.901422
800.224299	7369.929989
800.545526	7201.502518
800.866708	7106.607838
801.187845	7037.896911
801.508936	6930.079233
801.829983	6897.800725
802.150984	6742.132415
802.471940	6701.941816
802.792851	6685.255597
803.113717	6655.328787
803.434538	6624.509693
803.755314	6567.249747
804.076045	6564.961063
804.396731	6509.029461
804.717372	6533.713471
805.037967	6532.725405
805.358518	6567.980714
805.679024	6646.854608
805.999485	6660.228789
806.319901	6699.355704
806.640272	6724.226237
806.960598	6804.536859
807.280879	6805.724050
807.601115	6886.992492
807.921306	6832.192629
808.241453	6846.403641
808.561554	6872.073197
808.881611	6840.132446
809.201623	6844.097313
809.521590	6792.067565
809.841513	6775.068794
810.161390	6810.170348
810.481223	6683.355082
810.801011	6670.921076
811.120755	6643.988712
811.440453	6567.552216
811.760107	6533.902514
812.079716	6505.183061
812.399281	6444.848011
812.718801	6431.778820
813.038276	6387.225102
813.357707	6326.630433
813.677093	6371.116095
813.996434	6268.145487
814.315731	6308.489841
814.634983	6300.769314
814.954191	6303.403317
815.273354	6402.101547
815.592473	6453.869156
815.911547	6576.780048
816.230577	6654.733931
816.549562	6797.912783
816.868502	6891.668162
817.187399	6984.271637
817.506250	7130.369317
817.825058	7151.610219
818.143821	7392.216930
818.462539	7632.717777
818.781213	7956.004453
819.099843	8440.618134
819.418429	9346.619344
819.736970	10238.376774
820.055466	11338.255720
820.373919	12711.912170
820.692327	14712.816708
821.010691	18021.608282
821.329011	25451.664113
821.647286	37093.482994
821.965517	51058.368912
822.283704	58533.157421
822.601847	61681.042926
822.919945	59530.320337
823.237999	55689.923967
823.556010	49745.052553
823.873976	43087.656892
824.191897	36612.698069
824.509775	31747.959402
824.827609	27097.109331
825.145398	24274.209370
825.463144	22623.455817
825.780845	22505.603723
826.098502	23735.166351
826.416116	27018.074121
826.733685	30749.637021
827.051210	32611.942595
827.368692	31655.673519
827.686129	28155.935641
828.003522	24153.602285
828.320872	20407.906510
828.638177	17500.778952
828.955439	15309.306196
829.272656	13462.910503
829.589830	11981.781694
829.906960	10678.081336
830.224046	9707.923881
830.541088	8932.072660
830.858086	8441.041591
831.175041	8031.886421
831.491952	7878.458904
831.808819	7861.697067
832.125642	8160.309815
832.442421	8856.677163
832.759157	10338.612557
833.075849	12908.839804
833.392497	16046.343053
833.709101	18529.307927
834.025662	18899.321057
834.342179	17566.102223
834.658653	15491.634648
834.975083	13564.091502
835.291469	11923.765575
835.607811	10578.924361
835.924110	9670.314353
836.240366	8803.639184
836.556578	7999.890217
836.872746	7344.459559
837.188871	6826.576783
837.504952	6391.716770
837.820990	6070.363377
838.136984	5835.120453
838.452935	5722.896807
838.768842	5701.116502
839.084706	5981.550849
839.400526	6943.193795
839.716303	8437.495139
840.032037	9682.312299
840.347727	9917.318289
840.663373	9121.075600
840.978977	8089.632838
841.294537	7249.625373
841.610054	6637.813298
841.925527	6199.928593
842.240957	5834.404610
842.556344	5508.589795
842.871687	5229.980346
843.186987	4945.472746
843.502244	4714.466912
843.817458	4544.688413
844.132629	4403.556269
844.447756	4316.079647
844.762840	4229.996904
845.077881	4156.136439
845.392879	4099.748612
845.707833	4045.800704
846.022745	4005.317718
846.337613	3974.143223
846.652438	3930.038168
846.967221	3915.544851
847.281960	3880.307185
847.596656	3861.271788
847.911309	3845.349304
848.225919	3822.797702
848.540485	3802.819610
848.855009	3790.930048
849.169490	3769.006070
849.483928	3756.072990
849.798323	3752.806322
850.112675	3729.617015
850.426984	3735.237901
850.741251	3721.115109
851.055474	3715.242164
851.369654	3723.219790
851.683792	3719.083524
851.997887	3725.039647
852.311938	3727.277919
852.625947	3728.828074
852.939914	3720.051425
853.253837	3727.610635
853.567718	3730.617684
853.881555	3716.303327
854.195350	3729.369998
854.509103	3727.025862
854.822812	3726.241962
855.136479	3717.477916
855.450103	3728.432343
855.763685	3710.682441
856.077224	3713.003892
856.390720	3731.230184
856.704173	3751.256168
857.017584	3760.894854
857.330953	3772.703757
857.644278	3791.212353
857.957561	3798.743837
858.270802	3799.305925
858.584000	3803.177532
858.897155	3796.999598
859.210268	3784.187505
859.523339	3760.045419
859.836367	3764.635390
860.149352	3753.769183
860.462295	3744.362390
860.775195	3734.585072
861.088054	3729.501068
861.400869	3726.115933
861.713642	3723.560068
862.026373	3737.813931
862.339062	3739.774940
862.651708	3755.158021
862.964312	3787.421405
863.276873	3797.123106
863.589392	3844.976259
863.901869	3893.515008
864.214303	3940.634673
864.526696	3971.415959
864.839045	4015.853730
865.151353	4042.299623
865.463619	4050.579718
865.775842	4055.043660
866.088023	4077.375972
866.400162	4067.938932
866.712258	4076.110642
867.024313	4080.390582
867.336325	4077.028132
867.648296	4084.418463
867.960224	4080.814038
868.272110	4089.895677
868.583954	4092.166717
868.895755	4102.813634
869.207515	4097.301132
869.519233	4140.521465
869.830909	4150.203001
870.142542	4172.668903
870.454134	4184.808001
870.765684	4213.247671
871.077191	4250.968104
871.388657	4272.062813
871.700081	4309.082526
872.011463	4347.491077
872.322803	4381.612127
872.634101	4412.688320
872.945357	4447.467240
873.256571	4501.485724
873.567744	4531.432698
873.878874	4549.419535
874.189963	4585.796502
874.501010	4601.298050
874.812015	4594.013582
875.122979	4635.570334
875.433900	4638.663082
875.744780	4648.291686
876.055618	4670.467722
876.366415	4673.497455
876.677169	4684.298127
876.987882	4729.023244
877.298554	4770.055716
877.609183	4843.278475
877.919771	4937.215336
878.230317	5065.414399
878.540822	5248.231843
878.851285	5525.865830
879.161707	5914.523668
879.472087	6553.298354
879.782425	7570.910710
880.092722	9392.168690
880.402977	12228.785630
880.713191	15755.874288
881.023363	19473.047215
881.333494	21939.338473
881.643583	23414.506117
881.953631	23648.781139
882.263637	22989.335202
882.573602	21693.078107
882.883526	20254.395814
883.193408	18694.917392
883.503248	17059.967856
883.813048	15596.052068
884.122806	14222.229260
884.432522	12782.765588
884.742197	11557.104812
885.051831	10467.847577
885.361424	9474.901586
885.670975	8646.027509
885.980485	7953.788866
886.289954	7378.991463
886.599382	6906.158958
886.908768	6527.976638
887.218113	6163.193705
887.527417	5877.113265
887.836680	5617.007371
888.145901	5397.160131
888.455082	5226.708637
888.764221	5076.704063
889.073319	4948.482315
889.382376	4868.832084
889.691392	4804.169204
890.000366	4775.071664
890.309300	4753.321606
890.618193	4758.461062
890.927044	4740.065892
891.235855	4759.010548
891.544625	4781.116007
891.853353	4828.470086
892.162041	4917.978293
892.470687	5083.532306
892.779293	5297.516684
893.087858	5617.151043
893.396381	6108.361074
893.704864	6797.166692
894.013306	7819.658885
894.321707	8951.828942
894.630068	9835.086987
894.938387	10188.746615
895.246665	10075.970962
895.554903	9554.612311
895.863100	8898.422958
896.171256	8367.750775
896.479371	7883.820171
896.787446	7397.600882
897.095480	6974.292673
897.403473	6667.263719
897.711425	6354.893662
898.019336	6097.182316
898.327207	5829.358415
898.635038	5604.313745
898.942827	5360.324420
899.250576	5164.730171
899.558284	4969.592147
899.865952	4847.996995
900.173579	4707.789904
900.481165	4597.383594
900.788711	4506.335314
901.096216	4435.686063
901.403681	4364.288202
901.711105	4336.256866
902.018489	4315.464627
902.325832	4368.396742
902.633135	4451.913538
902.940397	4711.568249
903.247619	5323.002237
903.554800	6514.073136
903.861941	8276.730222
904.169041	9852.431077
904.476101	10698.371980
904.783121	10569.777187
905.090100	9945.909193
905.397039	9157.177824
905.703938	8429.058768
906.010796	7762.461954
906.317614	7223.313070
906.624391	6717.418158
906.931129	6298.765455
907.237826	5912.043420
907.544483	5547.091608
907.851099	5188.836969
908.157675	4841.894679
908.464211	4515.931150
908.770707	4275.357207
909.077163	4069.789035
909.383578	3911.620312
909.689954	3795.767035
909.996289	3720.116960
910.302584	3654.297135
910.608839	3620.816312
910.915054	3589.551076
911.221229	3570.911409
911.527363	3577.099426
911.833458	3586.826332
912.139513	3609.816514
912.445527	3633.247797
912.751502	3703.894527
913.057436	3792.109678
913.363331	3905.233171
913.669186	4079.566353
913.975000	4298.198675
914.280775	4660.120753
914.586510	5151.083768
914.892205	5843.461043
915.197859	6770.438494
915.503475	7904.466216
915.809050	8966.803690
916.114585	9676.164612
916.420081	10047.347290
916.725536	10096.768242
917.030952	9731.869362
917.336328	9362.100728
917.641665	8998.263010
917.946961	8547.462869
918.252218	8148.989904
918.557435	7660.015625
918.862612	7246.222594
919.167750	6894.019860
919.472848	6491.934909
919.777906	6132.654395
920.082925	5776.738851
920.387904	5413.826185
920.692843	5149.425228
920.997743	4901.161004
921.302603	4664.725847
921.607423	4503.683667
921.912204	4340.352803
922.216946	4228.771904
922.521647	4108.550467
922.826310	4010.500025
923.130932	3915.602824
923.435516	3818.064059
923.740059	3752.584512
924.044564	3673.950073
924.349028	3621.340592
924.653454	3555.790468
924.957840	3487.316476
925.262186	3440.453909
925.566493	3384.275291
925.870761	3327.121209
926.174989	3291.782721
926.479178	3258.806013
926.783328	3217.823953
927.087438	3192.182124
927.391509	3157.806496
927.695541	3126.533698
927.999533	3100.677620
928.303486	3079.771955
928.607400	3065.394584
928.911275	3054.535938
929.215110	3035.739996
929.518906	3028.851260
929.822663	3027.507792
930.126381	3022.151566
930.430060	3024.657020
930.733699	3029.622556
931.037299	3038.684030
931.340861	3037.045655
931.644383	3048.804147
931.947866	3047.755587
932.251309	3042.149823
932.554714	3039.092364
932.858080	3034.187321
933.161407	3027.323790
933.464694	3020.467821
933.767943	3016.402130
934.071153	3014.085720
934.374323	3002.738083
934.677455	2996.620643
934.980548	2987.329796
935.283602	2982.714620
935.586617	2978.394351
935.889593	2988.055722
936.192530	2987.392810
936.495428	3002.029801
936.798287	3016.366842
937.101108	3045.441697
937.403890	3089.801330
937.706632	3141.261429
938.009336	3220.412585
938.312002	3290.532515
938.614628	3353.438553
938.917216	3407.051224
939.219765	3440.428704
939.522275	3475.963797
939.824747	3481.113336
940.127179	3478.363386
940.429573	3477.261894
940.731929	3474.665700
941.034246	3462.072898
941.336524	3455.111064
941.638763	3441.709157
941.940964	3429.199533
942.243126	3386.745456
942.545250	3367.808362
942.847335	3331.209585
943.149381	3298.096766
943.451389	3269.793208
943.753359	3230.295767
944.055290	3210.791543
944.357182	3182.182995
944.659036	3166.542815
944.960851	3157.352792
945.262628	3140.623723
945.564367	3144.061790
945.866067	3138.095584
946.167729	3133.550984
946.469352	3130.523771
946.770937	3129.996970
947.072484	3116.005248
947.373992	3117.005917
947.675462	3110.752366
947.976893	3094.713935
948.278286	3088.314190
948.579641	3082.731112
948.880958	3076.250709
949.182236	3076.709454
949.483476	3068.716704
949.784678	3071.433886
950.085841	3069.760223
950.386967	3079.474527
950.688054	3092.498347
950.989103	3110.875874
951.290114	3127.030251
951.591087	3155.835404
951.892021	3180.257274
952.192917	3209.725339
952.493776	3234.167373
952.794596	3245.872933
953.095378	3251.682862
953.396122	3248.270001
953.696828	3242.815473
953.997496	3234.245511
954.298126	3214.877398
954.598718	3195.232022
954.899272	3173.010616
955.199788	3146.347953
955.500266	3119.942389
955.800706	3084.369487
956.101108	3047.412788
956.401472	3018.312728
956.701798	2986.286277
957.002087	2948.676749
957.302337	2923.160949
957.602550	2892.669530
957.902724	2863.675333
958.202861	2841.915193
958.502960	2820.182778
958.803022	2799.619912
959.103045	2780.138373
959.403031	2764.316712
959.702979	2750.211563
960.002889	2737.767475
960.302762	2724.852039
960.602596	2717.358363
960.902393	2705.163812
961.202153	2695.242822
961.501875	2689.843746
961.801559	2683.169258
962.101205	2677.487878
962.400814	2670.447906
962.700385	2665.316012
962.999918	2659.057419
963.299414	2654.280926
963.598873	2651.248672
963.898293	2641.756179
964.197677	2645.292549
964.497022	2643.487816
964.796331	2640.508494
965.095601	2635.207720
965.394835	2636.031949
965.694030	2633.823924
965.993189	2633.115642
966.292309	2632.334263
966.591393	2632.611526
966.890439	2631.525157
967.189447	2629.112965
967.488419	2629.246556
967.787353	2632.361989
968.086249	2631.658748
968.385108	2635.313585
968.683930	2635.540437
968.982714	2638.734007
969.281462	2643.039153
969.580172	2649.549803
969.878844	2650.154742
970.177480	2661.131854
970.476078	2665.505055
970.774639	2675.506704
971.073162	2683.413754
971.371649	2686.191430
971.670098	2693.435568
971.968510	2696.447657
972.266885	2703.122145
972.565223	2707.447455
972.863524	2708.261601
973.161788	2712.702858
973.460014	2715.359546
973.758204	2716.808878
974.056356	2717.532283
974.354471	2721.633262
974.652550	2722.586040
974.950591	2722.875906
975.248595	2721.534959
975.546563	2719.170658
975.844493	2714.452138
976.142386	2706.756817
976.440243	2705.710777
976.738062	2701.710622
977.035845	2691.083870
977.333590	2689.879034
977.631299	2687.131605
977.928971	2675.831859
978.226606	2671.314985
978.524204	2666.011691
978.821765	2663.854077
979.119290	2665.608399
979.416777	2667.473626
979.714228	2669.066630
980.011642	2670.392454
980.309020	2676.003258
980.606360	2687.746626
980.903664	2707.293700
981.200931	2739.030284
981.498162	2779.556120
981.795356	2841.267404
982.092513	2920.070721
982.389633	3015.537572
982.686717	3111.155658
982.983764	3189.139787
983.280775	3246.873602
983.577749	3261.313987
983.874686	3256.860127
984.171587	3228.027248
984.468451	3195.146322
984.765279	3154.060918
985.062070	3110.717077
985.358824	3071.242322
985.655543	3020.094775
985.952224	2969.965542
986.248869	2910.328692
986.545478	2851.558920
986.842050	2799.851805
987.138586	2752.890936
987.435086	2713.799309
987.731549	2682.718075
988.027975	2657.353509
988.324366	2640.143010
988.620719	2626.821761
988.917037	2613.016561
989.213318	2602.394850
989.509563	2595.627101
989.805772	2591.614343
990.101944	2588.438416
990.398080	2584.168558
990.694180	2584.213929
990.990244	2583.608990
991.286271	2582.134453
991.582262	2583.941706
991.878217	2585.499423
992.174136	2588.226687
992.470019	2591.160639
992.765865	2594.192893
993.061676	2596.274889
993.357450	2606.306785
993.653188	2610.281735
993.948890	2629.168418
994.244556	2644.959832
994.540186	2661.252842
994.835780	2690.453725
995.131337	2725.101576
995.426859	2761.841505
995.722345	2806.763227
996.017795	2857.441947
996.313208	2893.367729
996.608586	2923.710434
996.903928	2935.564708
997.199234	2940.323557
997.494504	2942.400512
997.789738	2931.922474
998.084936	2909.159144
998.380099	2880.061604
998.675225	2852.413396
998.970316	2826.585044
999.265371	2792.327883
999.560390	2757.871596
999.855373	2729.752040
1000.150320	2700.427648
1000.445232	2673.001251
1000.740108	2655.248827
1001.034948	2634.033132
1001.329752	2621.697428
1001.624521	2607.640171
1001.919254	2598.450147
1002.213951	2588.294743
1002.508613	2577.128587
1002.803239	2575.805284
1003.097829	2570.244891
1003.392384	2562.892368
1003.686903	2558.967830
1003.981386	2559.229970
1004.275834	2552.999104
1004.570246	2550.924669
1004.864623	2549.926521
1005.158964	2543.428473
1005.453270	2544.703885
1005.747540	2543.143648
1006.041775	2541.795140
1006.335974	2538.702392
1006.630138	2536.053265
1006.924266	2537.759696
1007.218359	2537.293389
1007.512416	2534.024201
1007.806438	2530.749972
1008.100425	2531.198634
1008.394376	2528.635208
1008.688292	2534.757689
1008.982172	2532.048069
1009.276017	2533.220137
1009.569827	2535.183666
1009.863602	2531.370033
1010.157341	2528.985568
1010.451045	2529.081350
1010.744714	2524.914836
1011.038347	2528.262162
1011.331945	2527.006915
1011.625508	2526.225536
1011.919036	2527.417769
1012.212528	2523.659589
1012.505986	2526.449867
1012.799408	2524.587161
1013.092795	2522.696728
1013.386147	2521.557427
1013.679464	2522.696728
1013.972745	2524.430885
1014.265992	2518.749505
1014.559204	2522.215298
1014.852380	2522.099352
1015.145521	2522.961389
1015.438628	2522.459794
1015.731699	2522.656399
1016.024736	2522.177489
1016.317737	2522.520288
1016.610703	2523.379805
1016.903635	2526.270906
1017.196531	2527.858870
1017.489393	2528.589837
1017.782219	2529.547656
1018.075011	2528.007584
1018.367768	2532.521937
1018.660490	2530.235774
1018.953177	2530.235774
1019.245829	2530.235774
