Dividing Wavelength (nm)	Counts (n)	Blue Motor Position (mm): 8.000000	Red Motor Position (mm): 0.000000	
326.493990	2066.605896
326.888308	2066.605896
327.282561	2066.605896
327.676750	2040.843079
328.070874	2041.853830
328.464933	2049.627290
328.858929	2058.277910
329.252859	2067.558674
329.646726	2081.273133
330.040528	2098.309712
330.434265	2114.287649
330.827938	2135.513428
331.221547	2157.218116
331.615091	2174.539520
332.008571	2194.691533
332.401986	2215.650130
332.795338	2236.064282
333.188625	2256.274268
333.581847	2275.506270
333.975006	2292.252983
334.368100	2308.830818
334.761129	2328.355206
335.154095	2341.310972
335.546996	2366.640249
335.939833	2403.322205
336.332606	2413.475089
336.725315	2428.207861
337.117960	2438.280087
337.510540	2445.849379
337.903056	2458.359002
338.295508	2465.469550
338.687896	2471.617237
339.080220	2475.990438
339.472480	2477.593525
339.864676	2485.190544
340.256807	2487.486789
340.648875	2486.886892
341.040879	2490.153560
341.432818	2492.081801
341.824694	2493.621873
342.216506	2490.090545
342.608253	2492.447285
342.999937	2489.843529
343.391557	2490.423261
343.783113	2489.697335
344.174605	2487.827067
344.566033	2488.706748
344.957397	2484.588126
345.348697	2483.700883
345.739934	2483.925214
346.131106	2478.725264
346.522215	2474.289048
346.913260	2474.034470
347.304241	2473.535396
347.695159	2472.123873
348.086012	2471.198821
348.476802	2466.896196
348.867528	2464.668006
349.258191	2461.986112
349.648789	2462.303705
350.039324	2460.877059
350.429796	2462.059209
350.820203	2461.824796
351.210548	2462.822944
351.600828	2460.927470
351.991045	2459.775567
352.381198	2458.180041
352.771288	2460.899744
353.161314	2459.979733
353.551276	2457.227263
353.941175	2455.724999
354.331010	2460.781277
354.720782	2459.261369
355.110490	2460.904785
355.500135	2459.846143
355.889717	2460.846812
356.279235	2460.554425
356.668689	2460.156174
357.058080	2460.037707
357.447408	2460.294805
357.836672	2462.807821
358.225873	2464.121041
358.615010	2460.839250
359.004084	2461.769343
359.393095	2464.433593
359.782043	2462.190279
360.170927	2463.805969
360.559748	2462.727162
360.948505	2466.949128
361.337199	2467.395271
361.725830	2465.671196
362.114398	2465.114148
362.502903	2465.928295
362.891344	2468.143882
363.279722	2468.731176
363.668037	2466.997019
364.056289	2466.719756
364.444478	2469.245374
364.832603	2469.694037
365.220665	2468.605148
365.608665	2468.408543
365.996601	2469.210086
366.384474	2470.654377
366.772284	2471.158492
367.160031	2470.830817
367.547715	2471.254274
367.935336	2470.094808
368.322893	2470.427525
368.710388	2467.186063
369.097820	2471.730663
369.485189	2468.985755
369.872495	2473.593369
370.259738	2475.014975
370.646918	2475.231744
371.034035	2473.472382
371.421090	2471.463482
371.808081	2476.852475
372.195010	2473.321147
372.581875	2476.595376
372.968678	2476.376086
373.355418	2473.467340
373.742096	2475.937506
374.128710	2475.277115
374.515262	2478.755511
374.901751	2475.279635
375.288177	2474.704944
375.674540	2475.955150
376.060841	2474.319295
376.447079	2477.152424
376.833254	2476.476909
377.219367	2476.915490
377.605417	2479.252064
377.991404	2479.138638
378.377329	2477.107053
378.763191	2475.390541
379.148991	2479.073103
379.534727	2482.072590
379.920402	2479.337764
380.306013	2477.275932
380.691563	2480.958495
381.077049	2477.827938
381.462474	2481.061839
381.847835	2478.805922
382.233134	2478.662249
382.618371	2479.647795
383.003545	2479.667960
383.388657	2479.357929
383.773706	2483.940337
384.158693	2483.526963
384.543618	2480.587970
384.928480	2481.944041
385.313280	2480.986221
385.698017	2484.043681
386.082692	2480.023361
386.467305	2481.074442
386.851856	2483.998311
387.236344	2483.998311
387.620770	2479.451190
388.005133	2479.567137
388.389435	2484.073928
388.773674	2477.351549
389.157851	2483.529483
389.541965	2482.170892
389.926018	2485.969402
390.310008	2482.753146
390.693936	2486.097951
391.077802	2483.758856
391.461606	2485.067035
391.845348	2485.127529
392.229027	2486.274392
392.612645	2483.975626
392.996200	2486.488641
393.379694	2483.685759
393.763125	2486.710452
394.146494	2485.109885
394.529801	2485.561068
394.913047	2484.943527
395.296230	2488.248003
395.679351	2488.104331
396.062410	2484.895636
396.445408	2486.342447
396.828343	2485.848414
397.211217	2487.675833
397.594028	2489.336893
397.976778	2488.174907
398.359466	2484.308342
398.742092	2487.214567
399.124656	2486.297077
399.507158	2490.524084
399.889598	2488.283292
400.271977	2488.064001
400.654294	2490.461070
401.036549	2488.089207
401.418742	2490.138436
401.800874	2487.322952
402.182944	2490.277068
402.564952	2487.333034
402.946898	2488.489979
403.328783	2488.668940
403.710606	2487.998466
404.092367	2491.078611
404.474067	2488.305977
404.855705	2489.644403
405.237282	2491.728920
405.618797	2490.559372
406.000250	2492.976606
406.381642	2491.567603
406.762972	2488.641213
407.144240	2486.483600
407.525447	2489.777994
407.906593	2487.290184
408.287677	2492.855618
408.668700	2491.401245
409.049661	2493.513489
409.430560	2492.137254
409.811399	2490.796307
410.192176	2493.120279
410.572891	2491.721358
410.953545	2494.476349
411.334138	2491.915443
411.714669	2494.292347
412.095139	2493.304281
412.475547	2492.595999
412.855894	2491.978457
413.236180	2494.315032
413.616405	2496.076915
413.996568	2491.802017
414.376670	2493.137923
414.756711	2492.664054
415.136691	2493.911740
415.516609	2495.063643
415.896466	2493.258910
416.276262	2494.670433
416.655997	2496.444920
417.035670	2496.132368
417.415283	2498.242091
417.794834	2493.760505
418.174324	2497.251504
418.553753	2494.373005
418.933121	2493.810917
419.312428	2496.041627
419.691674	2497.387615
420.070859	2494.962820
420.449983	2496.331494
420.829045	2497.654797
421.208047	2498.511793
421.586988	2497.369971
421.965867	2498.816783
422.344686	2496.802842
422.723444	2499.068840
423.102141	2497.473315
423.480777	2497.339724
423.859352	2495.477018
424.237866	2495.769405
424.616319	2497.380054
424.994712	2496.490290
425.373044	2496.686895
425.751314	2495.928201
426.129524	2491.013076
426.507673	2496.041627
426.885762	2493.644559
427.263789	2499.988851
427.641756	2498.789056
428.019662	2497.876607
428.397508	2497.924498
428.775292	2497.400218
429.153016	2499.288130
429.530679	2500.109838
429.908282	2498.572287
430.285824	2499.381392
430.663305	2497.155722
431.040726	2499.267966
431.418086	2498.332832
431.795385	2497.077584
432.172624	2498.045486
432.549802	2498.789056
432.926920	2497.604385
433.303977	2499.227637
433.680974	2499.530106
434.057910	2498.965497
434.434786	2498.514313
434.811601	2496.162615
435.188355	2501.264263
435.565050	2495.953407
435.941683	2499.726711
436.318257	2499.704026
436.694770	2498.615136
437.071222	2500.011536
437.447614	2499.479694
437.823946	2498.126144
438.200218	2500.591269
438.576429	2498.418531
438.952580	2498.915085
439.328670	2501.964983
439.704700	2499.177225
440.080670	2500.314005
440.456580	2497.506083
440.832429	2501.337359
441.208218	2502.179232
441.583947	2503.484891
441.959616	2499.646052
442.335224	2500.855929
442.710773	2498.917606
443.086261	2500.442555
443.461689	2501.778460
443.837057	2500.089674
444.212365	2502.015395
444.587612	2498.171515
444.962800	2497.508603
445.337927	2498.010198
445.712995	2497.445589
446.088002	2500.195538
446.462949	2503.653770
446.837837	2503.036228
447.212664	2500.838285
447.587431	2502.254849
447.962139	2499.401556
448.336786	2501.443224
448.711374	2501.720487
449.085901	2506.222238
449.460369	2501.728049
449.834776	2503.825169
450.209124	2500.193018
450.583412	2503.978924
450.957640	2503.305930
451.331808	2501.944818
451.705917	2501.748213
452.079965	2502.264932
452.453954	2502.736280
452.827883	2500.354334
453.201752	2501.274345
453.575562	2502.108656
453.949311	2504.293996
454.323001	2501.622185
454.696632	2503.847854
455.070202	2501.526403
455.443713	2501.952380
455.817164	2504.079747
456.190556	2502.539675
456.563888	2504.067144
456.937160	2503.598317
457.310373	2506.244923
457.683526	2504.558657
458.056619	2503.484891
458.429653	2502.040600
458.802628	2503.621002
459.175542	2504.384737
459.548398	2504.543533
459.921194	2502.406084
460.293930	2502.446413
460.666607	2501.470950
461.039224	2501.831393
461.411782	2504.563698
461.784280	2504.397340
462.156719	2505.234171
462.529099	2504.838441
462.901419	2506.980931
463.273680	2501.002123
463.645882	2499.441886
464.018024	2503.633605
464.390106	2497.372492
464.762130	2503.958759
465.134094	2502.764006
465.505999	2505.201404
465.877845	2502.073368
466.249631	2509.337671
466.621358	2504.188132
466.993026	2504.334325
467.364634	2507.447238
467.736184	2502.406084
468.107674	2503.870539
468.479105	2506.620489
468.850477	2504.261229
469.221790	2501.450785
469.593043	2506.527227
469.964238	2503.983965
470.335373	2503.593276
470.706449	2506.559995
471.077467	2503.636126
471.448425	2503.520179
471.819324	2506.660818
472.190164	2506.149141
472.560945	2503.089160
472.931667	2506.754079
473.302330	2504.059583
473.672934	2506.834738
474.043479	2504.707371
474.413965	2503.517658
474.784393	2503.250477
475.154761	2506.796929
475.525070	2503.089160
475.895321	2505.521517
476.265513	2505.372803
476.635645	2506.980931
477.005719	2506.491939
477.375734	2509.486385
477.745691	2504.936743
478.115588	2505.508914
478.485427	2508.397495
478.855207	2507.926148
479.224928	2506.128976
479.594591	2506.373472
479.964194	2507.757269
480.333739	2505.909686
480.703226	2508.107629
481.072653	2508.778103
481.442022	2507.694254
481.811333	2505.821466
482.180584	2503.583193
482.549777	2504.200735
482.918912	2503.255518
483.287988	2511.066786
483.657005	2508.059738
484.025964	2511.207939
484.394864	2506.953205
484.763706	2508.216014
485.132489	2508.430263
485.501213	2507.958915
485.869879	2507.069151
486.238487	2508.135355
486.607036	2508.105108
486.975527	2507.520335
487.343959	2509.456138
487.712333	2508.531086
488.080648	2509.801457
488.448905	2509.095695
488.817104	2507.868174
489.185244	2511.701972
489.553326	2508.891528
489.921350	2511.752383
490.289315	2509.564522
490.657222	2508.982269
491.025070	2510.998731
491.392861	2512.034688
491.760593	2509.221724
492.128267	2509.897239
492.495883	2510.076200
492.863440	2511.044101
493.230939	2508.911693
493.598380	2510.023267
493.965763	2511.999400
494.333088	2507.588390
494.700354	2512.526200
495.067563	2508.369769
495.434713	2508.286590
495.801805	2505.244254
496.168839	2509.438494
496.535815	2509.932527
496.902733	2510.764317
497.269593	2512.067455
497.636395	2507.976559
498.003139	2507.290962
498.369825	2510.887825
498.736453	2507.147289
499.103023	2510.804646
499.469535	2510.676097
499.835989	2511.530572
500.202385	2507.598473
500.568723	2505.869357
500.935003	2508.127794
501.301226	2505.022443
501.667390	2507.517814
502.033497	2509.519152
502.399546	2508.213493
502.765537	2511.056704
503.131470	2508.362207
503.497345	2513.481499
503.863163	2510.794564
504.228923	2509.607372
504.594625	2510.976046
504.960269	2510.066117
505.325856	2510.492095
505.691385	2508.427742
506.056856	2510.635768
506.422270	2512.611900
506.787625	2510.754235
507.152924	2511.623834
507.518164	2510.776920
507.883347	2511.369256
508.248472	2511.487723
508.613540	2511.102074
508.978550	2510.539986
509.343503	2509.118380
509.708398	2509.919924
510.073236	2511.437311
510.438016	2510.812208
510.802738	2510.726508
511.167403	2512.538803
511.532010	2511.437311
511.896561	2511.054183
512.261053	2512.455624
512.625488	2512.768176
512.989866	2511.026457
513.354186	2511.777589
513.718449	2510.703823
514.082655	2512.027126
514.446803	2511.470079
514.810894	2511.071827
515.174927	2511.427229
515.538904	2512.586694
515.902822	2512.178361
516.266684	2510.303052
516.630488	2511.681807
516.994235	2514.126767
517.357925	2512.238855
517.721558	2513.945285
518.085133	2514.426715
518.448651	2509.914883
518.812112	2510.605521
519.175516	2511.006293
519.538863	2505.776095
519.902152	2512.203567
520.265385	2510.618124
520.628560	2511.482682
520.991678	2514.812364
521.354739	2512.705161
521.717743	2514.560306
522.080690	2513.738598
522.443580	2514.189781
522.806413	2512.828670
523.169189	2512.909328
523.531908	2514.146931
523.894569	2514.434277
524.257174	2512.662312
524.619722	2515.432426
524.982213	2516.929648
525.344647	2516.271778
525.707025	2516.619617
526.069345	2518.371418
526.431608	2514.083917
526.793815	2516.566685
527.155964	2517.902591
527.518057	2520.481141
527.880093	2520.849145
528.242072	2517.194309
528.603995	2519.064577
528.965860	2519.001563
529.327669	2517.572395
529.689421	2521.764115
530.051117	2523.808303
530.412755	2519.803106
530.774337	2521.290246
531.135862	2522.081707
531.497331	2523.704959
531.858743	2520.508867
532.220098	2521.595236
532.581396	2522.956348
532.942638	2522.391738
533.303824	2523.364681
533.664953	2524.667819
534.026025	2525.250073
534.387040	2526.575896
534.747999	2523.493231
535.108902	2525.804600
535.469748	2524.151101
535.830537	2529.860208
536.191270	2526.457429
536.551947	2526.409538
536.912567	2527.758047
537.273131	2523.561286
537.633638	2523.246214
537.994089	2529.870290
538.354483	2533.021011
538.714821	2531.606968
539.075103	2531.735517
539.435328	2530.296268
539.795497	2532.060672
540.155609	2533.338604
540.515665	2534.729962
540.875665	2535.869263
541.235609	2535.513862
541.595496	2536.237268
541.955328	2536.048224
542.315102	2537.374048
542.674821	2535.891948
543.034483	2536.098636
543.394090	2533.920857
543.753640	2538.220962
544.113134	2538.324305
544.472571	2539.652649
544.831953	2541.391847
545.191278	2543.178936
545.550548	2541.787578
545.909761	2542.596683
546.268918	2544.146838
546.628019	2545.865871
546.987064	2544.179605
547.346053	2542.095088
547.704986	2544.179605
548.063863	2544.935778
548.422684	2544.398896
548.781449	2545.361756
549.140158	2542.286652
549.498811	2549.452652
549.857408	2545.003834
550.215949	2549.034237
550.574434	2547.060625
550.932864	2547.249668
551.291237	2549.331665
551.649555	2547.219421
552.007817	2549.429967
552.366022	2551.640513
552.724173	2551.196892
553.082267	2552.820143
553.440305	2555.136553
553.798288	2552.537838
554.156215	2554.130843
554.514086	2548.010882
554.871902	2552.144628
555.229661	2551.610266
555.587365	2547.907539
555.945014	2551.413661
556.302606	2554.070349
556.660143	2555.106306
557.017625	2554.027499
557.375050	2553.019269
557.732421	2554.589588
558.089735	2556.810216
558.446994	2556.064126
558.804197	2556.462377
559.161345	2556.510268
559.518437	2554.405586
559.875474	2557.258879
560.232455	2558.194013
560.589381	2558.587223
560.946251	2557.122768
561.303065	2561.236349
561.659825	2560.286092
562.016528	2559.378684
562.373177	2559.240052
562.729770	2558.688046
563.086307	2557.468087
563.442789	2558.982954
563.799216	2558.768705
564.155587	2560.971689
564.511904	2561.823644
564.868164	2560.117213
565.224370	2561.891699
565.580520	2559.693756
565.936615	2562.720969
566.292654	2561.470763
566.648638	2561.997564
567.004567	2564.775239
567.360441	2560.976730
567.716260	2564.213151
568.072023	2562.726010
568.427732	2563.318346
568.783385	2564.394632
569.138982	2563.131823
569.494525	2564.475291
569.850013	2567.875549
570.205445	2564.777760
570.560823	2565.075188
570.916145	2564.515620
571.271412	2563.119220
571.626625	2563.779612
571.981782	2568.513255
572.336884	2563.696432
572.691931	2561.347255
573.046923	2563.308264
573.401860	2562.965465
573.756743	2565.642318
574.111570	2565.712894
574.466342	2563.658624
574.821059	2565.349931
575.175722	2564.112328
575.530330	2563.227605
575.884882	2563.973696
576.239380	2563.580486
576.593823	2568.165415
576.948211	2565.380178
577.302544	2565.299519
577.656823	2564.618964
578.011047	2565.375137
578.365216	2566.370765
578.719330	2564.331618
579.073389	2565.211299
579.427394	2564.959242
579.781344	2564.051834
580.135239	2564.387071
580.489080	2564.971844
580.842866	2562.642831
581.196597	2567.384037
581.550273	2563.966134
581.903895	2566.108625
582.257463	2566.247256
582.610975	2563.819941
582.964434	2561.987481
583.317837	2565.138202
583.671186	2566.441341
584.024481	2564.321536
584.377721	2564.608881
584.730906	2564.470250
585.084037	2564.571073
585.437113	2564.734910
585.790135	2567.595765
586.143103	2563.530074
586.496016	2568.266238
586.848874	2562.042934
587.201679	2565.246587
587.554428	2564.387071
587.907124	2564.029149
588.259765	2562.859601
588.612352	2564.351782
588.964884	2564.971844
589.317362	2565.032338
589.669786	2563.530074
590.022155	2563.328428
590.374470	2560.432285
590.726731	2561.654765
591.078937	2557.659651
591.431090	2564.213151
591.783188	2561.934549
592.135232	2563.129303
592.487222	2563.860270
592.839157	2565.657441
593.191038	2563.638459
593.542866	2563.401525
593.894639	2563.519992
594.246358	2563.192317
594.598022	2561.054868
594.949633	2561.226267
595.301190	2560.490259
595.652692	2563.709035
596.004141	2562.083263
596.355535	2561.223747
596.706876	2561.087635
597.058162	2562.403377
597.409395	2562.408418
597.760573	2564.440003
598.111698	2564.074519
598.462768	2559.454302
598.813785	2562.874724
599.164748	2561.163253
599.515657	2561.710218
599.866511	2563.215002
600.217312	2563.285578
600.568060	2561.553942
600.918753	2563.361196
601.269392	2562.327759
601.619978	2560.618808
601.970510	2561.478325
602.320988	2563.157029
602.671412	2561.768191
603.021783	2564.470250
603.372100	2563.363716
603.722363	2562.645352
604.072572	2563.731721
604.422728	2565.680127
604.772830	2562.340362
605.122878	2563.194838
605.472872	2562.599982
605.822813	2564.921433
606.172701	2562.892368
606.522534	2564.044272
606.872314	2565.980075
607.222041	2565.642318
607.571714	2567.089129
607.921333	2562.393294
608.270899	2563.623336
608.620411	2564.334138
608.969870	2568.377144
609.319276	2566.897565
609.668627	2568.631722
610.017926	2571.424521
610.367171	2570.398647
610.716362	2572.155489
611.065500	2571.558112
611.414585	2572.727660
611.763616	2575.190263
612.112594	2575.044070
612.461518	2573.380489
612.810389	2576.571539
613.159207	2575.641447
613.507971	2579.140007
613.856682	2578.787127
614.205340	2579.228228
614.553945	2581.292580
614.902496	2582.005903
615.250994	2582.729309
615.599439	2584.239134
615.947830	2584.133270
616.296169	2585.756522
616.644454	2590.059147
616.992686	2590.898499
617.340864	2593.585434
617.688990	2593.298088
618.037063	2595.617019
618.385082	2598.442585
618.733048	2600.794284
619.080961	2600.519541
619.428821	2605.485077
619.776628	2607.927516
620.124382	2609.102105
620.472083	2608.398864
620.819731	2610.286776
621.167326	2610.291817
621.514868	2612.474637
621.862357	2614.370111
622.209793	2615.093517
622.557176	2613.881119
622.904506	2614.980091
623.251783	2614.536469
623.599007	2616.888167
623.946179	2614.551592
624.293297	2616.694083
624.640363	2617.614093
624.987376	2617.790534
625.334336	2619.002931
625.681243	2620.069135
626.028097	2620.081738
626.374899	2625.301853
626.721647	2628.797893
627.068343	2629.092801
627.414987	2631.971300
627.761577	2631.031124
628.108115	2634.678399
628.454600	2638.771816
628.801032	2638.287865
629.147412	2643.931437
629.493739	2646.777168
629.840014	2650.832777
630.186236	2655.095072
630.532405	2657.514826
630.878521	2660.249652
631.224585	2666.999757
631.570597	2668.428924
631.916556	2674.690037
632.262462	2676.666170
632.608316	2682.798733
632.954117	2685.034485
633.299866	2691.719055
633.645562	2693.354909
633.991206	2692.810465
634.336797	2694.252235
634.682336	2697.982689
635.027823	2698.363296
635.373257	2700.319263
635.718639	2702.693647
636.063968	2703.666590
636.409245	2705.347814
636.754470	2706.754296
637.099642	2708.929554
637.444762	2709.824359
637.789829	2715.737632
638.134845	2715.543548
638.479808	2721.280381
638.824719	2723.848849
639.169577	2726.634087
639.514383	2732.912844
639.859137	2732.786815
640.203839	2736.466857
640.548489	2739.912486
640.893086	2746.400451
641.237632	2750.640061
641.582125	2757.059971
641.926566	2760.946700
642.270955	2762.592637
642.615292	2766.486928
642.959576	2772.460696
643.303809	2773.736107
643.647990	2785.333282
643.992118	2791.738068
644.336195	2798.604119
644.680219	2805.069399
645.024192	2811.839669
645.368112	2828.273830
645.711981	2835.880932
646.055797	2850.991790
646.399562	2860.880013
646.743274	2881.876419
647.086935	2899.719583
647.430544	2909.829617
647.774101	2922.293870
648.117606	2931.867021
648.461059	2944.686676
648.804460	2948.134825
649.147810	2946.491409
649.491108	2950.363015
649.834354	2958.764098
650.177548	2948.147428
650.520690	2951.746812
650.863781	2958.116309
651.206820	2959.215281
651.549807	2963.860704
651.892742	2965.504120
652.235626	2971.245995
652.578458	2978.573312
652.921238	2974.883187
653.263967	2989.983963
653.606644	2994.004284
653.949269	3001.477794
654.291843	3005.117507
654.634365	3020.528315
654.976836	3023.164838
655.319255	3030.265303
655.661622	3039.432642
656.003938	3047.400185
656.346203	3052.418654
656.688416	3065.409707
657.030577	3072.003537
657.372687	3077.475709
657.714746	3088.369643
658.056753	3099.480346
658.398708	3096.995057
658.740612	3110.621296
659.082465	3126.594192
659.424266	3132.192393
659.766016	3144.316368
660.107715	3153.430774
660.449362	3164.934687
660.790958	3181.860361
661.132503	3188.297915
661.473996	3204.326263
661.815438	3215.444528
662.156829	3229.794172
662.498168	3240.196593
662.839456	3248.587594
663.180693	3265.175511
663.521879	3275.376286
663.863013	3285.967750
664.204097	3297.953093
664.545129	3321.407061
664.886110	3335.698732
665.227040	3352.959643
665.567918	3365.844832
665.908746	3384.434087
666.249522	3400.323804
666.590248	3415.681679
666.930922	3434.896037
667.271545	3454.279274
667.612118	3466.017601
667.952639	3479.212821
668.293109	3489.186744
668.633528	3498.805265
668.973896	3508.537213
669.314213	3517.923841
669.654480	3526.909698
669.994695	3536.709701
670.334859	3550.472051
670.674973	3554.147052
671.015035	3577.981628
671.355047	3588.323555
671.695008	3599.928291
672.034918	3610.136627
672.374777	3632.211840
672.714585	3646.082575
673.054342	3670.932943
673.394049	3679.621371
673.733705	3709.263356
674.073310	3711.090774
674.412864	3729.990060
674.752368	3731.194896
675.091820	3750.215169
675.431223	3751.309100
675.770574	3753.106271
676.109875	3757.550048
676.449125	3760.181530
676.788324	3765.210081
677.127473	3755.876385
677.466571	3761.933331
677.805619	3766.213271
678.144616	3778.632153
678.483562	3789.707568
678.822458	3785.657001
679.161303	3798.522026
679.500098	3808.347235
679.838842	3824.612518
680.177535	3842.813604
680.516179	3864.523333
680.854771	3891.843866
681.193314	3946.341260
681.531805	4025.179865
681.870247	4101.303808
682.208638	4170.881814
682.546978	4212.907393
682.885268	4238.365220
683.223508	4230.664857
683.561697	4234.261720
683.899836	4246.123555
684.237925	4237.321701
684.575963	4248.608844
684.913951	4246.983072
685.251889	4278.442393
685.589776	4300.265548
685.927614	4324.102644
686.265401	4361.444991
686.603137	4395.727358
686.940824	4452.823466
687.278460	4509.924616
687.616046	4555.141245
687.953582	4636.518071
688.291068	4659.702337
688.628504	4713.229309
688.965889	4733.915684
689.303224	4737.126899
689.640510	4734.064398
689.977745	4697.478224
690.314930	4659.737626
690.652065	4635.754336
690.989150	4591.487964
691.326185	4536.584758
691.663170	4499.015559
692.000105	4455.326399
692.336990	4417.530348
692.673825	4393.098396
693.010610	4367.922873
693.347345	4342.475129
693.684030	4299.171617
694.020665	4296.794713
694.357251	4253.312241
694.693786	4269.466618
695.030272	4263.835649
695.366707	4237.881269
695.703093	4224.406265
696.039429	4248.404678
696.375716	4241.745313
696.711952	4260.775669
697.048139	4265.269858
697.384276	4266.419241
697.720363	4291.859424
698.056400	4300.459632
698.392388	4301.480466
698.728326	4316.883711
699.064214	4320.115091
699.400053	4328.853931
699.735842	4305.974654
700.071581	4300.575579
700.407270	4289.104433
700.742910	4281.676293
701.078501	4271.183131
701.414042	4260.800875
701.749533	4244.712032
702.084974	4223.410637
702.420366	4255.374073
702.755709	4229.452460
703.091002	4209.340776
703.426246	4223.135894
703.761440	4229.283581
704.096584	4220.587591
704.431679	4220.995924
704.766725	4232.333479
705.101721	4234.841453
705.436668	4255.134618
705.771565	4243.240015
706.106413	4288.766676
706.441212	4310.267197
706.775961	4334.903316
707.110661	4353.535420
707.445311	4414.200666
707.779913	4413.716715
708.114465	4464.965085
708.448967	4516.437786
708.783421	4601.693780
709.117825	4661.587729
709.452180	4710.209658
709.786485	4779.308754
710.120742	4893.246392
710.454949	4927.642185
710.789107	5019.965877
711.123216	5123.165858
711.457275	5182.946380
711.791286	5272.555411
712.125247	5319.339839
712.459159	5313.489580
712.793023	5423.011168
713.126837	5319.977545
713.460602	5361.100757
713.794318	5339.527139
714.127985	5310.865659
714.461602	5211.817068
714.795171	5216.626329
715.128691	5094.907670
715.462162	5038.799627
715.795584	4988.829190
716.128957	4969.289678
716.462281	4924.741001
716.795556	4896.528183
717.128782	4847.397098
717.461960	4777.720790
717.795088	4780.574083
718.128167	4751.567284
718.461198	4700.344120
718.794180	4694.554355
719.127113	4659.747708
719.459997	4644.341942
719.792833	4604.945324
720.125619	4619.105926
720.458357	4584.382458
720.791046	4572.576076
721.123686	4558.823808
721.456278	4543.317219
721.788821	4551.809042
722.121315	4523.389538
722.453761	4546.999782
722.786158	4547.070358
723.118506	4569.223708
723.450805	4565.412596
723.783056	4601.779480
724.115259	4596.269499
724.447412	4607.410449
724.779518	4651.447448
725.111574	4671.347403
725.443582	4723.699786
725.775542	4728.924942
726.107453	4826.882122
726.439315	4825.049663
726.771129	4904.447836
727.102895	4984.130834
727.434612	5046.502510
727.766281	5089.009520
728.097901	5154.378162
728.429473	5186.596176
728.760996	5200.620666
729.092471	5236.758177
729.423897	5230.393720
729.755276	5223.061362
730.086606	5245.355865
730.417887	5350.347976
730.749120	5462.632116
731.080305	5514.218244
731.411442	5604.512871
731.742530	5643.289426
732.073570	5679.190003
732.404562	5749.017546
732.735506	5748.407566
733.066401	5741.803655
733.397249	5676.288819
733.728048	5580.453964
734.058798	5442.560762
734.389501	5322.288914
734.720156	5232.137960
735.050762	5133.543073
735.381320	5072.794648
735.711831	5027.840159
736.042293	4967.608453
736.372707	4981.287624
736.703073	4955.882729
737.033391	5004.744112
737.363661	5008.096480
737.693883	5044.239032
738.024056	5093.299542
738.354182	5144.515144
738.684260	5222.181681
739.014290	5293.582063
739.344272	5352.132545
739.674207	5432.664977
740.004093	5479.038552
740.333931	5505.728941
740.663722	5540.026431
740.993464	5564.423095
741.323159	5552.352052
741.652806	5503.951934
741.982405	5488.125231
742.311956	5425.249440
742.641460	5418.335497
742.970915	5362.043453
743.300323	5299.054236
743.629683	5259.955047
743.958996	5212.119538
744.288260	5153.140558
744.617477	5101.062918
744.946647	5106.643476
745.275768	5047.316657
745.604842	5011.451368
745.933869	4984.602182
746.262847	4982.840299
746.591778	4974.734124
746.920662	4956.754848
747.249498	4964.475376
747.578286	5007.879710
747.907027	5056.700765
748.235720	5121.582935
748.564365	5147.615454
748.892963	5142.017252
749.221514	5182.154919
749.550017	5167.167569
749.878473	5172.735523
750.206881	5135.753619
750.535242	5125.794819
750.863555	5119.707626
751.191821	5104.264051
751.520039	5115.100011
751.848210	5109.597592
752.176334	5127.201301
752.504411	5118.036483
752.832440	5088.404581
753.160421	5124.942864
753.488356	5106.381336
753.816243	5100.959575
754.144082	5068.693670
754.471875	5062.200663
754.799620	5062.200663
755.127318	5068.688628
755.454969	5072.585440
755.782572	5073.563424
756.110129	5081.956945
756.437638	5067.945058
756.765100	5082.211524
757.092515	5088.114715
757.419882	5110.315956
757.747203	5120.239468
758.074477	5146.423221
758.401703	5152.046628
758.728882	5200.073701
759.056014	5218.252101
759.383099	5266.790851
759.710138	5306.976409
760.037129	5351.658676
760.364073	5377.045927
760.690970	5387.667638
761.017820	5403.060801
761.344623	5463.365604
761.671379	5557.050407
761.998088	5710.062029
762.324751	6092.052942
762.651366	6835.587846
762.977935	7943.487268
763.304456	8811.382396
763.630931	9256.075180
763.957359	9088.850024
764.283740	8578.418074
764.610074	8046.483082
764.936362	7368.672221
765.262602	6888.643469
765.588796	6383.008177
765.914943	6035.271905
766.241044	5736.417182
766.567097	5525.298700
766.893104	5337.523281
767.219064	5213.382347
767.544978	5087.512297
767.870845	4984.942460
768.196665	4930.412299
768.522438	4873.081777
768.848165	4823.698634
769.173846	4768.961785
769.499479	4740.317949
769.825066	4703.825037
770.150607	4647.235564
770.476101	4630.708141
770.801548	4600.907360
771.126949	4563.572575
771.452303	4542.828227
771.777611	4489.155062
772.102872	4492.232686
772.428087	4456.067448
772.753256	4422.029578
773.078378	4396.465887
773.403453	4347.506200
773.728482	4323.170030
774.053465	4306.065395
774.378401	4274.112042
774.703291	4243.973503
775.028135	4215.783371
775.352932	4214.591138
775.677683	4185.906973
776.002388	4153.081499
776.327046	4162.548786
776.651658	4139.215806
776.976224	4111.151702
777.300743	4119.325933
777.625216	4097.596040
777.949643	4086.926437
778.274024	4099.758695
778.598359	4074.873039
778.922647	4080.884615
779.246889	4069.363057
779.571086	4076.713060
779.895236	4081.330757
780.219339	4084.947785
780.543397	4089.888115
780.867409	4117.102784
781.191374	4124.694762
781.515294	4118.854585
781.839167	4154.873630
782.162995	4148.673010
782.486776	4141.428872
782.810511	4131.248262
783.134201	4111.222278
783.457844	4112.132207
783.781441	4098.311883
784.104993	4082.848144
784.428498	4081.126590
784.751958	4078.081733
785.075372	4074.031166
785.398739	4061.443405
785.722061	4080.085592
786.045337	4080.050304
786.368568	4134.530053
786.691752	4136.075167
787.014891	4230.735433
787.337983	4334.694108
787.661030	4510.796735
787.984031	4719.003951
788.306987	4865.280591
788.629897	4963.031085
788.952760	4976.977437
789.275579	4934.712403
789.598351	4814.059948
789.921078	4711.908527
790.243759	4583.719546
790.566395	4490.042305
790.888984	4406.923760
791.211529	4343.768185
791.534027	4274.220426
791.856480	4203.515723
792.178888	4179.968493
792.501249	4146.296106
792.823566	4099.115948
793.145836	4095.246862
793.468062	4091.183692
793.790241	4076.440837
794.112375	4098.291719
794.434464	4154.374555
794.756507	4168.457019
795.078505	4214.079461
795.400457	4310.983041
795.722364	4423.196605
796.044226	4522.784599
796.366042	4628.580774
796.687812	4625.233448
797.009538	4670.805479
797.331218	4643.399246
797.652852	4627.711175
797.974442	4582.832303
798.295986	4561.581319
798.617484	4500.328779
798.938938	4456.306903
799.260346	4427.915125
799.581709	4360.829970
799.903026	4334.184951
800.224299	4301.223367
800.545526	4242.985437
800.866708	4209.560067
801.187845	4183.855223
801.508936	4152.095954
801.829983	4136.397801
802.150984	4085.736725
802.471940	4072.465888
802.792851	4068.100248
803.113717	4059.434505
803.434538	4050.183988
803.755314	4030.399979
804.076045	4030.364691
804.396731	4013.693596
804.717372	4020.831869
805.037967	4021.086448
805.358518	4038.720404
805.679024	4066.424065
805.999485	4072.690219
806.319901	4091.269392
806.640272	4098.871452
806.960598	4133.262203
807.280879	4137.645486
807.601115	4168.562883
807.921306	4148.393226
808.241453	4159.173734
808.561554	4174.027494
808.881611	4162.868900
809.201623	4170.745703
809.521590	4154.858506
809.841513	4157.217766
810.161390	4174.551774
810.481223	4130.277840
810.801011	4130.189620
811.120755	4125.430771
811.440453	4098.798355
811.760107	4089.545317
812.079716	4082.031477
812.399281	4062.048343
812.718801	4064.566400
813.038276	4046.219120
813.357707	4027.529042
813.677093	4053.019637
813.996434	4013.391126
814.315731	4032.567676
814.634983	4031.962737
814.954191	4032.577758
815.273354	4079.500818
815.592473	4104.673820
815.911547	4153.736849
816.230577	4186.816901
816.549562	4248.273608
816.868502	4291.670380
817.187399	4336.778625
817.506250	4398.003438
817.825058	4415.539092
818.143821	4523.054301
818.462539	4622.508704
818.781213	4760.066669
819.099843	4951.522131
819.418429	5326.200849
819.736970	5684.415159
820.055466	6125.959742
820.373919	6689.643921
820.692327	7510.565578
821.010691	8787.809961
821.329011	11399.382231
821.647286	15281.058090
821.965517	20101.353945
822.283704	23454.739566
822.601847	25782.333558
822.919945	24744.811164
823.237999	22992.591787
823.556010	20635.708691
823.873976	18175.161828
824.191897	15757.358908
824.509775	13989.017921
824.827609	12264.343408
825.145398	11250.947977
825.463144	10665.687659
825.780845	10638.432661
826.098502	11083.647204
826.416116	12290.179322
826.733685	13718.121437
827.051210	14453.945896
827.368692	14179.946582
827.686129	12898.041653
828.003522	11376.185362
828.320872	9921.131922
828.638177	8781.989949
828.955439	7892.622025
829.272656	7144.678632
829.589830	6547.785852
829.906960	6019.944277
830.224046	5617.786229
830.541088	5294.854955
830.858086	5093.181074
831.175041	4927.427936
831.491952	4867.546590
831.808819	4871.332497
832.125642	5016.792470
832.442421	5320.499304
832.759157	5951.306447
833.075849	6997.998699
833.392497	8255.680884
833.709101	9250.620651
834.025662	9447.631464
834.342179	8969.780491
834.658653	8147.084348
834.975083	7344.114240
835.291469	6661.463871
835.607811	6083.931643
835.924110	5684.778122
836.240366	5313.600485
836.556578	4965.642403
836.872746	4679.481305
837.188871	4451.074186
837.504952	4265.095938
837.820990	4123.000934
838.136984	4016.108308
838.452935	3969.147440
838.768842	3959.843990
839.084706	4084.388217
839.400526	4502.420858
839.716303	5148.472450
840.032037	5691.092168
840.347727	5817.259645
840.663373	5486.222196
840.978977	5037.735944
841.294537	4672.413607
841.610054	4391.220566
841.925527	4195.061708
842.240957	4033.399466
842.556344	3884.884553
842.871687	3758.754884
843.186987	3629.252683
843.502244	3527.244935
843.817458	3447.488840
844.132629	3383.209087
844.447756	3339.650997
844.762840	3302.023825
845.077881	3266.874380
845.392879	3241.807242
845.707833	3218.050805
846.022745	3197.661858
846.337613	3187.067873
846.652438	3167.699760
846.967221	3161.526867
847.281960	3142.564567
847.596656	3136.568114
847.911309	3126.616877
848.225919	3114.656739
848.540485	3111.090123
848.855009	3104.745831
849.169490	3098.608226
849.483928	3089.090528
849.798323	3085.710434
850.112675	3076.916141
850.426984	3080.568457
850.741251	3074.992941
851.055474	3074.882035
851.369654	3076.391861
851.683792	3073.473033
851.997887	3079.363621
852.311938	3078.874629
852.625947	3081.740525
852.939914	3079.960998
853.253837	3082.577357
853.567718	3086.441401
853.881555	3079.363621
854.195350	3089.279571
854.509103	3085.269333
854.822812	3085.690269
855.136479	3080.855803
855.450103	3086.501895
855.763685	3081.438056
856.077224	3081.604414
856.390720	3088.755291
856.704173	3097.153853
857.017584	3107.589042
857.330953	3111.246399
857.644278	3122.984725
857.957561	3127.478914
858.270802	3128.134264
858.584000	3132.015952
858.897155	3129.134933
859.210268	3121.893316
859.523339	3114.409723
859.836367	3113.756893
860.149352	3110.913682
860.462295	3109.229937
860.775195	3104.042590
861.088054	3101.511931
861.400869	3101.728700
861.713642	3101.141406
862.026373	3105.673403
862.339062	3108.332612
862.651708	3117.386524
862.964312	3133.649286
863.276873	3140.608599
863.589392	3163.124913
863.901869	3185.326154
864.214303	3206.110832
864.526696	3226.348544
864.839045	3248.053232
865.151353	3264.152157
865.463619	3267.149123
865.775842	3272.074330
866.088023	3284.594035
866.400162	3280.120011
866.712258	3287.333903
867.024313	3293.053092
867.336325	3290.540076
867.648296	3295.523257
867.960224	3295.745068
868.272110	3303.029535
868.583954	3304.715801
868.895755	3311.622182
869.207515	3308.841985
869.519233	3331.701098
869.830909	3336.928774
870.142542	3351.285980
870.454134	3357.600025
870.765684	3370.833054
871.077191	3388.691342
871.388657	3398.340110
871.700081	3416.057245
872.011463	3439.606996
872.322803	3456.000828
872.634101	3471.404073
872.945357	3491.079697
873.256571	3515.826721
873.567744	3528.419523
873.878874	3540.074671
874.189963	3560.572003
874.501010	3570.525761
874.812015	3570.462747
875.122979	3593.251282
875.433900	3593.180706
875.744780	3601.307046
876.055618	3615.913790
876.366415	3617.002679
876.677169	3630.835605
876.987882	3656.028771
877.298554	3682.641023
877.609183	3723.575192
877.919771	3777.528141
878.230317	3845.530786
878.540822	3950.757310
878.851285	4098.437912
879.161707	4308.316270
879.472087	4645.750944
879.782425	5163.802599
880.092722	6031.617069
880.402977	7260.274810
880.713191	8582.130884
881.023363	9865.780052
881.333494	10708.386233
881.643583	11325.526807
881.953631	11597.877664
882.263637	11543.143336
882.573602	11161.737198
882.883526	10663.358646
883.193408	10053.943640
883.503248	9407.224096
883.813048	8771.005274
884.122806	8154.683888
884.432522	7516.095724
884.742197	6972.785368
885.051831	6481.416541
885.361424	6027.357294
885.670975	5637.965968
885.980485	5312.451102
886.289954	5039.510430
886.599382	4806.833454
886.908768	4612.401191
887.218113	4427.897481
887.527417	4282.906334
887.836680	4147.148061
888.145901	4039.544632
888.455082	3959.372642
888.764221	3877.214437
889.073319	3806.305568
889.382376	3769.913478
889.691392	3733.700349
890.000366	3717.606466
890.309300	3705.091801
890.618193	3709.764951
890.927044	3699.380174
891.235855	3709.033983
891.544625	3726.617528
891.853353	3747.929006
892.162041	3796.755102
892.470687	3881.590159
892.779293	3995.182479
893.087858	4166.848891
893.396381	4417.984052
893.704864	4758.990383
894.013306	5261.578298
894.321707	5818.635880
894.630068	6273.065653
894.938387	6463.044056
895.246665	6429.580877
895.554903	6194.348035
895.863100	5867.293097
896.171256	5604.117140
896.479371	5353.445765
896.787446	5111.417448
897.095480	4891.066093
897.403473	4728.335127
897.711425	4566.425868
898.019336	4432.772277
898.327207	4293.848159
898.635038	4177.702495
898.942827	4050.178947
899.250576	3943.419911
899.558284	3844.570446
899.865952	3782.909573
900.173579	3706.004250
900.481165	3642.851195
900.788711	3597.017024
901.096216	3553.300138
901.403681	3518.160775
901.711105	3503.463291
902.018489	3493.678412
902.325832	3518.649767
902.633135	3572.330494
902.940397	3710.546330
903.247619	4028.721275
903.554800	4617.328919
903.861941	5453.021157
904.169041	6209.443771
904.476101	6638.486292
904.783121	6617.560463
905.090100	6349.701273
905.397039	5982.589327
905.703938	5620.195900
906.010796	5278.040186
906.317614	5005.661603
906.624391	4736.731168
906.931129	4523.001369
907.237826	4318.567457
907.544483	4127.222901
907.851099	3941.665589
908.157675	3760.219339
908.464211	3592.845470
908.770707	3465.909216
909.077163	3353.688090
909.383578	3274.118518
909.689954	3208.853219
909.996289	3168.508865
910.302584	3130.226343
910.608839	3112.363014
910.915054	3095.853235
911.221229	3085.153386
911.527363	3091.999273
911.833458	3096.601847
912.139513	3108.781274
912.445527	3122.861217
912.751502	3163.109789
913.057436	3212.553426
913.363331	3277.564146
913.669186	3376.978221
913.975000	3496.932477
914.280775	3695.949669
914.586510	3962.256182
914.892205	4319.754648
915.197859	4787.775372
915.503475	5338.881872
915.809050	5852.242733
916.114585	6208.397731
916.420081	6405.393421
916.725536	6460.765454
917.030952	6292.325381
917.336328	6120.895903
917.641665	5945.967865
917.946961	5724.129369
918.252218	5524.855078
918.557435	5276.497593
918.862612	5065.285850
919.167750	4880.880442
919.472848	4666.066794
919.777906	4481.505111
920.082925	4293.626348
920.387904	4107.615333
920.692843	3965.500165
920.997743	3837.074250
921.302603	3707.849312
921.607423	3617.511835
921.912204	3530.594781
922.216946	3467.308136
922.521647	3400.810276
922.826310	3342.491687
923.130932	3293.900005
923.435516	3236.032600
923.740059	3199.128834
924.044564	3154.839777
924.349028	3123.322483
924.653454	3086.191864
924.957840	3051.012172
925.262186	3024.823378
925.566493	2989.288284
925.870761	2956.775363
926.174989	2938.803649
926.479178	2919.377563
926.783328	2892.634242
927.087438	2876.459699
927.391509	2858.482945
927.695541	2842.555419
927.999533	2826.426247
928.303486	2814.282108
928.607400	2807.995789
928.911275	2799.083029
929.215110	2787.150618
929.518906	2784.498971
929.822663	2782.316151
930.126381	2782.190122
930.430060	2783.132818
930.733699	2785.837397
931.037299	2793.162194
931.340861	2791.957358
931.644383	2792.945424
931.947866	2796.207051
932.251309	2791.637245
932.554714	2792.559776
932.858080	2789.318314
933.161407	2786.568365
933.464694	2781.166768
933.767943	2775.825666
934.071153	2775.561005
934.374323	2771.354162
934.677455	2767.210334
934.980548	2763.842843
935.283602	2758.985691
935.586617	2758.549632
935.889593	2763.313522
936.192530	2765.400560
936.495428	2773.748710
936.798287	2782.747170
937.101108	2802.790798
937.403890	2825.155877
937.706632	2859.556711
938.009336	2901.357958
938.312002	2943.565019
938.614628	2980.189002
938.917216	3010.740914
939.219765	3030.098945
939.522275	3052.637944
939.824747	3057.709345
940.127179	3059.536763
940.429573	3057.396793
940.731929	3053.772204
941.034246	3049.129301
941.336524	3043.359700
941.638763	3036.022301
941.940964	3028.213554
942.243126	3004.860408
942.545250	2992.227277
942.847335	2970.043679
943.149381	2949.488375
943.451389	2934.430448
943.753359	2911.488157
944.055290	2901.191600
944.357182	2884.550751
944.659036	2874.876777
944.960851	2868.872763
945.262628	2859.854139
945.564367	2860.713655
945.866067	2858.447657
946.167729	2857.741895
946.469352	2856.025382
946.770937	2852.816688
947.072484	2842.419308
947.373992	2847.495750
947.675462	2842.870491
947.976893	2832.626867
948.278286	2826.529591
948.579641	2823.978767
948.880958	2817.299238
949.182236	2823.376349
949.483476	2821.130515
949.784678	2819.623210
950.085841	2819.638334
950.386967	2826.083449
950.688054	2834.653411
950.989103	2844.282014
951.290114	2854.444981
951.591087	2871.274873
951.892021	2882.945144
952.192917	2901.549522
952.493776	2914.684248
952.794596	2918.460073
953.095378	2923.602050
953.396122	2922.785383
953.696828	2919.249013
953.997496	2914.805236
954.298126	2901.350397
954.598718	2890.585013
954.899272	2878.554299
955.199788	2862.641897
955.500266	2845.522138
955.800706	2827.132009
956.101108	2802.246353
956.401472	2785.353447
956.701798	2768.594131
957.002087	2745.525811
957.302337	2729.762122
957.602550	2714.623537
957.902724	2695.504962
958.202861	2681.004082
958.502960	2669.480005
958.803022	2657.197233
959.103045	2643.051756
959.403031	2636.478091
959.702979	2625.001904
960.002889	2620.870679
960.302762	2611.254678
960.602596	2605.132197
960.902393	2599.536516
961.202153	2593.376226
961.501875	2588.335072
961.801559	2580.831314
962.101205	2583.293918
962.400814	2578.517425
962.700385	2575.346539
962.999918	2572.498287
963.299414	2565.518810
963.598873	2567.280693
963.898293	2560.258366
964.197677	2562.282389
964.497022	2559.033365
964.796331	2558.562017
965.095601	2558.839281
965.394835	2556.293498
965.694030	2553.825853
965.993189	2556.114537
966.292309	2551.264947
966.591393	2553.223435
966.890439	2554.955072
967.189447	2552.545400
967.488419	2552.230328
967.787353	2552.827705
968.086249	2555.532284
968.385108	2556.719476
968.683930	2556.424568
968.982714	2558.468756
969.281462	2562.020249
969.580172	2565.783470
969.878844	2570.527196
970.177480	2574.860068
970.476078	2579.013978
970.774639	2582.482292
971.073162	2586.676532
971.371649	2590.006214
971.670098	2593.371185
971.968510	2595.576689
972.266885	2600.678337
972.565223	2603.748400
972.863524	2603.849223
973.161788	2607.655294
973.460014	2607.829214
973.758204	2609.558330
974.056356	2612.956067
974.354471	2613.283742
974.652550	2611.617641
974.950591	2612.741818
975.248595	2609.439862
975.546563	2611.632764
975.844493	2608.819801
976.142386	2606.778133
976.440243	2601.522730
976.738062	2600.448965
977.035845	2596.317739
977.333590	2591.785742
977.631299	2591.173242
977.928971	2585.580081
978.226606	2578.832497
978.524204	2576.203535
978.821765	2575.449883
979.119290	2578.885429
979.416777	2576.226220
979.714228	2580.173444
980.011642	2580.342322
980.309020	2585.166707
980.606360	2592.713314
980.903664	2606.528596
981.200931	2624.336472
981.498162	2650.328661
981.795356	2686.982891
982.092513	2727.702811
982.389633	2778.144597
982.686717	2829.660148
982.983764	2867.899820
983.280775	2898.575241
983.577749	2907.183012
983.874686	2908.380286
984.171587	2894.509551
984.468451	2875.937940
984.765279	2854.268540
985.062070	2829.405569
985.358824	2809.482929
985.655543	2775.500511
985.952224	2751.045874
986.248869	2715.331820
986.545478	2685.689835
986.842050	2655.057264
987.138586	2631.852832
987.435086	2609.868361
987.731549	2588.990422
988.027975	2571.053997
988.324366	2561.311967
988.620719	2549.500543
988.917037	2544.923176
989.213318	2541.293545
989.509563	2535.949922
989.805772	2534.029242
990.101944	2527.437933
990.398080	2530.805424
990.694180	2528.040351
990.990244	2529.988757
991.286271	2530.044210
991.582262	2529.769467
991.878217	2526.890968
992.174136	2532.106042
992.470019	2533.134437
992.765865	2535.602082
993.061676	2535.097967
993.357450	2537.530323
993.653188	2542.271529
993.948890	2555.595298
994.244556	2565.107956
994.540186	2577.342836
994.835780	2593.950917
995.131337	2617.934207
995.426859	2638.033287
995.722345	2662.611433
996.017795	2690.448684
996.313208	2711.873588
996.608586	2730.341855
996.903928	2739.320150
997.199234	2737.638925
997.494504	2741.656725
997.789738	2733.086763
998.084936	2722.505382
998.380099	2704.984851
998.675225	2694.340455
998.970316	2676.683814
999.265371	2656.299908
999.560390	2637.211579
999.855373	2619.272633
1000.150320	2601.250508
1000.445232	2585.365832
1000.740108	2570.007957
1001.034948	2561.511092
1001.329752	2551.567416
1001.624521	2546.579195
1001.919254	2537.353883
1002.213951	2534.913965
1002.508613	2527.904240
1002.803239	2523.886441
1003.097829	2520.196316
1003.392384	2520.619773
1003.686903	2513.156345
1003.981386	2515.366891
1004.275834	2510.744153
1004.570246	2509.657784
1004.864623	2507.144769
1005.158964	2507.752228
1005.453270	2504.553616
1005.747540	2505.440859
1006.041775	2505.652587
1006.335974	2502.703512
1006.630138	2503.522700
1006.924266	2505.188801
1007.218359	2500.913903
1007.512416	2497.261587
1007.806438	2496.245794
1008.100425	2500.293841
1008.394376	2498.975579
1008.688292	2498.000116
1008.982172	2502.935405
1009.276017	2499.769561
1009.569827	2499.628408
1009.863602	2500.356855
1010.157341	2497.672441
1010.451045	2499.383912
1010.744714	2495.769405
1011.038347	2499.454488
1011.331945	2496.424755
1011.625508	2495.817296
1011.919036	2493.987357
1012.212528	2495.466936
1012.505986	2493.957110
1012.799408	2494.020125
1013.092795	2491.980978
1013.386147	2492.452326
1013.679464	2493.909219
1013.972745	2493.158087
1014.265992	2493.042141
1014.559204	2494.156236
1014.852380	2492.780001
1015.145521	2492.079280
1015.438628	2495.724035
1015.731699	2493.589106
1016.024736	2496.258397
1016.317737	2497.440548
1016.610703	2495.804693
1016.903635	2497.934581
1017.196531	2497.448109
1017.489393	2498.942811
1017.782219	2498.027842
1018.075011	2496.921309
1018.367768	2501.276866
1018.660490	2501.319715
1018.953177	2501.319715
1019.245829	2501.319715
