Dividing Wavelength (nm)	Counts (n)	Blue Motor Position (mm): 21.000000	Red Motor Position (mm): 0.000000	
326.493990	2068.720660
326.888308	2068.720660
327.282561	2068.720660
327.676750	2043.073790
328.070874	2044.034129
328.464933	2051.774821
328.858929	2060.405277
329.252859	2069.736452
329.646726	2081.510067
330.040528	2098.725608
330.434265	2114.804368
330.827938	2135.659621
331.221547	2156.890441
331.615091	2175.222597
332.008571	2195.722449
332.401986	2219.844370
332.795338	2236.767523
333.188625	2258.174783
333.581847	2275.745725
333.975006	2293.798097
334.368100	2311.870633
334.761129	2328.990392
335.154095	2344.807012
335.546996	2391.150339
335.939833	2483.642909
336.332606	2493.407624
336.725315	2506.711229
337.117960	2516.995183
337.510540	2526.157480
337.903056	2535.597041
338.295508	2542.200952
338.687896	2548.356201
339.080220	2553.954403
339.472480	2557.243756
339.864676	2562.453788
340.256807	2564.828172
340.648875	2567.341187
341.040879	2567.368913
341.432818	2572.054666
341.824694	2573.597259
342.216506	2573.009964
342.608253	2569.329922
342.999937	2567.764644
343.391557	2565.881773
343.783113	2567.759603
344.174605	2566.272462
344.566033	2561.984961
344.957397	2561.750547
345.348697	2561.533778
345.739934	2558.743499
346.131106	2557.379867
346.522215	2555.466749
346.913260	2552.038764
347.304241	2553.190668
347.695159	2552.333672
348.086012	2548.520039
348.476802	2546.929555
348.867528	2541.386806
349.258191	2539.385468
349.648789	2542.047197
350.039324	2540.159285
350.429796	2542.027033
350.820203	2540.565098
351.210548	2541.217927
351.600828	2538.150385
351.991045	2537.938657
352.381198	2537.023688
352.771288	2538.009233
353.161314	2535.423121
353.551276	2533.648635
353.941175	2532.161495
354.331010	2538.483102
354.720782	2537.545447
355.110490	2542.841179
355.500135	2540.161806
355.889717	2537.495035
356.279235	2536.978317
356.668689	2537.429500
357.058080	2537.429500
357.447408	2537.346321
357.836672	2538.089892
358.225873	2537.946219
358.615010	2541.732125
359.004084	2539.375386
359.393095	2540.640715
359.782043	2544.855120
360.170927	2543.937630
360.559748	2543.494008
360.948505	2542.818494
361.337199	2547.259750
361.725830	2543.972918
362.114398	2545.422250
362.502903	2545.843186
362.891344	2547.985677
363.279722	2544.814791
363.668037	2546.768238
364.056289	2548.086500
364.444478	2545.243289
364.832603	2548.877961
365.220665	2546.468289
365.608665	2552.714279
365.996601	2549.508105
366.384474	2548.323434
366.772284	2547.524411
367.160031	2549.770245
367.547715	2550.102961
367.935336	2548.401572
368.322893	2547.741181
368.710388	2547.970553
369.097820	2546.856458
369.485189	2547.869730
369.872495	2551.746377
370.259738	2550.622200
370.646918	2552.338713
371.034035	2551.413661
371.421090	2552.099258
371.808081	2551.028013
372.195010	2553.069680
372.581875	2553.046995
372.968678	2553.440205
373.355418	2554.093034
373.742096	2553.798127
374.128710	2557.362223
374.515262	2554.105637
374.901751	2556.313663
375.288177	2557.263920
375.674540	2554.997922
376.060841	2554.690411
376.447079	2555.194527
376.833254	2558.141081
377.219367	2558.703170
377.605417	2555.917932
377.991404	2555.227294
378.377329	2556.480021
378.763191	2556.772408
379.148991	2559.476987
379.534727	2555.970864
379.920402	2559.756771
380.306013	2560.255845
380.691563	2558.987995
381.077049	2556.732078
381.462474	2556.658982
381.847835	2560.250804
382.233134	2560.538150
382.618371	2561.400187
383.003545	2560.263407
383.388657	2559.877758
383.773706	2560.011349
384.158693	2562.690722
384.543618	2559.303067
384.928480	2559.184600
385.313280	2560.550753
385.698017	2559.615618
386.082692	2559.734086
386.467305	2563.250290
386.851856	2563.008315
387.236344	2562.355486
387.620770	2562.433623
388.005133	2562.751216
388.389435	2560.593602
388.773674	2557.203426
389.157851	2561.987481
389.541965	2566.300188
389.926018	2566.605178
390.310008	2562.239539
390.693936	2565.231464
391.077802	2566.665672
391.461606	2567.754561
391.845348	2564.152657
392.229027	2565.596947
392.612645	2567.300858
392.996200	2564.505538
393.379694	2567.641135
393.763125	2565.072668
394.146494	2565.372616
394.529801	2569.647515
394.913047	2568.072154
395.296230	2564.298850
395.679351	2569.294634
396.062410	2568.871177
396.445408	2570.398647
396.828343	2567.925961
397.211217	2567.749520
397.594028	2570.607854
397.976778	2566.007802
398.359466	2568.382185
398.742092	2569.037535
399.124656	2566.945456
399.507158	2569.128276
399.889598	2571.714388
400.271977	2569.939902
400.654294	2572.445355
401.036549	2568.296485
401.418742	2569.687844
401.800874	2571.021229
402.182944	2570.116342
402.564952	2572.858730
402.946898	2570.741445
403.328783	2572.369738
403.710606	2571.285890
404.092367	2573.428380
404.474067	2572.558781
404.855705	2573.503997
405.237282	2572.629357
405.618797	2572.498287
406.000250	2576.097671
406.381642	2575.901066
406.762972	2569.438307
407.144240	2572.825962
407.525447	2571.905952
407.906593	2570.660787
408.287677	2574.653380
408.668700	2574.718915
409.049661	2576.231262
409.430560	2574.754203
409.811399	2576.967270
410.192176	2573.531724
410.572891	2576.594225
410.953545	2576.095150
411.334138	2574.741601
411.714669	2576.654718
412.095139	2577.078175
412.475547	2575.223031
412.855894	2575.407033
413.236180	2576.720253
413.616405	2577.494071
413.996568	2575.283525
414.376670	2577.554564
414.756711	2575.974163
415.136691	2576.251426
415.516609	2575.384348
415.896466	2580.100347
416.276262	2580.009606
416.655997	2577.720922
417.035670	2579.865933
417.415283	2581.786613
417.794834	2579.114802
418.174324	2578.212435
418.553753	2579.349215
418.933121	2580.339802
419.312428	2578.172106
419.691674	2579.760069
420.070859	2580.632189
420.449983	2582.356263
420.829045	2580.216294
421.208047	2578.910635
421.586988	2580.672518
421.965867	2580.735532
422.344686	2581.894998
422.723444	2580.150759
423.102141	2583.205698
423.480777	2582.603280
423.859352	2581.930286
424.237866	2582.424319
424.616319	2580.549010
424.994712	2584.929772
425.373044	2580.901891
425.751314	2581.305183
426.129524	2579.293762
426.507673	2578.787127
426.885762	2575.855696
427.263789	2583.188054
427.641756	2582.739391
428.019662	2584.198805
428.397508	2583.102354
428.775292	2581.524473
429.153016	2585.358271
429.530679	2583.669484
429.908282	2583.924062
430.285824	2584.226532
430.663305	2584.891964
431.040726	2584.607139
431.418086	2582.628486
431.795385	2584.521439
432.172624	2585.789289
432.549802	2586.167376
432.926920	2582.726788
433.303977	2587.760380
433.680974	2583.399782
434.057910	2586.555545
434.434786	2587.372212
434.811601	2583.044381
435.188355	2587.306677
435.565050	2585.585122
435.941683	2585.234762
436.318257	2586.928590
436.694770	2586.747108
437.071222	2587.916656
437.447614	2588.819023
437.823946	2586.991604
438.200218	2583.626634
438.576429	2588.251893
438.952580	2587.732654
439.328670	2587.228539
439.704700	2589.166862
440.080670	2586.119485
440.456580	2587.924218
440.832429	2589.822212
441.208218	2587.977150
441.583947	2587.392376
441.959616	2587.084866
442.335224	2585.227201
442.710773	2589.887747
443.086261	2588.524115
443.461689	2590.336410
443.837057	2590.081832
444.212365	2590.848087
444.587612	2588.254413
444.962800	2584.904567
445.337927	2586.923549
445.712995	2583.934145
446.088002	2587.722572
446.462949	2591.828592
446.837837	2592.123499
447.212664	2590.598550
447.587431	2592.758684
447.962139	2595.652307
448.336786	2594.989395
448.711374	2595.710280
449.085901	2593.895465
449.460369	2591.911771
449.834776	2594.240784
450.209124	2595.453181
450.583412	2595.173397
450.957640	2593.875300
451.331808	2595.324632
451.705917	2595.768253
452.079965	2594.674323
452.453954	2594.147522
452.827883	2596.224478
453.201752	2595.780856
453.575562	2594.901175
453.949311	2596.103490
454.323001	2596.441247
454.696632	2595.604416
455.070202	2599.528954
455.443713	2598.959304
455.817164	2598.556011
456.190556	2598.866042
456.563888	2602.833430
456.937160	2599.508789
457.310373	2602.417535
457.683526	2602.140272
458.056619	2598.631629
458.429653	2603.256887
458.802628	2603.382916
459.175542	2604.433997
459.548398	2604.529779
459.921194	2603.453492
460.293930	2606.505911
460.666607	2607.650253
461.039224	2608.744183
461.411782	2612.071345
461.784280	2612.393979
462.156719	2609.936416
462.529099	2610.768207
462.901419	2610.095212
463.273680	2609.611262
463.645882	2610.100254
464.018024	2609.747373
464.390106	2611.310131
464.762130	2616.517642
465.134094	2621.394959
465.505999	2621.508385
465.877845	2629.256638
466.249631	2633.539098
466.621358	2630.920219
466.993026	2629.780918
467.364634	2632.576238
467.736184	2630.436268
468.107674	2630.322842
468.479105	2629.092801
468.850477	2630.685805
469.221790	2629.468367
469.593043	2629.238994
469.964238	2630.983233
470.335373	2629.054992
470.706449	2633.607154
471.077467	2635.021198
471.448425	2644.375059
471.819324	2645.413536
472.190164	2651.233548
472.560945	2647.341778
472.931667	2645.274905
473.302330	2644.738022
473.672934	2646.192395
474.043479	2650.855462
474.413965	2647.649288
474.784393	2649.867396
475.154761	2654.404434
475.525070	2656.320073
475.895321	2659.632111
476.265513	2661.041113
476.635645	2664.133861
477.005719	2667.508914
477.375734	2674.032167
477.745691	2679.907632
478.115588	2687.484486
478.485427	2696.482945
478.855207	2708.327136
479.224928	2723.543859
479.594591	2733.303533
479.964194	2740.048597
480.333739	2743.108577
480.703226	2755.703900
481.072653	2769.168822
481.442022	2779.966974
481.811333	2793.056330
482.180584	2793.348717
482.549777	2809.205666
482.918912	2814.834114
483.287988	2835.381857
483.657005	2844.224041
484.025964	2853.620752
484.394864	2872.189842
484.763706	2882.526728
485.132489	2898.267731
485.501213	2915.914290
485.869879	2933.719645
486.238487	2953.549024
486.607036	2979.072386
486.975527	2997.351610
487.343959	3023.910929
487.712333	3055.453428
488.080648	3081.231369
488.448905	3115.649847
488.817104	3144.129845
489.185244	3191.980477
489.553326	3253.946341
489.921350	3341.163343
490.289315	3446.039508
490.657222	3519.174047
491.025070	3581.200404
491.392861	3622.507619
491.760593	3646.102739
492.128267	3664.031603
492.495883	3680.795960
492.863440	3703.912171
493.230939	3730.078280
493.598380	3768.169239
493.965763	3823.437929
494.333088	3860.813043
494.700354	3918.148607
495.067563	3979.635560
495.434713	4040.593192
495.801805	4123.021099
496.168839	4189.168599
496.535815	4253.907097
496.902733	4336.519006
497.269593	4402.429572
497.636395	4490.092716
498.003139	4587.777675
498.369825	4659.871216
498.736453	4772.099904
499.103023	4850.026060
499.469535	4946.423004
499.835989	5050.926123
500.202385	5132.948217
500.568723	5230.905398
500.935003	5360.715109
501.301226	5453.976455
501.667390	5633.877592
502.033497	5763.258805
502.399546	5854.672569
502.765537	5923.839720
503.131470	6085.905254
503.497345	6251.502117
503.863163	6255.063692
504.228923	6464.354756
504.594625	6644.349154
504.960269	6704.588422
505.325856	6917.557007
505.691385	7008.068404
506.056856	7190.164963
506.422270	7401.971563
506.787625	7470.667366
507.152924	7687.520161
507.518164	7862.438117
507.883347	7942.005168
508.248472	8117.223073
508.613540	8383.065801
508.978550	8588.618849
509.343503	8719.958551
509.708398	8945.272922
510.073236	9227.663237
510.438016	9418.493595
510.802738	9523.410089
511.167403	9808.580600
511.532010	10040.869408
511.896561	10327.464045
512.261053	10685.501915
512.625488	10820.191463
512.989866	10994.922897
513.354186	11189.796260
513.718449	11369.037006
514.082655	11786.583176
514.446803	11909.211764
514.810894	12264.726536
515.174927	12475.862662
515.538904	12689.675641
515.902822	13081.148963
516.266684	13205.110936
516.630488	13509.271474
516.994235	13736.942585
517.357925	14121.612870
517.721558	14417.969702
518.085133	14758.786990
518.448651	15037.078847
518.812112	15219.301435
519.175516	15492.211860
519.538863	15881.943464
519.902152	16129.479241
520.265385	16560.389510
520.628560	16795.299718
520.991678	17008.001122
521.354739	17320.076271
521.717743	17708.751753
522.080690	17924.717305
522.443580	18444.556048
522.806413	18687.438841
523.169189	18986.777515
523.531908	19320.350665
523.894569	19487.253186
524.257174	19825.759105
524.619722	20223.980012
524.982213	20538.789988
525.344647	20800.471243
525.707025	21089.677198
526.069345	21548.465047
526.431608	21743.214903
526.793815	22173.121982
527.155964	22201.365047
527.518057	22563.587074
527.880093	22739.694742
528.242072	23306.234735
528.603995	23407.841712
528.965860	23619.827272
529.327669	23971.478000
529.689421	24242.520677
530.051117	24452.507420
530.412755	24834.790719
530.774337	25102.659991
531.135862	25314.940458
531.497331	25641.516487
531.858743	25859.153181
532.220098	26337.687230
532.581396	26408.384372
532.942638	26495.182959
533.303824	26876.977266
533.664953	27143.941650
534.026025	27173.545826
534.387040	27747.249298
534.747999	28006.281427
535.108902	28446.903479
535.469748	28240.463188
535.830537	28639.725093
536.191270	29021.468988
536.551947	29065.485823
536.912567	29467.502719
537.273131	29758.694889
537.633638	29724.352028
537.994089	30061.164119
538.354483	30096.938668
538.714821	30742.617214
539.075103	31151.379174
539.435328	31260.270617
539.795497	31306.515642
540.155609	31604.997320
540.515665	32212.199260
540.875665	31906.039904
541.235609	32311.389003
541.595496	32602.198045
541.955328	33213.994996
542.315102	32994.858559
542.674821	33114.689307
543.034483	33240.145982
543.394090	33437.860036
543.753640	33622.572954
544.113134	34614.437617
544.472571	34118.199035
544.831953	35167.915980
545.191278	34777.032473
545.550548	34721.806632
545.909761	35384.927571
546.268918	35662.944685
546.628019	36160.778792
546.987064	35892.904479
547.346053	35518.739958
547.704986	36401.471203
548.063863	36286.719418
548.422684	36613.731506
548.781449	36424.610099
549.140158	37021.507920
549.498811	36986.003073
549.857408	36664.052304
550.215949	37490.405804
550.574434	37523.891668
550.932864	37624.281206
551.291237	38372.264928
551.649555	38302.437386
552.007817	38586.521529
552.366022	38511.708285
552.724173	38688.267137
553.082267	39180.097229
553.440305	39669.197537
553.798288	39122.071028
554.156215	39620.510073
554.514086	39916.249364
554.871902	39693.143018
555.229661	39998.190799
555.587365	39831.852887
555.945014	40101.703332
556.302606	40211.885311
556.660143	40436.340165
557.017625	40758.797571
557.375050	40593.530904
557.732421	41060.412326
558.089735	41259.731987
558.446994	41253.155802
558.804197	41795.102526
559.161345	41805.683908
559.518437	41320.654332
559.875474	41656.279231
560.232455	41944.204733
560.589381	42091.270314
560.946251	42049.706001
561.303065	42755.124741
561.659825	42555.578228
562.016528	42476.658964
562.373177	42202.498333
562.729770	42903.138059
563.086307	42529.046635
563.442789	43130.541988
563.799216	43077.577105
564.155587	43086.368878
564.511904	43130.083243
564.868164	43280.765852
565.224370	43666.661138
565.580520	43479.077283
565.936615	43751.861679
566.292654	43501.613761
566.648638	43934.101911
567.004567	43945.154641
567.360441	44102.254639
567.716260	43879.559147
568.072023	44337.663921
568.427732	44338.339435
568.783385	43959.310201
569.138982	44423.933187
569.494525	44613.220952
569.850013	44296.298733
570.205445	44483.131456
570.560823	44324.372919
570.916145	44256.652578
571.271412	44535.531730
571.626625	44246.086320
571.981782	44376.397626
572.336884	44059.634204
572.691931	44427.885451
573.046923	44142.601514
573.401860	44056.307042
573.756743	44120.692659
574.111570	44296.891068
574.466342	44256.037558
574.821059	44451.422598
575.175722	44007.092778
575.530330	44148.673584
575.884882	43861.385788
576.239380	43793.272237
576.593823	43922.625725
576.948211	43912.745063
577.302544	43510.095503
577.656823	43531.812793
578.011047	43841.674876
578.365216	43710.604876
578.719330	43439.720995
579.073389	43474.479751
579.427394	43558.046958
579.781344	43504.247764
580.135239	43289.761791
580.489080	43381.941810
580.842866	42917.694391
581.196597	43416.186368
581.550273	43435.685551
581.903895	43402.973504
582.257463	43849.498747
582.610975	43317.092407
582.964434	43659.545549
583.317837	43193.032131
583.671186	43175.481354
584.024481	43462.917864
584.377721	43069.196187
584.730906	43307.373062
585.084037	43466.103873
585.437113	43196.596227
585.790135	43353.156822
586.143103	42938.438739
586.496016	43121.379691
586.848874	43234.021753
587.201679	43291.783294
587.554428	42807.411588
587.907124	43089.862397
588.259765	42874.355591
588.612352	43051.468970
588.964884	42536.557954
589.317362	42845.905839
589.669786	42845.550438
590.022155	42755.744803
590.374470	43219.122623
590.726731	42829.433869
591.078937	42191.869060
591.431090	42542.539283
591.783188	42077.187851
592.135232	41892.739593
592.487222	42176.128057
592.839157	42318.651558
593.191038	41995.649708
593.542866	41821.568583
593.894639	41216.355379
594.246358	41527.974304
594.598022	41538.742209
594.949633	41141.451395
595.301190	41141.199337
595.652692	41074.462022
596.004141	41583.036307
596.355535	40513.772288
596.706876	40532.563189
597.058162	40266.813723
597.409395	40738.670764
597.760573	40995.386483
598.111698	40608.687133
598.462768	40524.167147
598.813785	40575.226474
599.164748	40198.901819
599.515657	40457.034102
599.866511	39968.417744
600.217312	40642.966979
600.568060	39630.952824
600.918753	40434.111975
601.269392	40358.262774
601.619978	40117.953491
601.970510	40316.217031
602.320988	40456.814811
602.671412	40709.134644
603.021783	40596.495102
603.372100	40184.942864
603.722363	40285.665118
604.072572	40330.425523
604.422728	40323.287249
604.772830	40106.474784
605.122878	40294.782044
605.472872	40143.554991
605.822813	40399.264999
606.172701	40154.068317
606.522534	40472.081946
606.872314	40692.617303
607.222041	40535.106451
607.571714	40864.641637
607.921333	40365.627900
608.270899	40580.474315
608.620411	40956.035236
608.969870	40732.029044
609.319276	40730.113405
609.668627	40764.582295
610.017926	41158.447645
610.367171	41304.482310
610.716362	41363.045394
611.065500	41259.628644
611.414585	41498.937258
611.763616	41653.781339
612.112594	41563.834552
612.461518	41674.117354
612.810389	42072.842376
613.159207	41863.072403
613.507971	41835.320851
613.856682	42345.132740
614.205340	42176.491020
614.553945	42851.125954
614.902496	42208.509909
615.250994	42635.306596
615.599439	42705.363511
615.947830	42808.881085
616.296169	42830.815145
616.644454	42883.941345
616.992686	43036.685786
617.340864	43474.376407
617.688990	42978.304183
618.037063	43642.589628
618.385082	43467.250736
618.733048	43829.036703
619.080961	43705.762848
619.428821	43765.187969
619.776628	43821.900950
620.124382	43629.482628
620.472083	43743.574022
620.819731	43849.155948
621.167326	43432.612968
621.514868	43427.763378
621.862357	42887.071902
622.209793	42990.967562
622.557176	42568.302100
622.904506	42334.072448
623.251783	41994.044101
623.599007	41683.733355
623.946179	41613.804989
624.293297	41353.275638
624.640363	40800.487913
624.987376	40659.126398
625.334336	40484.974697
625.681243	40087.782185
626.028097	39989.434315
626.374899	39822.209159
626.721647	39781.683324
627.068343	39534.402125
627.414987	39257.584805
627.761577	39015.629585
628.108115	39341.449441
628.454600	38581.485416
628.801032	38823.612035
629.147412	38719.718896
629.493739	38608.195970
629.840014	38178.014147
630.186236	38600.518292
630.532405	38042.830566
630.878521	38292.826426
631.224585	38062.599451
631.570597	37736.023422
631.916556	37908.355266
632.262462	37803.400964
632.608316	37767.160109
632.954117	37617.974722
633.299866	37584.793848
633.645562	37506.673607
633.991206	36992.974989
634.336797	36605.153983
634.682336	36478.986505
635.027823	36246.969920
635.373257	36146.121637
635.718639	35822.673644
636.063968	35708.967899
636.409245	35082.271817
636.754470	35036.856062
637.099642	34807.223943
637.444762	34249.082513
637.789829	34378.146133
638.134845	33978.128055
638.479808	33895.639655
638.824719	33863.575396
639.169577	33344.044163
639.514383	33470.244408
639.859137	33080.043977
640.203839	33232.750609
640.548489	32957.501088
640.893086	32940.288069
641.237632	32651.755108
641.582125	32739.997985
641.926566	32524.150901
642.270955	32568.124886
642.615292	32499.759278
642.959576	32400.060378
643.303809	32395.704822
643.647990	32487.907525
643.992118	32465.852477
644.336195	32290.775725
644.680219	32356.436754
645.024192	32539.057593
645.368112	33065.137285
645.711981	33083.779472
646.055797	33774.462919
646.399562	33564.546752
646.743274	34438.256852
647.086935	34827.519628
647.430544	34818.437990
647.774101	34853.816807
648.117606	35152.416952
648.461059	35308.468390
648.804460	34920.518834
649.147810	34420.552319
649.491108	34117.052173
649.834354	34002.433978
650.177548	33205.740107
650.520690	32688.532846
650.863781	32680.774510
651.206820	32501.437982
651.549807	32083.909456
651.892742	31489.181852
652.235626	31396.772461
652.578458	31264.795053
652.921238	30572.616903
653.263967	30837.630361
653.606644	30543.428623
653.949269	30456.163729
654.291843	30072.105944
654.634365	30416.683933
654.976836	29979.862911
655.319255	30064.602186
655.661622	29925.458778
656.003938	29800.710385
656.346203	29616.831778
656.688416	29859.999396
657.030577	29658.459106
657.372687	29472.995056
657.714746	29610.719379
658.056753	29787.923499
658.398708	29176.766774
658.740612	29241.744726
659.082465	29455.499732
659.424266	29346.270531
659.766016	29350.472332
660.107715	29175.377936
660.449362	29276.856363
660.790958	29262.131153
661.132503	29195.053559
661.473996	29262.917573
661.815438	29346.930922
662.156829	29461.324785
662.498168	29265.307079
662.839456	29251.827034
663.180693	29368.522184
663.521879	29411.608926
663.863013	29372.217350
664.204097	29339.434726
664.545129	29773.402455
664.886110	29684.368116
665.227040	29801.990838
665.567918	29791.134714
665.908746	29858.471926
666.249522	29946.714804
666.590248	29976.011469
666.930922	30083.352758
667.271545	30080.262531
667.612118	30141.678908
667.952639	29944.284968
668.293109	29985.347686
668.633528	29834.445787
668.973896	29807.682301
669.314213	29780.633990
669.654480	29599.258316
669.994695	29581.536140
670.334859	29490.510545
670.674973	29313.215685
671.015035	29517.788229
671.355047	29423.679969
671.695008	29341.657875
672.034918	29257.682334
672.374777	29355.785709
672.714585	29225.343332
673.054342	29364.693428
673.394049	29215.555932
673.733705	29433.001062
674.073310	29143.371650
674.412864	29205.869355
674.752368	28939.789693
675.091820	29167.249075
675.431223	28782.601475
675.770574	28567.104751
676.109875	28412.643797
676.449125	28194.974336
676.788324	28097.085211
677.127473	27618.931768
677.466571	27525.768725
677.805619	27246.634995
678.144616	27180.976487
678.483562	27128.850956
678.822458	26809.521586
679.161303	26761.091221
679.500098	26681.337647
679.838842	26592.923370
680.177535	26649.313717
680.516179	26865.833795
680.854771	26938.837265
681.193314	27611.491025
681.531805	28560.324399
681.870247	29309.381888
682.208638	30114.607912
682.546978	30453.406218
682.885268	30643.125002
683.223508	30223.322915
683.561697	29967.759100
683.899836	29820.456585
684.237925	29400.510826
684.575963	29232.428674
684.913951	28843.503655
685.251889	28992.258023
685.589776	28979.955087
685.927614	28983.415839
686.265401	29158.875719
686.603137	29238.921680
686.940824	29715.918178
687.278460	30053.504086
687.616046	30224.036238
687.953582	30898.502294
688.291068	30813.452987
688.628504	31189.954083
688.965889	31214.867465
689.303224	30978.291156
689.640510	30701.935102
689.977745	30107.366294
690.314930	29390.098322
690.652065	28965.973446
690.989150	28297.677763
691.326185	27463.528119
691.663170	26868.987037
692.000105	26146.582129
692.336990	25551.529370
692.673825	25140.440918
693.010610	24644.973633
693.347345	24125.283603
693.684030	23515.614019
694.020665	23316.473319
694.357251	22654.237102
694.693786	22659.411847
695.030272	22415.664497
695.366707	21939.827465
695.703093	21653.681490
696.039429	21712.015202
696.375716	21463.108231
696.711952	21463.209054
697.048139	21326.243424
697.384276	21163.202427
697.720363	21274.453130
698.056400	21182.797392
698.392388	21020.462155
698.728326	21015.922596
699.064214	20854.459480
699.400053	20881.240610
699.735842	20493.787607
700.071581	20308.968825
700.407270	20075.608772
700.742910	19895.122862
701.078501	19653.565893
701.414042	19450.944276
701.749533	19158.514503
702.084974	18839.454835
702.420366	19063.703002
702.755709	18675.642541
703.091002	18368.079224
703.426246	18423.012677
703.761440	18378.254793
704.096584	18128.732801
704.431679	18063.298624
704.766725	17997.093151
705.101721	17923.706553
705.436668	18040.711734
705.771565	17758.119773
706.106413	18055.820072
706.441212	18116.921378
706.775961	18205.819605
707.110661	18284.711142
707.445311	18643.434609
707.779913	18523.800466
708.114465	18804.020564
708.448967	19118.734758
708.783421	19715.574606
709.117825	20060.097142
709.452180	20263.537947
709.786485	20694.370078
710.120742	21433.418355
710.454949	21533.104652
710.789107	22038.901261
711.123216	22730.376170
711.457275	22944.597482
711.791286	23507.623790
712.125247	23680.966386
712.459159	23463.740546
712.793023	24210.985739
713.126837	23229.286563
713.460602	23508.745447
713.794318	23185.448689
714.127985	22927.429832
714.461602	22053.694527
714.795171	22033.058564
715.128691	21065.585523
715.462162	20553.742050
715.795584	20130.295209
716.128957	19867.459530
716.462281	19483.714296
716.795556	19217.954748
717.128782	18758.395602
717.461960	18155.135844
717.795088	18121.549157
718.128167	17778.823792
718.461198	17336.391966
718.794180	17209.511165
719.127113	16892.979635
719.459997	16698.817074
719.792833	16336.756364
720.125619	16371.348762
720.458357	16041.579162
720.791046	15903.542288
721.123686	15750.102167
721.456278	15524.306366
721.788821	15518.090623
722.121315	15263.290543
722.453761	15356.090624
722.786158	15246.695065
723.118506	15323.973433
723.450805	15204.472881
723.783056	15387.297887
724.115259	15260.689308
724.447412	15247.978038
724.779518	15455.696262
725.111574	15496.950545
725.443582	15761.197747
725.775542	15711.723863
726.107453	16204.443719
726.439315	16114.932992
726.771129	16501.546642
727.102895	16904.919608
727.434612	17181.817586
727.766281	17349.057865
728.097901	17663.066297
728.429473	17767.924817
728.760996	17798.297769
729.092471	17917.027025
729.423897	17790.612530
729.755276	17649.858474
730.086606	17732.747646
730.417887	18270.237989
730.749120	18812.376277
731.080305	19028.777888
731.411442	19431.074568
731.742530	19547.189985
732.073570	19683.931283
732.404562	20006.925572
732.735506	19903.362628
733.066401	19782.251427
733.397249	19351.152115
733.728048	18771.474875
734.058798	17926.257377
734.389501	17183.314809
734.720156	16664.537228
735.050762	16093.266112
735.381320	15694.480596
735.711831	15391.552621
736.042293	15020.911866
736.372707	15042.215782
736.703073	14831.097301
737.033391	15016.813408
737.363661	14992.759543
737.693883	15107.662562
738.024056	15284.851558
738.354182	15492.721017
738.684260	15830.165773
739.014290	16102.251969
739.344272	16323.009137
739.674207	16661.426836
740.004093	16844.793766
740.333931	16912.015032
740.663722	17008.722007
740.993464	17061.213021
741.323159	16929.477589
741.652806	16651.001730
741.982405	16489.999879
742.311956	16148.537323
742.641460	16052.399999
742.970915	15721.617127
743.300323	15371.425814
743.629683	15176.575135
743.958996	14871.988620
744.288260	14562.305498
744.617477	14246.046191
744.946647	14210.944637
745.275768	13906.910128
745.604842	13704.543089
745.933869	13523.379143
746.262847	13485.073936
746.591778	13389.526426
746.920662	13281.464252
747.249498	13270.504784
747.578286	13407.717430
747.907027	13562.281727
748.235720	13825.916429
748.564365	13902.277307
748.892963	13844.490561
749.221514	13956.051295
749.550017	13841.143235
749.878473	13820.207323
750.206881	13603.886370
750.535242	13530.953477
750.863555	13455.268113
751.191821	13344.728212
751.520039	13360.474257
751.848210	13278.240434
752.176334	13314.209067
752.504411	13252.956527
752.832440	13075.601173
753.160421	13199.114484
753.488356	13093.845109
753.816243	13006.282787
754.144082	12830.033967
754.471875	12777.124536
754.799620	12738.015265
755.127318	12706.404710
755.454969	12699.652084
755.782572	12671.295594
756.110129	12677.443281
756.437638	12593.127462
756.765100	12595.912700
757.092515	12616.036986
757.419882	12655.675578
757.747203	12647.617294
758.074477	12731.963360
758.401703	12709.240359
758.728882	12897.159451
759.056014	12938.335595
759.383099	13111.889919
759.710138	13230.518352
760.037129	13362.894010
760.364073	13430.793312
760.690970	13444.205301
761.017820	13457.045120
761.344623	13648.734995
761.671379	13956.207571
761.998088	14502.968597
762.324751	15896.018365
762.651366	18805.928641
762.977935	23066.827818
763.304456	26308.632540
763.630931	27888.056287
763.957359	27121.385007
764.283740	25084.705921
764.610074	22950.949336
764.936362	20362.785663
765.262602	18485.633890
765.588796	16529.824994
765.914943	15219.238420
766.241044	14076.643257
766.567097	13273.758849
766.893104	12536.096889
767.219064	12062.067110
767.544978	11590.555388
767.870845	11200.105420
768.196665	10970.984977
768.522438	10739.016283
768.848165	10544.982272
769.173846	10336.936373
769.499479	10202.980313
769.825066	10040.657679
770.150607	9815.572681
770.476101	9739.726000
770.801548	9628.765163
771.126949	9468.297674
771.452303	9357.062094
771.777611	9163.751488
772.102872	9155.365529
772.428087	9018.967029
772.753256	8870.540337
773.078378	8781.112788
773.403453	8609.345553
773.728482	8487.765525
774.053465	8419.904033
774.378401	8315.272364
774.703291	8197.810959
775.028135	8079.270747
775.352932	8043.917135
775.677683	7943.197401
776.002388	7832.939805
776.327046	7844.814243
776.651658	7751.701611
776.976224	7645.597925
777.300743	7650.518091
777.625216	7558.864873
777.949643	7521.905654
778.274024	7534.508538
778.598359	7448.314890
778.922647	7462.089843
779.246889	7416.885816
779.571086	7422.116013
779.895236	7426.872342
780.219339	7438.340967
780.543397	7438.436749
780.867409	7516.763677
781.191374	7529.522837
781.515294	7495.361458
781.839167	7583.848832
782.162995	7559.762199
782.486776	7510.164807
782.810511	7464.980945
783.134201	7379.220835
783.457844	7368.435287
783.781441	7321.688667
784.104993	7262.233299
784.428498	7241.204125
784.751958	7226.546971
785.075372	7190.850560
785.398739	7137.822663
785.722061	7177.088210
786.045337	7174.083682
786.368568	7316.546690
786.691752	7312.128119
787.014891	7602.690144
787.337983	7909.555261
787.661030	8459.199827
787.984031	9065.070902
788.306987	9497.485955
788.629897	9754.773845
788.952760	9754.126056
789.275579	9572.407584
789.598351	9206.913847
789.921078	8878.583497
790.243759	8478.104154
790.566395	8181.522991
790.888984	7933.851102
791.211529	7727.400729
791.534027	7505.156420
791.856480	7297.569267
792.178888	7219.708645
792.501249	7121.544777
792.823566	6969.934596
793.145836	6965.342105
793.468062	6932.700633
793.790241	6875.360029
794.112375	6934.008813
794.434464	7072.973260
794.756507	7097.811025
795.078505	7233.715491
795.400457	7517.804675
795.722364	7852.829677
796.044226	8134.723439
796.366042	8423.057274
796.687812	8396.931494
797.009538	8493.643510
797.331218	8402.897700
797.652852	8330.910023
797.974442	8182.604318
798.295986	8103.649767
798.617484	7929.538395
798.938938	7779.803523
799.260346	7683.320879
799.581709	7484.802762
799.903026	7402.077427
800.224299	7303.255688
800.545526	7140.660832
800.866708	7040.004114
801.187845	6975.255534
801.508936	6871.745522
801.829983	6835.996179
802.150984	6689.979158
802.471940	6644.331510
802.792851	6632.933461
803.113717	6597.960456
803.434538	6565.918883
803.755314	6510.025089
804.076045	6511.229925
804.396731	6450.549556
804.717372	6478.979143
805.037967	6479.561397
805.358518	6512.318814
805.679024	6595.225630
805.999485	6603.344409
806.319901	6643.068701
806.640272	6656.304250
806.960598	6744.501758
807.280879	6745.580564
807.601115	6826.092833
807.921306	6775.580471
808.241453	6791.661752
808.561554	6807.624565
808.881611	6775.872858
809.201623	6782.557428
809.521590	6733.577577
809.841513	6716.979578
810.161390	6750.536019
810.481223	6625.283510
810.801011	6610.097034
811.120755	6592.490804
811.440453	6513.087590
811.760107	6479.337065
812.079716	6446.143588
812.399281	6388.170318
812.718801	6373.760180
813.038276	6337.237021
813.357707	6269.665394
813.677093	6311.912784
813.996434	6210.998967
814.315731	6256.535709
814.634983	6244.157156
814.954191	6249.750316
815.273354	6350.200348
815.592473	6401.128604
815.911547	6515.267889
816.230577	6589.745896
816.549562	6731.934161
816.868502	6832.444686
817.187399	6915.590957
817.506250	7058.956332
817.825058	7086.455826
818.143821	7324.362999
818.462539	7564.851243
818.781213	7878.408492
819.099843	8356.738375
819.418429	9249.093182
819.736970	10131.161514
820.055466	11217.305837
820.373919	12564.019840
820.692327	14546.619948
821.010691	17816.347621
821.329011	25180.676888
821.647286	36728.508497
821.965517	50571.741290
822.283704	58130.649013
822.601847	61338.557016
822.919945	59103.843763
823.237999	55179.865062
823.556010	49148.749588
823.873976	42555.931108
824.191897	36136.432539
824.509775	31346.678515
824.827609	26765.303105
825.145398	23989.883252
825.463144	22331.767094
825.780845	22225.234910
826.098502	23445.970479
826.416116	26715.118419
826.733685	30375.389321
827.051210	32170.355162
827.368692	31240.050549
827.686129	27771.225026
828.003522	23830.774355
828.320872	20131.308481
828.638177	17275.363757
828.955439	15104.872284
829.272656	13302.695072
829.589830	11838.940600
829.906960	10565.083873
830.224046	9596.325338
830.541088	8828.497113
830.858086	8346.373762
831.175041	7942.917617
831.491952	7792.482025
831.808819	7776.710775
832.125642	8080.203360
832.442421	8774.357642
832.759157	10225.073169
833.075849	12760.524017
833.392497	15847.595562
833.709101	18283.377757
834.025662	18651.475249
834.342179	17326.851582
834.658653	15296.544515
834.975083	13396.079926
835.291469	11775.535487
835.607811	10458.445825
835.924110	9556.976612
836.240366	8703.962969
836.556578	7908.544510
836.872746	7261.325891
837.188871	6753.046513
837.504952	6327.356359
837.820990	6011.462536
838.136984	5783.574655
838.452935	5668.553169
838.768842	5655.441127
839.084706	5928.538075
839.400526	6885.908643
839.716303	8365.386474
840.032037	9581.769006
840.347727	9801.429723
840.663373	9019.945013
840.978977	7991.534505
841.294537	7175.296080
841.610054	6571.174285
841.925527	6139.880889
842.240957	5789.631602
842.556344	5464.426767
842.871687	5185.600548
843.186987	4909.022683
843.502244	4679.788815
843.817458	4512.493083
844.132629	4370.554356
844.447756	4283.281900
844.762840	4201.897513
845.077881	4127.583343
845.392879	4066.633273
845.707833	4019.730377
846.022745	3977.823265
846.337613	3946.520221
846.652438	3905.500352
846.967221	3889.197260
847.281960	3858.640306
847.596656	3840.275383
847.911309	3820.839214
848.225919	3798.267448
848.540485	3781.495529
848.855009	3769.353910
849.169490	3747.913882
849.483928	3733.481059
849.798323	3727.217425
850.112675	3709.880897
850.426984	3715.474058
850.741251	3700.078374
851.055474	3696.383208
851.369654	3698.820606
851.683792	3699.561655
851.997887	3707.125907
852.311938	3707.541802
852.625947	3707.446020
852.939914	3696.715924
853.253837	3709.908624
853.567718	3707.977862
853.881555	3696.231973
854.195350	3712.928275
854.509103	3708.799570
854.822812	3704.517110
855.136479	3695.120399
855.450103	3704.628015
855.763685	3687.644368
856.077224	3695.269113
856.390720	3706.208417
856.704173	3724.875809
857.017584	3740.760485
857.330953	3750.931013
857.644278	3767.004732
857.957561	3775.998151
858.270802	3775.388171
858.584000	3783.897639
858.897155	3777.356742
859.210268	3762.460132
859.523339	3741.332656
859.836367	3738.005495
860.149352	3729.775811
860.462295	3724.018813
860.775195	3711.015157
861.088054	3709.134807
861.400869	3706.896534
861.713642	3702.503169
862.026373	3712.524982
862.339062	3716.981363
862.651708	3732.697160
862.964312	3763.496089
863.276873	3773.412039
863.589392	3828.451356
863.901869	3869.882079
864.214303	3910.087802
864.526696	3948.161116
864.839045	3991.061335
865.151353	4016.345242
865.463619	4028.764125
865.775842	4034.810989
866.088023	4047.388668
866.400162	4043.083522
866.712258	4049.810942
867.024313	4052.535686
867.336325	4049.843710
867.648296	4054.796643
867.960224	4053.755645
868.272110	4066.449271
868.583954	4062.370977
868.895755	4079.092484
869.207515	4072.609561
869.519233	4109.228502
869.830909	4124.878764
870.142542	4141.433913
870.454134	4158.082324
870.765684	4188.062066
871.077191	4216.572312
871.388657	4237.455291
871.700081	4274.197741
872.011463	4314.169050
872.322803	4341.542515
872.634101	4371.696177
872.945357	4414.850975
873.256571	4464.155980
873.567744	4496.409282
873.878874	4512.009133
874.189963	4552.434145
874.501010	4560.061411
874.812015	4557.984456
875.122979	4599.649592
875.433900	4598.946351
875.744780	4605.562866
876.055618	4633.420282
876.366415	4631.035816
876.677169	4651.011388
876.987882	4689.944219
877.298554	4732.917535
877.609183	4802.321621
877.919771	4895.973657
878.230317	5018.544271
878.540822	5198.379873
878.851285	5471.955730
879.161707	5850.498493
879.472087	6487.518858
879.782425	7485.095148
880.092722	9288.772104
880.402977	12093.914600
880.713191	15562.238528
881.023363	19215.550118
881.333494	21642.129686
881.643583	23094.609617
881.953631	23314.247649
882.263637	22666.734123
882.573602	21381.358359
882.883526	19957.842377
883.193408	18397.350684
883.503248	16817.831155
883.813048	15363.533887
884.122806	14012.320655
884.432522	12591.713418
884.742197	11393.962991
885.051831	10328.290794
885.361424	9346.193367
885.670975	8539.023977
885.980485	7854.649534
886.289954	7290.617515
886.599382	6824.648542
886.908768	6453.780936
887.218113	6098.573674
887.527417	5809.471063
887.836680	5553.435900
888.145901	5341.014280
888.455082	5181.010577
888.764221	5034.244945
889.073319	4902.018000
889.382376	4824.106967
889.691392	4758.077934
890.000366	4734.712186
890.309300	4715.593610
890.618193	4715.276017
890.927044	4702.375705
891.235855	4715.054207
891.544625	4739.420624
891.853353	4787.165392
892.162041	4877.265935
892.470687	5035.338875
892.779293	5249.350979
893.087858	5563.271191
893.396381	6041.530498
893.704864	6717.093004
894.013306	7726.100111
894.321707	8842.703085
894.630068	9722.666736
894.938387	10051.123115
895.246665	9942.486249
895.554903	9422.982743
895.863100	8778.682952
896.171256	8260.923684
896.479371	7774.399406
896.787446	7302.363404
897.095480	6891.446351
897.403473	6582.600061
897.711425	6282.253156
898.019336	6024.935019
898.327207	5767.490854
898.635038	5545.377616
898.942827	5304.637314
899.250576	5111.072129
899.558284	4924.534314
899.865952	4807.027538
900.173579	4663.498326
900.481165	4559.148962
900.788711	4467.709993
901.096216	4390.971029
901.403681	4326.950896
901.711105	4300.338644
902.018489	4278.442393
902.325832	4334.557997
902.633135	4413.139503
902.940397	4668.904964
903.247619	5274.523981
903.554800	6447.920594
903.861941	8191.408693
904.169041	9734.528571
904.476101	10562.303676
904.783121	10423.082131
905.090100	9809.430035
905.397039	9035.905306
905.703938	8328.119744
906.010796	7666.289341
906.317614	7138.304093
906.624391	6628.015816
906.931129	6224.816769
907.237826	5847.317525
907.544483	5486.164222
907.851099	5136.192199
908.157675	4795.153100
908.464211	4476.116117
908.770707	4237.180548
909.077163	4035.181514
909.383578	3884.738360
909.689954	3767.440792
909.996289	3696.715924
910.302584	3630.124802
910.608839	3598.176490
910.915054	3563.294226
911.221229	3550.035991
911.527363	3553.403482
911.833458	3565.703897
912.139513	3587.711054
912.445527	3610.686113
912.751502	3676.861340
913.057436	3766.004063
913.363331	3878.724263
913.669186	4048.893452
913.975000	4264.117954
914.280775	4615.645173
914.586510	5108.087766
914.892205	5782.334532
915.197859	6695.048038
915.503475	7808.548182
915.809050	8852.203139
916.114585	9554.493843
916.420081	9906.129448
916.725536	9956.578795
917.030952	9597.091593
917.336328	9248.442873
917.641665	8872.156026
917.946961	8426.691946
918.252218	8036.630147
918.557435	7553.125520
918.862612	7154.524006
919.167750	6806.802857
919.472848	6408.168576
919.777906	6055.310492
920.082925	5713.663934
920.387904	5353.917113
920.692843	5095.101754
920.997743	4849.302654
921.302603	4622.972491
921.607423	4462.658757
921.912204	4300.883089
922.216946	4191.411913
922.521647	4078.694233
922.826310	3977.815704
923.130932	3882.794995
923.435516	3789.702527
923.740059	3724.611149
924.044564	3650.876712
924.349028	3596.964092
924.653454	3536.495452
924.957840	3466.670430
925.262186	3422.971188
925.566493	3370.084443
925.870761	3311.627223
926.174989	3275.918210
926.479178	3244.199270
926.783328	3201.964483
927.087438	3179.793488
927.391509	3142.670431
927.695541	3114.117336
927.999533	3089.776124
928.303486	3068.968762
928.607400	3055.284550
928.911275	3040.977755
929.215110	3024.909077
929.518906	3015.875330
929.822663	3013.957171
930.126381	3011.078672
930.430060	3017.450690
930.733699	3019.489837
931.037299	3029.430992
931.340861	3024.778007
931.644383	3036.864174
931.947866	3033.975593
932.251309	3030.739172
932.554714	3028.631969
932.858080	3023.525281
933.161407	3017.980011
933.464694	3012.011285
933.767943	3005.576252
934.071153	3000.756909
934.374323	2990.946824
934.677455	2986.876092
934.980548	2975.273877
935.283602	2972.826396
935.586617	2966.824903
935.889593	2978.898466
936.192530	2979.052221
936.495428	2990.609067
936.798287	3009.631861
937.101108	3031.056764
937.403890	3077.001841
937.706632	3130.312043
938.009336	3205.410111
938.312002	3271.197169
938.614628	3335.018177
938.917216	3389.321486
939.219765	3421.214346
939.522275	3456.260447
939.824747	3464.180100
940.127179	3461.286478
940.429573	3457.533339
940.731929	3457.871096
941.034246	3442.626647
941.336524	3435.443003
941.638763	3419.913728
941.940964	3407.832603
942.243126	3368.894731
942.545250	3345.702902
942.847335	3315.783654
943.149381	3280.561112
943.451389	3250.215887
943.753359	3218.413768
944.055290	3192.892926
944.357182	3171.949453
944.659036	3156.316835
944.960851	3145.397695
945.262628	3130.717855
945.564367	3131.363123
945.866067	3125.013790
946.167729	3121.550517
946.469352	3122.135291
946.770937	3117.867954
947.072484	3103.730038
947.373992	3104.375306
947.675462	3098.759461
947.976893	3081.864033
948.278286	3077.798343
948.579641	3067.642938
948.880958	3062.939542
949.182236	3064.053637
949.483476	3059.493913
949.784678	3058.692370
950.085841	3058.253789
950.386967	3063.998184
950.688054	3079.411512
950.989103	3096.188472
951.290114	3113.446862
951.591087	3139.154226
951.892021	3166.131961
952.192917	3193.767567
952.493776	3216.157851
952.794596	3227.838205
953.095378	3237.315574
953.396122	3233.721231
953.696828	3226.514902
953.997496	3219.119529
954.298126	3200.051365
954.598718	3183.294569
954.899272	3155.817760
955.199788	3136.633649
955.500266	3104.771037
955.800706	3073.094946
956.101108	3039.586397
956.401472	3011.260153
956.701798	2979.037098
957.002087	2939.635439
957.302337	2914.543096
957.602550	2884.094527
957.902724	2858.934128
958.202861	2835.497804
958.502960	2815.239927
958.803022	2793.328552
959.103045	2774.615789
959.403031	2758.899992
959.702979	2747.738877
960.002889	2731.700446
960.302762	2721.524877
960.602596	2711.165306
960.902393	2701.942515
961.202153	2694.479087
961.501875	2686.042716
961.801559	2680.391582
962.101205	2675.393278
962.400814	2670.226096
962.700385	2664.945487
962.999918	2657.058602
963.299414	2652.206491
963.598873	2649.121305
963.898293	2641.360449
964.197677	2643.462610
964.497022	2641.042856
964.796331	2638.318112
965.095601	2634.554891
965.394835	2634.108749
965.694030	2632.823255
965.993189	2631.688995
966.292309	2628.374436
966.591393	2631.149592
966.890439	2628.376957
967.189447	2630.166567
967.488419	2629.859056
967.787353	2628.865949
968.086249	2632.634211
968.385108	2633.060189
968.683930	2634.431383
968.982714	2636.384830
969.281462	2641.801550
969.580172	2645.617703
969.878844	2651.180616
970.177480	2659.526247
970.476078	2665.172339
970.774639	2672.161899
971.073162	2677.792867
971.371649	2684.331244
971.670098	2689.223684
971.968510	2696.268696
972.266885	2700.752803
972.565223	2705.126004
972.863524	2705.902341
973.161788	2709.312682
973.460014	2710.598176
973.758204	2714.522714
974.056356	2716.203939
974.354471	2721.295505
974.652550	2718.666543
974.950591	2717.993549
975.248595	2718.482541
975.546563	2715.014227
975.844493	2711.213197
976.142386	2706.388813
976.440243	2702.970910
976.738062	2698.106197
977.035845	2692.127388
977.333590	2688.386852
977.631299	2680.429391
977.928971	2676.925789
978.226606	2669.500169
978.524204	2668.338183
978.821765	2662.639159
979.119290	2665.376506
979.416777	2661.870383
979.714228	2663.544046
980.011642	2667.957576
980.309020	2672.925633
980.606360	2684.358970
980.903664	2705.965356
981.200931	2729.880590
981.498162	2770.315685
981.795356	2836.551405
982.092513	2915.004362
982.389633	3007.547343
982.686717	3099.997064
982.983764	3177.131759
983.280775	3232.786097
983.577749	3247.057604
983.874686	3240.332705
984.171587	3212.820607
984.468451	3181.620906
984.765279	3143.817294
985.062070	3098.411621
985.358824	3060.272772
985.655543	3010.990452
985.952224	2963.457412
986.248869	2904.080181
986.545478	2846.210256
986.842050	2791.382667
987.138586	2748.522777
987.435086	2710.061293
987.731549	2680.568023
988.027975	2655.130360
988.324366	2636.805766
988.620719	2626.337810
988.917037	2613.515635
989.213318	2602.359562
989.509563	2599.312184
989.805772	2592.166349
990.101944	2590.568303
990.398080	2585.204515
990.694180	2583.543455
990.990244	2584.637386
991.286271	2585.181830
991.582262	2585.330544
991.878217	2585.222159
992.174136	2593.368664
992.470019	2592.582244
992.765865	2596.912595
993.061676	2596.647935
993.357450	2606.896600
993.653188	2608.779471
993.948890	2627.134312
994.244556	2644.049904
994.540186	2660.307625
994.835780	2688.470031
995.131337	2722.462532
995.426859	2757.082656
995.722345	2804.903041
996.017795	2852.264682
996.313208	2884.160062
996.608586	2913.499577
996.903928	2932.184614
997.199234	2932.114038
997.494504	2934.937084
997.789738	2924.890064
998.084936	2903.046745
998.380099	2875.585059
998.675225	2848.801409
998.970316	2819.504743
999.265371	2787.637089
999.560390	2753.253899
999.855373	2725.593088
1000.150320	2695.318439
1000.445232	2670.997392
1000.740108	2653.814619
1001.034948	2634.398615
1001.329752	2619.191975
1001.624521	2610.690069
1001.919254	2596.854622
1002.213951	2590.328848
1002.508613	2581.466500
1002.803239	2574.103895
1003.097829	2571.885787
1003.392384	2566.917730
1003.686903	2559.275341
1003.981386	2557.435319
1004.275834	2554.019938
1004.570246	2550.985163
1004.864623	2548.230173
1005.158964	2545.669266
1005.453270	2542.415202
1005.747540	2544.502239
1006.041775	2541.817825
1006.335974	2540.928061
1006.630138	2539.138452
1006.924266	2540.953267
1007.218359	2540.260108
1007.512416	2535.380271
1007.806438	2533.000847
1008.100425	2533.212575
1008.394376	2530.782739
1008.688292	2534.397246
1008.982172	2534.747607
1009.276017	2532.816845
1009.569827	2535.728111
1009.863602	2532.337935
1010.157341	2534.160312
1010.451045	2531.639735
1010.744714	2532.037986
1011.038347	2530.303829
1011.331945	2529.076308
1011.625508	2529.593027
1011.919036	2530.346679
1012.212528	2528.857018
1012.505986	2527.236287
1012.799408	2528.955321
1013.092795	2525.421472
1013.386147	2524.390556
1013.679464	2523.790659
1013.972745	2525.827285
1014.265992	2523.745288
1014.559204	2524.125895
1014.852380	2522.391738
1015.145521	2525.169414
1015.438628	2523.765453
1015.731699	2519.102386
1016.024736	2523.520957
1016.317737	2526.444826
1016.610703	2525.217305
1016.903635	2528.093283
1017.196531	2528.277286
1017.489393	2530.513037
1017.782219	2529.961031
1018.075011	2534.384643
1018.367768	2532.970600
1018.660490	2531.483459
1018.953177	2531.483459
1019.245829	2531.483459
