Dividing Wavelength (nm)	Counts (n)	Blue Motor Position (mm): 20.500000	Red Motor Position (mm): 0.000000	
326.493990	2069.524724
326.888308	2069.524724
327.282561	2069.524724
327.676750	2044.520601
328.070874	2045.748122
328.464933	2048.246013
328.858929	2057.859494
329.252859	2069.630588
329.646726	2079.498647
330.040528	2100.797522
330.434265	2113.647423
330.827938	2139.463172
331.221547	2155.746099
331.615091	2179.986487
332.008571	2198.144723
332.401986	2217.472507
332.795338	2237.064951
333.188625	2257.653024
333.581847	2274.692124
333.975006	2295.633077
334.368100	2314.035809
334.761129	2329.459219
335.154095	2344.703668
335.546996	2390.328631
335.939833	2482.654843
336.332606	2488.757160
336.725315	2506.660818
337.117960	2514.361180
337.510540	2527.372398
337.903056	2533.908254
338.295508	2539.317412
338.687896	2550.750749
339.080220	2552.167314
339.472480	2560.548232
339.864676	2559.666030
340.256807	2565.591906
340.648875	2567.946125
341.040879	2569.004767
341.432818	2567.562998
341.824694	2571.807649
342.216506	2568.495611
342.608253	2565.987637
342.999937	2569.423183
343.391557	2565.791032
343.783113	2563.431772
344.174605	2563.482183
344.566033	2561.551422
344.957397	2561.972358
345.348697	2559.204764
345.739934	2556.270813
346.131106	2557.931873
346.522215	2553.137736
346.913260	2556.966492
347.304241	2551.421223
347.695159	2550.899463
348.086012	2547.731098
348.476802	2546.727909
348.867528	2540.509645
349.258191	2541.177598
349.648789	2537.855478
350.039324	2535.927237
350.429796	2538.503266
350.820203	2538.790612
351.210548	2539.882022
351.600828	2539.844213
351.991045	2537.401774
352.381198	2539.602238
352.771288	2536.711136
353.161314	2533.663758
353.551276	2534.548481
353.941175	2533.318439
354.331010	2537.527803
354.720782	2537.734490
355.110490	2537.784902
355.500135	2535.619726
355.889717	2535.188708
356.279235	2538.200797
356.668689	2536.935467
357.058080	2536.824562
357.447408	2536.874973
357.836672	2538.034439
358.225873	2537.459747
358.615010	2539.592155
359.004084	2539.977804
359.393095	2536.943029
359.782043	2539.524100
360.170927	2541.991745
360.559748	2539.156096
360.948505	2540.955788
361.337199	2544.217414
361.725830	2544.872764
362.114398	2542.785726
362.502903	2544.230017
362.891344	2545.306303
363.279722	2540.676003
363.668037	2544.698844
364.056289	2545.235727
364.444478	2545.762528
364.832603	2545.497867
365.220665	2545.223124
365.608665	2546.269164
365.996601	2547.572302
366.384474	2546.725388
366.772284	2546.806047
367.160031	2548.772097
367.547715	2549.349309
367.935336	2547.947868
368.322893	2547.836962
368.710388	2543.315048
369.097820	2544.819832
369.485189	2545.449976
369.872495	2551.244782
370.259738	2551.534649
370.646918	2550.854093
371.034035	2551.264947
371.421090	2549.477858
371.808081	2551.123795
372.195010	2552.613456
372.581875	2552.905843
372.968678	2548.580533
373.355418	2551.456511
373.742096	2552.333672
374.128710	2552.570606
374.515262	2552.444577
374.901751	2551.529608
375.288177	2554.098076
375.674540	2553.551110
376.060841	2555.922973
376.447079	2552.479865
376.833254	2555.393652
377.219367	2556.001111
377.605417	2554.476162
377.991404	2554.561862
378.377329	2557.236194
378.763191	2557.261400
379.148991	2555.733930
379.534727	2556.984136
379.920402	2557.105124
380.306013	2554.627397
380.691563	2556.880792
381.077049	2555.370967
381.462474	2554.576985
381.847835	2557.394990
382.233134	2557.586554
382.618371	2556.895916
383.003545	2558.970351
383.388657	2559.381205
383.773706	2558.093190
384.158693	2556.779969
384.543618	2561.685012
384.928480	2559.171997
385.313280	2560.651576
385.698017	2561.372461
386.082692	2560.351627
386.467305	2563.411607
386.851856	2559.776935
387.236344	2562.723490
387.620770	2558.060422
388.005133	2560.034034
388.389435	2560.286092
388.773674	2556.527912
389.157851	2561.942111
389.541965	2560.114693
389.926018	2562.655434
390.310008	2561.238870
390.693936	2561.236349
391.077802	2562.710887
391.461606	2565.082750
391.845348	2563.361196
392.229027	2563.681309
392.612645	2563.651062
392.996200	2564.056875
393.379694	2566.693398
393.763125	2564.485373
394.146494	2565.730538
394.529801	2564.198027
394.913047	2565.531412
395.296230	2567.799932
395.679351	2565.032338
396.062410	2565.208779
396.445408	2568.498132
396.828343	2565.017215
397.211217	2567.963769
397.594028	2566.741289
397.976778	2564.298850
398.359466	2566.458985
398.742092	2565.990157
399.124656	2565.445713
399.507158	2567.545353
399.889598	2571.172464
400.271977	2565.107956
400.654294	2567.557956
401.036549	2568.513255
401.418742	2567.842782
401.800874	2569.881928
402.182944	2569.130796
402.564952	2569.652556
402.946898	2569.425704
403.328783	2572.311764
403.710606	2570.058369
404.092367	2570.582649
404.474067	2569.108111
404.855705	2570.224727
405.237282	2572.006775
405.618797	2570.476784
406.000250	2571.802608
406.381642	2570.507031
406.762972	2570.053327
407.144240	2569.425704
407.525447	2571.298492
407.906593	2568.460323
408.287677	2570.716239
408.668700	2572.984758
409.049661	2575.517938
409.430560	2571.036352
409.811399	2572.614234
410.192176	2576.977352
410.572891	2574.303020
410.953545	2573.559450
411.334138	2573.506518
411.714669	2576.276632
412.095139	2574.207238
412.475547	2576.274111
412.855894	2573.511559
413.236180	2574.673545
413.616405	2575.911148
413.996568	2571.903431
414.376670	2576.100192
414.756711	2576.208576
415.136691	2574.986097
415.516609	2576.581622
415.896466	2576.967270
416.276262	2574.507187
416.655997	2578.514904
417.035670	2576.294276
417.415283	2579.180337
417.794834	2573.269584
418.174324	2574.882753
418.553753	2576.279152
418.933121	2577.289904
419.312428	2577.005079
419.691674	2576.349729
420.070859	2578.623289
420.449983	2574.817218
420.829045	2578.837538
421.208047	2577.821746
421.586988	2577.196642
421.965867	2577.889801
422.344686	2577.547003
422.723444	2578.565316
423.102141	2577.395768
423.480777	2581.516911
423.859352	2577.443659
424.237866	2578.124215
424.616319	2579.613876
424.994712	2580.599421
425.373044	2578.351067
425.751314	2575.434759
426.129524	2574.923082
426.507673	2577.153793
426.885762	2573.919892
427.263789	2581.496747
427.641756	2580.077662
428.019662	2577.995665
428.397508	2581.809298
428.775292	2580.334761
429.153016	2580.236458
429.530679	2583.435070
429.908282	2580.869123
430.285824	2579.976839
430.663305	2581.249730
431.040726	2579.964236
431.418086	2581.983218
431.795385	2581.219483
432.172624	2582.499936
432.549802	2579.152610
432.926920	2582.293249
433.303977	2582.023547
433.680974	2582.371387
434.057910	2581.524473
434.434786	2582.260482
434.811601	2583.815677
435.188355	2583.109916
435.565050	2581.509350
435.941683	2583.611511
436.318257	2582.600759
436.694770	2584.826429
437.071222	2582.492375
437.447614	2583.114957
437.823946	2584.990266
438.200218	2584.372725
438.576429	2586.058991
438.952580	2584.944896
439.328670	2583.926583
439.704700	2582.683938
440.080670	2581.675708
440.456580	2585.673343
440.832429	2583.694690
441.208218	2586.389187
441.583947	2585.081007
441.959616	2584.143352
442.335224	2584.793661
442.710773	2586.051429
443.086261	2585.222159
443.461689	2585.010431
443.837057	2587.704928
444.212365	2587.359609
444.587612	2584.236614
444.962800	2585.128898
445.337927	2584.690318
445.712995	2584.523960
446.088002	2588.125864
446.462949	2587.639393
446.837837	2588.093097
447.212664	2587.694845
447.587431	2589.965885
447.962139	2586.704259
448.336786	2589.925556
448.711374	2589.305494
449.085901	2590.369178
449.460369	2590.437233
449.834776	2587.152921
450.209124	2591.606781
450.583412	2591.629466
450.957640	2589.426482
451.331808	2588.249372
451.705917	2594.021493
452.079965	2589.681060
452.453954	2588.198961
452.827883	2591.967223
453.201752	2592.549477
453.575562	2594.729776
453.949311	2592.448653
454.323001	2592.859507
454.696632	2591.390011
455.070202	2590.674167
455.443713	2594.417224
455.817164	2593.666092
456.190556	2595.506113
456.563888	2596.015270
456.937160	2595.795980
457.310373	2595.624580
457.683526	2595.410331
458.056619	2598.654314
458.429653	2595.743047
458.802628	2597.971237
459.175542	2598.815631
459.548398	2600.191866
459.921194	2598.379571
460.293930	2600.708584
460.666607	2602.929212
461.039224	2602.104984
461.411782	2601.976434
461.784280	2602.236054
462.156719	2600.764037
462.529099	2606.521034
462.901419	2603.859305
463.273680	2601.759665
463.645882	2598.245980
464.018024	2605.008688
464.390106	2602.548605
464.762130	2608.746704
465.134094	2607.277207
465.505999	2609.490274
465.877845	2617.039402
466.249631	2620.583333
466.621358	2620.222891
466.993026	2618.047633
467.364634	2620.497633
467.736184	2620.485031
468.107674	2620.185082
468.479105	2615.615276
468.850477	2620.154835
469.221790	2618.203908
469.593043	2619.199536
469.964238	2619.058384
470.335373	2618.304732
470.706449	2622.607356
471.077467	2624.162552
471.448425	2632.185549
471.819324	2633.430714
472.190164	2634.597741
472.560945	2631.590692
472.931667	2628.916360
473.302330	2629.289406
473.672934	2630.776546
474.043479	2631.719242
474.413965	2632.109931
474.784393	2630.675723
475.154761	2635.258132
475.525070	2635.348873
475.895321	2637.052783
476.265513	2639.376755
476.635645	2642.661066
477.005719	2642.061169
477.375734	2644.014616
477.745691	2648.536531
478.115588	2650.510143
478.485427	2655.397542
478.855207	2663.246618
479.224928	2670.387412
479.594591	2675.186591
479.964194	2676.388906
480.333739	2682.105575
480.703226	2684.116995
481.072653	2691.202337
481.442022	2697.566793
481.811333	2700.311702
482.180584	2703.404450
482.549777	2707.016436
482.918912	2709.262270
483.287988	2719.868858
483.657005	2725.300701
484.025964	2727.032338
484.394864	2731.705487
484.763706	2740.025912
485.132489	2746.438259
485.501213	2752.853128
485.869879	2763.986516
486.238487	2772.760644
486.607036	2782.006120
486.975527	2791.387708
487.343959	2803.824234
487.712333	2821.561534
488.080648	2833.430931
488.448905	2849.323168
488.817104	2865.167515
489.185244	2885.841287
489.553326	2916.867068
489.921350	2962.008080
490.289315	3012.999351
490.657222	3049.865309
491.025070	3082.360587
491.392861	3102.502517
491.760593	3117.177316
492.128267	3125.606125
492.495883	3134.927219
492.863440	3149.591935
493.230939	3167.309071
493.598380	3189.401927
493.965763	3215.560475
494.333088	3241.131727
494.700354	3270.342693
495.067563	3307.685041
495.434713	3342.859692
495.801805	3392.215108
496.168839	3431.533588
496.535815	3470.337869
496.902733	3521.850900
497.269593	3564.325142
497.636395	3615.467647
498.003139	3679.568439
498.369825	3726.889750
498.736453	3795.925832
499.103023	3846.319726
499.469535	3911.958070
499.835989	3978.430724
500.202385	4035.420969
500.568723	4103.196762
500.935003	4187.237837
501.301226	4251.429370
501.667390	4365.598902
502.033497	4455.417140
502.399546	4520.458107
502.765537	4572.669337
503.131470	4683.370555
503.497345	4799.952279
503.863163	4807.957631
504.228923	4947.748827
504.594625	5067.667795
504.960269	5123.075117
505.325856	5267.050471
505.691385	5340.986553
506.056856	5463.678156
506.422270	5611.063850
506.787625	5670.335217
507.152924	5817.310057
507.518164	5949.471467
507.883347	6012.901785
508.248472	6138.096320
508.613540	6328.535989
508.978550	6475.016796
509.343503	6581.165852
509.708398	6740.909935
510.073236	6940.811850
510.438016	7083.383243
510.802738	7172.064700
511.167403	7378.709158
511.532010	7559.540388
511.896561	7778.129860
512.261053	8037.918162
512.625488	8154.031058
512.989866	8291.639435
513.354186	8452.280843
513.718449	8592.094724
514.082655	8897.981857
514.446803	9003.672168
514.810894	9277.840362
515.174927	9444.168192
515.538904	9613.717319
515.902822	9913.615561
516.266684	10014.758751
516.630488	10261.823181
516.994235	10428.808881
517.357925	10732.306508
517.721558	10972.426747
518.085133	11238.997922
518.448651	11472.277316
518.812112	11636.203036
519.175516	11858.333919
519.538863	12161.067810
519.902152	12373.242414
520.265385	12735.303124
520.628560	12954.537864
520.991678	13140.732881
521.354739	13397.612437
521.717743	13713.483575
522.080690	13893.382191
522.443580	14313.756449
522.806413	14529.233008
523.169189	14781.073931
523.531908	15070.448765
523.894569	15244.464354
524.257174	15520.933834
524.619722	15866.593150
524.982213	16135.112731
525.344647	16380.231275
525.707025	16650.691699
526.069345	17043.183335
526.431608	17236.909836
526.793815	17624.204042
527.155964	17680.395263
527.518057	18026.704888
527.880093	18212.103403
528.242072	18694.922433
528.603995	18834.373352
528.965860	19034.585297
529.327669	19360.100163
529.689421	19621.995667
530.051117	19835.221351
530.412755	20199.621157
530.774337	20461.115889
531.135862	20669.411325
531.497331	20985.632823
531.858743	21223.159390
532.220098	21650.122435
532.581396	21758.542531
532.942638	21891.752501
533.303824	22244.088826
533.664953	22513.513293
534.026025	22583.630702
534.387040	23120.087609
534.747999	23383.089646
535.108902	23801.419716
535.469748	23682.577034
535.830537	24055.725763
536.191270	24426.653863
536.551947	24519.562328
536.912567	24903.660443
537.273131	25216.595109
537.633638	25230.574228
537.994089	25573.092906
538.354483	25665.726628
538.714821	26262.632011
539.075103	26647.362790
539.435328	26815.066855
539.795497	26900.839568
540.155609	27203.820475
540.515665	27782.605431
540.875665	27579.073885
541.235609	27975.321181
541.595496	28294.597618
541.955328	28883.416990
542.315102	28755.490150
542.674821	28913.772298
543.034483	29065.304342
543.394090	29314.992692
543.753640	29513.606592
544.113134	30435.119432
544.472571	30053.345290
544.831953	31018.796828
545.191278	30740.520094
545.550548	30743.978326
545.909761	31391.307850
546.268918	31691.193489
546.628019	32189.045240
546.987064	32000.044821
547.346053	31718.463611
547.704986	32574.748962
548.063863	32514.791999
548.422684	32864.350648
548.781449	32751.239758
549.140158	33339.739017
549.498811	33363.210629
549.857408	33110.852988
550.215949	33926.113430
550.574434	34007.104607
550.932864	34141.942870
551.291237	34873.618460
551.649555	34872.511926
552.007817	35187.740317
552.366022	35149.334287
552.724173	35366.746649
553.082267	35858.359973
553.440305	36335.759762
553.798288	35904.166417
554.156215	36388.220530
554.514086	36733.244661
554.871902	36570.916986
555.229661	36881.084059
555.587365	36806.966495
555.945014	37100.825435
556.302606	37247.051664
556.660143	37495.699015
557.017625	37840.082920
557.375050	37754.665609
557.732421	38251.430991
558.089735	38465.306984
558.446994	38493.734051
558.804197	39070.341228
559.161345	39097.807955
559.518437	38693.368784
559.875474	39062.807223
560.232455	39394.076566
560.589381	39574.469215
560.946251	39570.975696
561.303065	40275.345876
561.659825	40134.422941
562.016528	40106.184917
562.373177	39881.097398
562.729770	40597.483168
563.086307	40277.074992
563.442789	40886.298434
563.799216	40887.001675
564.155587	40924.465010
564.511904	41016.007322
564.868164	41184.122241
565.224370	41597.922834
565.580520	41455.900927
565.936615	41754.556525
566.292654	41556.051010
566.648638	41999.954853
567.004567	42075.312542
567.360441	42221.901734
567.716260	42072.686101
568.072023	42556.664596
568.427732	42587.312291
568.783385	42246.542894
569.138982	42736.437183
569.494525	42959.495638
569.850013	42683.263093
570.205445	42902.492791
570.560823	42772.456228
570.916145	42744.044285
571.271412	43047.466293
571.626625	42795.695947
571.981782	42969.756907
572.336884	42681.861652
572.691931	43065.674941
573.046923	42827.424969
573.401860	42755.954011
573.756743	42838.260929
574.111570	43056.363930
574.466342	43043.682908
574.821059	43253.969599
575.175722	42876.722413
575.530330	43011.182589
575.884882	42746.017896
576.239380	42729.780340
576.593823	42883.596026
576.948211	42903.778285
577.302544	42514.918801
577.656823	42578.825508
578.011047	42899.427770
578.365216	42797.180567
578.719330	42575.195878
579.073389	42601.959363
579.427394	42725.860843
579.781344	42676.139942
580.135239	42489.702950
580.489080	42606.808953
580.842866	42199.277035
581.196597	42683.573124
581.550273	42705.930641
581.903895	42704.138511
582.257463	43163.710260
582.610975	42679.542721
582.964434	43027.664641
583.317837	42574.419540
583.671186	42592.068620
584.024481	42902.515476
584.377721	42496.296779
584.730906	42749.219029
585.084037	42933.170733
585.437113	42692.259032
585.790135	42844.312835
586.143103	42456.443937
586.496016	42657.674196
586.848874	42780.844708
587.201679	42844.925335
587.554428	42401.528128
587.907124	42676.235724
588.259765	42476.908501
588.612352	42676.044160
588.964884	42180.914633
589.317362	42487.124399
589.669786	42502.820032
590.022155	42427.658949
590.374470	42902.575970
590.726731	42519.450798
591.078937	41907.757191
591.431090	42271.854527
591.783188	41820.356186
592.135232	41644.392190
592.487222	41928.408278
592.839157	42080.628438
593.191038	41773.518826
593.542866	41599.946857
593.894639	41009.403411
594.246358	41317.052427
594.598022	41346.439833
594.949633	40947.331683
595.301190	40958.059259
595.652692	40898.069528
596.004141	41417.885586
596.355535	40370.991688
596.706876	40371.831040
597.058162	40116.058017
597.409395	40615.054110
597.760573	40860.850689
598.111698	40480.833389
598.462768	40419.401888
598.813785	40445.109252
599.164748	40093.745870
599.515657	40361.784020
599.866511	39872.703877
600.217312	40569.419065
600.568060	39544.970904
600.918753	40362.570440
601.269392	40288.815839
601.619978	40026.257423
601.970510	40254.732598
602.320988	40389.333926
602.671412	40651.995685
603.021783	40522.183453
603.372100	40131.153752
603.722363	40235.941697
604.072572	40270.919743
604.422728	40275.272779
604.772830	40067.781407
605.122878	40254.510787
605.472872	40110.260690
605.822813	40356.944512
606.172701	40113.897883
606.522534	40454.062341
606.872314	40655.637919
607.222041	40506.792811
607.571714	40839.382936
607.921333	40361.857117
608.270899	40538.781452
608.620411	40939.873296
608.969870	40707.390404
609.319276	40731.971071
609.668627	40771.977667
610.017926	41151.334577
610.367171	41308.777373
610.716362	41346.618794
611.065500	41262.466813
611.414585	41477.295584
611.763616	41675.322190
612.112594	41568.101889
612.461518	41687.325177
612.810389	42076.701380
613.159207	41871.259237
613.507971	41843.903416
613.856682	42354.857125
614.205340	42183.387318
614.553945	42865.546175
614.902496	42224.475243
615.250994	42643.715241
615.599439	42703.798233
615.947830	42821.368023
616.296169	42823.356758
616.644454	42896.587079
616.992686	43043.405644
617.340864	43467.359121
617.688990	42983.216788
618.037063	43649.024661
618.385082	43485.502233
618.733048	43847.426833
619.080961	43744.851955
619.428821	43781.377635
619.776628	43816.393490
620.124382	43662.008153
620.472083	43751.188685
620.819731	43867.795615
621.167326	43462.302843
621.514868	43454.665495
621.862357	42914.273968
622.209793	43008.495654
622.557176	42608.838018
622.904506	42357.503731
623.251783	42017.137626
623.599007	41706.030378
623.946179	41646.816985
624.293297	41382.635318
624.640363	40851.317867
624.987376	40700.587367
625.334336	40519.199090
625.681243	40119.352411
626.028097	40045.040762
626.374899	39858.195436
626.721647	39818.697996
627.068343	39589.859858
627.414987	39291.161410
627.761577	39054.103671
628.108115	39392.203777
628.454600	38632.995926
628.801032	38870.855208
629.147412	38771.783932
629.493739	38655.257661
629.840014	38224.733041
630.186236	38639.751072
630.532405	38082.761545
630.878521	38343.928603
631.224585	38108.640309
631.570597	37784.975547
631.916556	37963.933987
632.262462	37855.284519
632.608316	37802.160840
632.954117	37665.593462
633.299866	37613.445246
633.645562	37542.763228
633.991206	37041.286887
634.336797	36637.548437
634.682336	36529.324947
635.027823	36296.408515
635.373257	36197.196087
635.718639	35870.635182
636.063968	35762.336074
636.409245	35133.028675
636.754470	35086.602168
637.099642	34869.363726
637.444762	34303.723579
637.789829	34425.364101
638.134845	34027.972464
638.479808	33949.033036
638.824719	33906.170625
639.169577	33400.058943
639.514383	33518.866337
639.859137	33132.618170
640.203839	33288.009217
640.548489	33014.571991
640.893086	32998.677233
641.237632	32713.413460
641.582125	32806.594148
641.926566	32596.337703
642.270955	32617.535755
642.615292	32565.327046
642.959576	32440.200566
643.303809	32449.975363
643.647990	32542.984652
643.992118	32510.118849
644.336195	32333.791891
644.680219	32409.373910
645.024192	32595.823506
645.368112	33128.355875
645.711981	33123.221459
646.055797	33820.854137
646.399562	33625.842142
646.743274	34479.478367
647.086935	34890.491202
647.430544	34869.487234
647.774101	34904.369498
648.117606	35212.189914
648.461059	35358.932861
648.804460	34977.708204
649.147810	34465.400945
649.491108	34191.026064
649.834354	34064.800613
650.177548	33244.541868
650.520690	32750.070211
650.863781	32718.840263
651.206820	32549.172668
651.549807	32130.905613
651.892742	31542.867620
652.235626	31459.234877
652.578458	31310.268781
652.921238	30625.808638
653.263967	30909.854972
653.606644	30592.247157
653.949269	30507.641472
654.291843	30117.688057
654.634365	30463.118001
654.976836	30023.531906
655.319255	30111.459711
655.661622	29971.164400
656.003938	29859.656597
656.346203	29663.389355
656.688416	29911.063764
657.030577	29706.559276
657.372687	29521.743014
657.714746	29663.820373
658.056753	29835.990901
658.398708	29216.392764
658.740612	29294.707089
659.082465	29505.828091
659.424266	29387.272756
659.766016	29381.482990
660.107715	29238.785569
660.449362	29330.837038
660.790958	29325.682458
661.132503	29234.780372
661.473996	29301.835280
661.815438	29405.171372
662.156829	29509.694656
662.498168	29309.467587
662.839456	29290.306161
663.180693	29414.197558
663.521879	29474.303236
663.863013	29417.882642
664.204097	29408.024665
664.545129	29812.796552
664.886110	29726.156761
665.227040	29846.393322
665.567918	29853.914723
665.908746	29904.318700
666.249522	29995.036784
666.590248	30029.172957
666.930922	30125.491763
667.271545	30135.102723
667.612118	30192.425683
667.952639	30012.035555
668.293109	30039.555213
668.633528	29901.828370
668.973896	29861.990652
669.314213	29826.319447
669.654480	29653.957356
669.994695	29625.515166
670.334859	29549.028259
670.674973	29361.295690
671.015035	29562.188191
671.355047	29483.707508
671.695008	29397.738191
672.034918	29314.738113
672.374777	29401.524097
672.714585	29288.196438
673.054342	29416.143444
673.394049	29284.004719
673.733705	29487.432921
674.073310	29197.085144
674.412864	29258.128476
674.752368	28983.400715
675.091820	29222.616068
675.431223	28829.522015
675.770574	28633.590009
676.109875	28464.517270
676.449125	28252.854344
676.788324	28158.736002
677.127473	27681.164812
677.466571	27587.185102
677.805619	27307.010374
678.144616	27238.889262
678.483562	27179.038163
678.822458	26862.254576
679.161303	26806.764075
679.500098	26735.280513
679.838842	26657.301425
680.177535	26710.420063
680.516179	26917.843379
680.854771	26988.810223
681.193314	27666.795003
681.531805	28615.182235
681.870247	29372.207267
682.208638	30163.776806
682.546978	30522.802742
682.885268	30706.678828
683.223508	30290.730704
683.561697	30040.825584
683.899836	29873.378618
684.237925	29467.033892
684.575963	29291.137952
684.913951	28915.035107
685.251889	29040.990857
685.589776	29048.257680
685.927614	29046.624346
686.265401	29221.098681
686.603137	29301.648757
686.940824	29781.594330
687.278460	30110.862335
687.616046	30289.271290
687.953582	30953.529009
688.291068	30892.273948
688.628504	31247.992887
688.965889	31274.378286
689.303224	31025.483918
689.640510	30776.866813
689.977745	30167.925676
690.314930	29449.087384
690.652065	29050.291786
690.989150	28377.615340
691.326185	27548.738742
691.663170	26937.201410
692.000105	26224.266310
692.336990	25622.803724
692.673825	25211.223759
693.010610	24705.381779
693.347345	24194.251629
693.684030	23569.660229
694.020665	23385.859760
694.357251	22721.085323
694.693786	22722.632957
695.030272	22489.797185
695.366707	21995.570023
695.703093	21710.447403
696.039429	21767.591402
696.375716	21525.787417
696.711952	21520.799195
697.048139	21386.893546
697.384276	21218.342567
697.720363	21340.078871
698.056400	21228.954196
698.392388	21079.186557
698.728326	21069.391595
699.064214	20923.384656
699.400053	20930.507806
699.735842	20547.186029
700.071581	20367.216837
700.407270	20127.487287
700.742910	19949.222004
701.078501	19703.019612
701.414042	19507.188429
701.749533	19214.226815
702.084974	18904.102592
702.420366	19125.953690
702.755709	18740.991018
703.091002	18427.935364
703.426246	18470.782651
703.761440	18418.538653
704.096584	18183.300771
704.431679	18124.097460
704.766725	18062.383655
705.101721	17977.909040
705.436668	18085.159588
705.771565	17814.923495
706.106413	18119.779712
706.441212	18188.236060
706.775961	18261.786495
707.110661	18344.237087
707.445311	18699.426704
707.779913	18588.972503
708.114465	18868.859885
708.448967	19173.796761
708.783421	19786.806110
709.117825	20110.957343
709.452180	20326.426341
709.786485	20760.704101
710.120742	21494.771718
710.454949	21592.345771
710.789107	22108.723763
711.123216	22804.224032
711.457275	23018.011805
711.791286	23586.747220
712.125247	23757.125617
712.459159	23531.193705
712.793023	24293.017915
713.126837	23320.317198
713.460602	23587.899124
713.794318	23269.083952
714.127985	23005.623170
714.461602	22126.456021
714.795171	22114.853806
715.128691	21135.213940
715.462162	20627.751230
715.795584	20204.816066
716.128957	19936.845972
716.462281	19553.746006
716.795556	19289.592065
717.128782	18823.111414
717.461960	18221.222851
717.795088	18194.507256
718.128167	17853.926902
718.461198	17404.187923
718.794180	17277.559180
719.127113	16962.058566
719.459997	16767.333917
719.792833	16394.061680
720.125619	16435.462156
720.458357	16093.780310
720.791046	15951.357632
721.123686	15812.315047
721.456278	15588.850779
721.788821	15577.172946
722.121315	15318.289532
722.453761	15414.371403
722.786158	15297.910667
723.118506	15381.724891
723.450805	15266.821872
723.783056	15440.880311
724.115259	15318.652495
724.447412	15306.316791
724.779518	15508.081412
725.111574	15556.426078
725.443582	15811.652135
725.775542	15764.146822
726.107453	16258.978922
726.439315	16161.205743
726.771129	16564.727423
727.102895	16962.968495
727.434612	17235.233652
727.766281	17416.102690
728.097901	17734.743943
728.429473	17844.449533
728.760996	17867.999283
729.092471	17982.410790
729.423897	17865.287142
729.755276	17715.527064
730.086606	17802.670970
730.417887	18346.692129
730.749120	18873.096975
731.080305	19100.979814
731.411442	19512.443832
731.742530	19633.991092
732.073570	19763.684858
732.404562	20084.519012
732.735506	19987.837243
733.066401	19864.460043
733.397249	19428.765719
733.728048	18834.390996
734.058798	18009.330552
734.389501	17250.473060
734.720156	16727.788585
735.050762	16152.527397
735.381320	15755.934782
735.711831	15457.279184
736.042293	15074.958077
736.372707	15109.053921
736.703073	14890.885385
737.033391	15071.731738
737.363661	15054.722885
737.693883	15151.737370
738.024056	15344.712740
738.354182	15545.028029
738.684260	15886.828342
739.014290	16159.340516
739.344272	16379.933847
739.674207	16720.433542
740.004093	16901.710914
740.333931	16982.036659
740.663722	17075.542501
740.993464	17128.625851
741.323159	16993.316241
741.652806	16714.737038
741.982405	16553.823407
742.311956	16206.432455
742.641460	16109.826303
742.970915	15781.879081
743.300323	15439.877121
743.629683	15230.691922
743.958996	14929.241004
744.288260	14617.249034
744.617477	14308.909379
744.946647	14273.994348
745.275768	13962.410711
745.604842	13760.356224
745.933869	13579.391403
746.262847	13547.392679
746.591778	13455.353813
746.920662	13332.021984
747.249498	13321.077639
747.578286	13463.366727
747.907027	13617.905819
748.235720	13873.756979
748.564365	13951.521819
748.892963	13893.142737
749.221514	14009.381662
749.550017	13892.573086
749.878473	13861.824568
750.206881	13648.094769
750.535242	13587.474894
750.863555	13513.390097
751.191821	13399.339032
751.520039	13416.453749
751.848210	13334.005678
752.176334	13379.849931
752.504411	13303.249599
752.832440	13122.763688
753.160421	13248.558121
753.488356	13139.318837
753.816243	13059.156929
754.144082	12881.025238
754.471875	12829.003051
754.799620	12785.790280
755.127318	12763.198349
755.454969	12740.530801
755.782572	12716.376112
756.110129	12730.324985
756.437638	12638.568423
756.765100	12645.116882
757.092515	12667.227383
757.419882	12693.637987
757.747203	12696.380375
758.074477	12783.443623
758.401703	12760.274480
758.728882	12950.179786
759.056014	12984.172287
759.383099	13155.576558
759.710138	13272.339764
760.037129	13407.465372
760.364073	13473.073469
760.690970	13497.505421
761.017820	13507.013037
761.344623	13707.938306
761.671379	14009.802598
761.998088	14554.078335
762.324751	15954.394927
762.651366	18868.635554
762.977935	23146.036948
763.304456	26408.608703
763.630931	27991.273912
763.957359	27215.548720
764.283740	25171.517111
764.610074	23045.680178
764.936362	20454.078438
765.262602	18565.473164
765.588796	16598.062053
765.914943	15269.753303
766.241044	14138.233554
766.567097	13322.963031
766.893104	12582.856111
767.219064	12106.958585
767.544978	11623.549740
767.870845	11237.420041
768.196665	11014.064158
768.522438	10782.496235
768.848165	10576.799514
769.173846	10371.470798
769.499479	10245.235264
769.825066	10074.637577
770.150607	9849.045942
770.476101	9776.324777
770.801548	9655.100151
771.126949	9500.765226
771.452303	9396.788907
771.777611	9191.762660
772.102872	9181.229169
772.428087	9046.325371
772.753256	8897.749964
773.078378	8817.741812
773.403453	8637.087022
773.728482	8521.689970
774.053465	8443.572250
774.378401	8340.571394
774.703291	8221.068322
775.028135	8110.750232
775.352932	8073.627175
775.677683	7968.594734
776.002388	7861.823096
776.327046	7875.030919
776.651658	7771.921679
776.976224	7670.607089
777.300743	7677.455497
777.625216	7581.393790
777.949643	7539.627830
778.274024	7557.680202
778.598359	7472.454455
778.922647	7488.472722
779.246889	7436.213600
779.571086	7441.768952
779.895236	7451.609284
780.219339	7458.659338
780.543397	7462.089843
780.867409	7542.715537
781.191374	7547.635703
781.515294	7519.022114
781.839167	7606.271884
782.162995	7584.103410
782.486776	7526.452775
782.810511	7488.959193
783.134201	7401.442242
783.457844	7393.956128
783.781441	7346.536514
784.104993	7279.113602
784.428498	7261.093998
784.751958	7247.155207
785.075372	7213.019034
785.398739	7155.375961
785.722061	7195.758123
786.045337	7195.407763
786.368568	7337.429670
786.691752	7335.786254
787.014891	7626.895244
787.337983	7931.138961
787.661030	8483.162952
787.984031	9091.592412
788.306987	9532.181697
788.629897	9786.449935
788.952760	9787.291808
789.275579	9606.896638
789.598351	9234.380574
789.921078	8901.634173
790.243759	8504.582814
790.566395	8209.130870
790.888984	7963.016698
791.211529	7750.768997
791.534027	7527.937394
791.856480	7320.753533
792.178888	7246.698983
792.501249	7147.796586
792.823566	6992.466033
793.145836	6986.204920
793.468062	6953.346679
793.790241	6896.227885
794.112375	6947.062881
794.434464	7097.296827
794.756507	7122.651310
795.078505	7253.655775
795.400457	7537.419805
795.722364	7872.102009
796.044226	8160.851739
796.366042	8445.934030
796.687812	8413.521932
797.009538	8513.593877
797.331218	8428.143798
797.652852	8355.939352
797.974442	8207.552988
798.295986	8128.790001
798.617484	7943.298224
798.938938	7801.603993
799.260346	7699.273611
799.581709	7507.203129
799.903026	7429.448372
800.224299	7322.550704
800.545526	7162.539440
800.866708	7067.422949
801.187845	6994.502659
801.508936	6896.540437
801.829983	6856.216247
802.150984	6708.228135
802.471940	6660.437997
802.792851	6648.825699
803.113717	6614.402180
803.434538	6583.043682
803.755314	6524.301637
804.076045	6524.505804
804.396731	6464.407688
804.717372	6493.351473
805.037967	6486.329146
805.358518	6529.514190
805.679024	6611.178362
805.999485	6616.469053
806.319901	6656.057234
806.640272	6678.324010
806.960598	6763.673266
807.280879	6762.826352
807.601115	6842.610173
807.921306	6785.937522
808.241453	6802.583412
808.561554	6828.200035
808.881611	6790.784591
809.201623	6796.506301
809.521590	6744.121150
809.841513	6732.145889
810.161390	6765.520848
810.481223	6644.933928
810.801011	6630.012113
811.120755	6602.941116
811.440453	6531.770106
811.760107	6493.956411
812.079716	6462.547502
812.399281	6400.274129
812.718801	6398.671042
813.038276	6347.273958
813.357707	6286.596110
813.677093	6327.598334
813.996434	6231.624847
814.315731	6268.884016
814.634983	6259.595690
814.954191	6265.561895
815.273354	6360.209559
815.592473	6415.793321
815.911547	6529.153748
816.230577	6610.659123
816.549562	6743.841366
816.868502	6847.540422
817.187399	6937.189781
817.506250	7077.469969
817.825058	7104.296469
818.143821	7340.703899
818.462539	7575.039415
818.781213	7903.152996
819.099843	8380.391469
819.418429	9271.637222
819.736970	10160.170834
820.055466	11238.191337
820.373919	12589.782657
820.692327	14576.241768
821.010691	17852.868260
821.329011	25203.190681
821.647286	36735.016626
821.965517	50543.309182
822.283704	58090.249206
822.601847	61305.262715
822.919945	59083.008674
823.237999	55179.854979
823.556010	49186.588488
823.873976	42612.986887
824.191897	36191.476898
824.509775	31403.943502
824.827609	26810.721381
825.145398	24027.268449
825.463144	22388.099467
825.780845	22279.208024
826.098502	23496.888653
826.416116	26749.413388
826.733685	30432.848393
827.051210	32223.861969
827.368692	31288.286830
827.686129	27822.178488
828.003522	23863.816598
828.320872	20172.739204
828.638177	17328.149679
828.955439	15153.501774
829.272656	13335.018950
829.589830	11863.211235
829.906960	10579.995606
830.224046	9623.270305
830.541088	8856.200774
830.858086	8368.217082
831.175041	7965.824620
831.491952	7811.212432
831.808819	7798.596944
832.125642	8098.603572
832.442421	8789.642420
832.759157	10259.161452
833.075849	12781.003704
833.392497	15875.732762
833.709101	18326.124221
834.025662	18676.139094
834.342179	17362.177468
834.658653	15330.378219
834.975083	13425.195110
835.291469	11798.235803
835.607811	10479.979113
835.924110	9578.527544
836.240366	8724.563645
836.556578	7927.073271
836.872746	7284.134592
837.188871	6765.311641
837.504952	6340.619635
837.820990	6028.370566
838.136984	5796.112005
838.452935	5684.185787
838.768842	5664.048898
839.084706	5942.996105
839.400526	6896.331229
839.716303	8375.647743
840.032037	9596.254762
840.347727	9818.294904
840.663373	9037.480667
840.978977	8012.843462
841.294537	7187.601537
841.610054	6581.801038
841.925527	6152.695502
842.240957	5791.433814
842.556344	5474.176359
842.871687	5198.074883
843.186987	4917.958128
843.502244	4688.293242
843.817458	4518.691182
844.132629	4381.299575
844.447756	4289.510246
844.762840	4207.389850
845.077881	4132.140546
845.392879	4073.761464
845.707833	4023.191129
846.022745	3981.246209
846.337613	3952.047846
846.652438	3910.153337
846.967221	3894.114906
847.281960	3863.857900
847.596656	3842.644725
847.911309	3825.640913
848.225919	3801.289619
848.540485	3785.893936
848.855009	3771.798869
849.169490	3753.260026
849.483928	3740.795773
849.798323	3730.582396
850.112675	3714.438100
850.426984	3721.967064
850.741251	3706.062223
851.055474	3698.596274
851.369654	3706.112635
851.683792	3697.363712
851.997887	3708.227399
852.311938	3705.190104
852.625947	3712.406515
852.939914	3705.331256
853.253837	3707.158674
853.567718	3709.230588
853.881555	3698.659289
854.195350	3710.788305
854.509103	3708.083726
854.822812	3706.306719
855.136479	3698.883620
855.450103	3708.900393
855.763685	3695.627035
856.077224	3696.665512
856.390720	3715.315261
856.704173	3729.697673
857.017584	3743.949015
857.330953	3749.479161
857.644278	3772.633180
857.957561	3780.373872
858.270802	3782.130714
858.584000	3785.299079
858.897155	3779.506794
859.210268	3763.533898
859.523339	3743.218048
859.836367	3743.149992
860.149352	3734.176738
860.462295	3725.861355
860.775195	3717.606466
861.088054	3713.112277
861.400869	3705.527861
861.713642	3704.970813
862.026373	3713.820559
862.339062	3718.561764
862.651708	3738.945670
862.964312	3767.183693
863.276873	3777.812966
863.589392	3827.735513
863.901869	3871.185217
864.214303	3915.449069
864.526696	3947.349490
864.839045	3989.581757
865.151353	4020.093340
865.463619	4024.864792
865.775842	4036.608160
866.088023	4053.445614
866.400162	4041.183007
866.712258	4054.040470
867.024313	4054.113567
867.336325	4055.068866
867.648296	4059.948703
867.960224	4056.503074
868.272110	4069.105959
868.583954	4069.267276
868.895755	4081.587856
869.207515	4076.934871
869.519233	4112.621199
869.830909	4124.765338
870.142542	4146.800222
870.454134	4157.081655
870.765684	4187.774720
871.077191	4223.970205
871.388657	4243.197166
871.700081	4276.688071
872.011463	4318.640553
872.322803	4346.424873
872.634101	4378.521899
872.945357	4415.032456
873.256571	4468.130930
873.567744	4492.948530
873.878874	4516.221017
874.189963	4556.454466
874.501010	4562.849169
874.812015	4566.544335
875.122979	4599.475673
875.433900	4602.298719
875.744780	4613.442189
876.055618	4636.818020
876.366415	4637.059995
876.677169	4649.985513
876.987882	4690.143345
877.298554	4733.590529
877.609183	4800.852125
877.919771	4896.049274
878.230317	5018.052759
878.540822	5199.529256
878.851285	5470.889526
879.161707	5860.502663
879.472087	6488.184290
879.782425	7492.258628
880.092722	9287.869737
880.402977	12085.281624
880.713191	15529.508837
881.023363	19157.859153
881.333494	21575.785581
881.643583	23030.085369
881.953631	23252.690120
882.263637	22590.663111
882.573602	21324.312662
882.883526	19920.005997
883.193408	18377.286891
883.503248	16797.729554
883.813048	15345.332802
884.122806	14003.889325
884.432522	12580.335534
884.742197	11381.055117
885.051831	10320.159413
885.361424	9345.716978
885.670975	8529.191207
885.980485	7858.833692
886.289954	7292.361755
886.599382	6823.552091
886.908768	6457.513910
887.218113	6099.347491
887.527417	5815.699408
887.836680	5561.209359
888.145901	5343.096276
888.455082	5183.878994
888.764221	5032.399883
889.073319	4898.889964
889.382376	4826.982946
889.691392	4760.106999
890.000366	4732.761260
890.309300	4718.676276
890.618193	4716.818611
890.927044	4701.712793
891.235855	4720.697778
891.544625	4739.944904
891.853353	4788.196308
892.162041	4880.207448
892.470687	5037.163773
892.779293	5247.284106
893.087858	5558.449327
893.396381	6036.806937
893.704864	6713.551593
894.013306	7718.712300
894.321707	8827.191455
894.630068	9709.189211
894.938387	10036.793635
895.246665	9928.862531
895.554903	9408.338191
895.863100	8778.398127
896.171256	8255.703569
896.479371	7773.005527
896.787446	7296.896272
897.095480	6891.975672
897.403473	6578.887251
897.711425	6274.406600
898.019336	6024.340163
898.327207	5762.081696
898.635038	5542.756216
898.942827	5303.371984
899.250576	5111.677068
899.558284	4926.563378
899.865952	4804.703566
900.173579	4666.346578
900.481165	4557.583684
900.788711	4468.864417
901.096216	4394.928335
901.403681	4330.454498
901.711105	4300.449550
902.018489	4277.668576
902.325832	4328.158252
902.633135	4413.628495
902.940397	4668.410931
903.247619	5266.783289
903.554800	6441.155366
903.861941	8166.245774
904.169041	9708.123007
904.476101	10540.142764
904.783121	10403.809799
905.090100	9796.411255
905.397039	9024.983646
905.703938	8313.223135
906.010796	7657.306005
906.317614	7129.464430
906.624391	6624.209744
906.931129	6214.835285
907.237826	5839.236556
907.544483	5483.240353
907.851099	5133.046519
908.157675	4792.700579
908.464211	4471.407680
908.770707	4235.590064
909.077163	4031.231770
909.383578	3884.622413
909.689954	3769.046399
909.996289	3693.131664
910.302584	3628.783855
910.608839	3593.768001
910.915054	3562.338927
911.221229	3549.249571
911.527363	3558.033782
911.833458	3568.121131
912.139513	3585.218204
912.445527	3608.089919
912.751502	3676.702543
913.057436	3763.186058
913.363331	3874.388871
913.669186	4046.140982
913.975000	4262.058643
914.280775	4616.703816
914.586510	5099.911015
914.892205	5780.799500
915.197859	6690.707605
915.503475	7799.441338
915.809050	8828.716404
916.114585	9525.895378
916.420081	9884.291169
916.725536	9930.014435
917.030952	9569.657634
917.336328	9212.948109
917.641665	8857.040127
917.946961	8416.433198
918.252218	8017.070470
918.557435	7537.341667
918.862612	7148.411607
919.167750	6796.849099
919.472848	6403.107257
919.777906	6051.078443
920.082925	5709.308377
920.387904	5346.191545
920.692843	5088.681845
920.997743	4845.541953
921.302603	4619.201708
921.607423	4458.635916
921.912204	4301.104900
922.216946	4188.268753
922.521647	4071.694591
922.826310	3970.334631
923.130932	3883.140314
923.435516	3790.113381
923.740059	3725.604256
924.044564	3649.707164
924.349028	3593.611725
924.653454	3532.195348
924.957840	3468.344093
925.262186	3422.893050
925.566493	3364.420707
925.870761	3311.654949
926.174989	3279.315947
926.479178	3241.673652
926.783328	3203.675954
927.087438	3177.678724
927.391509	3142.423415
927.695541	3115.906945
927.999533	3090.287802
928.303486	3067.645459
928.607400	3051.095351
928.911275	3041.721325
929.215110	3022.370856
929.518906	3016.056811
929.822663	3012.948940
930.126381	3008.916017
930.430060	3017.017151
930.733699	3018.766431
931.037299	3027.608615
931.340861	3025.730785
931.644383	3036.133206
931.947866	3035.414842
932.251309	3027.646424
932.554714	3028.805889
932.858080	3024.515867
933.161407	3014.776358
933.464694	3010.519104
933.767943	3003.658093
934.071153	2997.979233
934.374323	2989.820126
934.677455	2987.455825
934.980548	2977.313023
935.283602	2971.929071
935.586617	2966.068730
935.889593	2975.263794
936.192530	2977.222283
936.495428	2987.521360
936.798287	3004.361334
937.101108	3030.759336
937.403890	3073.904052
937.706632	3133.626601
938.009336	3201.286447
938.312002	3269.369751
938.614628	3333.939370
938.917216	3389.601270
939.219765	3419.074376
939.522275	3452.358594
939.824747	3457.349337
940.127179	3455.980663
940.429573	3455.133749
940.731929	3448.159313
941.034246	3440.779064
941.336524	3429.844801
941.638763	3416.100095
941.940964	3402.879669
942.243126	3364.519009
942.545250	3347.419415
942.847335	3312.360711
943.149381	3279.303344
943.451389	3250.223448
943.753359	3216.321689
944.055290	3192.378729
944.357182	3169.338135
944.659036	3152.868685
944.960851	3141.016933
945.262628	3127.544449
945.564367	3125.316259
945.866067	3125.719551
946.167729	3118.374590
946.469352	3119.682770
946.770937	3116.088427
947.072484	3100.886828
947.373992	3106.903445
947.675462	3096.662341
947.976893	3083.414188
948.278286	3073.457909
948.579641	3067.814338
948.880958	3060.068605
949.182236	3064.164542
949.483476	3055.186247
949.784678	3053.532749
950.085841	3054.341854
950.386967	3063.267217
950.688054	3080.366811
950.989103	3096.770725
951.290114	3114.908797
951.591087	3139.139103
951.892021	3164.254131
952.192917	3189.863193
952.493776	3214.887481
952.794596	3229.756364
953.095378	3231.462794
953.396122	3231.982033
953.696828	3225.254613
953.997496	3216.079713
954.298126	3197.455171
954.598718	3175.629495
954.899272	3155.588388
955.199788	3132.651138
955.500266	3100.889348
955.800706	3072.116963
956.101108	3036.745707
956.401472	3006.103053
956.701798	2977.121459
957.002087	2942.370265
957.302337	2912.677869
957.602550	2885.009496
957.902724	2854.296267
958.202861	2835.339007
958.502960	2813.420071
958.803022	2793.648665
959.103045	2771.807866
959.403031	2756.334044
959.702979	2745.392220
960.002889	2732.975858
960.302762	2719.329455
960.602596	2708.811087
960.902393	2700.142823
961.202153	2692.041689
961.501875	2685.727644
961.801559	2681.041891
962.101205	2674.740449
962.400814	2665.903306
962.700385	2661.474652
962.999918	2657.638334
963.299414	2651.737664
963.598873	2647.044350
963.898293	2640.211066
964.197677	2642.124183
964.497022	2641.136117
964.796331	2639.701909
965.095601	2636.548667
965.394835	2634.943060
965.694030	2632.845940
965.993189	2630.685805
966.292309	2627.860239
966.591393	2628.608850
966.890439	2628.616412
967.189447	2627.184724
967.488419	2629.833850
967.787353	2627.968623
968.086249	2629.042389
968.385108	2632.349386
968.683930	2635.570683
968.982714	2635.391722
969.281462	2640.105201
969.580172	2644.450676
969.878844	2651.193219
970.177480	2658.086997
970.476078	2662.117400
970.774639	2671.176353
971.073162	2680.351253
971.371649	2684.706810
971.670098	2687.998683
971.968510	2693.193592
972.266885	2700.581403
972.565223	2703.812783
972.863524	2703.515355
973.161788	2710.469627
973.460014	2711.054401
973.758204	2711.929041
974.056356	2715.840976
974.354471	2716.045143
974.652550	2716.604711
974.950591	2716.153528
975.248595	2714.716799
975.546563	2713.479196
975.844493	2712.108002
976.142386	2706.734132
976.440243	2702.262628
976.738062	2698.237267
977.035845	2693.420444
977.333590	2686.834177
977.631299	2681.120029
977.928971	2673.026457
978.226606	2670.374810
978.524204	2666.193172
978.821765	2659.964827
979.119290	2663.186124
979.416777	2661.061278
979.714228	2662.871052
980.011642	2668.496980
980.309020	2673.797753
980.606360	2684.795030
980.903664	2701.322453
981.200931	2728.890003
981.498162	2769.801487
981.795356	2834.124089
982.092513	2908.327353
982.389633	3001.571056
982.686717	3097.463884
982.983764	3170.744617
983.280775	3225.277299
983.577749	3237.655852
983.874686	3235.168042
984.171587	3206.917416
984.468451	3175.253929
984.765279	3139.000471
985.062070	3094.260231
985.358824	3057.167421
985.655543	3007.068434
985.952224	2958.416258
986.248869	2898.061044
986.545478	2843.127590
986.842050	2794.666978
987.138586	2746.914648
987.435086	2709.562219
987.731549	2679.869823
988.027975	2654.104486
988.324366	2637.942546
988.620719	2621.548714
988.917037	2613.316510
989.213318	2606.135386
989.509563	2596.421083
989.805772	2593.240115
990.101944	2589.587799
990.398080	2585.927921
990.694180	2583.979515
990.990244	2584.642427
991.286271	2584.138311
991.582262	2584.506316
991.878217	2586.356419
992.174136	2591.667275
992.470019	2588.370360
992.765865	2594.099631
993.061676	2595.370002
993.357450	2604.307968
993.653188	2611.819287
993.948890	2625.306894
994.244556	2639.558236
994.540186	2661.545229
994.835780	2689.526153
995.131337	2718.578323
995.426859	2755.958478
995.722345	2800.358441
996.017795	2846.661439
996.313208	2884.248282
996.608586	2912.524114
996.903928	2929.195210
997.199234	2932.509768
997.494504	2931.723348
997.789738	2919.342275
998.084936	2898.066085
998.380099	2872.973742
998.675225	2847.846110
998.970316	2818.612459
999.265371	2783.478137
999.560390	2751.524784
999.855373	2725.396483
1000.150320	2697.753316
1000.445232	2671.677948
1000.740108	2651.110040
1001.034948	2632.571197
1001.329752	2620.991667
1001.624521	2607.819132
1001.919254	2597.467122
1002.213951	2591.206009
1002.508613	2580.977508
1002.803239	2576.546334
1003.097829	2570.801939
1003.392384	2565.634756
1003.686903	2561.609395
1003.981386	2556.059084
1004.275834	2554.879454
1004.570246	2550.861655
1004.864623	2550.138249
1005.158964	2548.467107
1005.453270	2545.626417
1005.747540	2546.417878
1006.041775	2540.181970
1006.335974	2542.006868
1006.630138	2539.692978
1006.924266	2539.577032
1007.218359	2538.473019
1007.512416	2534.586290
1007.806438	2532.285003
1008.100425	2534.901362
1008.394376	2530.107224
1008.688292	2535.455889
1008.982172	2534.518234
1009.276017	2533.890610
1009.569827	2535.188707
1009.863602	2534.931609
1010.157341	2533.356248
1010.451045	2532.673172
1010.744714	2532.955476
1011.038347	2530.452543
1011.331945	2531.770805
1011.625508	2528.345341
1011.919036	2527.374919
1012.212528	2527.206040
1012.505986	2525.978519
1012.799408	2528.118489
1013.092795	2523.445340
1013.386147	2524.030113
1013.679464	2523.954496
1013.972745	2522.532891
1014.265992	2522.147242
1014.559204	2522.187572
1014.852380	2523.664630
1015.145521	2524.715710
1015.438628	2522.996677
1015.731699	2521.950638
1016.024736	2526.429703
1016.317737	2524.352747
1016.610703	2528.662934
1016.903635	2529.373737
1017.196531	2528.733510
1017.489393	2528.607481
1017.782219	2527.574045
1018.075011	2530.717204
1018.367768	2533.273069
1018.660490	2532.627801
1018.953177	2532.627801
1019.245829	2532.627801
