Dividing Wavelength (nm)	Counts (n)	Blue Motor Position (mm): 2.000000	Red Motor Position (mm): 0.000000	
326.493990	2066.399208
326.888308	2066.399208
327.282561	2066.399208
327.676750	2040.028933
328.070874	2042.655374
328.464933	2050.300284
328.858929	2058.141798
329.252859	2068.682851
329.646726	2081.159707
330.040528	2097.039342
330.434265	2114.968205
330.827938	2136.337656
331.221547	2157.392035
331.615091	2175.696465
332.008571	2197.459126
332.401986	2214.737681
332.795338	2237.095198
333.188625	2257.579927
333.581847	2275.702875
333.975006	2293.551080
334.368100	2312.284008
334.761129	2328.413180
335.154095	2346.427743
335.546996	2358.453415
335.939833	2372.810622
336.332606	2386.966182
336.725315	2395.576472
337.117960	2407.690365
337.510540	2417.616397
337.903056	2424.432037
338.295508	2432.742379
338.687896	2439.631116
339.080220	2447.296190
339.472480	2449.524380
339.864676	2456.221553
340.256807	2456.274485
340.648875	2459.843622
341.040879	2461.154322
341.432818	2462.006277
341.824694	2464.408387
342.216506	2460.695577
342.608253	2464.539457
342.999937	2458.537963
343.391557	2458.590895
343.783113	2460.778756
344.174605	2457.297839
344.566033	2457.219702
344.957397	2452.070163
345.348697	2454.850359
345.739934	2450.157045
346.131106	2448.226283
346.522215	2447.470110
346.913260	2442.416353
347.304241	2445.625048
347.695159	2442.834769
348.086012	2442.343257
348.476802	2438.874943
348.867528	2435.850250
349.258191	2430.189035
349.648789	2437.647422
350.039324	2428.343972
350.429796	2431.396391
350.820203	2431.378747
351.210548	2433.831268
351.600828	2427.842377
351.991045	2431.592996
352.381198	2428.953952
352.771288	2430.325146
353.161314	2430.284817
353.551276	2432.268511
353.941175	2430.710794
354.331010	2431.020825
354.720782	2429.984868
355.110490	2430.854467
355.500135	2428.245670
355.889717	2431.908068
356.279235	2432.354210
356.668689	2430.635177
357.058080	2432.462595
357.447408	2431.119128
357.836672	2434.277410
358.225873	2434.521906
358.615010	2434.232040
359.004084	2433.130548
359.393095	2435.898141
359.782043	2436.054417
360.170927	2434.872267
360.559748	2438.428801
360.948505	2434.295054
361.337199	2438.373348
361.725830	2436.613985
362.114398	2436.573656
362.502903	2440.127669
362.891344	2439.580704
363.279722	2439.918462
363.668037	2435.348656
364.056289	2440.440221
364.444478	2439.129521
364.832603	2438.877463
365.220665	2442.418874
365.608665	2441.309820
365.996601	2442.620520
366.384474	2440.979624
366.772284	2443.369131
367.160031	2441.206476
367.547715	2443.036415
367.935336	2441.133380
368.322893	2441.292176
368.710388	2440.767896
369.097820	2443.633792
369.485189	2439.842844
369.872495	2442.839810
370.259738	2445.120932
370.646918	2444.122784
371.034035	2445.055397
371.421090	2444.407609
371.808081	2444.921807
372.195010	2446.103957
372.581875	2447.588577
372.968678	2448.027158
373.355418	2446.285439
373.742096	2445.930037
374.128710	2447.200408
374.515262	2448.748043
374.901751	2445.607404
375.288177	2448.294339
375.674540	2446.610593
376.060841	2449.148814
376.447079	2447.770059
376.833254	2449.390790
377.219367	2447.732250
377.605417	2450.731737
377.991404	2447.946499
378.377329	2449.577312
378.763191	2450.041098
379.148991	2450.731737
379.534727	2449.826849
379.920402	2448.808536
380.306013	2449.811726
380.691563	2450.998918
381.077049	2448.866510
381.462474	2450.066304
381.847835	2451.734926
382.233134	2453.509412
382.618371	2450.706531
383.003545	2450.971191
383.388657	2449.718465
383.773706	2454.074022
384.158693	2456.241718
384.543618	2451.697117
384.928480	2452.970009
385.313280	2451.576130
385.698017	2452.319700
386.082692	2454.752057
386.467305	2454.081583
386.851856	2455.601491
387.236344	2456.256841
387.620770	2453.466562
388.005133	2449.589915
388.389435	2453.446398
388.773674	2450.850204
389.157851	2457.938066
389.541965	2453.083435
389.926018	2457.383539
390.310008	2456.050154
390.693936	2454.184927
391.077802	2453.786676
391.461606	2456.708024
391.845348	2456.181224
392.229027	2457.809517
392.612645	2455.009156
392.996200	2457.328086
393.379694	2456.206430
393.763125	2459.440330
394.146494	2455.876234
394.529801	2459.510906
394.913047	2457.527212
395.296230	2458.399332
395.679351	2457.343210
396.062410	2457.340689
396.445408	2461.542491
396.828343	2455.311625
397.211217	2459.402521
397.594028	2459.735237
397.976778	2459.331945
398.359466	2458.414455
398.742092	2460.483849
399.124656	2459.631894
399.507158	2458.810186
399.889598	2462.333952
400.271977	2463.768160
400.654294	2459.321863
401.036549	2460.809003
401.418742	2461.991154
401.800874	2462.044086
402.182944	2462.018880
402.564952	2461.292954
402.946898	2462.676751
403.328783	2462.122224
403.710606	2461.471915
404.092367	2461.045937
404.474067	2464.771350
404.855705	2461.754219
405.237282	2464.388222
405.618797	2460.955197
406.000250	2461.023252
406.381642	2462.666668
406.762972	2462.482666
407.144240	2461.280351
407.525447	2460.670371
407.906593	2459.647017
408.287677	2463.017028
408.668700	2464.940229
409.049661	2465.620784
409.430560	2462.792697
409.811399	2466.437451
410.192176	2464.846967
410.572891	2463.949642
410.953545	2464.683130
411.334138	2466.124900
411.714669	2464.587348
412.095139	2463.513582
412.475547	2465.167081
412.855894	2467.294448
413.236180	2465.779581
413.616405	2468.582462
413.996568	2466.167750
414.376670	2466.606330
414.756711	2467.848974
415.136691	2468.562298
415.516609	2469.847792
415.896466	2466.233285
416.276262	2467.677575
416.655997	2467.415435
417.035670	2465.295630
417.415283	2470.271249
417.794834	2467.334777
418.174324	2467.034828
418.553753	2469.623461
418.933121	2469.976341
419.312428	2468.728656
419.691674	2469.552884
420.070859	2468.504324
420.449983	2467.397791
420.829045	2471.718060
421.208047	2468.733697
421.586988	2467.324694
421.965867	2469.562967
422.344686	2469.764613
422.723444	2469.575570
423.102141	2470.712350
423.480777	2471.163533
423.859352	2469.918368
424.237866	2467.536423
424.616319	2471.392906
424.994712	2469.220168
425.373044	2472.196970
425.751314	2467.601958
426.129524	2466.964252
426.507673	2467.327215
426.885762	2465.852678
427.263789	2469.913327
427.641756	2471.531537
428.019662	2473.850468
428.397508	2469.827627
428.775292	2472.590180
429.153016	2470.919037
429.530679	2473.515231
429.908282	2471.579428
430.285824	2469.124386
430.663305	2471.987762
431.040726	2471.907103
431.418086	2471.839048
431.795385	2474.185705
432.172624	2472.272587
432.549802	2472.454068
432.926920	2471.982721
433.303977	2471.060189
433.680974	2470.677062
434.057910	2475.014975
434.434786	2472.320478
434.811601	2472.827114
435.188355	2471.309727
435.565050	2472.383492
435.941683	2472.544809
436.318257	2472.910293
436.694770	2473.295941
437.071222	2471.995323
437.447614	2474.331898
437.823946	2476.005561
438.200218	2475.067907
438.576429	2470.276290
438.952580	2475.166209
439.328670	2472.322998
439.704700	2473.903400
440.080670	2475.251909
440.456580	2473.389202
440.832429	2472.943060
441.208218	2474.939357
441.583947	2477.472537
441.959616	2475.642598
442.335224	2474.825931
442.710773	2474.646970
443.086261	2477.326344
443.461689	2477.197794
443.837057	2476.882722
444.212365	2472.706126
444.587612	2473.958853
444.962800	2473.260653
445.337927	2472.983390
445.712995	2470.765282
446.088002	2476.731488
446.462949	2474.770479
446.837837	2474.447845
447.212664	2477.270891
447.587431	2477.951447
447.962139	2476.928092
448.336786	2475.927423
448.711374	2475.627475
449.085901	2477.911118
449.460369	2474.828452
449.834776	2475.458596
450.209124	2476.192084
450.583412	2475.425829
450.957640	2474.306693
451.331808	2475.226703
451.705917	2480.477065
452.079965	2477.699389
452.453954	2479.776344
452.827883	2476.131590
453.201752	2478.137969
453.575562	2478.266519
453.949311	2475.773668
454.323001	2478.112764
454.696632	2478.828608
455.070202	2479.196612
455.443713	2479.340285
455.817164	2478.110243
456.190556	2479.592342
456.563888	2479.302476
456.937160	2478.942033
457.310373	2479.118474
457.683526	2475.458596
458.056619	2480.104019
458.429653	2478.805922
458.802628	2480.265336
459.175542	2481.661736
459.548398	2479.388176
459.921194	2478.327013
460.293930	2481.351705
460.666607	2477.013792
461.039224	2481.447487
461.411782	2481.195429
461.784280	2480.507312
462.156719	2479.546972
462.529099	2481.074442
462.901419	2477.159986
463.273680	2477.575881
463.645882	2474.639409
464.018024	2477.341467
464.390106	2477.543113
464.762130	2481.021509
465.134094	2478.311889
465.505999	2479.310038
465.877845	2480.532517
466.249631	2482.659884
466.621358	2480.257775
466.993026	2480.477065
467.364634	2484.991418
467.736184	2481.288691
468.107674	2478.284163
468.479105	2482.770790
468.850477	2479.799030
469.221790	2480.419092
469.593043	2479.647795
469.964238	2479.068062
470.335373	2478.906745
470.706449	2481.961685
471.077467	2481.659215
471.448425	2477.631333
471.819324	2480.416571
472.190164	2481.578557
472.560945	2479.801550
472.931667	2482.102837
473.302330	2481.339102
473.672934	2482.705255
474.043479	2483.146356
474.413965	2480.955974
474.784393	2479.335243
475.154761	2482.632158
475.525070	2481.339102
475.895321	2479.826756
476.265513	2480.756849
476.635645	2482.972436
477.005719	2481.550831
477.375734	2481.636530
477.745691	2482.695172
478.115588	2483.363125
478.485427	2480.731643
478.855207	2482.687611
479.224928	2482.707775
479.594591	2482.319607
479.964194	2484.353712
480.333739	2484.073928
480.703226	2483.083341
481.072653	2482.851448
481.442022	2479.872126
481.811333	2481.467652
482.180584	2479.552013
482.549777	2484.341109
482.918912	2475.768627
483.287988	2484.875472
483.657005	2480.882878
484.025964	2482.009576
484.394864	2481.422281
484.763706	2483.630307
485.132489	2484.068887
485.501213	2481.460090
485.869879	2484.305821
486.238487	2485.785400
486.607036	2481.374390
486.975527	2483.471510
487.343959	2485.031747
487.712333	2481.765080
488.080648	2482.180975
488.448905	2484.673825
488.817104	2484.600729
489.185244	2482.536376
489.553326	2484.288177
489.921350	2483.012765
490.289315	2483.950420
490.657222	2484.116778
491.025070	2482.095275
491.392861	2484.129381
491.760593	2484.588126
492.128267	2481.326499
492.495883	2484.089052
492.863440	2484.038640
493.230939	2483.763897
493.598380	2485.261120
493.965763	2483.342961
494.333088	2485.291367
494.700354	2482.692652
495.067563	2482.937148
495.434713	2481.878506
495.801805	2485.760194
496.168839	2483.262302
496.535815	2486.660040
496.902733	2484.464618
497.269593	2486.440750
497.636395	2484.399082
498.003139	2480.973618
498.369825	2482.180975
498.736453	2482.864051
499.103023	2484.250368
499.469535	2483.849597
499.835989	2483.834473
500.202385	2484.711634
500.568723	2482.848928
500.935003	2483.368167
501.301226	2479.811632
501.667390	2485.155256
502.033497	2483.852117
502.399546	2484.991418
502.765537	2485.301449
503.131470	2485.251038
503.497345	2487.007880
503.863163	2484.767087
504.228923	2484.983856
504.594625	2485.866058
504.960269	2487.254896
505.325856	2485.624083
505.691385	2485.235914
506.056856	2485.336737
506.422270	2485.228352
506.787625	2486.748260
507.152924	2486.407982
507.518164	2486.957468
507.883347	2480.497229
508.248472	2485.190544
508.613540	2483.264823
508.978550	2485.261120
509.343503	2485.429998
509.708398	2486.168528
510.073236	2487.264978
510.438016	2488.769763
510.802738	2484.890595
511.167403	2486.143322
511.532010	2486.594505
511.896561	2487.396048
512.261053	2483.852117
512.625488	2485.800523
512.989866	2487.680874
513.354186	2486.765904
513.718449	2485.747591
514.082655	2486.244145
514.446803	2484.837663
514.810894	2487.154073
515.174927	2486.072746
515.538904	2486.407982
515.902822	2485.707262
516.266684	2485.190544
516.630488	2486.259268
516.994235	2485.823208
517.357925	2486.450832
517.721558	2485.011583
518.085133	2485.614001
518.448651	2486.067704
518.812112	2482.831284
519.175516	2486.884371
519.538863	2481.112250
519.902152	2487.229690
520.265385	2486.274392
520.628560	2485.845894
520.991678	2484.504947
521.354739	2483.746253
521.717743	2488.507623
522.080690	2486.150883
522.443580	2488.240442
522.806413	2485.283805
523.169189	2483.358084
523.531908	2487.348157
523.894569	2488.187510
524.257174	2485.677015
524.619722	2487.045688
524.982213	2484.512508
525.344647	2488.187510
525.707025	2485.341778
526.069345	2485.024186
526.431608	2485.959320
526.793815	2486.269351
527.155964	2487.214567
527.518057	2487.874958
527.880093	2487.469145
528.242072	2487.471666
528.603995	2486.171048
528.965860	2485.896305
529.327669	2487.816985
529.689421	2485.646768
530.051117	2488.069043
530.412755	2486.097951
530.774337	2487.454022
531.135862	2485.288846
531.497331	2485.777838
531.858743	2489.215905
532.220098	2488.147180
532.581396	2487.194402
532.942638	2486.292036
533.303824	2487.587612
533.664953	2488.358909
534.026025	2487.832108
534.387040	2487.643065
534.747999	2486.700369
535.108902	2486.970071
535.469748	2486.619711
535.830537	2488.495020
536.191270	2485.687097
536.551947	2484.603249
536.912567	2483.600060
537.273131	2485.654330
537.633638	2480.857672
537.994089	2486.967550
538.354483	2487.753970
538.714821	2488.694146
539.075103	2487.443939
539.435328	2487.630462
539.795497	2488.507623
540.155609	2486.276912
540.515665	2489.341934
540.875665	2485.838332
541.235609	2489.392345
541.595496	2487.990905
541.955328	2488.638693
542.315102	2486.221460
542.674821	2486.836480
543.034483	2488.530308
543.394090	2488.116933
543.753640	2489.054588
544.113134	2489.576348
544.472571	2486.191213
544.831953	2489.735144
545.191278	2486.037457
545.550548	2488.449650
545.909761	2486.342447
546.268918	2489.283961
546.628019	2486.178610
546.987064	2488.018631
547.346053	2484.515029
547.704986	2489.130205
548.063863	2489.969558
548.422684	2489.213384
548.781449	2488.457211
549.140158	2488.016110
549.498811	2487.733806
549.857408	2485.533342
550.215949	2489.730103
550.574434	2487.874958
550.932864	2488.956286
551.291237	2488.762201
551.649555	2489.140288
552.007817	2487.534680
552.366022	2489.296563
552.724173	2487.189361
553.082267	2486.781028
553.440305	2486.075266
553.798288	2489.473004
554.156215	2487.330513
554.514086	2485.674494
554.871902	2482.412868
555.229661	2485.818167
555.587365	2485.155256
555.945014	2490.516523
556.302606	2485.566110
556.660143	2488.159783
557.017625	2486.909577
557.375050	2486.506285
557.732421	2486.029896
558.089735	2491.257572
558.446994	2487.552324
558.804197	2488.515185
559.161345	2487.310349
559.518437	2487.895123
559.875474	2488.021152
560.232455	2486.896974
560.589381	2485.596357
560.946251	2487.917808
561.303065	2486.972592
561.659825	2490.990391
562.016528	2489.256234
562.373177	2486.818836
562.729770	2488.477376
563.086307	2491.171873
563.442789	2487.789258
563.799216	2489.404948
564.155587	2489.452839
564.511904	2489.105000
564.868164	2488.835298
565.224370	2488.573158
565.580520	2486.425626
565.936615	2492.157418
566.292654	2487.207005
566.648638	2487.622900
567.004567	2488.631131
567.360441	2489.271358
567.716260	2485.435040
568.072023	2487.189361
568.427732	2486.186172
568.783385	2490.030051
569.138982	2490.370329
569.494525	2487.048209
569.850013	2486.546614
570.205445	2486.818836
570.560823	2485.674494
570.916145	2487.839670
571.271412	2488.114413
571.626625	2488.142139
571.981782	2487.481748
572.336884	2485.707262
572.691931	2483.433702
573.046923	2485.382108
573.401860	2483.572333
573.756743	2488.021152
574.111570	2489.236070
574.466342	2486.980153
574.821059	2489.304125
575.175722	2487.272540
575.530330	2485.747591
575.884882	2489.609115
576.239380	2487.910246
576.593823	2490.932418
576.948211	2487.007880
577.302544	2489.220946
577.656823	2489.704897
578.011047	2490.110710
578.365216	2488.860504
578.719330	2488.487458
579.073389	2488.555514
579.427394	2490.025010
579.781344	2488.192551
580.135239	2490.453508
580.489080	2488.918477
580.842866	2488.381594
581.196597	2490.428303
581.550273	2490.607263
581.903895	2487.650627
582.257463	2488.454691
582.610975	2485.185502
582.964434	2488.689104
583.317837	2490.075422
583.671186	2489.173055
584.024481	2489.122644
584.377721	2488.341265
584.730906	2491.867552
585.084037	2488.641213
585.437113	2489.868734
585.790135	2487.943014
586.143103	2485.750112
586.496016	2489.490648
586.848874	2490.468632
587.201679	2488.908395
587.554428	2487.640544
587.907124	2489.016779
588.259765	2489.238590
588.612352	2488.003507
588.964884	2487.320431
589.317362	2489.830926
589.669786	2490.501399
590.022155	2485.871099
590.374470	2484.681387
590.726731	2488.338744
591.078937	2484.444453
591.431090	2487.214567
591.783188	2486.488641
592.135232	2491.580206
592.487222	2488.512664
592.839157	2488.981491
593.191038	2490.254383
593.542866	2486.077787
593.894639	2490.806389
594.246358	2491.600371
594.598022	2488.273209
594.949633	2489.571306
595.301190	2490.652634
595.652692	2489.961996
596.004141	2487.544763
596.355535	2488.248003
596.706876	2489.011738
597.058162	2489.999804
597.409395	2489.430154
597.760573	2485.941676
598.111698	2486.052581
598.462768	2487.668271
598.813785	2488.323621
599.164748	2490.115751
599.515657	2485.792962
599.866511	2487.489310
600.217312	2489.021821
600.568060	2487.796820
600.918753	2490.506440
601.269392	2489.901502
601.619978	2490.264465
601.970510	2485.893785
602.320988	2490.549290
602.671412	2489.301605
603.021783	2487.602736
603.372100	2489.689773
603.722363	2486.967550
604.072572	2489.856132
604.422728	2490.322438
604.772830	2488.943683
605.122878	2488.966368
605.472872	2488.046357
605.822813	2488.555514
606.172701	2487.897643
606.522534	2486.919659
606.872314	2488.827736
607.222041	2489.684732
607.571714	2485.170379
607.921333	2481.981849
608.270899	2488.053919
608.620411	2484.580564
608.969870	2488.300936
609.319276	2486.566779
609.668627	2488.182468
610.017926	2487.827067
610.367171	2487.335555
610.716362	2486.246665
611.065500	2487.620380
611.414585	2488.661378
611.763616	2486.750781
612.112594	2490.508961
612.461518	2486.972592
612.810389	2488.174907
613.159207	2487.716162
613.507971	2487.401090
613.856682	2489.054588
614.205340	2489.016779
614.553945	2486.806233
614.902496	2489.208343
615.250994	2490.314877
615.599439	2492.653972
615.947830	2488.401759
616.296169	2488.616008
616.644454	2489.238590
616.992686	2486.942345
617.340864	2487.811944
617.688990	2486.125678
618.037063	2486.773466
618.385082	2490.733292
618.733048	2490.214053
619.080961	2486.528970
619.428821	2490.703045
619.776628	2487.930411
620.124382	2491.403766
620.472083	2489.349496
620.819731	2487.270020
621.167326	2487.764053
621.514868	2487.746409
621.862357	2489.578868
622.209793	2489.689773
622.557176	2486.748260
622.904506	2487.287664
623.251783	2490.330000
623.599007	2489.236070
623.946179	2488.303456
624.293297	2487.469145
624.640363	2489.399907
624.987376	2486.687766
625.334336	2483.990749
625.681243	2486.551655
626.028097	2483.436222
626.374899	2488.706748
626.721647	2485.971923
627.068343	2485.934114
627.414987	2489.215905
627.761577	2491.277737
628.108115	2488.285812
628.454600	2489.276399
628.801032	2491.968375
629.147412	2489.135247
629.493739	2489.765391
629.840014	2489.714979
630.186236	2487.466625
630.532405	2488.295894
630.878521	2489.442757
631.224585	2488.416882
631.570597	2487.448981
631.916556	2489.273878
632.262462	2489.203302
632.608316	2489.011738
632.954117	2488.363950
633.299866	2488.525267
633.645562	2487.068373
633.991206	2487.559886
634.336797	2485.959320
634.682336	2488.331182
635.027823	2488.167345
635.373257	2489.556183
635.718639	2490.221615
636.063968	2491.489465
636.409245	2487.990905
636.754470	2491.224805
637.099642	2488.217757
637.444762	2488.757160
637.789829	2490.435864
638.134845	2488.956286
638.479808	2486.952427
638.824719	2488.704228
639.169577	2488.817654
639.514383	2489.067191
639.859137	2486.050060
640.203839	2491.489465
640.548489	2486.707931
640.893086	2489.011738
641.237632	2487.267499
641.582125	2488.971409
641.926566	2487.895123
642.270955	2487.781697
642.615292	2483.889926
642.959576	2486.879330
643.303809	2487.753970
643.647990	2489.896461
643.992118	2486.526449
644.336195	2488.807572
644.680219	2488.868065
645.024192	2489.442757
645.368112	2489.193220
645.711981	2488.200113
646.055797	2488.182468
646.399562	2488.779845
646.743274	2487.075935
647.086935	2488.976450
647.430544	2486.702890
647.774101	2488.530308
648.117606	2491.353354
648.461059	2489.087356
648.804460	2486.712972
649.147810	2488.066522
649.491108	2489.258755
649.834354	2486.302118
650.177548	2486.599546
650.520690	2487.327993
650.863781	2489.621718
651.206820	2486.229021
651.549807	2487.451501
651.892742	2487.446460
652.235626	2487.501913
652.578458	2485.361943
652.921238	2488.119454
653.263967	2488.563076
653.606644	2488.520226
653.949269	2486.584423
654.291843	2487.446460
654.634365	2487.277581
654.976836	2487.738847
655.319255	2486.017293
655.661622	2485.921511
656.003938	2489.352016
656.346203	2486.823877
656.688416	2488.661378
657.030577	2489.205823
657.372687	2485.094762
657.714746	2486.896974
658.056753	2489.457880
658.398708	2489.178096
658.740612	2488.280771
659.082465	2489.742706
659.424266	2484.404124
659.766016	2478.974801
660.107715	2488.280771
660.449362	2480.734164
660.790958	2488.190030
661.132503	2486.561737
661.473996	2488.784886
661.815438	2486.929742
662.156829	2488.689104
662.498168	2490.713128
662.839456	2488.099289
663.180693	2486.176089
663.521879	2486.569299
663.863013	2487.597695
664.204097	2488.179948
664.545129	2486.609628
664.886110	2489.286481
665.227040	2485.324134
665.567918	2486.917139
665.908746	2486.508805
666.249522	2490.695484
666.590248	2487.403610
666.930922	2486.145842
667.271545	2489.457880
667.612118	2489.089876
667.952639	2487.799341
668.293109	2488.984012
668.633528	2486.982674
668.973896	2488.484938
669.314213	2488.227839
669.654480	2486.453353
669.994695	2486.818836
670.334859	2486.468476
670.674973	2486.450832
671.015035	2489.266317
671.355047	2486.763384
671.695008	2489.732623
672.034918	2488.237921
672.374777	2486.765904
672.714585	2489.420072
673.054342	2489.150370
673.394049	2488.787407
673.733705	2487.383446
674.073310	2490.579537
674.412864	2487.748929
674.752368	2488.905874
675.091820	2488.074084
675.431223	2489.795638
675.770574	2488.248003
676.109875	2487.164155
676.449125	2485.112406
676.788324	2485.485451
677.127473	2483.010245
677.466571	2481.349184
677.805619	2489.775473
678.144616	2487.887561
678.483562	2487.882520
678.822458	2484.777169
679.161303	2487.748929
679.500098	2488.273209
679.838842	2488.663899
680.177535	2487.935452
680.516179	2488.636172
680.854771	2488.101810
681.193314	2490.103148
681.531805	2487.877479
681.870247	2488.419403
682.208638	2486.019813
682.546978	2484.941007
682.885268	2487.764053
683.223508	2486.097951
683.561697	2489.904023
683.899836	2484.971253
684.237925	2487.900164
684.575963	2489.755308
684.913951	2487.065853
685.251889	2485.324134
685.589776	2486.723054
685.927614	2488.560555
686.265401	2486.541573
686.603137	2488.109372
686.940824	2487.963178
687.278460	2485.490492
687.616046	2485.006542
687.953582	2485.530822
688.291068	2485.614001
688.628504	2487.033085
688.965889	2487.086018
689.303224	2484.265492
689.640510	2486.413023
689.977745	2489.142808
690.314930	2485.984525
690.652065	2488.069042
690.989150	2488.578199
691.326185	2486.740698
691.663170	2489.999804
692.000105	2486.072746
692.336990	2487.176758
692.673825	2487.174238
693.010610	2487.242293
693.347345	2485.861017
693.684030	2481.631489
694.020665	2486.695328
694.357251	2482.448156
694.693786	2486.213898
695.030272	2485.397231
695.366707	2487.988384
695.703093	2488.497541
696.039429	2486.402941
696.375716	2488.497541
696.711952	2488.719351
697.048139	2488.963847
697.384276	2486.876810
697.720363	2486.554176
698.056400	2485.220791
698.392388	2487.017962
698.728326	2488.207674
699.064214	2485.127529
699.400053	2486.045019
699.735842	2485.634165
700.071581	2488.472335
700.407270	2485.319093
700.742910	2485.132570
701.078501	2484.802375
701.414042	2486.738178
701.749533	2486.392859
702.084974	2488.046357
702.420366	2484.953609
702.755709	2487.471666
703.091002	2486.866727
703.426246	2486.551655
703.761440	2487.794300
704.096584	2486.654999
704.431679	2487.461583
704.766725	2485.452684
705.101721	2486.581902
705.436668	2486.899495
705.771565	2485.399752
706.106413	2486.191213
706.441212	2486.355050
706.775961	2486.997797
707.110661	2485.921511
707.445311	2487.433857
707.779913	2488.253045
708.114465	2486.607108
708.448967	2485.077118
708.783421	2487.015441
709.117825	2487.310349
709.452180	2488.966368
709.786485	2486.357571
710.120742	2485.500575
710.454949	2482.491006
710.789107	2485.455204
711.123216	2481.936479
711.457275	2488.137098
711.791286	2486.173569
712.125247	2487.685915
712.459159	2486.854124
712.793023	2487.605256
713.126837	2486.652478
713.460602	2486.435709
713.794318	2487.108703
714.127985	2487.834629
714.461602	2487.005359
714.795171	2487.360760
715.128691	2485.092241
715.462162	2487.854793
715.795584	2487.534680
716.128957	2485.568630
716.462281	2485.619042
716.795556	2487.791779
717.128782	2484.051243
717.461960	2486.629793
717.795088	2487.660709
718.128167	2483.892447
718.461198	2485.107365
718.794180	2486.851604
719.127113	2484.741881
719.459997	2487.484269
719.792833	2484.666264
720.125619	2489.447798
720.458357	2485.576192
720.791046	2489.150370
721.123686	2483.526963
721.456278	2486.526449
721.788821	2487.219608
722.121315	2485.767756
722.453761	2485.545945
722.786158	2487.731285
723.118506	2484.409165
723.450805	2486.803713
723.783056	2487.393528
724.115259	2485.263640
724.447412	2485.510657
724.779518	2485.049391
725.111574	2487.270020
725.443582	2482.942189
725.775542	2486.518888
726.107453	2483.990749
726.439315	2487.111223
726.771129	2489.198261
727.102895	2483.814309
727.434612	2485.361943
727.766281	2482.932107
728.097901	2485.866058
728.429473	2486.460914
728.760996	2485.397231
729.092471	2487.290184
729.423897	2488.094248
729.755276	2484.903198
730.086606	2486.919659
730.417887	2487.459063
730.749120	2486.213898
731.080305	2482.798516
731.411442	2488.210195
731.742530	2482.675008
732.073570	2484.472179
732.404562	2485.031747
732.735506	2488.134578
733.066401	2484.782210
733.397249	2486.158445
733.728048	2486.513847
734.058798	2483.935296
734.389501	2485.616521
734.720156	2484.608290
735.050762	2487.028044
735.381320	2486.181130
735.711831	2487.335555
736.042293	2485.213229
736.372707	2484.590646
736.703073	2485.475369
737.033391	2487.133908
737.363661	2490.236739
737.693883	2485.470328
738.024056	2485.999649
738.354182	2486.521408
738.684260	2486.594505
739.014290	2487.043168
739.344272	2483.993270
739.674207	2484.615852
740.004093	2486.105513
740.333931	2484.943527
740.663722	2486.839001
740.993464	2487.126347
741.323159	2484.078969
741.652806	2487.529639
741.982405	2486.402941
742.311956	2486.597026
742.641460	2483.897488
742.970915	2485.626603
743.300323	2483.438743
743.629683	2480.542600
743.958996	2482.198619
744.288260	2478.321972
744.617477	2485.001500
744.946647	2484.194916
745.275768	2486.130719
745.604842	2486.629793
745.933869	2485.712303
746.262847	2485.445122
746.591778	2485.180461
746.920662	2483.642909
747.249498	2483.897488
747.578286	2487.222129
747.907027	2486.312200
748.235720	2485.901346
748.564365	2485.245996
748.892963	2484.976295
749.221514	2486.597026
749.550017	2484.827581
749.878473	2484.172231
750.206881	2486.488641
750.535242	2483.854638
750.863555	2484.923362
751.191821	2484.305821
751.520039	2486.745740
751.848210	2484.615852
752.176334	2483.050574
752.504411	2484.683908
752.832440	2482.385142
753.160421	2484.376397
753.488356	2487.643065
753.816243	2486.687766
754.144082	2483.496716
754.471875	2484.290698
754.799620	2487.002838
755.127318	2486.566779
755.454969	2482.745584
755.782572	2484.683908
756.110129	2483.746253
756.437638	2486.488641
756.765100	2483.630307
757.092515	2485.568630
757.419882	2486.758342
757.747203	2482.939668
758.074477	2485.712303
758.401703	2484.129381
758.728882	2485.513177
759.056014	2483.968064
759.383099	2486.760863
759.710138	2483.348002
760.037129	2482.977477
760.364073	2482.763228
760.690970	2480.877837
761.017820	2485.301449
761.344623	2485.926552
761.671379	2485.813126
761.998088	2486.284474
762.324751	2487.038127
762.651366	2483.305152
762.977935	2484.759525
763.304456	2487.600215
763.630931	2487.398569
763.957359	2485.566110
764.283740	2483.103506
764.610074	2481.787765
764.936362	2484.527632
765.262602	2485.598877
765.588796	2483.894967
765.914943	2485.422437
766.241044	2487.406131
766.567097	2486.922180
766.893104	2486.375215
767.219064	2485.614001
767.544978	2485.334217
767.870845	2486.554176
768.196665	2484.109216
768.522438	2486.153404
768.848165	2485.092241
769.173846	2488.736995
769.499479	2483.269864
769.825066	2483.990749
770.150607	2484.086531
770.476101	2484.389000
770.801548	2485.853455
771.126949	2483.211891
771.452303	2484.769607
771.777611	2484.527632
772.102872	2483.751294
772.428087	2483.902529
772.753256	2481.376911
773.078378	2484.933445
773.403453	2482.251551
773.728482	2484.484782
774.053465	2482.712817
774.378401	2484.499906
774.703291	2484.356233
775.028135	2486.314721
775.352932	2487.010400
775.677683	2483.794144
776.002388	2483.186685
776.327046	2478.775675
776.651658	2483.892447
776.976224	2479.126036
777.300743	2484.005873
777.625216	2485.490492
777.949643	2484.368836
778.274024	2483.809267
778.598359	2485.437560
778.922647	2486.670122
779.246889	2484.204998
779.571086	2484.820019
779.895236	2485.677015
780.219339	2485.220791
780.543397	2483.416058
780.867409	2485.452684
781.191374	2483.773979
781.515294	2486.574340
781.839167	2483.224494
782.162995	2484.494864
782.486776	2485.490492
782.810511	2485.291367
783.134201	2483.955461
783.457844	2485.220791
783.781441	2487.091059
784.104993	2481.772641
784.428498	2483.219452
784.751958	2483.544607
785.075372	2482.712817
785.398739	2483.816829
785.722061	2482.281798
786.045337	2485.049391
786.368568	2483.048053
786.691752	2484.202478
787.014891	2485.414875
787.337983	2486.985194
787.661030	2484.953609
787.984031	2480.991262
788.306987	2483.282467
788.629897	2482.932107
788.952760	2482.329689
789.275579	2484.376397
789.598351	2485.424957
789.921078	2485.490492
790.243759	2485.727427
790.566395	2483.516881
790.888984	2483.726088
791.211529	2483.085862
791.534027	2485.641727
791.856480	2483.219452
792.178888	2483.123671
792.501249	2482.135604
792.823566	2483.390852
793.145836	2478.354739
793.468062	2481.727271
793.790241	2481.634010
794.112375	2485.301449
794.434464	2484.139463
794.756507	2485.046871
795.078505	2483.355564
795.400457	2484.096613
795.722364	2484.381438
796.044226	2485.125009
796.366042	2484.260451
796.687812	2484.378918
797.009538	2484.865389
797.331218	2483.766418
797.652852	2482.629638
797.974442	2487.043168
798.295986	2484.583085
798.617484	2484.509988
798.938938	2485.850935
799.260346	2482.695173
799.581709	2485.775318
799.903026	2484.653661
800.224299	2484.850266
800.545526	2483.468990
800.866708	2483.577374
801.187845	2482.536376
801.508936	2485.603918
801.829983	2483.100985
802.150984	2485.011583
802.471940	2486.148363
802.792851	2484.220122
803.113717	2486.196254
803.434538	2481.535707
803.755314	2484.998980
804.076045	2483.088383
804.396731	2487.058291
804.717372	2483.322796
805.037967	2483.786582
805.358518	2485.581233
805.679024	2484.910760
805.999485	2482.886736
806.319901	2480.250213
806.640272	2481.381952
806.960598	2485.639206
807.280879	2482.841366
807.601115	2483.320276
807.921306	2485.971923
808.241453	2482.561582
808.561554	2479.317599
808.881611	2482.433033
809.201623	2478.821046
809.521590	2484.215080
809.841513	2484.184833
810.161390	2482.687611
810.481223	2484.789772
810.801011	2485.624083
811.120755	2482.211222
811.440453	2484.872951
811.760107	2483.088383
812.079716	2481.202991
812.399281	2485.616521
812.718801	2483.468990
813.038276	2483.824391
813.357707	2484.323465
813.677093	2482.541417
813.996434	2485.823208
814.315731	2482.138125
814.634983	2485.740029
814.954191	2480.661067
815.273354	2486.697849
815.592473	2481.598722
815.911547	2482.732981
816.230577	2481.669298
816.549562	2483.234576
816.868502	2482.417909
817.187399	2483.957982
817.506250	2480.635861
817.825058	2485.175420
818.143821	2484.046202
818.462539	2482.357415
818.781213	2482.193578
819.099843	2483.746253
819.418429	2481.676859
819.736970	2484.489823
820.055466	2483.151397
820.373919	2484.620893
820.692327	2481.770121
821.010691	2483.083341
821.329011	2485.215749
821.647286	2482.922024
821.965517	2481.825573
822.283704	2484.641058
822.601847	2483.935296
822.919945	2482.072590
823.237999	2482.402786
823.556010	2484.015955
823.873976	2483.027889
824.191897	2482.904380
824.509775	2477.296097
824.827609	2481.805409
825.145398	2479.337764
825.463144	2485.064515
825.780845	2482.755666
826.098502	2482.372539
826.416116	2482.707775
826.733685	2481.878506
827.051210	2484.598208
827.368692	2484.452015
827.686129	2483.153918
828.003522	2484.046202
828.320872	2483.942858
828.638177	2484.378918
828.955439	2485.770276
829.272656	2482.798516
829.589830	2481.906232
829.906960	2484.023517
830.224046	2483.756335
830.541088	2484.845225
830.858086	2482.034781
831.175041	2485.780359
831.491952	2483.171562
831.808819	2484.489823
832.125642	2481.661736
832.442421	2483.277426
832.759157	2483.834473
833.075849	2483.963023
833.392497	2482.695173
833.709101	2484.522591
834.025662	2482.735502
834.342179	2484.754484
834.658653	2483.166520
834.975083	2485.987046
835.291469	2485.908908
835.607811	2483.322796
835.924110	2482.712817
836.240366	2481.800368
836.556578	2482.503609
836.872746	2481.298773
837.188871	2484.552838
837.504952	2484.930924
837.820990	2483.703403
838.136984	2482.251551
838.452935	2481.785244
838.768842	2480.560244
839.084706	2484.351192
839.400526	2481.255923
839.716303	2481.598722
840.032037	2479.967908
840.347727	2480.038484
840.663373	2479.786427
840.978977	2479.337764
841.294537	2483.063177
841.610054	2481.119812
841.925527	2484.053763
842.240957	2481.094606
842.556344	2483.554689
842.871687	2479.514204
843.186987	2483.045533
843.502244	2481.233238
843.817458	2484.515029
844.132629	2483.584936
844.447756	2481.999493
844.762840	2482.017137
845.077881	2482.433032
845.392879	2483.247179
845.707833	2484.525111
846.022745	2481.046715
846.337613	2483.650471
846.652438	2482.354895
846.967221	2481.742394
847.281960	2480.915645
847.596656	2483.652992
847.911309	2484.411685
848.225919	2482.067549
848.540485	2482.216263
848.855009	2481.379431
849.169490	2481.666777
849.483928	2483.322796
849.798323	2483.395893
850.112675	2483.201808
850.426984	2483.138794
850.741251	2480.509832
851.055474	2482.884216
851.369654	2482.430512
851.683792	2483.219452
851.997887	2482.896819
852.311938	2482.649802
852.625947	2481.570995
852.939914	2482.133084
853.253837	2481.160141
853.567718	2480.547641
853.881555	2481.392034
854.195350	2482.014617
854.509103	2482.836325
854.822812	2482.070069
855.136479	2481.339102
855.450103	2481.991932
855.763685	2479.504122
856.077224	2475.995479
856.390720	2481.192909
856.704173	2478.145531
857.017584	2482.543938
857.330953	2482.997642
857.644278	2481.434884
857.957561	2484.109216
858.270802	2483.229535
858.584000	2483.002683
858.897155	2480.582929
859.210268	2481.450008
859.523339	2479.975470
859.836367	2482.554020
860.149352	2483.446304
860.462295	2483.625265
860.775195	2482.798516
861.088054	2480.517394
861.400869	2481.437405
861.713642	2478.788278
862.026373	2483.363125
862.339062	2484.353712
862.651708	2479.557054
862.964312	2482.838845
863.276873	2483.557210
863.589392	2482.705255
863.901869	2480.993783
864.214303	2481.870944
864.526696	2482.831284
864.839045	2483.617704
865.151353	2480.242651
865.463619	2480.837507
865.775842	2482.276757
866.088023	2479.960347
866.400162	2480.345995
866.712258	2480.222487
867.024313	2481.830615
867.336325	2482.359936
867.648296	2483.426140
867.960224	2481.699545
868.272110	2482.909422
868.583954	2480.300624
868.895755	2481.444966
869.207515	2480.905563
869.519233	2482.942189
869.830909	2481.150059
870.142542	2479.738536
870.454134	2480.240131
870.765684	2482.899339
871.077191	2479.665439
871.388657	2481.381952
871.700081	2475.738380
872.011463	2477.908597
872.322803	2475.607310
872.634101	2481.749956
872.945357	2482.092755
873.256571	2485.019144
873.567744	2479.609986
873.878874	2481.467652
874.189963	2478.783237
874.501010	2479.917497
874.812015	2481.482775
875.122979	2480.192240
875.433900	2480.529997
875.744780	2483.773979
876.055618	2480.310707
876.366415	2482.304483
876.677169	2481.026551
876.987882	2481.994452
877.298554	2484.416727
877.609183	2481.981849
877.919771	2478.571509
878.230317	2479.816674
878.540822	2481.147538
878.851285	2482.574185
879.161707	2481.949082
879.472087	2480.204843
879.782425	2482.485965
880.092722	2482.092755
880.402977	2482.065028
880.713191	2482.813640
881.023363	2480.807260
881.333494	2481.795327
881.643583	2481.492857
881.953631	2484.026037
882.263637	2480.875316
882.573602	2482.513691
882.883526	2481.712148
883.193408	2482.768269
883.503248	2482.934627
883.813048	2480.817343
884.122806	2483.529483
884.432522	2480.003196
884.742197	2481.563433
885.051831	2482.599391
885.361424	2481.671818
885.670975	2481.094606
885.980485	2482.193578
886.289954	2481.407158
886.599382	2481.994452
886.908768	2477.628813
887.218113	2475.120839
887.527417	2478.700058
887.836680	2473.326188
888.145901	2481.898670
888.455082	2479.385655
888.764221	2479.877168
889.073319	2479.655357
889.382376	2480.799699
889.691392	2479.683083
890.000366	2481.137456
890.309300	2481.545789
890.618193	2479.998155
890.927044	2484.270533
891.235855	2482.080152
891.544625	2480.177116
891.853353	2482.115440
892.162041	2481.906232
892.470687	2480.262816
892.779293	2481.313896
893.087858	2480.663587
893.396381	2481.379431
893.704864	2480.134266
894.013306	2481.255923
894.321707	2480.270377
894.630068	2481.006386
894.938387	2482.468321
895.246665	2481.250882
895.554903	2481.636530
895.863100	2479.592342
896.171256	2482.997642
896.479371	2480.179637
896.787446	2483.388331
897.095480	2480.146869
897.403473	2483.269864
897.711425	2481.606283
898.019336	2482.596870
898.327207	2479.967908
898.635038	2481.071921
898.942827	2484.918321
899.250576	2479.501602
899.558284	2480.535038
899.865952	2480.779534
900.173579	2480.804740
900.481165	2481.664257
900.788711	2479.746097
901.096216	2478.478247
901.403681	2479.496560
901.711105	2481.349184
902.018489	2482.453197
902.325832	2476.416415
902.633135	2477.664101
902.940397	2477.245685
903.247619	2476.239975
903.554800	2479.491519
903.861941	2479.670480
904.169041	2480.923207
904.476101	2482.977477
904.783121	2481.099647
905.090100	2481.250882
905.397039	2481.613845
905.703938	2481.152579
906.010796	2479.826756
906.317614	2480.673670
906.624391	2480.746767
906.931129	2479.317599
907.237826	2481.644092
907.544483	2477.933803
907.851099	2480.219966
908.157675	2480.091417
908.464211	2480.020840
908.770707	2479.705768
909.077163	2479.824235
909.383578	2477.772486
909.689954	2481.981849
909.996289	2479.420943
910.302584	2478.647126
910.608839	2484.336068
910.915054	2479.617548
911.221229	2483.481592
911.527363	2477.976653
911.833458	2481.175265
912.139513	2480.895481
912.445527	2479.907414
912.751502	2482.065028
913.057436	2477.820377
913.363331	2480.502271
913.669186	2480.555203
913.975000	2482.911942
914.280775	2480.938330
914.586510	2481.306335
914.892205	2479.829277
915.197859	2482.112919
915.503475	2482.591829
915.809050	2481.623927
916.114585	2479.884729
916.420081	2483.264823
916.725536	2477.525469
917.030952	2481.641571
917.336328	2478.543782
917.641665	2478.785758
917.946961	2475.937506
918.252218	2477.598566
918.557435	2474.117649
918.862612	2480.353557
919.167750	2482.309524
919.472848	2480.920686
919.777906	2481.467652
920.082925	2480.862713
920.387904	2478.889101
920.692843	2480.192240
920.997743	2477.734677
921.302603	2480.565285
921.607423	2479.967908
921.912204	2480.545120
922.216946	2478.609317
922.521647	2479.975470
922.826310	2478.367342
923.130932	2479.766262
923.435516	2481.719709
923.740059	2479.917497
924.044564	2480.184678
924.349028	2483.302632
924.653454	2479.962867
924.957840	2478.057311
925.262186	2482.475882
925.566493	2480.595532
925.870761	2481.540748
926.174989	2480.961016
926.479178	2477.061683
926.783328	2479.173927
927.087438	2478.730305
927.391509	2480.424133
927.695541	2479.922538
927.999533	2480.950933
928.303486	2480.179637
928.607400	2480.537559
928.911275	2481.185347
929.215110	2478.016982
929.518906	2476.381127
929.822663	2481.344143
930.126381	2476.996148
930.430060	2482.145687
930.733699	2480.141828
931.037299	2479.083186
931.340861	2478.256437
931.644383	2480.903042
931.947866	2480.529997
932.251309	2482.095275
932.554714	2476.849955
932.858080	2479.277270
933.161407	2475.040180
933.464694	2479.211735
933.767943	2475.491364
934.071153	2479.824235
934.374323	2477.996817
934.677455	2478.193422
934.980548	2478.571509
935.283602	2480.106540
935.586617	2481.056798
935.889593	2481.155100
936.192530	2479.761221
936.495428	2479.030254
936.798287	2480.920686
937.101108	2480.406489
937.403890	2478.521097
937.706632	2477.419605
938.009336	2477.139821
938.312002	2479.708289
938.614628	2480.056128
938.917216	2479.584781
939.219765	2478.266519
939.522275	2479.443628
939.824747	2481.056798
940.127179	2482.251551
940.429573	2479.667960
940.731929	2477.026395
941.034246	2477.999338
941.336524	2477.802733
941.638763	2481.863382
941.940964	2478.934472
942.243126	2479.360449
942.545250	2477.018833
942.847335	2481.560913
943.149381	2477.676704
943.451389	2481.717189
943.753359	2479.884729
944.055290	2477.938844
944.357182	2478.853813
944.659036	2480.736684
944.960851	2479.357929
945.262628	2478.952116
945.564367	2477.943885
945.866067	2481.780203
946.167729	2481.807929
946.469352	2478.392548
946.770937	2480.497229
947.072484	2480.280460
947.373992	2481.293732
947.675462	2479.080665
947.976893	2477.500263
948.278286	2475.924903
948.579641	2477.749801
948.880958	2475.831642
949.182236	2480.393886
949.483476	2479.955305
949.784678	2483.625265
950.085841	2478.548823
950.386967	2478.979842
950.688054	2481.956643
950.989103	2479.799030
951.290114	2477.081848
951.591087	2480.416571
951.892021	2479.645274
952.192917	2474.687300
952.493776	2478.541262
952.794596	2478.425315
953.095378	2477.137300
953.396122	2479.604945
953.696828	2477.843062
953.997496	2478.606797
954.298126	2480.978660
954.598718	2479.977991
954.899272	2478.095120
955.199788	2480.509832
955.500266	2481.608804
955.800706	2477.815336
956.101108	2478.601756
956.401472	2481.795327
956.701798	2478.992445
957.002087	2480.587970
957.302337	2481.467652
957.602550	2479.652836
957.902724	2478.228710
958.202861	2480.426653
958.502960	2479.131077
958.803022	2478.200984
959.103045	2479.824235
959.403031	2479.229379
959.702979	2479.965388
960.002889	2480.348515
960.302762	2481.006386
960.602596	2479.362970
960.902393	2478.662249
961.202153	2475.572022
961.501875	2478.153093
961.801559	2478.906745
962.101205	2480.794658
962.400814	2479.020171
962.700385	2478.495891
962.999918	2476.779378
963.299414	2474.422639
963.598873	2477.591004
963.898293	2474.757876
964.197677	2477.061683
964.497022	2480.156952
964.796331	2479.977991
965.095601	2479.206694
965.394835	2481.792806
965.694030	2476.771817
965.993189	2480.078814
966.292309	2478.936992
966.591393	2481.175265
966.890439	2477.966570
967.189447	2479.095789
967.488419	2479.211735
967.787353	2478.548823
968.086249	2477.686786
968.385108	2480.083855
968.683930	2480.630820
968.982714	2478.649647
969.281462	2477.129739
969.580172	2479.247023
969.878844	2476.950778
970.177480	2480.345995
970.476078	2475.871971
970.774639	2480.078814
971.073162	2476.567650
971.371649	2480.199801
971.670098	2479.025212
971.968510	2479.630151
972.266885	2477.228041
972.565223	2479.688124
972.863524	2477.326344
973.161788	2478.168216
973.460014	2477.107053
973.758204	2477.860706
974.056356	2479.297435
974.354471	2476.141672
974.652550	2479.549492
974.950591	2478.382465
975.248595	2479.294914
975.546563	2479.582260
975.844493	2475.952629
976.142386	2476.484471
976.440243	2477.283494
976.738062	2476.058493
977.035845	2478.667291
977.333590	2477.689307
977.631299	2481.334061
977.928971	2476.630664
978.226606	2475.070427
978.524204	2479.942702
978.821765	2474.170581
979.119290	2480.421612
979.416777	2478.558906
979.714228	2478.445480
980.011642	2479.723412
980.309020	2478.145531
980.606360	2477.167547
980.903664	2478.006899
981.200931	2482.007055
981.498162	2476.882722
981.795356	2479.272229
982.092513	2479.040336
982.389633	2478.039667
982.686717	2479.005048
982.983764	2479.557054
983.280775	2478.700058
983.577749	2477.238123
983.874686	2481.031592
984.171587	2478.632003
984.468451	2478.327013
984.765279	2479.589822
985.062070	2475.998000
985.358824	2478.135449
985.655543	2478.803402
985.952224	2478.536221
986.248869	2479.304997
986.545478	2476.650829
986.842050	2479.047898
987.138586	2477.321302
987.435086	2478.742908
987.731549	2476.441621
988.027975	2478.097640
988.324366	2478.458083
988.620719	2481.288691
988.917037	2477.190233
989.213318	2479.234420
989.509563	2479.413381
989.805772	2477.480099
990.101944	2479.307517
990.398080	2478.163175
990.694180	2478.153093
990.990244	2475.972794
991.286271	2482.057467
991.582262	2477.613689
991.878217	2479.214256
992.174136	2480.535038
992.470019	2477.311220
992.765865	2475.559419
993.061676	2471.350056
993.357450	2476.585294
993.653188	2473.742083
993.948890	2476.013123
994.244556	2477.429687
994.540186	2477.742239
994.835780	2475.274594
995.131337	2476.363483
995.426859	2477.046560
995.722345	2482.238948
996.017795	2479.657877
996.313208	2479.176447
996.608586	2478.899184
996.903928	2475.135962
997.199234	2477.407002
997.494504	2477.754842
997.789738	2478.591673
998.084936	2475.937506
998.380099	2478.019502
998.675225	2480.898001
998.970316	2478.190902
999.265371	2476.295428
999.560390	2480.494709
999.855373	2478.568988
1000.150320	2477.165027
1000.445232	2478.755511
1000.740108	2477.265850
1001.034948	2479.060501
1001.329752	2475.929944
1001.624521	2476.025726
1001.919254	2480.348515
1002.213951	2479.882209
1002.508613	2479.181488
1002.803239	2477.190232
1003.097829	2476.524800
1003.392384	2477.717033
1003.686903	2476.083699
1003.981386	2476.723926
1004.275834	2478.006899
1004.570246	2480.270378
1004.864623	2479.055459
1005.158964	2477.215438
1005.453270	2478.155613
1005.747540	2478.876498
1006.041775	2479.027733
1006.335974	2480.086375
1006.630138	2475.193936
1006.924266	2479.310038
1007.218359	2477.714513
1007.512416	2474.505818
1007.806438	2473.933647
1008.100425	2476.033288
1008.394376	2473.227886
1008.688292	2477.701910
1008.982172	2477.006230
1009.276017	2476.963381
1009.569827	2478.180819
1009.863602	2476.484471
1010.157341	2480.971098
1010.451045	2477.139821
1010.744714	2478.571509
1011.038347	2477.396920
1011.331945	2476.968422
1011.625508	2478.216107
1011.919036	2476.207208
1012.212528	2477.633854
1012.505986	2475.239306
1012.799408	2477.545634
1013.092795	2476.711323
1013.386147	2479.002527
1013.679464	2478.198463
1013.972745	2477.417084
1014.265992	2476.746611
1014.559204	2476.736529
1014.852380	2477.659060
1015.145521	2477.522949
1015.438628	2476.481950
1015.731699	2474.727629
1016.024736	2479.405820
1016.317737	2477.563278
1016.610703	2476.804584
1016.903635	2479.902373
1017.196531	2476.915490
1017.489393	2475.100674
1017.782219	2477.223000
1018.075011	2477.482619
1018.367768	2477.278453
1018.660490	2476.018164
1018.953177	2476.018164
1019.245829	2476.018164
