Dividing Wavelength (nm)	Counts (n)	Blue Motor Position (mm): 40.500000	Red Motor Position (mm): 0.000000	
326.493990	2067.241081
326.888308	2067.241081
327.282561	2067.241081
327.676750	2038.239323
328.070874	2040.764941
328.464933	2047.477238
328.858929	2055.308670
329.252859	2066.560525
329.646726	2080.393452
330.040528	2096.641090
330.434265	2111.857813
330.827938	2134.172481
331.221547	2153.316263
331.615091	2174.073213
332.008571	2193.045596
332.401986	2215.493854
332.795338	2235.799622
333.188625	2253.032806
333.581847	2272.141300
333.975006	2292.300874
334.368100	2308.508184
334.761129	2323.109886
335.154095	2340.496825
335.546996	2390.429454
335.939833	2497.932060
336.332606	2509.335150
336.725315	2523.558766
337.117960	2531.927081
337.510540	2539.319933
337.903056	2552.739485
338.295508	2557.853735
338.687896	2565.987637
339.080220	2571.822773
339.472480	2576.574060
339.864676	2577.221848
340.256807	2579.873495
340.648875	2581.027919
341.040879	2583.233424
341.432818	2588.428333
341.824694	2587.939341
342.216506	2587.256265
342.608253	2585.154104
342.999937	2587.919177
343.391557	2585.232242
343.783113	2583.840883
344.174605	2582.787282
344.566033	2580.395255
344.957397	2579.024061
345.348697	2578.855182
345.739934	2575.699420
346.131106	2572.379820
346.522215	2572.452917
346.913260	2572.722618
347.304241	2572.102557
347.695159	2568.495611
348.086012	2569.513924
348.476802	2561.372461
348.867528	2561.889179
349.258191	2555.832232
349.648789	2557.989846
350.039324	2553.924156
350.429796	2560.165104
350.820203	2554.791234
351.210548	2556.754764
351.600828	2555.481872
351.991045	2556.275854
352.381198	2553.528425
352.771288	2551.791748
353.161314	2553.024310
353.551276	2553.961964
353.941175	2551.806871
354.331010	2552.182437
354.720782	2555.774259
355.110490	2558.073025
355.500135	2555.449105
355.889717	2555.376008
356.279235	2552.058929
356.668689	2554.335010
357.058080	2553.110009
357.447408	2554.733261
357.836672	2555.834753
358.225873	2558.703170
358.615010	2559.393808
359.004084	2558.499003
359.393095	2557.400031
359.782043	2556.230484
360.170927	2558.264589
360.559748	2558.690567
360.948505	2559.227450
361.337199	2562.836916
361.725830	2560.911195
362.114398	2561.647203
362.502903	2563.124262
362.891344	2565.816238
363.279722	2564.422359
363.668037	2565.770867
364.056289	2566.290106
364.444478	2564.198027
364.832603	2568.362020
365.220665	2567.933522
365.608665	2567.326063
365.996601	2567.729356
366.384474	2568.929150
366.772284	2568.777916
367.160031	2568.354459
367.547715	2568.596434
367.935336	2570.033163
368.322893	2567.300858
368.710388	2567.714232
369.097820	2568.261197
369.485189	2566.469067
369.872495	2569.491239
370.259738	2570.496949
370.646918	2571.336301
371.034035	2572.203380
371.421090	2572.052145
371.808081	2573.567012
372.195010	2573.262022
372.581875	2571.301013
372.968678	2570.451579
373.355418	2575.364183
373.742096	2572.384861
374.128710	2572.246229
374.515262	2576.410222
374.901751	2576.289235
375.288177	2576.362332
375.674540	2575.147413
376.060841	2578.802250
376.447079	2576.891653
376.833254	2578.645974
377.219367	2574.890315
377.605417	2578.270408
377.991404	2578.323340
378.377329	2577.559606
378.763191	2578.330902
379.148991	2581.708475
379.534727	2579.402147
379.920402	2582.313414
380.306013	2581.179154
380.691563	2584.221490
381.077049	2586.177458
381.462474	2583.142683
381.847835	2584.130750
382.233134	2586.333734
382.618371	2586.253075
383.003545	2584.954978
383.388657	2584.864237
383.773706	2588.851790
384.158693	2587.838518
384.543618	2590.999322
384.928480	2588.859352
385.313280	2587.699887
385.698017	2590.533015
386.082692	2591.700042
386.467305	2588.652665
386.851856	2593.792121
387.236344	2591.707604
387.620770	2589.486976
388.005133	2588.206522
388.389435	2592.423448
388.773674	2591.778180
389.157851	2597.429313
389.541965	2597.199941
389.926018	2598.485435
390.310008	2599.244129
390.693936	2600.756475
391.077802	2605.545571
391.461606	2606.813421
391.845348	2607.569594
392.229027	2610.942126
392.612645	2610.042280
392.996200	2617.886316
393.379694	2622.844291
393.763125	2625.677419
394.146494	2634.973307
394.529801	2641.335243
394.913047	2647.130049
395.296230	2652.385452
395.679351	2661.716628
396.062410	2672.842454
396.445408	2677.044256
396.828343	2688.180165
397.211217	2703.502752
397.594028	2710.202446
397.976778	2725.925804
398.359466	2739.148751
398.742092	2753.034609
399.124656	2765.952566
399.507158	2786.560803
399.889598	2806.130562
400.271977	2829.471104
400.654294	2846.268229
401.036549	2873.581201
401.418742	2891.910836
401.800874	2926.898964
402.182944	2950.579784
402.564952	2990.057060
402.946898	3011.665966
403.328783	3034.751930
403.710606	3070.899524
404.092367	3115.453242
404.474067	3158.396311
404.855705	3180.542099
405.237282	3197.092207
405.618797	3257.160076
406.000250	3316.330619
406.381642	3380.156668
406.762972	3409.584404
407.144240	3422.043616
407.525447	3482.171978
407.906593	3515.640198
408.287677	3592.721961
408.668700	3638.614105
409.049661	3690.235521
409.430560	3745.884818
409.811399	3763.523815
410.192176	3826.727282
410.572891	3906.657297
410.953545	4008.105477
411.334138	3975.630363
411.714669	4079.790684
412.095139	4059.316038
412.475547	4166.957275
412.855894	4202.396587
413.236180	4302.365188
413.616405	4292.298004
413.996568	4392.077562
414.376670	4430.871762
414.756711	4461.138849
415.136691	4545.426942
415.516609	4641.854132
415.896466	4702.083318
416.276262	4794.364160
416.655997	4915.684568
417.035670	5022.768758
417.415283	5164.137835
417.794834	5249.295527
418.174324	5247.316874
418.553753	5281.442965
418.933121	5446.739879
419.312428	5483.913347
419.691674	5448.456392
420.070859	5671.756822
420.449983	5593.576087
420.829045	5786.392660
421.208047	5744.445219
421.586988	5912.023255
421.965867	6002.963150
422.344686	6093.804743
422.723444	6267.507781
423.102141	5938.824550
423.480777	6311.753988
423.859352	6160.884856
424.237866	6518.320308
424.616319	6528.768099
424.994712	6698.745725
425.373044	6627.809128
425.751314	6946.977181
426.129524	6691.599889
426.507673	6956.600744
426.885762	7012.595360
427.263789	7059.578914
427.641756	7153.039386
428.019662	7242.661019
428.397508	7287.446630
428.775292	7277.220649
429.153016	7452.879655
429.530679	7392.756333
429.908282	7450.469983
430.285824	7396.625419
430.663305	7681.944644
431.040726	7572.828869
431.418086	7580.680467
431.795385	7714.225673
432.172624	7902.651401
432.549802	7787.216540
432.926920	7930.801204
433.303977	7875.396403
433.680974	7920.151767
434.057910	8123.426213
434.434786	8175.261877
434.811601	8128.616081
435.188355	8473.436045
435.565050	8356.574537
435.941683	8374.697485
436.318257	8709.528403
436.694770	8660.654417
437.071222	8884.199343
437.447614	8666.970983
437.823946	8628.822051
438.200218	8776.820245
438.576429	8662.567535
438.952580	8824.975867
439.328670	8840.061520
439.704700	8911.194722
440.080670	8808.713105
440.456580	9075.266635
440.832429	9050.882574
441.208218	8789.864231
441.583947	8908.780009
441.959616	9022.021968
442.335224	9051.847955
442.710773	9136.156212
443.086261	9319.704624
443.461689	9035.570069
443.837057	9201.550060
444.212365	9416.923276
444.587612	9403.551615
444.962800	9294.947517
445.337927	9428.553218
445.712995	8974.302406
446.088002	9634.670875
446.462949	9694.816881
446.837837	9683.761631
447.212664	9706.577893
447.587431	10532.155056
447.962139	11534.051615
448.336786	12463.612658
448.711374	12233.851989
449.085901	11023.886846
449.460369	10953.227513
449.834776	10727.245189
450.209124	11642.070939
450.583412	11464.612242
450.957640	11776.573965
451.331808	11367.305369
451.705917	10801.221601
452.079965	10683.495535
452.453954	10885.197142
452.827883	10826.611373
453.201752	10800.490634
453.575562	10798.317897
453.949311	11140.284568
454.323001	11211.984899
454.696632	11124.430139
455.070202	11712.543749
455.443713	11768.245979
455.817164	11933.699169
456.190556	12248.506623
456.563888	12109.953031
456.937160	12360.253881
457.310373	11851.369565
457.683526	11864.632840
458.056619	11881.598844
458.429653	11949.402363
458.802628	12085.400091
459.175542	12135.627627
459.548398	12678.338086
459.921194	13252.381836
460.293930	13548.353019
460.666607	14403.365479
461.039224	15183.852041
461.411782	15522.897363
461.784280	15179.352811
462.156719	15120.509943
462.529099	15020.243913
462.901419	14384.256985
463.273680	13989.103621
463.645882	14199.050034
464.018024	14096.223099
464.390106	14456.116113
464.762130	15531.041348
465.134094	17083.434428
465.505999	19376.627586
465.877845	21612.079368
466.249631	22822.435201
466.621358	22322.151093
466.993026	21496.669712
467.364634	20739.155688
467.736184	19955.715010
468.107674	19351.255458
468.479105	19201.969249
468.850477	18924.526827
469.221790	18497.573863
469.593043	17837.825457
469.964238	17448.635777
470.335373	17506.767842
470.706449	18229.568481
471.077467	19101.037787
471.448425	21562.013148
471.819324	23418.513834
472.190164	23308.669613
472.560945	21562.900392
472.931667	19998.315281
473.302330	19673.843934
473.672934	19126.684658
474.043479	19542.320230
474.413965	19330.919444
474.784393	19160.147837
475.154761	19825.459157
475.525070	19948.765780
475.895321	19781.071797
476.265513	20301.780140
476.635645	20897.102600
477.005719	20948.827359
477.375734	21318.049029
477.745691	21948.762910
478.115588	22574.753230
478.485427	23765.846814
478.855207	25576.843524
479.224928	27383.721612
479.594591	28782.704819
479.964194	28400.111489
480.333739	28847.960035
480.703226	29054.589369
481.072653	29503.184006
481.442022	30024.353614
481.811333	30414.760732
482.180584	29966.188781
482.549777	29744.471273
482.918912	29510.506282
483.287988	29461.065166
483.657005	29317.321705
484.025964	28943.210116
484.394864	29119.814338
484.763706	29043.322390
485.132489	28503.739968
485.501213	28577.522296
485.869879	28747.552853
486.238487	28664.880451
486.607036	28949.481312
486.975527	28627.223031
487.343959	28969.545104
487.712333	29314.135696
488.080648	29283.109914
488.448905	29706.723113
488.817104	29591.315978
489.185244	30412.184703
489.553326	31364.355321
489.921350	33259.831687
490.289315	35759.112256
490.657222	36646.524212
491.025070	37208.214614
491.392861	36930.736904
491.760593	36142.948231
492.128267	35131.871730
492.495883	34138.547653
492.863440	33241.038266
493.230939	32272.108332
493.598380	31702.722608
493.965763	31555.974620
494.333088	31065.571173
494.700354	30859.420749
495.067563	30820.442547
495.434713	30704.944671
495.801805	30985.500006
496.168839	30826.300368
496.535815	30668.454279
496.902733	30777.769180
497.269593	30612.116864
497.636395	30759.971386
498.003139	31018.287671
498.369825	30775.979570
498.736453	31179.110561
499.103023	30997.934012
499.469535	31082.212022
499.835989	31189.744875
500.202385	31067.595197
500.568723	31104.957708
500.935003	31404.452658
501.301226	31269.195980
501.667390	31969.006437
502.033497	32175.560154
502.399546	31976.414412
502.765537	31566.124983
503.131470	32030.072454
503.497345	32459.387197
503.863163	31409.468607
504.228923	32169.866170
504.594625	32547.849365
504.960269	32049.175906
505.325856	32690.587116
505.691385	32346.467872
506.056856	32662.729700
506.422270	33145.853720
506.787625	32667.617098
507.152924	33110.179994
507.518164	33276.260808
507.883347	32858.782693
508.248472	32981.459172
508.613540	33654.233920
508.978550	33863.542628
509.343503	33705.331056
509.708398	34060.702155
510.073236	34644.823172
510.438016	34739.740537
510.802738	34422.830921
511.167403	34953.656859
511.532010	35185.691088
511.896561	35685.135844
512.261053	36424.400891
512.625488	36201.236572
512.989866	36119.887472
513.354186	36174.468045
513.718449	36140.750287
514.082655	36983.119533
514.446803	36678.880858
514.810894	37290.077912
515.174927	37304.667011
515.538904	37298.037894
515.902822	37918.818181
516.266684	37597.137113
516.630488	37940.185112
516.994235	37943.804660
517.357925	38511.297431
517.721558	38756.189123
518.085133	39125.930031
518.448651	39328.390332
518.812112	39210.918844
519.175516	39345.053866
519.538863	39797.580602
519.902152	39850.684117
520.265385	40401.498230
520.628560	40404.555690
520.991678	40338.998005
521.354739	40557.965563
521.717743	40920.217837
522.080690	40837.409324
522.443580	41497.956753
522.806413	41513.448219
523.169189	41633.828453
523.531908	41864.496529
523.894569	41713.322408
524.257174	41905.355081
524.619722	42248.745878
524.982213	42401.817994
525.344647	42428.158023
525.707025	42540.863099
526.069345	42982.364833
526.431608	42902.868357
526.793815	43266.648101
527.155964	42815.038854
527.518057	43072.394799
527.880093	42924.550360
528.242072	43542.653795
528.603995	43283.709886
528.965860	43220.723189
529.327669	43436.784523
529.689421	43480.171213
530.051117	43447.015544
530.412755	43713.727871
530.774337	43774.942602
531.135862	43704.653794
531.497331	43862.169687
531.858743	43844.964229
532.220098	44242.854940
532.581396	43972.994413
532.942638	43739.485647
533.303824	43992.823792
533.664953	44051.369232
534.026025	43733.564811
534.387040	44300.797963
534.747999	44358.120923
535.108902	44699.351586
535.469748	44004.355431
535.830537	44277.669149
536.191270	44530.326738
536.551947	44285.931600
536.912567	44543.655549
537.273131	44663.957645
537.633638	44312.616948
537.994089	44482.314789
538.354483	44245.695631
538.714821	44883.913269
539.075103	45155.313869
539.435328	45053.674125
539.795497	44797.099559
540.155609	44933.626608
540.515665	45493.030847
540.875665	44798.589220
541.235609	45078.663125
541.595496	45215.832921
541.955328	45797.806406
542.315102	45232.821609
542.674821	45112.632940
543.034483	45032.574376
543.394090	45043.458227
543.753640	45035.500765
544.113134	46081.162102
544.472571	45211.797477
544.831953	46315.157340
545.191278	45572.418938
545.550548	45270.758813
545.909761	45888.670683
546.268918	46043.708849
546.628019	46442.559901
546.987064	45900.431695
547.346053	45225.700979
547.704986	46106.539270
548.063863	45745.892604
548.422684	45956.685931
548.781449	45528.321445
549.140158	46054.713688
549.498811	45817.187122
549.857408	45239.642290
550.215949	46060.967240
550.574434	45907.325473
550.932864	45856.130035
551.291237	46554.700368
551.649555	46295.801830
552.007817	46463.309290
552.366022	46175.199786
552.724173	46244.757627
553.082267	46639.222874
553.440305	47004.661157
553.798288	46267.962058
554.156215	46657.232396
554.514086	46834.532297
554.871902	46445.894624
555.229661	46606.692308
555.587365	46302.496482
555.945014	46428.006089
556.302606	46436.777697
556.660143	46543.317443
557.017625	46772.057278
557.375050	46468.988150
557.732421	46857.502315
558.089735	46909.169101
558.446994	46762.849610
558.804197	47257.298582
559.161345	47132.593039
559.518437	46487.025398
559.875474	46726.467603
560.232455	46927.251719
560.589381	46978.474884
560.946251	46808.905592
561.303065	47455.657904
561.659825	47121.757079
562.016528	46960.472923
562.373177	46534.235804
562.729770	47188.794343
563.086307	46690.977880
563.442789	47227.749859
563.799216	47077.619256
564.155587	46985.653487
564.511904	46937.654140
564.868164	46987.120462
565.224370	47299.485478
565.580520	47024.901390
565.936615	47227.805312
566.292654	46869.096969
566.648638	47241.330727
567.004567	47184.201852
567.360441	47262.513656
567.716260	46961.622306
568.072023	47374.954072
568.427732	47295.321485
568.783385	46827.101637
569.138982	47248.458919
569.494525	47388.602996
569.850013	46994.750249
570.205445	47106.416848
570.560823	46887.635812
570.916145	46747.274965
571.271412	46974.573031
571.626625	46625.568909
571.981782	46710.237608
572.336884	46321.678072
572.691931	46652.007240
573.046923	46301.883982
573.401860	46133.196892
573.756743	46169.336924
574.111570	46306.315156
574.466342	46220.290386
574.821059	46387.959163
575.175722	45870.698970
575.530330	45948.892307
575.884882	45624.650333
576.239380	45511.642787
576.593823	45615.830834
576.948211	45555.659622
577.302544	45101.413852
577.656823	45080.644298
578.011047	45353.211925
578.365216	45198.594695
578.719330	44902.101752
579.073389	44886.895112
579.427394	44937.634325
579.781344	44855.471079
580.135239	44609.734994
580.489080	44677.868709
580.842866	44170.776523
581.196597	44668.668603
581.550273	44646.565664
581.903895	44588.189102
582.257463	45019.195153
582.610975	44456.325121
582.964434	44788.292663
583.317837	44270.558601
583.671186	44240.089868
584.024481	44532.207089
584.377721	44089.313997
584.730906	44305.014888
585.084037	44464.640504
585.437113	44163.882745
585.790135	44272.895176
586.143103	43874.419691
586.496016	44044.001586
586.848874	44126.268175
587.201679	44181.882185
587.554428	43654.446422
587.907124	43940.912510
588.259765	43704.500039
588.612352	43844.881050
588.964884	43339.422198
589.317362	43622.014159
589.669786	43618.876041
590.022155	43514.725802
590.374470	43975.706554
590.726731	43571.408536
591.078937	42901.948347
591.431090	43266.554840
591.783188	42769.643264
592.135232	42570.063983
592.487222	42836.947709
592.839157	42991.000329
593.191038	42631.112356
593.542866	42461.101963
593.894639	41827.509583
594.246358	42129.787250
594.598022	42127.722898
594.949633	41723.636608
595.301190	41718.754251
595.652692	41682.636904
596.004141	42164.835872
596.355535	41062.834600
596.706876	41070.416496
597.058162	40783.990737
597.409395	41300.051136
597.760573	41509.483352
598.111698	41112.570624
598.462768	41031.473582
598.813785	41078.880593
599.164748	40684.352331
599.515657	40949.086005
599.866511	40459.171551
600.217312	41137.771352
600.568060	40092.896436
600.918753	40912.865315
601.269392	40834.331699
601.619978	40564.488816
601.970510	40761.653384
602.320988	40900.406103
602.671412	41167.433502
603.021783	41015.430110
603.372100	40606.320311
603.722363	40701.366226
604.072572	40740.901475
604.422728	40746.968503
604.772830	40527.234689
605.122878	40692.234175
605.472872	40551.260829
605.822813	40800.687039
606.172701	40551.051621
606.522534	40889.280276
606.872314	41086.122211
607.222041	40925.851327
607.571714	41247.487025
607.921333	40743.384243
608.270899	40943.873452
608.620411	41322.983345
608.969870	41078.691550
609.319276	41093.028591
609.668627	41136.795889
610.017926	41531.571167
610.367171	41668.521673
610.716362	41711.147150
611.065500	41618.556277
611.414585	41843.621111
611.763616	42014.934642
612.112594	41923.823348
612.461518	42040.329455
612.810389	42411.529777
613.159207	42205.361708
613.507971	42181.391022
613.856682	42681.811240
614.205340	42523.196376
614.553945	43215.825708
614.902496	42544.434757
615.250994	42971.735560
615.599439	43029.983572
615.947830	43138.791837
616.296169	43155.604085
616.644454	43200.389695
616.992686	43342.915717
617.340864	43789.188903
617.688990	43280.838949
618.037063	43965.092405
618.385082	43778.602480
618.733048	44132.640194
619.080961	44016.996125
619.428821	44062.384153
619.776628	44093.646869
620.124382	43911.809929
620.472083	44032.439699
620.819731	44146.589067
621.167326	43732.054986
621.514868	43703.632960
621.862357	43180.073845
622.209793	43271.570788
622.557176	42850.528577
622.904506	42593.563322
623.251783	42250.152360
623.599007	41931.102774
623.946179	41858.033770
624.293297	41587.986720
624.640363	41066.103789
624.987376	40918.760944
625.334336	40724.091747
625.681243	40317.411784
626.028097	40215.734232
626.374899	40027.515191
626.721647	40008.920895
627.068343	39781.030494
627.414987	39494.496351
627.761577	39248.414946
628.108115	39574.252446
628.454600	38804.901793
628.801032	39064.816123
629.147412	38971.922781
629.493739	38847.333185
629.840014	38407.694158
630.186236	38827.234104
630.532405	38258.559183
630.878521	38522.057774
631.224585	38291.919018
631.570597	37962.459450
631.916556	38122.324521
632.262462	38030.497383
632.608316	37983.208839
632.954117	37817.352357
633.299866	37777.444063
633.645562	37725.406752
633.991206	37203.236475
634.336797	36783.487321
634.682336	36702.685186
635.027823	36467.285987
635.373257	36365.535338
635.718639	36012.077356
636.063968	35903.011993
636.409245	35265.956340
636.754470	35202.399993
637.099642	34971.704190
637.444762	34406.638735
637.789829	34550.472936
638.134845	34165.222918
638.479808	34071.318825
638.824719	34034.079822
639.169577	33520.872716
639.514383	33642.850995
639.859137	33261.328910
640.203839	33408.149995
640.548489	33124.683394
640.893086	33111.757876
641.237632	32829.811182
641.582125	32919.684873
641.926566	32682.634696
642.270955	32729.134299
642.615292	32663.750533
642.959576	32558.055181
643.303809	32541.989024
643.647990	32646.252688
643.992118	32626.788793
644.336195	32447.061576
644.680219	32513.133459
645.024192	32702.068344
645.368112	33231.538212
645.711981	33245.383741
646.055797	33928.349181
646.399562	33727.494489
646.743274	34592.110347
647.086935	34983.465202
647.430544	34983.019060
647.774101	35000.945403
648.117606	35321.320812
648.461059	35454.621523
648.804460	35077.248307
649.147810	34587.996765
649.491108	34280.410763
649.834354	34170.256510
650.177548	33351.366438
650.520690	32845.191742
650.863781	32832.775381
651.206820	32649.320230
651.549807	32224.207288
651.892742	31637.180046
652.235626	31553.970761
652.578458	31419.021593
652.921238	30709.098582
653.263967	30988.902785
653.606644	30680.789983
653.949269	30596.227148
654.291843	30203.606963
654.634365	30558.695757
654.976836	30103.043505
655.319255	30200.632682
655.661622	30050.784384
656.003938	29924.594221
656.346203	29749.492262
656.688416	29990.744241
657.030577	29788.082295
657.372687	29600.654716
657.714746	29753.560473
658.056753	29938.699369
658.398708	29304.497009
658.740612	29372.484531
659.082465	29573.752598
659.424266	29466.940630
659.766016	29467.739653
660.107715	29311.695777
660.449362	29402.040816
660.790958	29386.594720
661.132503	29316.129472
661.473996	29386.231757
661.815438	29470.040940
662.156829	29587.426728
662.498168	29387.121521
662.839456	29370.790703
663.180693	29490.558436
663.521879	29544.914677
663.863013	29498.258799
664.204097	29492.206893
664.545129	29889.608613
664.886110	29820.575052
665.227040	29924.952142
665.567918	29928.687637
665.908746	29985.992954
666.249522	30073.593084
666.590248	30114.101276
666.930922	30212.832274
667.271545	30212.131554
667.612118	30278.871389
667.952639	30084.754199
668.293109	30126.830189
668.633528	29967.761621
668.973896	29932.566805
669.314213	29920.992316
669.654480	29734.724202
669.994695	29708.187568
670.334859	29635.461362
670.674973	29430.551061
671.015035	29624.814445
671.355047	29560.295238
671.695008	29482.633742
672.034918	29401.551824
672.374777	29470.252668
672.714585	29355.826038
673.054342	29484.856891
673.394049	29356.763692
673.733705	29560.869929
674.073310	29283.225861
674.412864	29354.369144
674.752368	29072.130064
675.091820	29305.502720
675.431223	28894.711696
675.770574	28702.429485
676.109875	28540.064002
676.449125	28330.538525
676.788324	28239.417148
677.127473	27755.857068
677.466571	27663.273757
677.805619	27374.019912
678.144616	27304.134396
678.483562	27254.491633
678.822458	26936.036904
679.161303	26888.690387
679.500098	26800.931460
679.838842	26714.120270
680.177535	26775.007326
680.516179	26986.496333
680.854771	27069.980361
681.193314	27758.291946
681.531805	28696.909422
681.870247	29444.704101
682.208638	30248.813510
682.546978	30598.825862
682.885268	30786.986930
683.223508	30366.511849
683.561697	30127.402360
683.899836	29953.414497
684.237925	29550.737210
684.575963	29374.884120
684.913951	28996.669032
685.251889	29130.289856
685.589776	29130.302459
685.927614	29122.352559
686.265401	29306.059767
686.603137	29394.703416
686.940824	29864.468379
687.278460	30183.444868
687.616046	30375.265813
687.953582	31054.994833
688.291068	30992.262714
688.628504	31352.485924
688.965889	31381.444832
689.303224	31134.284621
689.640510	30870.009692
689.977745	30276.635638
690.314930	29543.082218
690.652065	29133.864034
690.989150	28439.528271
691.326185	27614.001520
691.663170	27001.211461
692.000105	26298.661138
692.336990	25680.106520
692.673825	25264.276862
693.010610	24769.114567
693.347345	24269.110243
693.684030	23637.536845
694.020665	23455.039514
694.357251	22779.454323
694.693786	22782.897431
695.030272	22550.757337
695.366707	22051.481461
695.703093	21760.468252
696.039429	21823.354126
696.375716	21590.420050
696.711952	21570.222668
697.048139	21441.456475
697.384276	21277.440014
697.720363	21396.403683
698.056400	21291.149432
698.392388	21133.348713
698.728326	21127.251438
699.064214	20983.235755
699.400053	20994.626242
699.735842	20610.069383
700.071581	20427.521640
700.407270	20190.617656
700.742910	20016.332365
701.078501	19755.233363
701.414042	19554.729031
701.749533	19266.982490
702.084974	18947.380898
702.420366	19177.935548
702.755709	18777.506616
703.091002	18464.503894
703.426246	18532.451086
703.761440	18475.957396
704.096584	18221.066575
704.431679	18159.738418
704.766725	18117.216285
705.101721	18025.714302
705.436668	18138.832753
705.771565	17857.062500
706.106413	18166.322165
706.441212	18235.164162
706.775961	18324.453078
707.110661	18407.082631
707.445311	18758.967773
707.779913	18648.377460
708.114465	18938.198436
708.448967	19228.528568
708.783421	19833.519962
709.117825	20177.190543
709.452180	20389.811289
709.786485	20827.086014
710.120742	21569.852143
710.454949	21668.472235
710.789107	22169.492352
711.123216	22874.727089
711.457275	23095.033074
711.791286	23670.939531
712.125247	23840.939841
712.459159	23617.823413
712.793023	24374.659402
713.126837	23393.297983
713.460602	23663.302183
713.794318	23355.953115
714.127985	23079.889448
714.461602	22195.045960
714.795171	22186.770906
715.128691	21205.825382
715.462162	20702.778722
715.795584	20269.418452
716.128957	20003.174953
716.462281	19630.285844
716.795556	19350.325366
717.128782	18869.512715
717.461960	18267.954347
717.795088	18247.754443
718.128167	17907.158966
718.461198	17458.027446
718.794180	17325.402250
719.127113	17016.782812
719.459997	16822.244685
719.792833	16450.134434
720.125619	16486.387892
720.458357	16150.558826
720.791046	16016.368352
721.123686	15862.277923
721.456278	15637.034128
721.788821	15634.090094
722.121315	15369.235433
722.453761	15461.677591
722.786158	15348.569222
723.118506	15437.888386
723.450805	15319.585108
723.783056	15487.435367
724.115259	15368.164187
724.447412	15361.073804
724.779518	15567.294805
725.111574	15606.928357
725.443582	15883.150820
725.775542	15821.636140
726.107453	16320.339846
726.439315	16234.902371
726.771129	16623.222452
727.102895	17028.652209
727.434612	17308.610167
727.766281	17483.399574
728.097901	17808.990057
728.429473	17916.321263
728.760996	17955.095298
729.092471	18061.055311
729.423897	17942.225232
729.755276	17783.547353
730.086606	17867.406947
730.417887	18418.982275
730.749120	18958.294996
731.080305	19184.103400
731.411442	19597.747717
731.742530	19706.258553
732.073570	19841.595890
732.404562	20167.725777
732.735506	20066.433872
733.066401	19932.218192
733.397249	19510.024078
733.728048	18914.137008
734.058798	18073.113751
734.389501	17323.889904
734.720156	16797.328782
735.050762	16211.236674
735.381320	15815.241437
735.711831	15523.567837
736.042293	15149.594880
736.372707	15169.081460
736.703073	14944.256081
737.033391	15128.732065
737.363661	15116.219921
737.693883	15223.256220
738.024056	15408.944601
738.354182	15607.959273
738.684260	15958.632017
739.014290	16232.588481
739.344272	16456.090558
739.674207	16792.658153
740.004093	16992.701220
740.333931	17059.781334
740.663722	17145.445661
740.993464	17195.073300
741.323159	17069.455308
741.652806	16783.420239
741.982405	16627.688914
742.311956	16275.009791
742.641460	16179.777354
742.970915	15843.033318
743.300323	15505.656617
743.629683	15299.554083
743.958996	14990.559079
744.288260	14675.446634
744.617477	14362.388460
744.946647	14332.864943
745.275768	14017.664278
745.604842	13816.456704
745.933869	13639.650836
746.262847	13603.286473
746.591778	13511.504705
746.920662	13385.949728
747.249498	13384.719686
747.578286	13520.866128
747.907027	13686.498279
748.235720	13945.026292
748.564365	14021.702242
748.892963	13952.492241
749.221514	14076.728957
749.550017	13964.142347
749.878473	13935.664869
750.206881	13720.694946
750.535242	13650.585099
750.863555	13565.429928
751.191821	13466.565339
751.520039	13488.668278
751.848210	13396.145461
752.176334	13439.862347
752.504411	13370.211245
752.832440	13198.920399
753.160421	13312.371567
753.488356	13208.206205
753.816243	13120.855611
754.144082	12949.897482
754.471875	12881.531874
754.799620	12855.985827
755.127318	12835.433042
755.454969	12812.079897
755.782572	12780.113941
756.110129	12797.188329
756.437638	12705.151983
756.765100	12710.835884
757.092515	12736.213052
757.419882	12763.402516
757.747203	12766.664142
758.074477	12854.304602
758.401703	12831.753000
758.728882	13015.508099
759.056014	13055.295406
759.383099	13220.425962
759.710138	13350.951517
760.037129	13487.027383
760.364073	13547.501064
760.690970	13574.866968
761.017820	13580.659254
761.344623	13778.940437
761.671379	14094.801493
761.998088	14631.281086
762.324751	16042.811724
762.651366	18970.718919
762.977935	23281.724645
763.304456	26578.956853
763.630931	28174.121603
763.957359	27386.368218
764.283740	25345.900705
764.610074	23202.747408
764.936362	20580.261040
765.262602	18681.550773
765.588796	16702.933176
765.914943	15368.605288
766.241044	14214.546541
766.567097	13404.216348
766.893104	12656.351093
767.219064	12182.525481
767.544978	11696.999352
767.870845	11298.624689
768.196665	11073.622870
768.522438	10843.748775
768.848165	10631.370005
769.173846	10428.851731
769.499479	10299.359612
769.825066	10136.371547
770.150607	9909.481815
770.476101	9830.333179
770.801548	9712.443276
771.126949	9548.837669
771.452303	9441.813973
771.777611	9241.876770
772.102872	9227.317918
772.428087	9098.955017
772.753256	8945.983724
773.078378	8857.715641
773.403453	8672.344852
773.728482	8564.030621
774.053465	8479.858475
774.378401	8379.070686
774.703291	8262.627594
775.028135	8144.228534
775.352932	8116.706355
775.677683	8010.544696
776.002388	7900.942450
776.327046	7909.845127
776.651658	7809.332082
776.976224	7712.897329
777.300743	7710.565795
777.625216	7628.599154
777.949643	7585.119203
778.274024	7599.312571
778.598359	7508.634816
778.922647	7528.559977
779.246889	7479.302863
779.571086	7488.165211
779.895236	7493.854153
780.219339	7498.066037
780.543397	7498.633167
780.867409	7580.937565
781.191374	7591.687826
781.515294	7558.257414
781.839167	7653.588154
782.162995	7622.113710
782.486776	7570.318375
782.810511	7528.948146
783.134201	7446.091741
783.457844	7443.407327
783.781441	7388.108390
784.104993	7319.583985
784.428498	7300.717467
784.751958	7283.617873
785.075372	7249.622852
785.398739	7197.608227
785.722061	7234.111222
786.045337	7236.079792
786.368568	7372.037191
786.691752	7377.852162
787.014891	7672.593304
787.337983	7978.205694
787.661030	8534.408801
787.984031	9151.173809
788.306987	9590.112116
788.629897	9853.698927
788.952760	9849.252629
789.275579	9669.797635
789.598351	9294.095562
789.921078	8965.019121
790.243759	8553.492089
790.566395	8264.669262
790.888984	8010.993359
791.211529	7799.295144
791.534027	7571.167809
791.856480	7365.980245
792.178888	7285.581403
792.501249	7190.658996
792.823566	7030.551950
793.145836	7022.349993
793.468062	6993.617937
793.790241	6942.432581
794.112375	6999.576580
794.434464	7135.833928
794.756507	7168.475399
795.078505	7300.815770
795.400457	7585.356137
795.722364	7922.949607
796.044226	8213.798978
796.366042	8500.111311
796.687812	8478.666242
797.009538	8575.653001
797.331218	8486.084300
797.652852	8411.097137
797.974442	8262.529292
798.295986	8184.827467
798.617484	7998.733273
798.938938	7854.654575
799.260346	7753.350068
799.581709	7559.379071
799.903026	7474.498643
800.224299	7372.957202
800.545526	7201.472271
800.866708	7108.198322
801.187845	7042.076028
801.508936	6932.413288
801.829983	6896.084212
802.150984	6751.017449
802.471940	6701.601538
802.792851	6685.981523
803.113717	6657.347769
803.434538	6624.068592
803.755314	6569.329223
804.076045	6566.470889
804.396731	6506.569378
804.717372	6538.132042
805.037967	6532.480909
805.358518	6574.367856
805.679024	6652.697305
805.999485	6661.012688
806.319901	6704.376693
806.640272	6724.322019
806.960598	6809.265461
807.280879	6811.715462
807.601115	6891.373254
807.921306	6839.787127
808.241453	6849.481266
808.561554	6872.441201
808.881611	6842.038002
809.201623	6848.304156
809.521590	6794.696526
809.841513	6779.230266
810.161390	6813.230328
810.481223	6688.668458
810.801011	6668.508884
811.120755	6647.421737
811.440453	6572.338792
811.760107	6537.209511
812.079716	6508.278329
812.399281	6449.183403
812.718801	6440.437002
813.038276	6389.720473
813.357707	6323.933416
813.677093	6366.372369
813.996434	6271.999449
814.315731	6310.458411
814.634983	6302.730322
814.954191	6309.208205
815.273354	6406.815026
815.592473	6455.835206
815.911547	6571.711168
816.230577	6652.344424
816.549562	6790.842564
816.868502	6890.551546
817.187399	6988.775908
817.506250	7129.630788
817.825058	7156.046434
818.143821	7396.471664
818.462539	7631.011347
818.781213	7963.200700
819.099843	8439.735932
819.418429	9347.090692
819.736970	10239.251414
820.055466	11346.074550
820.373919	12716.348386
820.692327	14711.382500
821.010691	18025.225310
821.329011	25462.106863
821.647286	37124.687736
821.965517	51086.922007
822.283704	58559.757069
822.601847	61708.244992
822.919945	59562.487940
823.237999	55719.303811
823.556010	49764.917219
823.873976	43114.536325
824.191897	36628.252550
824.509775	31766.142844
824.827609	27100.570083
825.145398	24287.172697
825.463144	22623.642340
825.780845	22525.700282
826.098502	23753.057406
826.416116	27042.589252
826.733685	30769.489085
827.051210	32621.964409
827.368692	31685.529753
827.686129	28177.385750
828.003522	24154.340814
828.320872	20407.036911
828.638177	17517.326539
828.955439	15307.539271
829.272656	13478.830467
829.589830	11987.775626
829.906960	10684.473519
830.224046	9715.256240
830.541088	8930.840098
830.858086	8441.454965
831.175041	8032.695526
831.491952	7881.506281
831.808819	7862.319650
832.125642	8163.077409
832.442421	8857.786217
832.759157	10337.730355
833.075849	12903.140780
833.392497	16050.275153
833.709101	18537.330923
834.025662	18906.928158
834.342179	17562.767500
834.658653	15501.646379
834.975083	13579.590529
835.291469	11926.013930
835.607811	10591.242420
835.924110	9668.665896
836.240366	8804.523906
836.556578	7998.445927
836.872746	7340.051070
837.188871	6825.934036
837.504952	6396.347070
837.820990	6077.713379
838.136984	5845.288461
838.452935	5720.598041
838.768842	5705.136822
839.084706	5983.610161
839.400526	6949.835515
839.716303	8447.610214
840.032037	9686.211632
840.347727	9924.804402
840.663373	9130.852918
840.978977	8095.997295
841.294537	7254.618636
841.610054	6636.827753
841.925527	6201.529159
842.240957	5841.303429
842.556344	5511.793449
842.871687	5234.913115
843.186987	4949.624136
843.502244	4718.580494
843.817458	4545.895769
844.132629	4408.587341
844.447756	4315.237775
844.762840	4234.702821
845.077881	4160.222294
845.392879	4096.040844
845.707833	4046.287176
846.022745	4002.739168
846.337613	3975.350579
846.652438	3931.858025
846.967221	3912.615940
847.281960	3883.677197
847.596656	3865.460987
847.911309	3844.638501
848.225919	3820.037671
848.540485	3806.691216
848.855009	3794.579844
849.169490	3771.632511
849.483928	3757.550048
849.798323	3748.435642
850.112675	3735.126996
850.426984	3736.304105
850.741251	3717.929099
851.055474	3716.036146
851.369654	3723.986046
851.683792	3719.088565
851.997887	3723.842373
852.311938	3725.929411
852.625947	3730.174062
852.939914	3721.150397
853.253837	3728.316397
853.567718	3730.232035
853.881555	3719.219635
854.195350	3733.483580
854.509103	3729.153228
854.822812	3724.593505
855.136479	3719.877505
855.450103	3728.487796
855.763685	3712.829972
856.077224	3715.108574
856.390720	3730.882344
856.704173	3749.597628
857.017584	3762.311418
857.330953	3768.310391
857.644278	3793.576654
857.957561	3799.063950
858.270802	3798.456491
858.584000	3805.103252
858.897155	3801.627377
859.210268	3781.891259
859.523339	3758.412085
859.836367	3760.010131
860.149352	3754.638782
860.462295	3746.038573
860.775195	3733.896954
861.088054	3730.705904
861.400869	3726.925038
861.713642	3727.257755
862.026373	3734.779156
862.339062	3738.383581
862.651708	3758.676746
862.964312	3790.892240
863.276873	3795.378867
863.589392	3850.319882
863.901869	3895.418044
864.214303	3940.233902
864.526696	3967.761122
864.839045	4013.728884
865.151353	4045.455385
865.463619	4055.610790
865.775842	4060.016758
866.088023	4080.718257
866.400162	4071.029159
866.712258	4078.628698
867.024313	4080.088112
867.336325	4078.961414
867.648296	4086.273608
867.960224	4084.158844
868.272110	4095.516564
868.583954	4095.463632
868.895755	4108.868060
869.207515	4103.675671
869.519233	4140.246722
869.830909	4154.167868
870.142542	4174.519006
870.454134	4192.606666
870.765684	4218.823187
871.077191	4256.591511
871.388657	4275.294192
871.700081	4310.978000
872.011463	4348.113659
872.322803	4381.284452
872.634101	4412.577414
872.945357	4448.737611
873.256571	4503.870190
873.567744	4533.847411
873.878874	4554.087644
874.189963	4596.042647
874.501010	4601.663533
874.812015	4597.953244
875.122979	4640.135099
875.433900	4635.643431
875.744780	4653.395854
876.055618	4673.494934
876.366415	4671.412938
876.677169	4689.780382
876.987882	4730.084407
877.298554	4777.856901
877.609183	4846.613199
877.919771	4942.521151
878.230317	5070.934463
878.540822	5246.321246
878.851285	5528.865316
879.161707	5920.930974
879.472087	6555.365227
879.782425	7573.978253
880.092722	9403.455833
880.402977	12244.841705
880.713191	15766.314518
881.023363	19488.924329
881.333494	21971.871559
881.643583	23448.581796
881.953631	23669.086907
882.263637	23030.251727
882.573602	21720.915359
882.883526	20278.467324
883.193408	18701.019709
883.503248	17089.740911
883.813048	15607.535816
884.122806	14235.815169
884.432522	12791.764047
884.742197	11561.667056
885.051831	10479.177570
885.361424	9479.607503
885.670975	8651.444229
885.980485	7964.975186
886.289954	7380.760908
886.599382	6909.418064
886.908768	6535.054418
887.218113	6170.064797
887.527417	5880.185848
887.836680	5614.499397
888.145901	5399.113578
888.455082	5234.005707
888.764221	5085.498356
889.073319	4945.129948
889.382376	4867.690263
889.691392	4804.461591
890.000366	4776.488228
890.309300	4756.421915
890.618193	4755.154065
890.927044	4739.644955
891.235855	4762.146145
891.544625	4787.462820
891.853353	4832.051826
892.162041	4927.296866
892.470687	5086.756124
892.779293	5304.733096
893.087858	5621.892249
893.396381	6113.382063
893.704864	6802.112064
894.013306	7827.553332
894.321707	8957.253224
894.630068	9851.407723
894.938387	10189.142345
895.246665	10088.538558
895.554903	9557.662209
895.863100	8906.698012
896.171256	8381.608907
896.479371	7886.953248
896.787446	7403.196563
897.095480	6982.154353
897.403473	6668.125756
897.711425	6359.644949
898.019336	6098.326657
898.327207	5833.224980
898.635038	5606.859528
898.942827	5365.473958
899.250576	5168.407693
899.558284	4970.176921
899.865952	4850.220144
900.173579	4707.999112
900.481165	4599.775621
900.788711	4507.683823
901.096216	4434.410652
901.403681	4367.673336
901.711105	4341.063606
902.018489	4317.758352
902.325832	4368.374057
902.633135	4454.605514
902.940397	4714.063620
903.247619	5327.980377
903.554800	6525.272059
903.861941	8291.871328
904.169041	9870.788439
904.476101	10715.297654
904.783121	10585.533313
905.090100	9961.456111
905.397039	9171.855143
905.703938	8442.879091
906.010796	7769.506966
906.317614	7231.580563
906.624391	6718.721297
906.931129	6304.703934
907.237826	5913.714563
907.544483	5554.716353
907.851099	5194.188153
908.157675	4843.669165
908.464211	4517.781254
908.770707	4276.264614
909.077163	4068.231318
909.383578	3916.507711
909.689954	3799.038744
909.996289	3722.314903
910.302584	3655.333092
910.608839	3619.099799
910.915054	3590.730706
911.221229	3572.025504
911.527363	3578.621854
911.833458	3591.612907
912.139513	3614.555199
912.445527	3633.943476
912.751502	3703.735731
913.057436	3791.971047
913.363331	3910.581835
913.669186	4083.904266
913.975000	4299.784118
914.280775	4660.508922
914.586510	5155.456968
914.892205	5849.195355
915.197859	6772.104595
915.503475	7912.650530
915.809050	8972.031366
916.114585	9695.827633
916.420081	10058.387417
916.725536	10114.921437
917.030952	9746.776054
917.336328	9379.394406
917.641665	9005.144185
917.946961	8556.010145
918.252218	8157.320411
918.557435	7663.723394
918.862612	7259.400170
919.167750	6905.014617
919.472848	6499.592421
919.777906	6139.286032
920.082925	5788.025994
920.387904	5423.908493
920.692843	5151.542513
920.997743	4903.313577
921.302603	4668.849511
921.607423	4502.801465
921.912204	4346.253474
922.216946	4233.066967
922.521647	4110.151033
922.826310	4007.056917
923.130932	3916.467382
923.435516	3818.532886
923.740059	3751.508225
924.044564	3675.212882
924.349028	3621.340592
924.653454	3559.251220
924.957840	3490.179851
925.262186	3445.094292
925.566493	3385.679252
925.870761	3331.665809
926.174989	3291.684418
926.479178	3260.986312
926.783328	3218.897718
927.087438	3190.609284
927.391509	3157.249448
927.695541	3125.404479
927.999533	3104.760954
928.303486	3080.946543
928.607400	3069.203176
928.911275	3055.619787
929.215110	3035.021632
929.518906	3028.203471
929.822663	3026.053419
930.126381	3022.214581
930.430060	3028.233718
930.733699	3031.931405
931.037299	3040.614792
931.340861	3038.815100
931.644383	3050.858417
931.947866	3046.517983
932.251309	3040.783671
932.554714	3042.628733
932.858080	3035.674461
933.161407	3029.728420
933.464694	3021.907070
933.767943	3014.983045
934.071153	3010.138497
934.374323	3001.452588
934.677455	2994.861280
934.980548	2989.736947
935.283602	2983.871564
935.586617	2980.531800
935.889593	2988.960609
936.192530	2989.696618
936.495428	2999.209275
936.798287	3019.588139
937.101108	3044.201573
937.403890	3090.998604
937.706632	3149.571771
938.009336	3221.090620
938.312002	3291.644089
938.614628	3355.235724
938.917216	3408.392171
939.219765	3441.099177
939.522275	3475.114363
939.824747	3484.652226
940.127179	3483.268429
940.429573	3478.635609
940.731929	3478.234837
941.034246	3462.352682
941.336524	3456.691466
941.638763	3439.675051
941.940964	3427.588885
942.243126	3391.398441
942.545250	3368.191490
942.847335	3336.873321
943.149381	3298.401756
943.451389	3269.609206
943.753359	3236.415728
944.055290	3212.913869
944.357182	3184.731298
944.659036	3168.879390
944.960851	3158.693739
945.262628	3147.767038
945.564367	3147.688900
945.866067	3142.010040
946.167729	3138.244298
946.469352	3134.445789
946.770937	3133.097280
947.072484	3116.837038
947.373992	3118.765280
947.675462	3113.230093
947.976893	3097.093359
948.278286	3087.126998
948.579641	3083.502408
948.880958	3073.137796
949.182236	3082.327820
949.483476	3071.569997
949.784678	3070.987744
950.085841	3071.128896
950.386967	3080.162644
950.688054	3093.302412
950.989103	3113.517438
951.290114	3127.894809
951.591087	3155.376659
951.892021	3180.279959
952.192917	3207.552602
952.493776	3236.675347
952.794596	3246.820670
953.095378	3255.083121
953.396122	3250.788058
953.696828	3246.682038
953.997496	3233.741396
954.298126	3216.740105
954.598718	3198.876776
954.899272	3173.255112
955.199788	3148.487923
955.500266	3117.126905
955.800706	3087.671443
956.101108	3050.185423
956.401472	3016.523118
956.701798	2988.428768
957.002087	2950.186574
957.302337	2920.952923
957.602550	2891.593243
957.902724	2868.751775
958.202861	2840.349914
958.502960	2820.533139
958.803022	2799.486321
959.103045	2779.571243
959.403031	2760.981988
959.702979	2748.968919
960.002889	2737.248236
960.302762	2725.557800
960.602596	2712.501212
960.902393	2705.814121
961.202153	2699.880683
961.501875	2689.523632
961.801559	2682.634896
962.101205	2678.090296
962.400814	2672.119049
962.700385	2668.227278
962.999918	2658.621359
963.299414	2657.426606
963.598873	2652.526604
963.898293	2644.911942
964.197677	2648.133239
964.497022	2643.893628
964.796331	2641.786426
965.095601	2638.912968
965.394835	2636.422638
965.694030	2635.946249
965.993189	2635.056486
966.292309	2631.089098
966.591393	2631.701598
966.890439	2631.951135
967.189447	2630.781587
967.488419	2631.530199
967.787353	2633.128244
968.086249	2632.177987
968.385108	2636.508338
968.683930	2636.314254
968.982714	2639.959008
969.281462	2642.925727
969.580172	2649.146511
969.878844	2653.161790
970.177480	2662.351813
970.476078	2668.653256
970.774639	2677.480316
971.073162	2682.234124
971.371649	2689.803417
971.670098	2692.555887
971.968510	2701.297247
972.266885	2702.827237
972.565223	2706.968545
972.863524	2709.287476
973.161788	2713.804350
973.460014	2714.948692
973.758204	2718.270812
974.056356	2721.567727
974.354471	2723.117882
974.652550	2721.643344
974.950591	2724.297512
975.248595	2719.712582
975.546563	2717.698641
975.844493	2715.654453
976.142386	2711.508104
976.440243	2705.899821
976.738062	2700.533513
977.035845	2696.424972
977.333590	2690.796524
977.631299	2684.605987
977.928971	2677.828156
978.226606	2672.630726
978.524204	2668.960766
978.821765	2664.771567
979.119290	2665.933553
979.416777	2666.961948
979.714228	2668.002947
980.011642	2669.603513
980.309020	2677.175326
980.606360	2687.988601
980.903664	2708.977445
981.200931	2739.040366
981.498162	2778.620986
981.795356	2842.638598
982.092513	2923.670105
982.389633	3021.468490
982.686717	3112.930144
982.983764	3192.313194
983.280775	3249.242944
983.577749	3264.288268
983.874686	3256.908018
984.171587	3231.089749
984.468451	3196.262938
984.765279	3157.897236
985.062070	3110.797736
985.358824	3072.300965
985.655543	3021.549148
985.952224	2971.455203
986.248869	2910.888260
986.545478	2854.971781
986.842050	2796.640590
987.138586	2755.532501
987.435086	2715.707386
987.731549	2681.571212
988.027975	2659.669919
988.324366	2640.460603
988.620719	2623.529887
988.917037	2614.216356
989.213318	2606.639502
989.509563	2595.488469
989.805772	2596.355548
990.101944	2588.619897
990.398080	2587.515884
990.694180	2582.295770
990.990244	2586.399269
991.286271	2585.388517
991.582262	2582.517580
991.878217	2587.760380
992.174136	2593.240115
992.470019	2594.157605
992.765865	2596.905033
993.061676	2598.767740
993.357450	2604.943153
993.653188	2610.352311
993.948890	2630.043058
994.244556	2643.782723
994.540186	2663.836433
994.835780	2691.645958
995.131337	2726.737430
995.426859	2760.377050
995.722345	2809.631643
996.017795	2855.221318
996.313208	2893.420662
996.608586	2925.389139
996.903928	2941.929164
997.199234	2943.383537
997.494504	2944.958898
997.789738	2932.141764
998.084936	2911.619227
998.380099	2883.393807
998.675225	2855.060001
998.970316	2826.958089
999.265371	2795.390384
999.560390	2758.587440
999.855373	2731.057699
1000.150320	2702.625591
1000.445232	2675.723474
1000.740108	2655.949548
1001.034948	2637.377937
1001.329752	2623.250103
1001.624521	2610.115377
1001.919254	2598.480394
1002.213951	2591.931935
1002.508613	2583.737540
1002.803239	2577.625141
1003.097829	2573.118349
1003.392384	2566.970662
1003.686903	2559.963458
1003.981386	2556.570762
1004.275834	2551.925338
1004.570246	2551.060780
1004.864623	2548.315872
1005.158964	2545.044163
1005.453270	2542.087527
1005.747540	2545.404606
1006.041775	2542.687424
1006.335974	2538.823379
1006.630138	2538.798174
1006.924266	2538.082330
1007.218359	2538.447813
1007.512416	2531.213758
1007.806438	2534.062010
1008.100425	2534.031763
1008.394376	2528.204189
1008.688292	2535.657535
1008.982172	2533.615868
1009.276017	2535.266845
1009.569827	2533.900693
1009.863602	2533.326001
1010.157341	2531.528830
1010.451045	2529.104035
1010.744714	2530.732328
1011.038347	2534.732483
1011.331945	2528.695701
1011.625508	2529.701412
1011.919036	2525.078673
1012.212528	2527.511030
1012.505986	2523.105062
1012.799408	2524.718231
1013.092795	2523.886441
1013.386147	2524.224198
1013.679464	2521.592716
1013.972745	2522.041378
1014.265992	2523.901564
1014.559204	2525.809641
1014.852380	2520.143384
1015.145521	2520.150946
1015.438628	2520.801254
1015.731699	2525.451719
1016.024736	2524.471214
1016.317737	2525.721421
1016.610703	2524.007428
1016.903635	2527.707635
1017.196531	2526.739734
1017.489393	2530.117307
1017.782219	2528.299971
1018.075011	2531.715352
1018.367768	2532.862215
1018.660490	2533.613347
1018.953177	2533.613347
1019.245829	2533.613347
