Dividing Wavelength (nm)	Counts (n)	Blue Motor Position (mm): 28.000000	Red Motor Position (mm): 0.000000	
326.493990	2067.407439
326.888308	2067.407439
327.282561	2067.407439
327.676750	2040.442307
328.070874	2041.737884
328.464933	2046.179140
328.858929	2057.304967
329.252859	2067.233519
329.646726	2081.169789
330.040528	2096.356265
330.434265	2113.465941
330.827938	2137.905455
331.221547	2158.112920
331.615091	2175.666218
332.008571	2194.910823
332.401986	2217.081818
332.795338	2236.258367
333.188625	2258.305853
333.581847	2277.850407
333.975006	2293.097376
334.368100	2309.907104
334.761129	2326.363951
335.154095	2341.434480
335.546996	2391.788045
335.939833	2496.512975
336.332606	2504.858605
336.725315	2516.528877
337.117960	2528.181504
337.510540	2540.282793
337.903056	2546.848896
338.295508	2551.302756
338.687896	2559.280382
339.080220	2567.000909
339.472480	2570.154151
339.864676	2573.677917
340.256807	2577.050449
340.648875	2581.721078
341.040879	2577.801581
341.432818	2581.663105
341.824694	2579.586149
342.216506	2582.157138
342.608253	2582.053794
342.999937	2582.084041
343.391557	2578.512384
343.783113	2579.233269
344.174605	2577.151272
344.566033	2577.436097
344.957397	2572.253791
345.348697	2571.006106
345.739934	2572.399985
346.131106	2568.356979
346.522215	2568.646846
346.913260	2568.283882
347.304241	2567.068964
347.695159	2561.679971
348.086012	2562.133675
348.476802	2559.540001
348.867528	2553.286450
349.258191	2551.869886
349.648789	2552.653785
350.039324	2551.176727
350.429796	2553.104968
350.820203	2551.433826
351.210548	2553.775442
351.600828	2548.678835
351.991045	2550.748229
352.381198	2551.083466
352.771288	2552.374001
353.161314	2548.336037
353.551276	2549.082128
353.941175	2546.175902
354.331010	2550.294525
354.720782	2551.837118
355.110490	2553.697304
355.500135	2549.505584
355.889717	2551.537169
356.279235	2550.294525
356.668689	2550.622200
357.058080	2553.528425
357.447408	2550.541542
357.836672	2552.376522
358.225873	2549.382076
358.615010	2549.616490
359.004084	2553.727551
359.393095	2554.786193
359.782043	2555.449105
360.170927	2555.612942
360.559748	2556.994218
360.948505	2556.721996
361.337199	2556.308622
361.725830	2556.084290
362.114398	2557.301729
362.502903	2556.290977
362.891344	2561.155691
363.279722	2557.142933
363.668037	2560.155022
364.056289	2558.564538
364.444478	2561.201061
364.832603	2560.664178
365.220665	2561.034703
365.608665	2563.512430
365.996601	2563.703994
366.384474	2562.161401
366.772284	2563.146947
367.160031	2560.762481
367.547715	2560.250804
367.935336	2562.035372
368.322893	2559.781977
368.710388	2559.252655
369.097820	2563.094015
369.485189	2559.850032
369.872495	2565.977555
370.259738	2565.450754
370.646918	2563.799776
371.034035	2566.625343
371.421090	2566.310271
371.808081	2564.865980
372.195010	2566.620302
372.581875	2566.325394
372.968678	2567.994016
373.355418	2566.123748
373.742096	2565.831361
374.128710	2572.286559
374.515262	2571.341342
374.901751	2569.972669
375.288177	2570.461661
375.674540	2568.979562
376.060841	2570.736404
376.447079	2570.628019
376.833254	2569.014850
377.219367	2567.373954
377.605417	2572.490725
377.991404	2570.733883
378.377329	2571.422001
378.763191	2570.673389
379.148991	2572.447876
379.534727	2572.266394
379.920402	2570.990982
380.306013	2575.880901
380.691563	2573.796384
381.077049	2574.507187
381.462474	2571.273287
381.847835	2576.163206
382.233134	2573.670355
382.618371	2572.962073
383.003545	2573.539285
383.388657	2574.474419
383.773706	2573.312433
384.158693	2576.112794
384.543618	2576.808474
384.928480	2579.457600
385.313280	2576.503484
385.698017	2577.234451
386.082692	2576.939544
386.467305	2575.147413
386.851856	2580.375090
387.236344	2578.668659
387.620770	2574.310582
388.005133	2574.973494
388.389435	2577.743608
388.773674	2574.497105
389.157851	2580.150759
389.541965	2580.770821
389.926018	2580.425502
390.310008	2578.502301
390.693936	2579.749987
391.077802	2582.678897
391.461606	2582.504977
391.845348	2581.073290
392.229027	2582.938517
392.612645	2582.177303
392.996200	2583.505647
393.379694	2583.208218
393.763125	2581.839545
394.146494	2584.082859
394.529801	2585.630493
394.913047	2585.995977
395.296230	2585.345668
395.679351	2586.918508
396.062410	2584.241655
396.445408	2588.085535
396.828343	2588.927407
397.211217	2587.034454
397.594028	2588.163673
397.976778	2586.089238
398.359466	2588.425813
398.742092	2587.684763
399.124656	2588.060329
399.507158	2586.550503
399.889598	2592.458736
400.271977	2587.147880
400.654294	2588.403128
401.036549	2589.207192
401.418742	2588.529156
401.800874	2589.970926
402.182944	2590.850608
402.564952	2589.613004
402.946898	2592.632656
403.328783	2589.789445
403.710606	2591.437902
404.092367	2590.792634
404.474067	2591.173242
404.855705	2591.906729
405.237282	2592.380598
405.618797	2591.561410
406.000250	2596.710949
406.381642	2591.606781
406.762972	2591.662233
407.144240	2592.801534
407.525447	2596.123655
407.906593	2588.476224
408.287677	2597.313367
408.668700	2595.216247
409.049661	2596.156422
409.430560	2597.086515
409.811399	2595.347317
410.192176	2597.197420
410.572891	2598.558532
410.953545	2598.230857
411.334138	2598.936618
411.714669	2597.693974
412.095139	2600.186825
412.475547	2601.159767
412.855894	2600.411156
413.236180	2598.558532
413.616405	2599.279417
413.996568	2599.511310
414.376670	2600.882504
414.756711	2598.349324
415.136691	2599.904520
415.516609	2601.958790
415.896466	2602.878801
416.276262	2602.087340
416.655997	2604.008019
417.035670	2605.066662
417.415283	2606.773092
417.794834	2608.328288
418.174324	2601.699171
418.553753	2603.476178
418.933121	2604.456682
419.312428	2607.062958
419.691674	2604.113883
420.070859	2606.430294
420.449983	2606.458020
420.829045	2606.785695
421.208047	2608.116560
421.586988	2609.770058
421.965867	2610.470778
422.344686	2608.668566
422.723444	2611.302569
423.102141	2613.775255
423.480777	2610.223762
423.859352	2613.200563
424.237866	2611.693258
424.616319	2616.000924
424.994712	2616.048815
425.373044	2614.634772
425.751314	2616.169803
426.129524	2611.544544
426.507673	2616.585698
426.885762	2612.794750
427.263789	2618.329937
427.641756	2620.452263
428.019662	2621.200874
428.397508	2623.671040
428.775292	2619.242386
429.153016	2619.882613
429.530679	2621.755401
429.908282	2624.606174
430.285824	2626.037862
430.663305	2624.240690
431.040726	2626.945269
431.418086	2629.256638
431.795385	2631.389046
432.172624	2632.372071
432.549802	2630.947945
432.926920	2632.500621
433.303977	2632.793008
433.680974	2637.211579
434.057910	2642.015799
434.434786	2640.891621
434.811601	2643.263484
435.188355	2648.246665
435.565050	2648.954947
435.941683	2652.755977
436.318257	2654.699342
436.694770	2658.686894
437.071222	2666.029335
437.447614	2666.041938
437.823946	2668.877587
438.200218	2676.000737
438.576429	2680.850327
438.952580	2685.891481
439.328670	2692.152594
439.704700	2699.379088
440.080670	2707.094574
440.456580	2716.786192
440.832429	2724.756257
441.208218	2732.262535
441.583947	2743.363156
441.959616	2752.643920
442.335224	2768.276538
442.710773	2784.478806
443.086261	2799.108235
443.461689	2809.712302
443.837057	2826.466577
444.212365	2852.562110
444.587612	2867.075592
444.962800	2882.362891
445.337927	2911.518404
445.712995	2911.165523
446.088002	2968.259111
446.462949	2995.670385
446.837837	3024.609129
447.212664	3057.303532
447.587431	3142.902324
447.962139	3249.041298
448.336786	3348.969570
448.711374	3375.644836
449.085901	3324.111640
449.460369	3361.872403
449.834776	3393.029255
450.209124	3533.702653
450.583412	3571.879311
450.957640	3654.176147
451.331808	3664.434895
451.705917	3657.268895
452.079965	3696.930173
452.453954	3783.776651
452.827883	3838.228674
453.201752	3893.923342
453.575562	3962.845997
453.949311	4080.950150
454.323001	4164.708921
454.696632	4230.551431
455.070202	4412.015326
455.443713	4505.599306
455.817164	4624.028612
456.190556	4779.376809
456.563888	4838.877548
456.937160	4981.801821
457.310373	4959.257781
457.683526	5050.406884
458.056619	5149.279034
458.429653	5262.213483
458.802628	5404.744547
459.175542	5523.839286
459.548398	5789.956756
459.921194	6078.383853
460.293930	6289.177180
460.666607	6694.856474
461.039224	7091.822134
461.411782	7339.481420
461.784280	7353.221084
462.156719	7466.352138
462.529099	7579.783141
462.901419	7465.469937
463.273680	7437.302489
463.645882	7669.311513
464.018024	7767.193077
464.390106	8056.759474
464.762130	8679.200822
465.134094	9533.333600
465.505999	10733.395397
465.877845	11957.478291
466.249631	12758.832710
466.621358	12740.147673
466.993026	12537.006817
467.364634	12359.928726
467.736184	12138.589305
468.107674	12000.552430
468.479105	12100.316865
468.850477	12123.735545
469.221790	12047.641848
469.593043	11830.030360
469.964238	11754.246695
470.335373	11943.574789
470.706449	12536.164944
471.077467	13251.935694
471.448425	14952.200939
471.819324	16313.302396
472.190164	16408.159267
472.560945	15439.304950
472.931667	14555.232759
473.302330	14478.650071
473.672934	14250.842849
474.043479	14680.500391
474.413965	14673.621737
474.784393	14668.663762
475.154761	15268.997129
475.525070	15495.556666
475.895321	15497.991543
476.265513	16016.572518
476.635645	16576.178404
477.005719	16751.368583
477.375734	17153.090571
477.745691	17776.565355
478.115588	18410.427437
478.485427	19473.551330
478.855207	21034.446316
479.224928	22611.508283
479.594591	23876.381673
479.964194	23741.296394
480.333739	24254.939560
480.703226	24590.251908
481.072653	25096.756799
481.442022	25644.427753
481.811333	26110.036284
482.180584	25876.479627
482.549777	25822.977861
482.918912	25748.283084
483.287988	25825.879045
483.657005	25803.750900
484.025964	25605.212617
484.394864	25884.966409
484.763706	25933.490035
485.132489	25572.482926
485.501213	25741.180098
485.869879	25985.950803
486.238487	26020.097058
486.607036	26362.207403
486.975527	26146.937530
487.343959	26564.718114
487.712333	26967.155946
488.080648	27011.981886
488.448905	27488.438980
488.817104	27463.331514
489.185244	28306.512385
489.553326	29283.014132
489.921350	31100.029981
490.289315	33528.691546
490.657222	34448.394612
491.025070	35038.045775
491.392861	34879.584665
491.760593	34208.357551
492.128267	33335.207020
492.495883	32470.959166
492.863440	31690.432275
493.230939	30831.729691
493.598380	30363.028412
493.965763	30267.962332
494.333088	29856.334477
494.700354	29718.078312
495.067563	29699.617607
495.434713	29636.131836
495.801805	29961.089654
496.168839	29842.882158
496.535815	29743.251314
496.902733	29890.382430
497.269593	29757.217831
497.636395	29933.595201
498.003139	30217.830578
498.369825	30019.403201
498.736453	30445.042944
499.103023	30312.440433
499.469535	30416.159653
499.835989	30558.710881
500.202385	30447.800455
500.568723	30507.971667
500.935003	30826.055872
501.301226	30706.812419
501.667390	31429.333273
502.033497	31656.220484
502.399546	31474.295324
502.765537	31098.575608
503.131470	31567.387792
503.497345	32010.782478
503.863163	30995.995689
504.228923	31747.392272
504.594625	32134.759575
504.960269	31638.029481
505.325856	32290.566517
505.691385	31957.875569
506.056856	32291.105920
506.422270	32766.229629
506.787625	32312.528304
507.152924	32765.102931
507.518164	32938.115331
507.883347	32531.735317
508.248472	32663.042251
508.613540	33341.735314
508.978550	33564.135898
509.343503	33407.073709
509.708398	33764.988070
510.073236	34348.736042
510.438016	34458.557578
510.802738	34134.008094
511.167403	34672.030279
511.532010	34900.586112
511.896561	35412.348927
512.261053	36138.252396
512.625488	35935.431653
512.989866	35875.434361
513.354186	35913.109424
513.718449	35886.658490
514.082655	36722.834678
514.446803	36426.097239
514.810894	37031.330608
515.174927	37039.285549
515.538904	37049.458598
515.902822	37655.450660
516.266684	37350.813733
516.630488	37697.914820
516.994235	37704.838844
517.357925	38268.349104
517.721558	38528.029021
518.085133	38899.241946
518.448651	39070.772247
518.812112	38967.068150
519.175516	39109.881518
519.538863	39564.291126
519.902152	39628.661619
520.265385	40168.617087
520.628560	40176.022542
520.991678	40106.260535
521.354739	40334.972643
521.717743	40684.531292
522.080690	40611.583276
522.443580	41258.138983
522.806413	41266.706424
523.169189	41420.804414
523.531908	41630.919707
523.894569	41499.302742
524.257174	41681.590865
524.619722	42022.904706
524.982213	42166.630523
525.344647	42200.733929
525.707025	42323.065089
526.069345	42753.393104
526.431608	42680.603884
526.793815	43040.907752
527.155964	42604.182512
527.518057	42839.019623
527.880093	42709.489696
528.242072	43328.649252
528.603995	43069.700302
528.965860	42995.703726
529.327669	43218.752098
529.689421	43270.408802
530.051117	43236.375972
530.412755	43501.996889
530.774337	43538.688927
531.135862	43496.708718
531.497331	43649.246472
531.858743	43626.525992
532.220098	44023.451322
532.581396	43747.380093
532.942638	43535.888566
533.303824	43792.064881
533.664953	43844.568498
534.026025	43530.129048
534.387040	44082.261423
534.747999	44147.619982
535.108902	44487.565151
535.469748	43805.910410
535.830537	44084.348461
536.191270	44317.264892
536.551947	44076.217079
536.912567	44342.959653
537.273131	44476.194828
537.633638	44094.347589
537.994089	44265.865287
538.354483	44036.422211
538.714821	44681.551272
539.075103	44949.586901
539.435328	44835.823182
539.795497	44597.762253
540.155609	44728.209671
540.515665	45297.582792
540.875665	44615.897804
541.235609	44877.815994
541.595496	45003.983472
541.955328	45599.991529
542.315102	45016.649371
542.674821	44939.439058
543.034483	44845.015726
543.394090	44855.975195
543.753640	44837.968193
544.113134	45900.320790
544.472571	45013.717940
544.831953	46107.734024
545.191278	45388.595784
545.550548	45094.535197
545.909761	45711.443879
546.268918	45852.926382
546.628019	46248.714932
546.987064	45682.225351
547.346053	45027.243355
547.704986	45916.991886
548.063863	45549.516976
548.422684	45759.042453
548.781449	45348.236306
549.140158	45856.200612
549.498811	45627.077649
549.857408	45036.226692
550.215949	45855.615838
550.574434	45700.315532
550.932864	45634.503268
551.291237	46348.013060
551.649555	46092.749194
552.007817	46264.337468
552.366022	45981.458161
552.724173	46034.405400
553.082267	46430.440967
553.440305	46815.101170
553.798288	46054.625468
554.156215	46444.588965
554.514086	46636.518295
554.871902	46232.794968
555.229661	46400.042809
555.587365	46101.750174
555.945014	46221.578401
556.302606	46242.342914
556.660143	46325.080851
557.017625	46565.818633
557.375050	46243.701505
557.732421	46645.138668
558.089735	46698.965588
558.446994	46567.512460
558.804197	47048.753609
559.161345	46909.290088
559.518437	46259.825635
559.875474	46513.655293
560.232455	46714.918319
560.589381	46764.230886
560.946251	46591.581449
561.303065	47221.297182
561.659825	46921.078827
562.016528	46739.635097
562.373177	46326.252920
562.729770	46964.311762
563.086307	46475.024931
563.442789	47012.477466
563.799216	46853.678600
564.155587	46752.636232
564.511904	46724.637664
564.868164	46777.723535
565.224370	47084.782736
565.580520	46815.093608
565.936615	47008.683998
566.292654	46670.349478
566.648638	47026.081020
567.004567	46968.861403
567.360441	47058.646874
567.716260	46755.078672
568.072023	47156.480547
568.427732	47070.501147
568.783385	46620.676469
569.138982	47025.430711
569.494525	47157.682862
569.850013	46774.688760
570.205445	46897.105619
570.560823	46647.979358
570.916145	46527.132818
571.271412	46756.724608
571.626625	46406.301402
571.981782	46494.007396
572.336884	46111.207379
572.691931	46427.111285
573.046923	46105.485669
573.401860	45929.960254
573.756743	45952.300127
574.111570	46106.141019
574.466342	46007.934301
574.821059	46173.997471
575.175722	45659.335992
575.530330	45735.162508
575.884882	45394.045271
576.239380	45293.161700
576.593823	45407.018680
576.948211	45352.987593
577.302544	44908.181384
577.656823	44897.075722
578.011047	45148.334391
578.365216	44996.777142
578.719330	44714.908587
579.073389	44699.830495
579.427394	44754.466521
579.781344	44651.173278
580.135239	44413.278708
580.489080	44488.444832
580.842866	43974.408457
581.196597	44465.363909
581.550273	44476.199870
581.903895	44394.991922
582.257463	44835.883676
582.610975	44267.780926
582.964434	44589.230101
583.317837	44087.748719
583.671186	44060.939863
584.024481	44348.068862
584.377721	43911.595680
584.730906	44139.851564
585.084037	44294.483917
585.437113	43988.064943
585.790135	44125.060819
586.143103	43683.813664
586.496016	43862.424265
586.848874	43962.765912
587.201679	43976.009023
587.554428	43501.149975
587.907124	43758.246301
588.259765	43540.597004
588.612352	43679.354763
588.964884	43151.278775
589.317362	43443.695945
589.669786	43449.810864
590.022155	43326.000126
590.374470	43803.157940
590.726731	43398.675920
591.078937	42747.802465
591.431090	43077.166251
591.783188	42625.630101
592.135232	42431.618775
592.487222	42680.573637
592.839157	42813.292094
593.191038	42473.490599
593.542866	42297.377889
593.894639	41675.052488
594.246358	41971.401758
594.598022	41983.248470
594.949633	41560.719119
595.301190	41575.051119
595.652692	41521.287213
596.004141	42012.862728
596.355535	40924.459968
596.706876	40917.586355
597.058162	40621.970573
597.409395	41138.845118
597.760573	41374.135933
598.111698	40983.756541
598.462768	40900.194374
598.813785	40916.744483
599.164748	40548.193287
599.515657	40803.442029
599.866511	40320.013019
600.217312	40998.393531
600.568060	39959.048760
600.918753	40769.212595
601.269392	40683.888545
601.619978	40426.330954
601.970510	40632.163786
602.320988	40767.433067
602.671412	41023.866481
603.021783	40887.906562
603.372100	40473.952214
603.722363	40588.378844
604.072572	40608.051947
604.422728	40607.545311
604.772830	40371.765505
605.122878	40576.973234
605.472872	40420.357187
605.822813	40662.009938
606.172701	40424.929513
606.522534	40742.260066
606.872314	40934.655702
607.222041	40793.992386
607.571714	41118.499021
607.921333	40614.050920
608.270899	40810.212299
608.620411	41193.448376
608.969870	40965.346247
609.319276	40966.747688
609.668627	40994.622748
610.017926	41402.938565
610.367171	41528.412884
610.716362	41572.868300
611.065500	41479.758188
611.414585	41718.913047
611.763616	41887.733728
612.112594	41776.982098
612.461518	41900.039184
612.810389	42296.102477
613.159207	42076.928232
613.507971	42051.672051
613.856682	42544.835529
614.205340	42377.501988
614.553945	43066.824324
614.902496	42412.205292
615.250994	42836.778830
615.599439	42902.621341
615.947830	43003.787216
616.296169	43019.379505
616.644454	43070.169130
616.992686	43210.656005
617.340864	43649.745546
617.688990	43167.410467
618.037063	43826.571579
618.385082	43654.970702
618.733048	44003.523641
619.080961	43881.499992
619.428821	43916.067183
619.776628	43961.939163
620.124382	43790.842401
620.472083	43902.844237
620.819731	44014.846073
621.167326	43596.337042
621.514868	43599.389461
621.862357	43049.850759
622.209793	43152.569310
622.557176	42722.037127
622.904506	42480.550735
623.251783	42125.572846
623.599007	41831.885305
623.946179	41744.469177
624.293297	41486.841009
624.640363	40945.753802
624.987376	40800.563530
625.334336	40612.329366
625.681243	40207.610412
626.028097	40114.742276
626.374899	39932.922980
626.721647	39898.963247
627.068343	39678.715236
627.414987	39389.408458
627.761577	39134.399170
628.108115	39463.735230
628.454600	38724.092097
628.801032	38949.388824
629.147412	38842.097946
629.493739	38721.962209
629.840014	38304.985689
630.186236	38713.984583
630.532405	38158.920777
630.878521	38410.428984
631.224585	38177.852830
631.570597	37849.000721
631.916556	38009.949640
632.262462	37925.132226
632.608316	37868.688947
632.954117	37727.024962
633.299866	37681.402520
633.645562	37607.428629
633.991206	37099.852492
634.336797	36697.530606
634.682336	36599.540658
635.027823	36368.539865
635.373257	36244.905567
635.718639	35912.126399
636.063968	35823.039128
636.409245	35180.922157
636.754470	35139.183924
637.099642	34904.397224
637.444762	34321.559181
637.789829	34464.526304
638.134845	34071.989298
638.479808	33986.110722
638.824719	33956.834221
639.169577	33427.306380
639.514383	33545.375244
639.859137	33164.931966
640.203839	33330.680064
640.548489	33045.292783
640.893086	33017.324461
641.237632	32742.775661
641.582125	32818.024964
641.926566	32608.486884
642.270955	32646.366114
642.615292	32581.831783
642.959576	32472.733652
643.303809	32459.518267
643.647990	32575.207707
643.992118	32540.781667
644.336195	32361.160315
644.680219	32431.791921
645.024192	32625.029431
645.368112	33144.205262
645.711981	33167.351720
646.055797	33858.556927
646.399562	33645.248064
646.743274	34509.032131
647.086935	34911.107000
647.430544	34893.815843
647.774101	34913.970376
648.117606	35241.305098
648.461059	35377.564966
648.804460	35004.804406
649.147810	34504.986605
649.491108	34187.507339
649.834354	34079.109928
650.177548	33265.566000
650.520690	32751.191867
650.863781	32746.833790
651.206820	32552.983780
651.549807	32141.406336
651.892742	31553.731306
652.235626	31482.056181
652.578458	31318.969813
652.921238	30637.267181
653.263967	30906.532852
653.606644	30600.839803
653.949269	30521.547494
654.291843	30128.317330
654.634365	30471.942541
654.976836	30028.197494
655.319255	30113.667737
655.661622	29986.343314
656.003938	29844.321407
656.346203	29672.566775
656.688416	29916.513251
657.030577	29706.110613
657.372687	29519.386274
657.714746	29665.867082
658.056753	29844.155049
658.398708	29241.676671
658.740612	29293.388827
659.082465	29502.427833
659.424266	29391.330884
659.766016	29386.418280
660.107715	29235.181144
660.449362	29340.929428
660.790958	29323.892849
661.132503	29230.134949
661.473996	29313.795418
661.815438	29400.868748
662.156829	29503.937658
662.498168	29317.155347
662.839456	29286.648804
663.180693	29419.952035
663.521879	29480.178700
663.863013	29415.339380
664.204097	29402.953265
664.545129	29812.887292
664.886110	29740.670243
665.227040	29857.504025
665.567918	29842.161273
665.908746	29901.767876
666.249522	29994.474695
666.590248	30027.660611
666.930922	30129.018050
667.271545	30135.674894
667.612118	30196.017505
667.952639	30000.874440
668.293109	30042.408507
668.633528	29884.610309
668.973896	29854.577635
669.314213	29846.647900
669.654480	29639.910181
669.994695	29626.762851
670.334859	29552.017663
670.674973	29360.103457
671.015035	29549.169411
671.355047	29473.312649
671.695008	29393.143179
672.034918	29307.259562
672.374777	29399.978984
672.714585	29282.429358
673.054342	29416.483722
673.394049	29267.948644
673.733705	29490.112294
674.073310	29200.334168
674.412864	29256.855585
674.752368	28987.196704
675.091820	29210.015704
675.431223	28808.477718
675.770574	28615.136865
676.109875	28465.081880
676.449125	28244.796059
676.788324	28156.480085
677.127473	27676.884873
677.466571	27572.570797
677.805619	27301.830588
678.144616	27221.411582
678.483562	27175.111104
678.822458	26856.668978
679.161303	26803.804918
679.500098	26713.911062
679.838842	26623.931507
680.177535	26699.987395
680.516179	26914.647288
680.854771	26992.215522
681.193314	27675.236416
681.531805	28615.348593
681.870247	29355.720174
682.208638	30164.550623
682.546978	30521.330725
682.885268	30707.394672
683.223508	30297.710181
683.561697	30026.123059
683.899836	29871.301663
684.237925	29467.401896
684.575963	29298.860999
684.913951	28910.465301
685.251889	29043.385405
685.589776	29046.831033
685.927614	29031.667243
686.265401	29216.135665
686.603137	29316.222733
686.940824	29780.717169
687.278460	30105.097775
687.616046	30293.331939
687.953582	30970.981483
688.291068	30893.236809
688.628504	31274.584974
688.965889	31298.792594
689.303224	31044.116023
689.640510	30781.282864
689.977745	30192.032473
690.314930	29461.153386
690.652065	29052.535099
690.989150	28384.725887
691.326185	27551.889463
691.663170	26930.035410
692.000105	26224.788069
692.336990	25615.305007
692.673825	25201.816966
693.010610	24703.829104
693.347345	24196.557957
693.684030	23569.098141
694.020665	23385.239698
694.357251	22720.787895
694.693786	22718.993244
695.030272	22495.450839
695.366707	21997.853666
695.703093	21708.569573
696.039429	21767.362030
696.375716	21537.160260
696.711952	21523.990246
697.048139	21392.842108
697.384276	21230.118703
697.720363	21335.009991
698.056400	21240.508521
698.392388	21078.957184
698.728326	21066.475287
699.064214	20931.367323
699.400053	20944.113880
699.735842	20552.068387
700.071581	20374.216479
700.407270	20127.767071
700.742910	19961.703901
701.078501	19722.964937
701.414042	19517.401807
701.749533	19216.507937
702.084974	18901.398013
702.420366	19130.810842
702.755709	18723.745231
703.091002	18432.268236
703.426246	18483.677923
703.761440	18422.506041
704.096584	18182.274896
704.431679	18121.166029
704.766725	18060.730156
705.101721	17979.615470
705.436668	18098.115353
705.771565	17812.299574
706.106413	18127.870764
706.441212	18192.629426
706.775961	18274.134801
707.110661	18347.312191
707.445311	18705.103044
707.779913	18592.781095
708.114465	18886.012411
708.448967	19191.576910
708.783421	19783.773856
709.117825	20122.771287
709.452180	20337.814307
709.786485	20765.505800
710.120742	21516.940192
710.454949	21612.162547
710.789107	22118.213735
711.123216	22815.722904
711.457275	23037.405124
711.791286	23601.888326
712.125247	23774.225211
712.459159	23550.949987
712.793023	24315.730834
713.126837	23325.184433
713.460602	23604.895374
713.794318	23288.469709
714.127985	23016.678420
714.461602	22148.868991
714.795171	22130.423409
715.128691	21162.320225
715.462162	20641.395113
715.795584	20218.089424
716.128957	19947.558423
716.462281	19560.349917
716.795556	19297.163878
717.128782	18835.552982
717.461960	18233.694665
717.795088	18194.522379
718.128167	17862.849744
718.461198	17411.989109
718.794180	17288.997558
719.127113	16968.289432
719.459997	16774.850277
719.792833	16406.336890
720.125619	16445.226871
720.458357	16108.014008
720.791046	15967.890096
721.123686	15820.108671
721.456278	15595.507623
721.788821	15593.488641
722.121315	15329.576675
722.453761	15425.083855
722.786158	15305.691688
723.118506	15388.951385
723.450805	15274.060968
723.783056	15460.503002
724.115259	15343.833058
724.447412	15319.302804
724.779518	15525.397776
725.111574	15577.341825
725.443582	15835.612739
725.775542	15776.606034
726.107453	16267.997546
726.439315	16184.168199
726.771129	16572.095069
727.102895	16979.291751
727.434612	17264.169875
727.766281	17430.664063
728.097901	17754.522910
728.429473	17860.374538
728.760996	17891.027274
729.092471	18003.255961
729.423897	17902.460611
729.755276	17734.953151
730.086606	17823.959763
730.417887	18358.440538
730.749120	18903.772396
731.080305	19129.553074
731.411442	19527.262304
731.742530	19644.975767
732.073570	19787.032962
732.404562	20106.977352
732.735506	20014.696510
733.066401	19886.941069
733.397249	19449.711714
733.728048	18864.582466
734.058798	18016.438578
734.389501	17277.044982
734.720156	16749.737769
735.050762	16163.996022
735.381320	15765.127326
735.711831	15465.476101
736.042293	15094.842908
736.372707	15120.787206
736.703073	14906.427262
737.033391	15087.659264
737.363661	15056.134408
737.693883	15177.837944
738.024056	15364.723600
738.354182	15566.926801
738.684260	15904.981537
739.014290	16192.859148
739.344272	16407.103145
739.674207	16749.644508
740.004093	16932.955985
740.333931	17003.522057
740.663722	17090.837362
740.993464	17149.586969
741.323159	17013.816093
741.652806	16732.698669
741.982405	16575.258393
742.311956	16234.567134
742.641460	16125.743746
742.970915	15800.763243
743.300323	15458.824298
743.629683	15253.724954
743.958996	14946.007882
744.288260	14631.586075
744.617477	14316.957582
744.946647	14289.014466
745.275768	13978.144152
745.604842	13779.436991
745.933869	13598.157099
746.262847	13565.745000
746.591778	13467.359321
746.920662	13344.919776
747.249498	13337.683200
747.578286	13481.325838
747.907027	13638.244354
748.235720	13893.770360
748.564365	13978.912928
748.892963	13918.489658
749.221514	14027.464281
749.550017	13919.802879
749.878473	13882.752918
750.206881	13679.551569
750.535242	13611.397689
750.863555	13529.826779
751.191821	13424.141509
751.520039	13430.193414
751.848210	13350.593595
752.176334	13394.688568
752.504411	13325.980161
752.832440	13160.605109
753.160421	13274.358746
753.488356	13164.365810
753.816243	13069.584556
754.144082	12899.062486
754.471875	12854.599509
754.799620	12811.313642
755.127318	12789.845888
755.454969	12772.446346
755.782572	12736.530645
756.110129	12746.726379
756.437638	12663.633040
756.765100	12667.101354
757.092515	12675.764577
757.419882	12712.607849
757.747203	12717.880896
758.074477	12799.691262
758.401703	12779.284671
758.728882	12960.660345
759.056014	13014.454498
759.383099	13175.481554
759.710138	13296.640646
760.037129	13432.489660
760.364073	13503.630423
760.690970	13522.885110
761.017820	13528.402653
761.344623	13720.742837
761.671379	14040.725036
761.998088	14581.242592
762.324751	15987.681666
762.651366	18897.382734
762.977935	23182.151774
763.304456	26458.246424
763.630931	28051.072079
763.957359	27260.939269
764.283740	25220.764143
764.610074	23093.984514
764.936362	20494.130406
765.262602	18588.448223
765.588796	16622.395703
765.914943	15308.696216
766.241044	14161.569055
766.567097	13343.911546
766.893104	12605.659771
767.219064	12133.979170
767.544978	11649.799028
767.870845	11252.311609
768.196665	11024.045642
768.522438	10800.369646
768.848165	10595.212329
769.173846	10391.234641
769.499479	10256.613148
769.825066	10095.938972
770.150607	9869.999498
770.476101	9794.248600
770.801548	9675.448768
771.126949	9514.673769
771.452303	9402.785360
771.777611	9205.595586
772.102872	9198.227939
772.428087	9065.544770
772.753256	8915.323427
773.078378	8832.497269
773.403453	8649.168148
773.728482	8529.279427
774.053465	8446.619627
774.378401	8353.703600
774.703291	8231.369920
775.028135	8118.127960
775.352932	8083.689318
775.677683	7985.001170
776.002388	7875.098975
776.327046	7884.339410
776.651658	7783.831405
776.976224	7687.580654
777.300743	7685.642331
777.625216	7598.435410
777.949643	7552.513019
778.274024	7570.593118
778.598359	7483.746640
778.922647	7501.930082
779.246889	7453.903009
779.571086	7459.065151
779.895236	7462.730069
780.219339	7466.609237
780.543397	7474.712892
780.867409	7551.272896
781.191374	7562.791932
781.515294	7531.128445
781.839167	7623.255531
782.162995	7600.240143
782.486776	7543.572533
782.810511	7498.124011
783.134201	7422.226919
783.457844	7408.688900
783.781441	7352.646393
784.104993	7288.780015
784.428498	7274.722757
784.751958	7257.766836
785.075372	7221.155457
785.398739	7173.834145
785.722061	7207.138528
786.045337	7204.428908
786.368568	7339.247006
786.691752	7350.546752
787.014891	7642.757235
787.337983	7953.849359
787.661030	8500.973348
787.984031	9115.999158
788.306987	9549.303976
788.629897	9800.245052
788.952760	9808.794849
789.275579	9626.181572
789.598351	9254.310776
789.921078	8919.726875
790.243759	8518.839197
790.566395	8223.757777
790.888984	7979.158472
791.211529	7765.768951
791.534027	7538.775875
791.856480	7332.650656
792.178888	7258.749861
792.501249	7158.176322
792.823566	7000.751169
793.145836	6999.017012
793.468062	6964.346477
793.790241	6910.481748
794.112375	6970.342929
794.434464	7111.843077
794.756507	7137.069010
795.078505	7273.059177
795.400457	7548.023872
795.722364	7886.224801
796.044226	8177.250613
796.366042	8465.125703
796.687812	8437.255684
797.009538	8527.721710
797.331218	8447.595091
797.652852	8371.466106
797.974442	8219.954227
798.295986	8141.612176
798.617484	7961.504352
798.938938	7821.103176
799.260346	7718.561065
799.581709	7519.256528
799.903026	7442.759538
800.224299	7343.809250
800.545526	7173.887077
800.866708	7076.471821
801.187845	7006.447673
801.508936	6905.919504
801.829983	6866.603545
802.150984	6719.812707
802.471940	6676.796541
802.792851	6666.941085
803.113717	6629.984386
803.434538	6595.618840
803.755314	6541.242434
804.076045	6537.539707
804.396731	6479.715152
804.717372	6509.261354
805.037967	6504.101733
805.358518	6544.441047
805.679024	6618.082222
805.999485	6635.454038
806.319901	6672.655233
806.640272	6687.995464
806.960598	6772.124760
807.280879	6782.930473
807.601115	6857.491659
807.921306	6802.328833
808.241453	6820.119065
808.561554	6840.775193
808.881611	6807.281767
809.201623	6810.195554
809.521590	6763.441373
809.841513	6742.631489
810.161390	6780.820750
810.481223	6652.170504
810.801011	6642.065511
811.120755	6617.890658
811.440453	6541.060953
811.760107	6507.272619
812.079716	6472.831456
812.399281	6414.795172
812.718801	6404.959881
813.038276	6362.858685
813.357707	6297.890815
813.677093	6338.305745
813.996434	6243.257310
814.315731	6281.907837
814.634983	6266.978459
814.954191	6283.886489
815.273354	6372.220108
815.592473	6431.705723
815.911547	6543.263937
816.230577	6617.953673
816.549562	6760.421721
816.868502	6860.886876
817.187399	6948.741585
817.506250	7093.934377
817.825058	7117.897502
818.143821	7359.686364
818.462539	7599.274763
818.781213	7920.164369
819.099843	8392.543170
819.418429	9286.223800
819.736970	10185.154793
820.055466	11276.940166
820.373919	12631.241106
820.692327	14616.946565
821.010691	17907.791631
821.329011	25278.606342
821.647286	36861.506738
821.965517	50719.646223
822.283704	58229.536287
822.601847	61417.504006
822.919945	59217.703263
823.237999	55341.154258
823.556010	49351.890444
823.873976	42742.728543
824.191897	36314.307132
824.509775	31497.517400
824.827609	26878.073717
825.145398	24086.088632
825.463144	22448.111883
825.780845	22342.230009
826.098502	23566.940527
826.416116	26834.518147
826.733685	30525.502280
827.051210	32333.033197
827.368692	31398.120969
827.686129	27918.512418
828.003522	23949.760709
828.320872	20238.450644
828.638177	17359.999689
828.955439	15190.103072
829.272656	13375.348181
829.589830	11904.641958
829.906960	10608.016859
830.224046	9647.495570
830.541088	8874.195173
830.858086	8391.192141
831.175041	7987.284812
831.491952	7825.854463
831.808819	7819.643762
832.125642	8112.726364
832.442421	8809.522210
832.759157	10275.882959
833.075849	12818.061226
833.392497	15921.851758
833.709101	18380.150267
834.025662	18743.937572
834.342179	17408.810661
834.658653	15377.583583
834.975083	13465.521820
835.291469	11832.301400
835.607811	10506.145222
835.924110	9604.822203
836.240366	8746.285977
836.556578	7950.088659
836.872746	7294.927702
837.188871	6786.728983
837.504952	6354.356779
837.820990	6036.748963
838.136984	5810.859901
838.452935	5691.934040
838.768842	5675.575496
839.084706	5951.543381
839.400526	6908.253558
839.716303	8397.037359
840.032037	9624.417168
840.347727	9849.076189
840.663373	9067.072240
840.978977	8034.565794
841.294537	7203.405554
841.610054	6599.530776
841.925527	6162.598848
842.240957	5808.084745
842.556344	5485.839068
842.871687	5207.524526
843.186987	4925.033388
843.502244	4701.264130
843.817458	4530.331206
844.132629	4391.802819
844.447756	4298.370074
844.762840	4217.628433
845.077881	4143.538595
845.392879	4079.412598
845.707833	4029.066594
846.022745	3984.084378
846.337613	3959.488589
846.652438	3917.707506
846.967221	3901.832912
847.281960	3869.226729
847.596656	3848.976414
847.911309	3830.266172
848.225919	3810.005774
848.540485	3795.557828
848.855009	3778.062503
849.169490	3760.045419
849.483928	3746.832555
849.798323	3735.184969
850.112675	3720.152248
850.426984	3725.790779
850.741251	3711.524313
851.055474	3706.475598
851.369654	3714.236454
851.683792	3704.073488
851.997887	3716.900704
852.311938	3715.622772
852.625947	3719.012948
852.939914	3708.905434
853.253837	3719.333061
853.567718	3717.150241
853.881555	3707.199003
854.195350	3720.699213
854.509103	3718.279460
854.822812	3714.843913
855.136479	3708.436607
855.450103	3714.843913
855.763685	3700.108621
856.077224	3703.299671
856.390720	3719.658215
856.704173	3734.620360
857.017584	3746.683841
857.330953	3756.012496
857.644278	3781.271198
857.957561	3789.803350
858.270802	3787.005510
858.584000	3789.339564
858.897155	3785.321765
859.210268	3770.727624
859.523339	3749.995879
859.836367	3745.849530
860.149352	3741.690578
860.462295	3737.272007
860.775195	3727.623238
861.088054	3718.662587
861.400869	3717.099830
861.713642	3713.266032
862.026373	3723.222311
862.339062	3727.426633
862.651708	3744.337184
862.964312	3773.918675
863.276873	3783.149027
863.589392	3834.548632
863.901869	3879.626630
864.214303	3921.455604
864.526696	3953.635809
864.839045	3998.126512
865.151353	4026.067108
865.463619	4037.472718
865.775842	4041.487997
866.088023	4060.498188
866.400162	4049.521076
866.712258	4064.253848
867.024313	4061.556831
867.336325	4060.664547
867.648296	4068.546391
867.960224	4065.181420
868.272110	4072.680137
868.583954	4077.703647
868.895755	4085.530038
869.207515	4080.267073
869.519233	4118.675624
869.830909	4130.330772
870.142542	4157.295904
870.454134	4169.402235
870.765684	4199.155125
871.077191	4236.139550
871.388657	4254.184360
871.700081	4285.774751
872.011463	4328.659847
872.322803	4360.746791
872.634101	4385.236716
872.945357	4430.433181
873.256571	4479.352538
873.567744	4506.917567
873.878874	4529.819529
874.189963	4567.797062
874.501010	4572.873504
874.812015	4574.222012
875.122979	4609.946149
875.433900	4610.591417
875.744780	4626.022389
876.055618	4649.667921
876.366415	4646.091222
876.677169	4665.305580
876.987882	4701.228842
877.298554	4746.269031
877.609183	4817.485412
877.919771	4908.289195
878.230317	5034.292836
878.540822	5217.621957
878.851285	5489.377958
879.161707	5872.881216
879.472087	6507.469224
879.782425	7512.869386
880.092722	9312.702461
880.402977	12119.183383
880.713191	15594.522077
881.023363	19264.832438
881.333494	21696.856452
881.643583	23148.045848
881.953631	23371.454663
882.263637	22720.298903
882.573602	21437.882297
882.883526	20019.422592
883.193408	18467.601683
883.503248	16879.086215
883.813048	15415.183029
884.122806	14064.088263
884.432522	12639.652271
884.742197	11435.207191
885.051831	10364.922339
885.361424	9379.570846
885.670975	8572.477074
885.980485	7881.579378
886.289954	7312.392779
886.599382	6846.383477
886.908768	6476.934955
887.218113	6119.318022
887.527417	5835.506102
887.836680	5573.353499
888.145901	5359.764852
888.455082	5199.128484
888.764221	5042.915729
889.073319	4908.901696
889.382376	4838.552394
889.691392	4771.731899
890.000366	4747.602417
890.309300	4728.214139
890.618193	4729.245055
890.927044	4715.268456
891.235855	4731.763111
891.544625	4754.251698
891.853353	4799.700221
892.162041	4897.458276
892.470687	5054.074323
892.779293	5264.582826
893.087858	5576.839457
893.396381	6063.386420
893.704864	6737.146714
894.013306	7752.699759
894.321707	8869.995892
894.630068	9741.132482
894.938387	10088.147869
895.246665	9978.820366
895.554903	9449.932751
895.863100	8813.451790
896.171256	8294.560783
896.479371	7808.495250
896.787446	7325.837537
897.095480	6912.745226
897.403473	6603.115036
897.711425	6297.772348
898.019336	6044.489655
898.327207	5782.735303
898.635038	5560.712806
898.942827	5319.448224
899.250576	5130.548627
899.558284	4938.810861
899.865952	4816.101615
900.173579	4675.370244
900.481165	4573.604471
900.788711	4481.477384
901.096216	4402.573244
901.403681	4344.211806
901.711105	4309.972289
902.018489	4289.727016
902.325832	4344.358000
902.633135	4424.711472
902.940397	4683.665462
903.247619	5282.057986
903.554800	6460.470547
903.861941	8207.457207
904.169041	9753.054811
904.476101	10587.282594
904.783121	10452.245206
905.090100	9833.599847
905.397039	9061.693329
905.703938	8344.241354
906.010796	7688.019235
906.317614	7161.674882
906.624391	6655.636298
906.931129	6240.895529
907.237826	5865.871492
907.544483	5501.731306
907.851099	5149.145444
908.157675	4804.169204
908.464211	4483.738342
908.770707	4247.605655
909.077163	4041.745096
909.383578	3895.972571
909.689954	3774.742903
909.996289	3702.692212
910.302584	3635.997747
910.608839	3603.305864
910.915054	3571.886873
911.221229	3558.114440
911.527363	3565.746747
911.833458	3574.785536
912.139513	3595.159359
912.445527	3618.136938
912.751502	3685.375848
913.057436	3772.423973
913.363331	3885.217269
913.669186	4058.990883
913.975000	4274.989202
914.280775	4628.409375
914.586510	5116.370382
914.892205	5794.972704
915.197859	6713.912036
915.503475	7826.618198
915.809050	8870.696612
916.114585	9579.576104
916.420081	9931.373026
916.725536	9985.028547
917.030952	9620.122105
917.336328	9261.358309
917.641665	8891.433399
917.946961	8455.524826
918.252218	8064.492604
918.557435	7576.687873
918.862612	7177.572161
919.167750	6826.894376
919.472848	6430.921824
919.777906	6074.240024
920.082925	5728.116922
920.387904	5369.892530
920.692843	5106.998877
920.997743	4864.390828
921.302603	4633.090086
921.607423	4470.913647
921.912204	4310.279800
922.216946	4199.702090
922.521647	4085.250254
922.826310	3985.722753
923.130932	3893.482241
923.435516	3803.086791
923.740059	3732.571131
924.044564	3659.973474
924.349028	3602.043055
924.653454	3541.763458
924.957840	3475.905824
925.262186	3429.565017
925.566493	3373.000750
925.870761	3317.916062
926.174989	3283.946247
926.479178	3251.745877
926.783328	3207.305585
927.087438	3179.508663
927.391509	3148.150165
927.695541	3118.629168
927.999533	3096.289295
928.303486	3073.760379
928.607400	3058.762946
928.911275	3046.782644
929.215110	3029.829243
929.518906	3020.309024
929.822663	3018.380783
930.126381	3013.546317
930.430060	3019.293232
930.733699	3021.710465
931.037299	3032.170859
931.340861	3032.415355
931.644383	3042.074206
931.947866	3038.762168
932.251309	3034.885521
932.554714	3033.020294
932.858080	3029.456198
933.161407	3023.084180
933.464694	3015.409023
933.767943	3006.392919
934.071153	3005.082219
934.374323	2993.268275
934.677455	2988.073366
934.980548	2981.098930
935.283602	2974.560553
935.586617	2971.742548
935.889593	2979.208497
936.192530	2983.662357
936.495428	2993.981598
936.798287	3013.465658
937.101108	3034.434337
937.403890	3080.223138
937.706632	3135.292702
938.009336	3206.894731
938.312002	3278.884929
938.614628	3342.721060
938.917216	3396.522774
939.219765	3423.513112
939.522275	3459.673308
939.824747	3465.364771
940.127179	3466.244453
940.429573	3461.140284
940.731929	3463.015593
941.034246	3446.581432
941.336524	3437.819907
941.638763	3427.548556
941.940964	3412.830907
942.243126	3373.552757
942.545250	3354.025847
942.847335	3318.800785
943.149381	3285.806433
943.451389	3257.490272
943.753359	3220.377297
944.055290	3196.462063
944.357182	3171.750327
944.659036	3157.347751
944.960851	3146.179074
945.262628	3133.772795
945.564367	3135.879997
945.866067	3129.455046
946.167729	3126.016979
946.469352	3125.026393
946.770937	3118.727471
947.072484	3108.809001
947.373992	3110.286059
947.675462	3100.735593
947.976893	3083.598190
948.278286	3078.907397
948.579641	3072.018660
948.880958	3067.025397
949.182236	3071.078485
949.483476	3059.982905
949.784678	3059.325035
950.085841	3059.287226
950.386967	3069.513207
950.688054	3081.243972
950.989103	3099.150150
951.290114	3116.325361
951.591087	3145.097747
951.892021	3169.602796
952.192917	3196.915767
952.493776	3223.734706
952.794596	3234.517734
953.095378	3241.643405
953.396122	3235.231057
953.696828	3232.687795
953.997496	3222.310580
954.298126	3199.156560
954.598718	3183.695341
954.899272	3161.279851
955.199788	3136.830254
955.500266	3108.327571
955.800706	3078.007551
956.101108	3040.014895
956.401472	3012.404495
956.701798	2980.441059
957.002087	2943.673404
957.302337	2913.797005
957.602550	2888.029147
957.902724	2858.903881
958.202861	2835.858246
958.502960	2815.507108
958.803022	2796.975827
959.103045	2776.375152
959.403031	2760.056937
959.702979	2747.476737
960.002889	2733.744634
960.302762	2723.574106
960.602596	2712.165975
960.902393	2703.107022
961.202153	2694.413552
961.501875	2687.492047
961.801559	2680.096675
962.101205	2675.413443
962.400814	2669.061589
962.700385	2664.103614
962.999918	2658.548263
963.299414	2650.437046
963.598873	2651.344454
963.898293	2643.553351
964.197677	2645.050573
964.497022	2641.799029
964.796331	2640.488329
965.095601	2635.989099
965.394835	2634.030611
965.694030	2632.094808
965.993189	2631.948614
966.292309	2632.954325
966.591393	2628.414766
966.890439	2630.973151
967.189447	2628.318984
967.488419	2626.468880
967.787353	2629.135651
968.086249	2631.752009
968.385108	2635.623616
968.683930	2634.380971
968.982714	2639.013792
969.281462	2642.076293
969.580172	2646.583084
969.878844	2651.236069
970.177480	2660.690753
970.476078	2667.579490
970.774639	2673.104594
971.073162	2681.412416
971.371649	2686.067922
971.670098	2690.012624
971.968510	2695.615867
972.266885	2700.374716
972.565223	2705.488967
972.863524	2706.522403
973.161788	2711.112374
973.460014	2712.052549
973.758204	2713.726212
974.056356	2716.758466
974.354471	2718.076728
974.652550	2716.788713
974.950591	2720.125957
975.248595	2718.142263
975.546563	2718.469938
975.844493	2713.905173
976.142386	2705.181456
976.440243	2702.333204
976.738062	2699.459747
977.035845	2692.520598
977.333590	2688.255782
977.631299	2679.708506
977.928971	2677.268587
978.226606	2669.169974
978.524204	2666.425066
978.821765	2662.540857
979.119290	2665.621002
979.416777	2666.767864
979.714228	2667.355158
980.011642	2670.521003
980.309020	2674.432938
980.606360	2686.209074
980.903664	2706.938298
981.200931	2732.343193
981.498162	2772.609410
981.795356	2838.693895
982.092513	2911.606624
982.389633	3008.187570
982.686717	3101.227105
982.983764	3178.034125
983.280775	3232.339955
983.577749	3246.112387
983.874686	3240.088209
984.171587	3216.266236
984.468451	3182.669466
984.765279	3142.846872
985.062070	3100.450768
985.358824	3061.691856
985.655543	3007.567508
985.952224	2963.664099
986.248869	2903.225706
986.545478	2845.358301
986.842050	2793.285702
987.138586	2747.953126
987.435086	2712.418033
987.731549	2678.745646
988.027975	2656.814106
988.324366	2639.245685
988.620719	2624.107100
988.917037	2613.450100
989.213318	2604.234871
989.509563	2597.441916
989.805772	2593.393870
990.101944	2588.619897
990.398080	2586.724423
990.694180	2585.020513
990.990244	2582.467169
991.286271	2581.864751
991.582262	2585.189392
991.878217	2587.740216
992.174136	2592.020155
992.470019	2594.308839
992.765865	2597.073912
993.061676	2599.299582
993.357450	2604.620519
993.653188	2608.877774
993.948890	2627.575413
994.244556	2641.428504
994.540186	2663.458347
994.835780	2688.351564
995.131337	2720.118395
995.426859	2757.566607
995.722345	2802.619398
996.017795	2853.320803
996.313208	2887.343551
996.608586	2916.693148
996.903928	2931.400715
997.199234	2934.334666
997.494504	2935.436158
997.789738	2924.605239
998.084936	2899.482649
998.380099	2873.165305
998.675225	2848.178826
998.970316	2822.637820
999.265371	2788.047943
999.560390	2755.051071
999.855373	2722.044116
1000.150320	2698.905220
1000.445232	2676.530058
1000.740108	2652.763539
1001.034948	2634.648152
1001.329752	2620.406893
1001.624521	2606.778133
1001.919254	2598.548450
1002.213951	2590.901019
1002.508613	2579.054308
1002.803239	2574.635736
1003.097829	2567.739438
1003.392384	2567.663821
1003.686903	2563.328428
1003.981386	2559.237532
1004.275834	2553.944320
1004.570246	2551.264947
1004.864623	2549.162786
1005.158964	2547.685728
1005.453270	2544.771941
1005.747540	2542.135418
1006.041775	2542.957126
1006.335974	2541.364121
1006.630138	2540.897814
1006.924266	2538.321785
1007.218359	2539.662732
1007.512416	2534.256094
1007.806438	2531.969931
1008.100425	2532.579910
1008.394376	2529.686288
1008.688292	2537.051414
1008.982172	2533.716691
1009.276017	2534.296423
1009.569827	2535.294572
1009.863602	2535.486136
1010.157341	2532.106042
1010.451045	2532.658048
1010.744714	2530.702081
1011.038347	2529.983716
1011.331945	2529.008253
1011.625508	2525.781914
1011.919036	2528.163860
1012.212528	2526.671678
1012.505986	2526.162522
1012.799408	2528.123530
1013.092795	2523.185720
1013.386147	2524.682943
1013.679464	2523.982222
1013.972745	2523.755371
1014.265992	2524.907274
1014.559204	2522.018693
1014.852380	2525.676050
1015.145521	2524.357788
1015.438628	2524.425844
1015.731699	2527.334590
1016.024736	2524.884589
1016.317737	2525.386184
1016.610703	2525.136647
1016.903635	2529.857687
1017.196531	2530.628984
1017.489393	2528.133613
1017.782219	2531.112935
1018.075011	2533.013450
1018.367768	2532.968079
1018.660490	2532.557225
1018.953177	2532.557225
1019.245829	2532.557225
