Dividing Wavelength (nm)	Counts (n)	Blue Motor Position (mm): 41.000000	Red Motor Position (mm): 0.000000	
326.493990	2064.218909
326.888308	2064.218909
327.282561	2064.218909
327.676750	2040.026412
328.070874	2039.481968
328.464933	2046.484130
328.858929	2054.577703
329.252859	2063.145144
329.646726	2080.247258
330.040528	2095.325349
330.434265	2111.333533
330.827938	2135.296658
331.221547	2154.896664
331.615091	2172.313851
332.008571	2195.969465
332.401986	2216.098793
332.795338	2235.429097
333.188625	2258.268044
333.581847	2274.001486
333.975006	2290.145781
334.368100	2310.408699
334.761129	2325.759012
335.154095	2341.053873
335.546996	2391.578837
335.939833	2497.899292
336.332606	2507.374141
336.725315	2523.488189
337.117960	2535.851619
337.510540	2539.680376
337.903056	2555.865000
338.295508	2557.359702
338.687896	2565.412945
339.080220	2570.191959
339.472480	2574.668504
339.864676	2578.772003
340.256807	2582.177302
340.648875	2585.660740
341.040879	2584.339957
341.432818	2588.783735
341.824694	2587.956985
342.216506	2584.886923
342.608253	2583.364494
342.999937	2588.577047
343.391557	2582.774679
343.783113	2582.726788
344.174605	2580.301993
344.566033	2581.373238
344.957397	2579.051787
345.348697	2575.215469
345.739934	2572.755386
346.131106	2574.076168
346.522215	2572.311764
346.913260	2566.857236
347.304241	2570.864953
347.695159	2568.790518
348.086012	2567.331104
348.476802	2561.218705
348.867528	2558.841801
349.258191	2556.437171
349.648789	2556.306101
350.039324	2555.746533
350.429796	2558.781308
350.820203	2559.648386
351.210548	2557.805844
351.600828	2554.715617
351.991045	2557.367264
352.381198	2554.390462
352.771288	2552.303425
353.161314	2553.687222
353.551276	2553.656975
353.941175	2552.563044
354.331010	2552.419371
354.720782	2557.140412
355.110490	2556.873231
355.500135	2553.399876
355.889717	2555.053374
356.279235	2555.857438
356.668689	2556.595967
357.058080	2555.711245
357.447408	2554.612273
357.836672	2555.708724
358.225873	2554.622356
358.615010	2559.968499
359.004084	2558.461194
359.393095	2559.812223
359.782043	2561.795917
360.170927	2560.409600
360.559748	2559.996226
360.948505	2563.761967
361.337199	2565.586865
361.725830	2562.287430
362.114398	2565.067626
362.502903	2563.716597
362.891344	2567.230281
363.279722	2559.146791
363.668037	2564.727348
364.056289	2562.294992
364.444478	2566.552246
364.832603	2565.607030
365.220665	2566.295147
365.608665	2569.271949
365.996601	2566.486711
366.384474	2567.948646
366.772284	2567.041238
367.160031	2565.622153
367.547715	2569.324881
367.935336	2567.159705
368.322893	2568.162895
368.710388	2563.676268
369.097820	2571.429562
369.485189	2564.974365
369.872495	2572.818400
370.259738	2572.382341
370.646918	2570.504511
371.034035	2569.939902
371.421090	2570.471743
371.808081	2571.222875
372.195010	2572.619275
372.581875	2575.001220
372.968678	2574.366035
373.355418	2574.736559
373.742096	2577.408371
374.128710	2577.645305
374.515262	2577.267219
374.901751	2578.761921
375.288177	2578.401478
375.674540	2575.356621
376.060841	2579.049267
376.447079	2577.846951
376.833254	2578.756880
377.219367	2580.261664
377.605417	2578.842579
377.991404	2578.966087
378.377329	2580.065059
378.763191	2577.153793
379.148991	2578.898032
379.534727	2581.927765
379.920402	2580.985070
380.306013	2582.968764
380.691563	2587.677201
381.077049	2582.862899
381.462474	2582.948599
381.847835	2583.374577
382.233134	2586.714341
382.618371	2582.232755
383.003545	2588.420772
383.388657	2586.563106
383.773706	2586.379104
384.158693	2589.504620
384.543618	2589.388673
384.928480	2590.366657
385.313280	2588.297263
385.698017	2589.502099
386.082692	2590.661564
386.467305	2593.560228
386.851856	2595.433017
387.236344	2589.136615
387.620770	2593.429158
388.005133	2590.757346
388.389435	2592.670464
388.773674	2591.679877
389.157851	2598.036772
389.541965	2599.695312
389.926018	2602.656990
390.310008	2604.338215
390.693936	2602.939295
391.077802	2612.073865
391.461606	2613.601335
391.845348	2615.678290
392.229027	2621.972171
392.612645	2624.999384
392.996200	2630.300157
393.379694	2636.861219
393.763125	2644.924544
394.146494	2652.138436
394.529801	2658.712100
394.913047	2672.522341
395.296230	2681.845955
395.679351	2689.352233
396.062410	2706.010726
396.445408	2713.514484
396.828343	2730.732545
397.211217	2747.509505
397.594028	2751.476893
397.976778	2773.509256
398.359466	2790.502985
398.742092	2804.303144
399.124656	2822.786534
399.507158	2849.204701
399.889598	2871.353011
400.271977	2898.476939
400.654294	2915.538724
401.036549	2944.709361
401.418742	2966.877835
401.800874	3006.899555
402.182944	3036.415511
402.564952	3084.041812
402.946898	3104.773557
403.328783	3130.266672
403.710606	3169.539781
404.092367	3224.110272
404.474067	3266.345058
404.855705	3292.241466
405.237282	3307.967345
405.618797	3374.719784
406.000250	3435.548867
406.381642	3506.548478
406.762972	3538.206924
407.144240	3550.998852
407.525447	3614.310703
407.906593	3651.471568
408.287677	3730.809248
408.668700	3780.560395
409.049661	3833.442099
409.430560	3885.386148
409.811399	3907.743665
410.192176	3974.768326
410.572891	4059.653795
410.953545	4160.229856
411.334138	4128.941934
411.714669	4231.862131
412.095139	4203.051937
412.475547	4318.522086
412.855894	4352.338146
413.236180	4449.992858
413.616405	4433.137760
413.996568	4546.228485
414.376670	4576.099842
414.756711	4597.764201
415.136691	4686.042366
415.516609	4785.746307
415.896466	4839.479966
416.276262	4930.838277
416.655997	5051.647008
417.035670	5161.155993
417.415283	5308.425741
417.794834	5392.759203
418.174324	5380.277307
418.553753	5406.519033
418.933121	5573.106482
419.312428	5607.865238
419.691674	5563.240944
420.070859	5793.246109
420.449983	5700.534249
420.829045	5895.158075
421.208047	5847.599830
421.586988	6008.268965
421.965867	6094.674342
422.344686	6189.047262
422.723444	6355.702767
423.102141	6014.789697
423.480777	6396.011833
423.859352	6232.126442
424.237866	6595.681855
424.616319	6601.191836
424.994712	6765.651918
425.373044	6696.124325
425.751314	7007.254258
426.129524	6741.895481
426.507673	7014.102665
426.885762	7059.639408
427.263789	7103.257992
427.641756	7200.748866
428.019662	7276.887933
428.397508	7329.512538
428.775292	7311.147614
429.153016	7485.722772
429.530679	7425.685150
429.908282	7482.224211
430.285824	7421.821106
430.663305	7701.794188
431.040726	7594.379802
431.418086	7596.048424
431.795385	7732.131852
432.172624	7920.759226
432.549802	7805.329405
432.926920	7943.688914
433.303977	7887.273361
433.680974	7933.170546
434.057910	8130.773695
434.434786	8187.844598
434.811601	8145.488823
435.188355	8482.308476
435.565050	8369.830251
435.941683	8383.864824
436.318257	8714.193991
436.694770	8666.723966
437.071222	8886.790496
437.447614	8667.568359
437.823946	8637.646591
438.200218	8785.717882
438.576429	8668.233792
438.952580	8831.743617
439.328670	8841.709978
439.704700	8917.100433
440.080670	8811.437849
440.456580	9073.648425
440.832429	9049.312255
441.208218	8792.160477
441.583947	8904.283300
441.959616	9025.810396
442.335224	9052.780569
442.710773	9142.437490
443.086261	9319.434922
443.461689	9046.995845
443.837057	9206.255977
444.212365	9420.101723
444.587612	9407.627388
444.962800	9294.259400
445.337927	9428.152446
445.712995	8968.994071
446.088002	9637.662800
446.462949	9695.270585
446.837837	9683.864975
447.212664	9709.844561
447.587431	10535.512464
447.962139	11545.477390
448.336786	12459.110908
448.711374	12233.065569
449.085901	11028.701148
449.460369	10954.397061
449.834776	10732.341796
450.209124	11648.185859
450.583412	11463.697272
450.957640	11775.732092
451.331808	11365.389731
451.705917	10805.257045
452.079965	10683.099805
452.453954	10879.616585
452.827883	10825.174644
453.201752	10792.197936
453.575562	10792.747422
453.949311	11139.843467
454.323001	11201.993332
454.696632	11128.430294
455.070202	11707.212729
455.443713	11769.781010
455.817164	11930.124991
456.190556	12246.636355
456.563888	12109.020417
456.937160	12359.699354
457.310373	11854.739576
457.683526	11863.987573
458.056619	11872.066022
458.429653	11950.692898
458.802628	12094.143972
459.175542	12136.313224
459.548398	12687.376874
459.921194	13262.227209
460.293930	13546.727247
460.666607	14395.274427
461.039224	15191.542321
461.411782	15527.537746
461.784280	15190.498802
462.156719	15126.087980
462.529099	15022.673750
462.901419	14377.141397
463.273680	13985.201768
463.645882	14201.603379
464.018024	14100.888687
464.390106	14462.117607
464.762130	15527.252920
465.134094	17092.468175
465.505999	19385.784842
465.877845	21637.527113
466.249631	22837.321728
466.621358	22333.733144
466.993026	21502.555259
467.364634	20743.450752
467.736184	19946.600604
468.107674	19347.845118
468.479105	19219.509944
468.850477	18931.791129
469.221790	18506.322786
469.593043	17832.643150
469.964238	17443.846681
470.335373	17511.587185
470.706449	18238.801354
471.077467	19107.992059
471.448425	21568.841391
471.819324	23424.197735
472.190164	23321.196880
472.560945	21569.668141
472.931667	20013.660553
473.302330	19674.965591
473.672934	19134.367376
474.043479	19551.996725
474.413965	19349.193627
474.784393	19168.959774
475.154761	19835.049952
475.525070	19958.621236
475.895321	19787.229567
476.265513	20318.466359
476.635645	20900.311295
477.005719	20962.609874
477.375734	21329.467242
477.745691	21947.570677
478.115588	22586.242019
478.485427	23777.580099
478.855207	25583.228146
479.224928	27395.580927
479.594591	28794.433063
479.964194	28418.158820
480.333739	28861.366983
480.703226	29061.823425
481.072653	29516.011222
481.442022	30020.333294
481.811333	30423.494532
482.180584	29987.187707
482.549777	29747.725338
482.918912	29521.415339
483.287988	29465.768562
483.657005	29301.961309
484.025964	28939.305742
484.394864	29133.543921
484.763706	29046.092504
485.132489	28512.745989
485.501213	28593.613659
485.869879	28746.957997
486.238487	28682.080868
486.607036	28967.989908
486.975527	28635.243507
487.343959	28988.295676
487.712333	29316.661314
488.080648	29293.194742
488.448905	29712.419617
488.817104	29602.182185
489.185244	30408.920556
489.553326	31376.806971
489.921350	33255.150976
490.289315	35776.962982
490.657222	36668.614548
491.025070	37210.823412
491.392861	36933.597759
491.760593	36145.672974
492.128267	35140.197196
492.495883	34137.622601
492.863440	33241.040787
493.230939	32270.898455
493.598380	31703.420808
493.965763	31548.783414
494.333088	31060.446841
494.700354	30867.005165
495.067563	30812.230507
495.434713	30702.663549
495.801805	30972.945013
496.168839	30819.976240
496.535815	30667.105771
496.902733	30777.111309
497.269593	30604.439187
497.636395	30753.110376
498.003139	31010.927586
498.369825	30782.505344
498.736453	31163.538437
499.103023	30995.705822
499.469535	31090.537488
499.835989	31198.035052
500.202385	31063.637891
500.568723	31110.427360
500.935003	31394.153581
501.301226	31265.664652
501.667390	31979.587818
502.033497	32172.590914
502.399546	31983.545124
502.765537	31578.546386
503.131470	32035.942877
503.497345	32454.885447
503.863163	31419.540832
504.228923	32166.995233
504.594625	32551.090827
504.960269	32033.583617
505.325856	32684.777186
505.691385	32350.830991
506.056856	32672.144054
506.422270	33148.638957
506.787625	32660.609894
507.152924	33102.245218
507.518164	33278.609986
507.883347	32867.405587
508.248472	32990.029134
508.613540	33662.992925
508.978550	33875.159967
509.343503	33717.139959
509.708398	34058.932710
510.073236	34661.821942
510.438016	34756.572950
510.802738	34429.586067
511.167403	34949.021518
511.532010	35186.243095
511.896561	35703.551179
512.261053	36431.922292
512.625488	36222.389253
512.989866	36133.422970
513.354186	36185.079674
513.718449	36150.704046
514.082655	37009.996445
514.446803	36685.575510
514.810894	37295.298027
515.174927	37310.255130
515.538904	37307.411919
515.902822	37923.080477
516.266684	37605.334029
516.630488	37960.427865
516.994235	37970.805080
517.357925	38525.339565
517.721558	38768.976010
518.085133	39142.603648
518.448651	39343.349956
518.812112	39238.594779
519.175516	39352.804640
519.538863	39814.476029
519.902152	39862.520746
520.265385	40405.493345
520.628560	40420.392475
520.991678	40370.071677
521.354739	40569.429147
521.717743	40933.276947
522.080690	40842.221105
522.443580	41520.163036
522.806413	41531.843390
523.169189	41652.944508
523.531908	41880.615618
523.894569	41729.978380
524.257174	41910.176945
524.619722	42258.349276
524.982213	42411.791917
525.344647	42437.501802
525.707025	42565.534506
526.069345	43005.264274
526.431608	42906.220724
526.793815	43285.126450
527.155964	42834.119622
527.518057	43095.735342
527.880093	42941.140797
528.242072	43556.582503
528.603995	43293.555260
528.965860	43229.298192
529.327669	43454.783963
529.689421	43486.391997
530.051117	43460.160353
530.412755	43726.562649
530.774337	43781.730516
531.135862	43714.012696
531.497331	43870.106984
531.858743	43858.807237
532.220098	44257.975881
532.581396	43991.850849
532.942638	43769.694761
533.303824	43998.858053
533.664953	44058.895675
534.026025	43739.291562
534.387040	44299.217561
534.747999	44377.380651
535.108902	44709.164192
535.469748	44030.332497
535.830537	44306.623016
536.191270	44533.074167
536.551947	44293.941993
536.912567	44564.581379
537.273131	44682.723340
537.633638	44304.026822
537.994089	44487.393752
538.354483	44260.796407
538.714821	44894.189661
539.075103	45158.026010
539.435328	45045.227672
539.795497	44805.440148
540.155609	44947.767044
540.515665	45503.708011
540.875665	44808.588348
541.235609	45082.270070
541.595496	45231.180714
541.955328	45803.303784
542.315102	45233.338328
542.674821	45139.862732
543.034483	45053.094392
543.394090	45074.040387
543.753640	45041.827413
544.113134	46112.233254
544.472571	45216.788219
544.831953	46316.546178
545.191278	45588.129694
545.550548	45282.590401
545.909761	45918.592452
546.268918	46053.080354
546.628019	46451.399564
546.987064	45908.777326
547.346053	45229.804479
547.704986	46121.829090
548.063863	45758.500529
548.422684	45949.015816
548.781449	45535.006015
549.140158	46065.000163
549.498811	45818.439849
549.857408	45236.577269
550.215949	46072.340083
550.574434	45903.786583
550.932864	45863.434667
551.291237	46549.341621
551.649555	46298.405586
552.007817	46464.010010
552.366022	46184.846034
552.724173	46245.355003
553.082267	46642.605488
553.440305	47018.020215
553.798288	46265.859897
554.156215	46633.733057
554.514086	46827.083992
554.871902	46439.078984
555.229661	46603.516381
555.587365	46306.355485
555.945014	46430.655216
556.302606	46444.346990
556.660143	46532.448715
557.017625	46771.066691
557.375050	46448.863863
557.732421	46857.245216
558.089735	46917.504648
558.446994	46781.282589
558.804197	47257.278418
559.161345	47106.782331
559.518437	46494.463621
559.875474	46728.282418
560.232455	46920.055472
560.589381	46967.984243
560.946251	46813.235943
561.303065	47445.290771
561.659825	47133.016496
562.016528	46935.854448
562.373177	46531.309414
562.729770	47179.518620
563.086307	46679.042948
563.442789	47222.809528
563.799216	47055.546564
564.155587	46974.530181
564.511904	46936.300591
564.868164	46989.988879
565.224370	47300.707958
565.580520	47025.415588
565.936615	47221.030001
566.292654	46869.301135
566.648638	47231.490395
567.004567	47167.775252
567.360441	47256.287831
567.716260	46949.800801
568.072023	47371.261427
568.427732	47284.672048
568.783385	46816.313567
569.138982	47231.858399
569.494525	47386.926812
569.850013	46983.858836
570.205445	47111.639483
570.560823	46879.451499
570.916145	46745.329080
571.271412	46979.263824
571.626625	46632.674415
571.981782	46710.318267
572.336884	46321.105902
572.691931	46655.785585
573.046923	46301.571430
573.401860	46134.066491
573.756743	46165.102355
574.111570	46310.872359
574.466342	46217.603451
574.821059	46372.974333
575.175722	45855.578029
575.530330	45938.457119
575.884882	45607.828003
576.239380	45504.441499
576.593823	45604.125275
576.948211	45537.151026
577.302544	45096.997801
577.656823	45079.225213
578.011047	45358.963881
578.365216	45185.654053
578.719330	44908.521662
579.073389	44884.094751
579.427394	44949.944823
579.781344	44830.598026
580.135239	44615.744049
580.489080	44672.913254
580.842866	44166.582283
581.196597	44649.330737
581.550273	44656.852138
581.903895	44589.968630
582.257463	45017.886974
582.610975	44449.567454
582.964434	44779.074913
583.317837	44271.128252
583.671186	44238.418725
584.024481	44518.086817
584.377721	44081.832925
584.730906	44315.447556
585.084037	44464.058251
585.437113	44171.744424
585.790135	44291.262620
586.143103	43863.641704
586.496016	44047.101895
586.848874	44151.557124
587.201679	44170.680741
587.554428	43689.923542
587.907124	43930.293320
588.259765	43718.877410
588.612352	43853.703069
588.964884	43331.104294
589.317362	43620.096000
589.669786	43625.973985
590.022155	43513.674722
590.374470	43968.709433
590.726731	43558.974530
591.078937	42910.999738
591.431090	43263.338583
591.783188	42769.106381
592.135232	42565.894949
592.487222	42841.736805
592.839157	42984.494720
593.191038	42637.360866
593.542866	42465.533137
593.894639	41833.465707
594.246358	42127.087712
594.598022	42130.666932
594.949633	41711.200082
595.301190	41722.653583
595.652692	41682.606657
596.004141	42171.026409
596.355535	41080.188772
596.706876	41086.212951
597.058162	40800.669395
597.409395	41292.030660
597.760573	41514.945442
598.111698	41121.506069
598.462768	41047.925388
598.813785	41061.997769
599.164748	40678.217247
599.515657	40952.816459
599.866511	40457.792795
600.217312	41127.210135
600.568060	40102.872879
600.918753	40911.945304
601.269392	40838.097441
601.619978	40566.268344
601.970510	40765.933324
602.320988	40909.233163
602.671412	41162.490650
603.021783	41035.791331
603.372100	40620.349842
603.722363	40716.192259
604.072572	40747.520510
604.422728	40745.216702
604.772830	40532.757273
605.122878	40700.312624
605.472872	40565.441594
605.822813	40828.519249
606.172701	40557.194267
606.522534	40880.899358
606.872314	41100.502102
607.222041	40914.899420
607.571714	41260.157965
607.921333	40750.557805
608.270899	40949.857302
608.620411	41318.728611
608.969870	41087.332087
609.319276	41092.564805
609.668627	41133.899746
610.017926	41524.306865
610.367171	41688.966073
610.716362	41710.159083
611.065500	41619.433438
611.414585	41862.482588
611.763616	42011.718386
612.112594	41901.906932
612.461518	42028.092054
612.810389	42416.633945
613.159207	42194.697147
613.507971	42161.128104
613.856682	42686.595295
614.205340	42523.440872
614.553945	43208.216087
614.902496	42556.115110
615.250994	42962.061586
615.599439	43031.574056
615.947830	43151.805575
616.296169	43150.948579
616.644454	43196.074468
616.992686	43326.693284
617.340864	43790.421465
617.688990	43287.967141
618.037063	43978.242254
618.385082	43777.284218
618.733048	44136.083302
619.080961	44019.315055
619.428821	44057.842074
619.776628	44084.282926
620.124382	43920.636989
620.472083	44048.442842
620.819731	44155.209440
621.167326	43732.392743
621.514868	43712.845669
621.862357	43163.664890
622.209793	43256.517902
622.557176	42849.580840
622.904506	42606.940023
623.251783	42242.434353
623.599007	41928.171343
623.946179	41847.858201
624.293297	41593.262287
624.640363	41061.710423
624.987376	40909.581003
625.334336	40715.879707
625.681243	40300.274382
626.028097	40212.336494
626.374899	40024.253564
626.721647	40011.867449
627.068343	39791.311927
627.414987	39490.319755
627.761577	39238.378009
628.108115	39552.714116
628.454600	38821.585491
628.801032	39050.221983
629.147412	38956.290163
629.493739	38829.623611
629.840014	38397.248887
630.186236	38826.248559
630.532405	38258.551621
630.878521	38514.279273
631.224585	38282.000548
631.570597	37951.338665
631.916556	38119.045250
632.262462	38020.677215
632.608316	37977.963519
632.954117	37820.314035
633.299866	37790.984602
633.645562	37717.618169
633.991206	37189.161573
634.336797	36796.382592
634.682336	36681.232556
635.027823	36453.153112
635.373257	36337.004927
635.718639	36005.508733
636.063968	35895.848513
636.409245	35253.262715
636.754470	35204.035847
637.099642	34977.090663
637.444762	34403.603960
637.789829	34543.397677
638.134845	34155.233872
638.479808	34063.252979
638.824719	34018.406874
639.169577	33509.013402
639.514383	33632.816578
639.859137	33246.868360
640.203839	33402.773605
640.548489	33130.178252
640.893086	33102.220012
641.237632	32817.034378
641.582125	32905.698192
641.926566	32686.723071
642.270955	32716.785992
642.615292	32666.122396
642.959576	32547.017575
643.303809	32535.806049
643.647990	32648.332164
643.992118	32622.259317
644.336195	32436.518003
644.680219	32508.235978
645.024192	32705.032542
645.368112	33220.729978
645.711981	33235.180445
646.055797	33931.686425
646.399562	33726.398038
646.743274	34586.771765
647.086935	34992.536758
647.430544	34983.485367
647.774101	35000.400958
648.117606	35323.823745
648.461059	35455.556657
648.804460	35081.951704
649.147810	34588.947023
649.491108	34264.576499
649.834354	34157.109181
650.177548	33350.126315
650.520690	32836.876359
650.863781	32814.899449
651.206820	32628.661582
651.549807	32213.106668
651.892742	31630.198048
652.235626	31561.295557
652.578458	31396.822872
652.921238	30704.564064
653.263967	30980.269809
653.606644	30687.005725
653.949269	30593.351169
654.291843	30199.417764
654.634365	30557.135520
654.976836	30105.785893
655.319255	30191.866115
655.661622	30051.621215
656.003938	29915.994012
656.346203	29742.706869
656.688416	29993.824386
657.030577	29775.829771
657.372687	29595.295969
657.714746	29736.559182
658.056753	29923.704457
658.398708	29299.158428
658.740612	29363.924652
659.082465	29567.836804
659.424266	29470.696290
659.766016	29461.609610
660.107715	29306.006835
660.449362	29399.825229
660.790958	29361.366266
661.132503	29302.173037
661.473996	29378.170952
661.815438	29466.907863
662.156829	29583.703836
662.498168	29377.747495
662.839456	29358.853251
663.180693	29487.248919
663.521879	29546.159842
663.863013	29507.791621
664.204097	29475.213164
664.545129	29877.648475
664.886110	29804.367743
665.227040	29926.300651
665.567918	29936.834142
665.908746	29981.713014
666.249522	30058.094057
666.590248	30106.322776
666.930922	30201.903052
667.271545	30215.267151
667.612118	30269.913259
667.952639	30079.861759
668.293109	30121.267276
668.633528	29978.181686
668.973896	29934.242989
669.314213	29912.855894
669.654480	29703.610201
669.994695	29694.190805
670.334859	29635.947834
670.674973	29425.923282
671.015035	29611.921694
671.355047	29551.337108
671.695008	29470.482041
672.034918	29392.223169
672.374777	29472.813575
672.714585	29356.977942
673.054342	29488.917541
673.394049	29342.577886
673.733705	29567.297401
674.073310	29283.477918
674.412864	29339.049078
674.752368	29064.560772
675.091820	29285.166705
675.431223	28904.559590
675.770574	28704.957624
676.109875	28544.923674
676.449125	28325.532659
676.788324	28232.856087
677.127473	27760.167255
677.466571	27657.017686
677.805619	27375.968317
678.144616	27291.213918
678.483562	27254.980625
678.822458	26933.060102
679.161303	26881.297535
679.500098	26801.833827
679.838842	26710.944343
680.177535	26770.984486
680.516179	26976.146844
680.854771	27054.569554
681.193314	27753.767510
681.531805	28689.526652
681.870247	29450.188876
682.208638	30253.796690
682.546978	30606.564033
682.885268	30788.824430
683.223508	30388.017411
683.561697	30124.554108
683.899836	29959.058069
684.237925	29554.447499
684.575963	29383.146571
684.913951	28991.794236
685.251889	29133.017120
685.589776	29124.979000
685.927614	29121.873650
686.265401	29291.430339
686.603137	29403.432174
686.940824	29863.762617
687.278460	30197.552537
687.616046	30387.528419
687.953582	31053.558104
688.291068	30994.253970
688.628504	31353.189165
688.965889	31372.464017
689.303224	31127.242129
689.640510	30857.724400
689.977745	30279.637645
690.314930	29529.468582
690.652065	29129.894125
690.989150	28445.804507
691.326185	27610.739893
691.663170	26999.517633
692.000105	26285.891895
692.336990	25680.396386
692.673825	25258.161943
693.010610	24758.366827
693.347345	24256.724128
693.684030	23640.198575
694.020665	23429.412809
694.357251	22770.647427
694.693786	22773.533488
695.030272	22545.277603
695.366707	22046.505842
695.703093	21757.027664
696.039429	21824.584167
696.375716	21588.738826
696.711952	21578.147361
697.048139	21439.210641
697.384276	21282.859254
697.720363	21393.361347
698.056400	21285.203391
698.392388	21126.097014
698.728326	21114.388934
699.064214	20966.007612
699.400053	20988.481075
699.735842	20598.104204
700.071581	20426.180693
700.407270	20192.286278
700.742910	20013.557210
701.078501	19759.488097
701.414042	19563.377130
701.749533	19262.027035
702.084974	18942.306976
702.420366	19184.577268
702.755709	18766.763917
703.091002	18465.643195
703.426246	18525.640487
703.761440	18458.391495
704.096584	18224.547492
704.431679	18163.778902
704.766725	18111.325697
705.101721	18023.050052
705.436668	18140.224111
705.771565	17856.777674
706.106413	18164.083892
706.441212	18237.568792
706.775961	18326.461978
707.110661	18405.262775
707.445311	18764.500439
707.779913	18653.711001
708.114465	18937.401933
708.448967	19236.952336
708.783421	19838.377113
709.117825	20176.305820
709.452180	20404.226468
709.786485	20831.250007
710.120742	21567.654200
710.454949	21668.666320
710.789107	22175.433351
711.123216	22876.332697
711.457275	23115.245581
711.791286	23684.049051
712.125247	23848.052909
712.459159	23620.802735
712.793023	24378.241142
713.126837	23400.078335
713.460602	23673.921373
713.794318	23344.988605
714.127985	23069.524836
714.461602	22192.414478
714.795171	22189.551103
715.128691	21202.349507
715.462162	20693.109789
715.795584	20262.927967
716.128957	19997.702781
716.462281	19625.872314
716.795556	19346.047947
717.128782	18878.186020
717.461960	18271.989790
717.795088	18240.192712
718.128167	17901.001197
718.461198	17453.598793
718.794180	17331.234865
719.127113	17011.519847
719.459997	16819.671176
719.792833	16439.187569
720.125619	16486.145917
720.458357	16153.175185
720.791046	16019.345153
721.123686	15861.620052
721.456278	15638.138140
721.788821	15635.715866
722.121315	15372.766761
722.453761	15469.831657
722.786158	15350.106774
723.118506	15431.158446
723.450805	15313.026567
723.783056	15489.519884
724.115259	15377.676845
724.447412	15359.354771
724.779518	15567.264558
725.111574	15613.998575
725.443582	15869.146495
725.775542	15817.870398
726.107453	16326.510219
726.439315	16227.670836
726.771129	16622.128521
727.102895	17027.893515
727.434612	17313.031259
727.766281	17483.901168
728.097901	17807.336558
728.429473	17919.348476
728.760996	17943.384697
729.092471	18061.080516
729.423897	17942.376467
729.755276	17788.399464
730.086606	17871.482720
730.417887	18420.063602
730.749120	18953.205951
731.080305	19175.974539
731.411442	19603.156875
731.742530	19708.043122
732.073570	19839.284521
732.404562	20173.964204
732.735506	20072.866385
733.066401	19939.411919
733.397249	19507.914355
733.728048	18907.853210
734.058798	18070.820026
734.389501	17319.299934
734.720156	16793.908359
735.050762	16201.756784
735.381320	15806.295909
735.711831	15517.888977
736.042293	15139.252953
736.372707	15156.554193
736.703073	14948.407471
737.033391	15131.668537
737.363661	15115.244458
737.693883	15227.427775
738.024056	15408.964766
738.354182	15615.833555
738.684260	15962.536390
739.014290	16239.078967
739.344272	16454.109384
739.674207	16805.792879
740.004093	16979.261504
740.333931	17052.343111
740.663722	17147.189900
740.993464	17198.891974
741.323159	17057.457362
741.652806	16778.111904
741.982405	16617.813294
742.311956	16269.764470
742.641460	16162.158521
742.970915	15843.542474
743.300323	15501.437172
743.629683	15286.973884
743.958996	14980.239837
744.288260	14670.798691
744.617477	14361.528943
744.946647	14327.753213
745.275768	14007.634902
745.604842	13812.048215
745.933869	13631.862253
746.262847	13602.386627
746.591778	13507.663346
746.920662	13378.579561
747.249498	13382.362947
747.578286	13523.560625
747.907027	13683.365202
748.235720	13937.033543
748.564365	14033.284293
748.892963	13959.005412
749.221514	14077.840531
749.550017	13964.180156
749.878473	13938.674438
750.206881	13718.744019
750.535242	13647.008400
750.863555	13564.086460
751.191821	13460.541160
751.520039	13479.301814
751.848210	13388.528278
752.176334	13436.449486
752.504411	13372.547820
752.832440	13198.849823
753.160421	13312.744612
753.488356	13202.474413
753.816243	13113.971916
754.144082	12942.749125
754.471875	12883.155125
754.799620	12852.782173
755.127318	12823.276300
755.454969	12808.929176
755.782572	12775.566820
756.110129	12788.973768
756.437638	12701.643340
756.765100	12711.365205
757.092515	12725.540930
757.419882	12762.532917
757.747203	12765.610541
758.074477	12846.372346
758.401703	12827.417608
758.728882	13014.648582
759.056014	13047.796689
759.383099	13224.892424
759.710138	13343.916587
760.037129	13480.110920
760.364073	13551.660016
760.690970	13569.334302
761.017820	13577.586670
761.344623	13768.878294
761.671379	14091.660854
761.998088	14637.753927
762.324751	16039.845005
762.651366	18971.621286
762.977935	23286.642291
763.304456	26583.256958
763.630931	28179.046810
763.957359	27390.960709
764.283740	25338.583470
764.610074	23182.192104
764.936362	20563.867208
765.262602	18668.506787
765.588796	16683.194538
765.914943	15354.154821
766.241044	14210.926993
766.567097	13392.112538
766.893104	12647.851708
767.219064	12180.370388
767.544978	11687.481653
767.870845	11294.879112
768.196665	11071.150184
768.522438	10828.826960
768.848165	10629.275405
769.173846	10419.664228
769.499479	10290.656060
769.825066	10121.081727
770.150607	9905.380836
770.476101	9820.928907
770.801548	9701.357778
771.126949	9551.935458
771.452303	9431.991284
771.777611	9238.965504
772.102872	9227.322959
772.428087	9092.099048
772.753256	8934.575593
773.078378	8855.429478
773.403453	8677.690996
773.728482	8558.891165
774.053465	8482.089186
774.378401	8373.976600
774.703291	8254.959999
775.028135	8140.982031
775.352932	8105.837627
775.677683	8007.434304
776.002388	7901.363386
776.327046	7905.398830
776.651658	7803.945609
776.976224	7708.493881
777.300743	7706.124539
777.625216	7617.770756
777.949643	7576.065290
778.274024	7593.182528
778.598359	7509.012903
778.922647	7522.003956
779.246889	7475.121226
779.571086	7481.150446
779.895236	7483.708831
780.219339	7493.833989
780.543397	7500.435380
780.867409	7581.792041
781.191374	7594.813341
781.515294	7547.882720
781.839167	7649.492217
782.162995	7619.308308
782.486776	7572.826349
782.810511	7529.205245
783.134201	7437.347860
783.457844	7441.058149
783.781441	7381.048254
784.104993	7319.846125
784.428498	7297.329812
784.751958	7278.095289
785.075372	7247.235866
785.398739	7189.764192
785.722061	7229.659883
786.045337	7229.458237
786.368568	7372.195987
786.691752	7374.083900
787.014891	7666.785895
787.337983	7973.734191
787.661030	8526.831947
787.984031	9155.574737
788.306987	9588.360315
788.629897	9844.032515
788.952760	9846.313637
789.275579	9658.830605
789.598351	9291.517012
789.921078	8958.841187
790.243759	8549.030668
790.566395	8255.753981
790.888984	8004.049169
791.211529	7797.412273
791.534027	7570.265443
791.856480	7362.627877
792.178888	7284.631145
792.501249	7186.530291
792.823566	7031.386261
793.145836	7024.149685
793.468062	6986.678788
793.790241	6932.146107
794.112375	6992.818914
794.434464	7136.627909
794.756507	7161.037176
795.078505	7299.212683
795.400457	7579.248779
795.722364	7923.728465
796.044226	8211.565747
796.366042	8500.403698
796.687812	8475.782702
797.009538	8567.690499
797.331218	8484.161100
797.652852	8402.391064
797.974442	8261.243798
798.295986	8178.089965
798.617484	7986.027044
798.938938	7847.493616
799.260346	7750.980726
799.581709	7554.272382
799.903026	7476.623489
800.224299	7365.912189
800.545526	7202.225924
800.866708	7098.942764
801.187845	7037.541510
801.508936	6934.969153
801.829983	6891.103553
802.150984	6745.126861
802.471940	6699.776641
802.792851	6683.183683
803.113717	6652.407438
803.434538	6621.968952
803.755314	6563.236989
804.076045	6563.408388
804.396731	6504.424367
804.717372	6534.895622
805.037967	6527.033942
805.358518	6567.698410
805.679024	6646.978116
805.999485	6660.889180
806.319901	6700.573143
806.640272	6718.249949
806.960598	6802.021323
807.280879	6807.049874
807.601115	6891.516927
807.921306	6830.231620
808.241453	6841.939700
808.561554	6869.071190
808.881611	6837.490881
809.201623	6846.847263
809.521590	6792.851464
809.841513	6771.875223
810.161390	6807.632127
810.481223	6681.925915
810.801011	6665.965622
811.120755	6646.259751
811.440453	6563.441155
811.760107	6529.025198
812.079716	6502.112998
812.399281	6436.789727
812.718801	6430.815959
813.038276	6386.973044
813.357707	6317.049720
813.677093	6363.428335
813.996434	6265.055259
814.315731	6305.583616
814.634983	6293.414270
814.954191	6304.285518
815.273354	6397.561988
815.592473	6453.244053
815.911547	6567.544655
816.230577	6645.196068
816.549562	6788.183356
816.868502	6889.462657
817.187399	6978.736450
817.506250	7118.638552
817.825058	7146.274157
818.143821	7389.635859
818.462539	7629.491439
818.781213	7951.868186
819.099843	8428.703367
819.418429	9335.664917
819.736970	10237.355941
820.055466	11332.811274
820.373919	12700.695603
820.692327	14707.866295
821.010691	18007.276281
821.329011	25429.588900
821.647286	37068.045332
821.965517	51033.581558
822.283704	58514.984061
822.601847	61660.858146
822.919945	59504.696152
823.237999	55644.082234
823.556010	49667.267549
823.873976	43042.127712
824.191897	36548.952679
824.509775	31702.790664
824.827609	27052.227938
825.145398	24253.969138
825.463144	22590.955498
825.780845	22481.648159
826.098502	23711.858577
826.416116	27009.882246
826.733685	30728.005430
827.051210	32586.184820
827.368692	31643.151293
827.686129	28135.294636
828.003522	24132.348781
828.320872	20378.476254
828.638177	17489.335532
828.955439	15281.398368
829.272656	13453.705356
829.589830	11958.587345
829.906960	10671.311067
830.224046	9698.459115
830.541088	8918.199405
830.858086	8422.608612
831.175041	8024.216305
831.491952	7870.272070
831.808819	7852.186930
832.125642	8152.889237
832.442421	8849.014610
832.759157	10328.600825
833.075849	12902.414853
833.392497	16027.705907
833.709101	18516.669754
834.025662	18891.668586
834.342179	17552.854071
834.658653	15484.025026
834.975083	13554.420048
835.291469	11909.524315
835.607811	10575.554349
835.924110	9660.700873
836.240366	8791.510168
836.556578	7991.567272
836.872746	7338.238775
837.188871	6816.360885
837.504952	6386.973044
837.820990	6066.040588
838.136984	5835.453170
838.452935	5719.337752
838.768842	5697.189443
839.084706	5977.318801
839.400526	6943.844104
839.716303	8441.948998
840.032037	9680.379017
840.347727	9912.176312
840.663373	9117.692986
840.978977	8077.975170
841.294537	7245.829384
841.610054	6629.694520
841.925527	6191.038518
842.240957	5830.906049
842.556344	5501.688456
842.871687	5227.311055
843.186987	4942.831182
843.502244	4715.754927
843.817458	4540.902506
844.132629	4402.868152
844.447756	4307.983554
844.762840	4226.037078
845.077881	4151.546468
845.392879	4095.095627
845.707833	4046.085530
846.022745	3998.418899
846.337613	3971.607523
846.652438	3928.477931
846.967221	3910.927154
847.281960	3882.076630
847.596656	3862.993342
847.911309	3841.044159
848.225919	3816.627330
848.540485	3801.128303
848.855009	3790.390645
849.169490	3766.157818
849.483928	3758.328906
849.798323	3747.064448
850.112675	3728.704566
850.426984	3738.582707
850.741251	3721.646950
851.055474	3716.227710
851.369654	3722.501426
851.683792	3717.694686
851.997887	3726.108372
852.311938	3723.396231
852.625947	3728.066860
852.939914	3715.544634
853.253837	3727.711458
853.567718	3726.826736
853.881555	3715.554716
854.195350	3728.013928
854.509103	3725.694997
854.822812	3722.748442
855.136479	3716.283163
855.450103	3728.160121
855.763685	3709.260835
856.077224	3715.509346
856.390720	3729.193558
856.704173	3744.485898
857.017584	3759.513578
857.330953	3769.401801
857.644278	3793.780821
857.957561	3793.337199
858.270802	3798.423723
858.584000	3805.869508
858.897155	3798.847180
859.210268	3781.477885
859.523339	3759.009462
859.836367	3758.555758
860.149352	3752.277001
860.462295	3745.426073
860.775195	3736.593972
861.088054	3730.993250
861.400869	3725.964699
861.713642	3728.155080
862.026373	3735.459712
862.339062	3736.624218
862.651708	3753.353288
862.964312	3784.825211
863.276873	3793.780821
863.589392	3848.121939
863.901869	3892.481572
864.214303	3936.395063
864.526696	3972.280517
864.839045	4014.288452
865.151353	4042.491187
865.463619	4049.967218
865.775842	4058.562385
866.088023	4077.615426
866.400162	4070.562852
866.712258	4076.259356
867.024313	4078.774892
867.336325	4075.886311
867.648296	4079.279007
867.960224	4080.340170
868.272110	4090.631686
868.583954	4094.052108
868.895755	4107.955611
869.207515	4103.436216
869.519233	4137.166577
869.830909	4149.265346
870.142542	4171.559849
870.454134	4187.999052
870.765684	4214.477712
871.077191	4248.225717
871.388657	4273.129017
871.700081	4304.205209
872.011463	4346.523175
872.322803	4374.907392
872.634101	4406.550715
872.945357	4446.315336
873.256571	4498.103110
873.567744	4529.292729
873.878874	4549.601017
874.189963	4587.460082
874.501010	4597.532308
874.812015	4595.225980
875.122979	4635.265344
875.433900	4634.098317
875.744780	4642.867404
876.055618	4664.856917
876.366415	4666.815406
876.677169	4681.132282
876.987882	4721.572419
877.298554	4775.341366
877.609183	4841.796376
877.919771	4932.643010
878.230317	5061.000869
878.540822	5243.702367
878.851285	5522.473133
879.161707	5914.294295
879.472087	6552.920267
879.782425	7565.378044
880.092722	9387.162824
880.402977	12222.741286
880.713191	15747.261477
881.023363	19449.898236
881.333494	21940.036673
881.643583	23395.185895
881.953631	23622.796512
882.263637	22978.494200
882.573602	21681.193587
882.883526	20236.401415
883.193408	18667.301952
883.503248	17051.448306
883.813048	15570.589199
884.122806	14198.641701
884.432522	12763.291610
884.742197	11535.382480
885.051831	10454.543972
885.361424	9464.660482
885.670975	8635.405798
885.980485	7943.419212
886.289954	7367.031325
886.599382	6901.004379
886.908768	6524.944384
887.218113	6161.862840
887.527417	5874.512030
887.836680	5609.022183
888.145901	5389.429521
888.455082	5230.262650
888.764221	5075.794135
889.073319	4938.611736
889.382376	4865.726733
889.691392	4796.879695
890.000366	4772.694760
890.309300	4748.701388
890.618193	4755.267491
890.927044	4738.820727
891.235855	4756.293366
891.544625	4776.432775
891.853353	4823.277697
892.162041	4925.124129
892.470687	5081.692285
892.779293	5293.125839
893.087858	5611.867914
893.396381	6106.392504
893.704864	6786.623118
894.013306	7814.060684
894.321707	8942.384341
894.630068	9831.560700
894.938387	10180.905100
895.246665	10067.335465
895.554903	9545.228203
895.863100	8895.541939
896.171256	8363.732976
896.479371	7873.306844
896.787446	7388.680561
897.095480	6966.738504
897.403473	6654.249980
897.711425	6349.355954
898.019336	6085.257466
898.327207	5830.843034
898.635038	5598.506336
898.942827	5354.322926
899.250576	5162.542310
899.558284	4971.492662
899.865952	4851.402295
900.173579	4704.036765
900.481165	4594.714303
900.788711	4503.413965
901.096216	4429.797996
901.403681	4364.696535
901.711105	4334.971371
902.018489	4310.466323
902.325832	4360.421637
902.633135	4448.127631
902.940397	4708.861149
903.247619	5317.981248
903.554800	6512.470049
903.861941	8275.487578
904.169041	9846.860602
904.476101	10692.892246
904.783121	10561.953316
905.090100	9936.346124
905.397039	9146.689703
905.703938	8423.125330
906.010796	7751.394100
906.317614	7217.016669
906.624391	6707.915583
906.931129	6293.041225
907.237826	5904.721144
907.544483	5545.453233
907.851099	5183.959652
908.157675	4837.380325
908.464211	4505.342207
908.770707	4268.362606
909.077163	4063.709403
909.383578	3914.397988
909.689954	3792.911222
909.996289	3715.469016
910.302584	3651.312772
910.608839	3619.185498
910.915054	3582.937082
911.221229	3568.678178
911.527363	3575.030032
911.833458	3587.214501
912.139513	3608.563787
912.445527	3631.654792
912.751502	3701.245401
913.057436	3787.060963
913.363331	3902.697470
913.669186	4074.147112
913.975000	4292.232469
914.280775	4651.923837
914.586510	5151.829858
914.892205	5836.020299
915.197859	6763.811897
915.503475	7903.831031
915.809050	8959.919994
916.114585	9678.178553
916.420081	10041.791939
916.725536	10094.015772
917.030952	9725.724196
917.336328	9364.283547
917.641665	8990.741609
917.946961	8536.674800
918.252218	8138.282493
918.557435	7655.281982
918.862612	7241.960298
919.167750	6885.709518
919.472848	6484.254711
919.777906	6129.730525
920.082925	5775.327328
920.387904	5409.624384
920.692843	5143.683354
920.997743	4895.303183
921.302603	4662.805168
921.607423	4501.321887
921.912204	4343.183411
922.216946	4221.815112
922.521647	4103.915126
922.826310	4003.709590
923.130932	3911.343049
923.435516	3820.153617
923.740059	3747.011516
924.044564	3672.387316
924.349028	3614.565281
924.653454	3555.987073
924.957840	3486.802278
925.262186	3440.721091
925.566493	3383.829149
925.870761	3329.674554
926.174989	3292.556538
926.479178	3255.995570
926.783328	3215.976370
927.087438	3188.512164
927.391509	3157.861948
927.695541	3127.713328
927.999533	3102.671396
928.303486	3077.324474
928.607400	3066.107907
928.911275	3053.915877
929.215110	3038.069009
929.518906	3027.220446
929.822663	3025.748429
930.126381	3020.064528
930.430060	3029.398225
930.733699	3030.887886
931.037299	3040.284597
931.340861	3040.274514
931.644383	3046.404557
931.947866	3043.400030
932.251309	3042.243085
932.554714	3041.948177
932.858080	3039.120090
933.161407	3028.715148
933.464694	3020.634179
933.767943	3015.048580
934.071153	3009.823424
934.374323	3000.593072
934.677455	2994.682319
934.980548	2987.463387
935.283602	2981.799650
935.586617	2977.978456
935.889593	2985.880464
936.192530	2988.017913
936.495428	3001.429903
936.798287	3016.840711
937.101108	3045.023281
937.403890	3088.868717
937.706632	3143.623209
938.009336	3217.221535
938.312002	3288.193419
938.614628	3355.442412
938.917216	3412.752769
939.219765	3441.091615
939.522275	3472.739979
939.824747	3481.428408
940.127179	3478.577635
940.429573	3474.942963
940.731929	3474.829538
941.034246	3461.898978
941.336524	3450.120322
941.638763	3439.818724
941.940964	3425.191816
942.243126	3385.979201
942.545250	3366.986654
942.847335	3333.329390
943.149381	3296.188689
943.451389	3266.574431
943.753359	3232.846591
944.055290	3205.952035
944.357182	3183.279446
944.659036	3170.152281
944.960851	3158.497134
945.262628	3143.144300
945.564367	3142.710760
945.866067	3138.672796
946.167729	3135.511993
946.469352	3132.210037
946.770937	3129.563431
947.072484	3113.124228
947.373992	3116.254785
947.675462	3111.896708
947.976893	3097.794080
948.278286	3085.130701
948.579641	3081.296904
948.880958	3073.236099
949.182236	3077.556368
949.483476	3070.256777
949.784678	3068.537743
950.085841	3070.720563
950.386967	3076.911100
950.688054	3091.074222
950.989103	3109.247581
951.290114	3128.401445
951.591087	3154.938079
951.892021	3182.407326
952.192917	3208.903631
952.493776	3231.830799
952.794596	3245.041142
953.095378	3252.703696
953.396122	3249.946185
953.696828	3243.170874
953.997496	3233.698546
954.298126	3211.772047
954.598718	3193.313863
954.899272	3171.823424
955.199788	3144.626399
955.500266	3120.829632
955.800706	3082.214394
956.101108	3049.419167
956.401472	3017.312058
956.701798	2988.794251
957.002087	2948.848148
957.302337	2920.191709
957.602550	2893.266906
957.902724	2865.124665
958.202861	2840.728001
958.502960	2819.978612
958.803022	2801.575880
959.103045	2780.216511
959.403031	2766.416352
959.702979	2749.286511
960.002889	2737.091960
960.302762	2724.294991
960.602596	2713.587580
960.902393	2708.130531
961.202153	2697.486135
961.501875	2689.662264
961.801559	2680.837724
962.101205	2678.175995
962.400814	2673.286076
962.700385	2666.992195
962.999918	2662.099756
963.299414	2653.358395
963.598873	2652.947541
963.898293	2646.678866
964.197677	2646.915800
964.497022	2642.456900
964.796331	2640.833648
965.095601	2638.292907
965.394835	2637.894655
965.694030	2635.149747
965.993189	2632.283851
966.292309	2630.799231
966.591393	2632.155302
966.890439	2629.775877
967.189447	2630.920219
967.488419	2630.327883
967.787353	2631.517596
968.086249	2632.737555
968.385108	2633.155971
968.683930	2637.282155
968.982714	2640.548823
969.281462	2643.346663
969.580172	2647.029226
969.878844	2653.275216
970.177480	2660.438695
970.476078	2669.734583
970.774639	2676.630882
971.073162	2681.046932
971.371649	2688.001204
971.670098	2693.763243
971.968510	2698.731300
972.266885	2705.907382
972.565223	2708.737990
972.863524	2709.627754
973.161788	2712.372662
973.460014	2714.442056
973.758204	2719.062273
974.056356	2719.982284
974.354471	2722.553272
974.652550	2723.385063
974.950591	2719.732747
975.248595	2718.963971
975.546563	2716.927345
975.844493	2716.060266
976.142386	2709.148844
976.440243	2707.031560
976.738062	2703.865715
977.035845	2693.186031
977.333590	2691.144363
977.631299	2685.382325
977.928971	2675.731036
978.226606	2671.819100
978.524204	2669.195180
978.821765	2663.518840
979.119290	2667.972700
979.416777	2667.206444
979.714228	2667.392967
980.011642	2668.507062
980.309020	2674.556447
980.606360	2688.656554
980.903664	2708.153217
981.200931	2736.855026
981.498162	2776.770882
981.795356	2841.905110
982.092513	2920.345464
982.389633	3018.242151
982.686717	3111.853858
982.983764	3190.717668
983.280775	3244.894949
983.577749	3261.750047
983.874686	3257.696959
984.171587	3228.100345
984.468451	3194.919470
984.765279	3155.936227
985.062070	3111.949640
985.358824	3071.839699
985.655543	3019.429343
985.952224	2970.260449
986.248869	2911.294073
986.545478	2854.891123
986.842050	2798.157977
987.138586	2751.940679
987.435086	2714.558002
987.731549	2682.957530
988.027975	2658.412152
988.324366	2640.984883
988.620719	2626.720938
988.917037	2613.460183
989.213318	2604.093719
989.509563	2598.271186
989.805772	2594.891092
990.101944	2588.645103
990.398080	2584.208887
990.694180	2583.553537
990.990244	2583.702252
991.286271	2584.070256
991.582262	2585.171748
991.878217	2585.234762
992.174136	2591.518561
992.470019	2593.071236
992.765865	2594.097111
993.061676	2599.344952
993.357450	2606.934409
993.653188	2612.131839
993.948890	2627.472070
994.244556	2643.263484
994.540186	2662.611433
994.835780	2689.674867
995.131337	2724.373129
995.426859	2763.923502
995.722345	2803.869605
996.017795	2858.956813
996.313208	2893.307236
996.608586	2924.133891
996.903928	2939.045624
997.199234	2942.239195
997.494504	2941.898918
997.789738	2933.026487
998.084936	2910.152251
998.380099	2881.725185
998.675225	2854.238293
998.970316	2825.329797
999.265371	2794.845939
999.560390	2756.626431
999.855373	2731.750858
1000.150320	2700.402442
1000.445232	2674.203566
1000.740108	2653.670946
1001.034948	2636.752834
1001.329752	2621.183230
1001.624521	2610.639657
1001.919254	2596.809252
1002.213951	2591.160639
1002.508613	2581.993300
1002.803239	2576.778227
1003.097829	2570.799418
1003.392384	2564.777760
1003.686903	2562.673078
1003.981386	2556.288457
1004.275834	2555.658313
1004.570246	2551.544731
1004.864623	2549.500543
1005.158964	2546.644730
1005.453270	2544.915614
1005.747540	2543.826725
1006.041775	2540.242464
1006.335974	2539.587114
1006.630138	2540.310520
1006.924266	2537.994110
1007.218359	2535.526465
1007.512416	2534.374561
1007.806438	2532.088398
1008.100425	2534.752648
1008.394376	2529.003212
1008.688292	2534.956814
1008.982172	2532.189221
1009.276017	2535.521424
1009.569827	2530.351720
1009.863602	2530.755013
1010.157341	2532.282482
1010.451045	2533.378933
1010.744714	2530.054292
1011.038347	2527.848788
1011.331945	2528.065557
1011.625508	2528.703263
1011.919036	2525.834847
1012.212528	2526.240659
1012.505986	2525.451719
1012.799408	2523.611698
1013.092795	2522.127078
1013.386147	2522.240504
1013.679464	2523.533560
1013.972745	2523.589013
1014.265992	2522.611029
1014.559204	2523.281502
1014.852380	2519.838394
1015.145521	2522.230422
1015.438628	2522.122037
1015.731699	2523.062212
1016.024736	2521.779238
1016.317737	2522.706811
1016.610703	2524.824095
1016.903635	2526.079342
1017.196531	2526.081863
1017.489393	2529.653521
1017.782219	2529.272913
1018.075011	2531.334745
1018.367768	2531.034797
1018.660490	2531.511186
1018.953177	2531.511186
1019.245829	2531.511186
