Dividing Wavelength (nm)	Counts (n)	Blue Motor Position (mm): 38.500000	Red Motor Position (mm): 0.000000	
326.493990	2066.056410
326.888308	2066.056410
327.282561	2066.056410
327.676750	2039.655887
328.070874	2043.265353
328.464933	2049.024872
328.858929	2055.243135
329.252859	2066.575649
329.646726	2077.469582
330.040528	2097.891297
330.434265	2112.308997
330.827938	2133.318005
331.221547	2151.977836
331.615091	2176.518173
332.008571	2196.730679
332.401986	2217.159955
332.795338	2234.226782
333.188625	2252.392580
333.581847	2272.685744
333.975006	2289.470266
334.368100	2308.339305
334.761129	2326.121975
335.154095	2343.332474
335.546996	2391.619167
335.939833	2499.842657
336.332606	2507.727022
336.725315	2520.249248
337.117960	2531.576721
337.510540	2540.464275
337.903056	2547.552137
338.295508	2556.603529
338.687896	2564.530743
339.080220	2569.118193
339.472480	2575.679255
339.864676	2579.533217
340.256807	2581.287539
340.648875	2583.727457
341.040879	2580.032292
341.432818	2584.188723
341.824694	2587.778024
342.216506	2587.541090
342.608253	2587.586461
342.999937	2585.481779
343.391557	2586.550503
343.783113	2581.814339
344.174605	2579.291242
344.566033	2576.747980
344.957397	2579.480285
345.348697	2575.333936
345.739934	2573.670355
346.131106	2575.349060
346.522215	2570.973338
346.913260	2570.728842
347.304241	2569.733214
347.695159	2565.397822
348.086012	2565.594427
348.476802	2565.402863
348.867528	2563.008315
349.258191	2556.739640
349.648789	2558.128478
350.039324	2554.697973
350.429796	2559.088818
350.820203	2557.717624
351.210548	2557.629404
351.600828	2554.309804
351.991045	2552.701676
352.381198	2553.873744
352.771288	2547.970553
353.161314	2550.901984
353.551276	2554.332489
353.941175	2550.153373
354.331010	2552.792417
354.720782	2556.321224
355.110490	2558.017573
355.500135	2553.130174
355.889717	2552.971378
356.279235	2553.687222
356.668689	2552.933569
357.058080	2555.290308
357.447408	2554.564382
357.836672	2555.650751
358.225873	2558.632593
358.615010	2555.635628
359.004084	2556.248128
359.393095	2560.197872
359.782043	2558.292316
360.170927	2558.506565
360.559748	2559.696277
360.948505	2559.151832
361.337199	2563.716597
361.725830	2562.852039
362.114398	2562.146278
362.502903	2562.478994
362.891344	2564.117369
363.279722	2560.212995
363.668037	2562.831875
364.056289	2563.179714
364.444478	2567.159705
364.832603	2567.081567
365.220665	2565.821279
365.608665	2564.687019
365.996601	2566.582493
366.384474	2564.077040
366.772284	2567.096691
367.160031	2569.559294
367.547715	2566.690878
367.935336	2568.404870
368.322893	2566.043090
368.710388	2565.372616
369.097820	2566.574931
369.485189	2565.813717
369.872495	2571.732032
370.259738	2569.839078
370.646918	2569.617268
371.034035	2570.199521
371.421090	2572.319326
371.808081	2571.011147
372.195010	2568.150292
372.581875	2570.580128
372.968678	2573.388051
373.355418	2572.329408
373.742096	2574.250088
374.128710	2572.725139
374.515262	2574.678586
374.901751	2574.245047
375.288177	2576.866447
375.674540	2576.410222
376.060841	2576.722774
376.447079	2573.803946
376.833254	2576.057342
377.219367	2575.361662
377.605417	2578.847620
377.991404	2578.477096
378.377329	2577.640264
378.763191	2578.981211
379.148991	2578.502301
379.534727	2580.304514
379.920402	2579.865933
380.306013	2579.898701
380.691563	2582.454566
381.077049	2579.659246
381.462474	2579.097157
381.847835	2583.646799
382.233134	2580.002045
382.618371	2582.943558
383.003545	2583.359453
383.388657	2585.209557
383.773706	2584.445822
384.158693	2585.423806
384.543618	2586.815164
384.928480	2585.761563
385.313280	2586.474886
385.698017	2584.856676
386.082692	2586.885740
386.467305	2588.133426
386.851856	2590.038982
387.236344	2586.507654
387.620770	2585.159145
388.005133	2586.583271
388.389435	2589.088724
388.773674	2584.549165
389.157851	2591.821030
389.541965	2591.465628
389.926018	2594.913778
390.310008	2592.289857
390.693936	2593.547625
391.077802	2593.426637
391.461606	2597.731783
391.845348	2594.576020
392.229027	2599.486104
392.612645	2598.460229
392.996200	2599.281937
393.379694	2597.540219
393.763125	2600.315374
394.146494	2600.476691
394.529801	2601.779829
394.913047	2606.639502
395.296230	2605.167485
395.679351	2605.227978
396.062410	2609.170161
396.445408	2610.322064
396.828343	2610.254009
397.211217	2612.915738
397.594028	2616.242900
397.976778	2619.078549
398.359466	2625.185907
398.742092	2626.995681
399.124656	2630.237143
399.507158	2637.244347
399.889598	2643.941519
400.271977	2650.442087
400.654294	2655.720175
401.036549	2668.587721
401.418742	2675.121056
401.800874	2688.533046
402.182944	2699.406815
402.564952	2716.965153
402.946898	2728.252297
403.328783	2740.696385
403.710606	2757.755650
404.092367	2778.225255
404.474067	2799.740900
404.855705	2817.069866
405.237282	2829.130827
405.618797	2858.999663
406.000250	2887.817419
406.381642	2923.927204
406.762972	2943.857406
407.144240	2958.355764
407.525447	2992.980929
407.906593	3018.653005
408.287677	3063.864594
408.668700	3097.864656
409.049661	3136.565594
409.430560	3173.058507
409.811399	3196.320911
410.192176	3236.335070
410.572891	3292.677526
410.953545	3354.315714
411.334138	3353.824201
411.714669	3423.268616
412.095139	3430.729524
412.475547	3504.448837
412.855894	3538.070813
413.236180	3612.516052
413.616405	3618.711630
413.996568	3698.800441
414.376670	3737.738313
414.756711	3768.895165
415.136691	3842.916947
415.516609	3918.788833
415.896466	3978.317298
416.276262	4058.194381
416.655997	4158.480575
417.035670	4249.639760
417.415283	4373.664748
417.794834	4453.700627
418.174324	4478.634174
418.553753	4523.790309
418.933121	4663.604191
419.312428	4719.966811
419.691674	4713.715780
420.070859	4904.982198
420.449983	4878.248960
420.829045	5050.298499
421.208047	5040.800965
421.586988	5194.281415
421.965867	5296.599194
422.344686	5391.516559
422.723444	5566.865534
423.102141	5319.876722
423.480777	5657.545809
423.859352	5557.244492
424.237866	5881.405808
424.616319	5921.898876
424.994712	6093.802222
425.373044	6066.048149
425.751314	6361.704261
426.129524	6171.788872
426.507673	6428.106339
426.885762	6505.024265
427.263789	6573.760397
427.641756	6682.021697
428.019662	6784.425175
428.397508	6852.634508
428.775292	6870.855758
429.153016	7053.511885
429.530679	7023.638008
429.908282	7096.893535
430.285824	7072.012920
430.663305	7352.268306
431.040726	7269.038856
431.418086	7296.866026
431.795385	7443.765249
432.172624	7640.904611
432.549802	7553.372536
432.926920	7706.432049
433.303977	7663.927561
433.680974	7722.694812
434.057910	7933.828417
434.434786	7998.284610
434.811601	7968.856874
435.188355	8307.065365
435.565050	8217.131181
435.941683	8241.205211
436.318257	8576.600738
436.694770	8537.907362
437.071222	8770.133155
437.447614	8561.129437
437.823946	8535.931229
438.200218	8685.930762
438.576429	8580.069052
438.952580	8752.630269
439.328670	8767.841950
439.704700	8843.986059
440.080670	8746.064166
440.456580	9012.509311
440.832429	8989.816557
441.208218	8739.861026
441.583947	8855.986525
441.959616	8978.345412
442.335224	9012.363118
442.710773	9095.973175
443.086261	9277.495043
443.461689	9004.786263
443.837057	9168.074278
444.212365	9377.488850
444.587612	9364.366726
444.962800	9264.861911
445.337927	9398.923836
445.712995	8940.864433
446.088002	9603.609805
446.462949	9668.978447
446.837837	9658.145008
447.212664	9680.018574
447.587431	10508.222178
447.962139	11511.860456
448.336786	12427.036566
448.711374	12199.400744
449.085901	10996.798206
449.460369	10920.119735
449.834776	10708.424041
450.209124	11615.758637
450.583412	11449.869387
450.957640	11753.316602
451.331808	11348.128820
451.705917	10781.122521
452.079965	10659.466876
452.453954	10859.116733
452.827883	10806.388784
453.201752	10776.295616
453.575562	10786.572008
453.949311	11122.227155
454.323001	11183.651094
454.696632	11106.967582
455.070202	11693.853672
455.443713	11754.171077
455.817164	11920.299782
456.190556	12232.785785
456.563888	12102.300559
456.937160	12348.182838
457.310373	11836.349447
457.683526	11847.311436
458.056619	11868.479241
458.429653	11937.243100
458.802628	12071.128584
459.175542	12132.799540
459.548398	12666.756035
459.921194	13244.797420
460.293930	13533.441286
460.666607	14395.327359
461.039224	15179.675445
461.411782	15507.199210
461.784280	15164.156253
462.156719	15110.712460
462.529099	15005.080123
462.901419	14368.735273
463.273680	13971.194922
463.645882	14185.900184
464.018024	14084.008383
464.390106	14453.605618
464.762130	15511.214489
465.134094	17062.415337
465.505999	19367.624085
465.877845	21609.473091
466.249631	22811.601761
466.621358	22310.715235
466.993026	21474.105508
467.364634	20715.868078
467.736184	19932.750034
468.107674	19317.749429
468.479105	19185.303194
468.850477	18906.615607
469.221790	18479.637438
469.593043	17814.409297
469.964238	17427.291531
470.335373	17481.985530
470.706449	18200.067648
471.077467	19076.187419
471.448425	21536.983820
471.819324	23390.689186
472.190164	23281.296147
472.560945	21537.682019
472.931667	19977.896087
473.302330	19639.682555
473.672934	19101.151213
474.043479	19514.326703
474.413965	19304.319796
474.784393	19128.416294
475.154761	19794.355237
475.525070	19918.470966
475.895321	19751.681870
476.265513	20283.100144
476.635645	20858.373936
477.005719	20927.667116
477.375734	21289.468207
477.745691	21914.946850
478.115588	22543.165360
478.485427	23733.648964
478.855207	25546.894029
479.224928	27347.942023
479.594591	28745.017153
479.964194	28370.845070
480.333739	28803.388673
480.703226	29011.142185
481.072653	29454.919999
481.442022	29976.797889
481.811333	30372.568795
482.180584	29931.261147
482.549777	29700.456959
482.918912	29470.340889
483.287988	29405.143646
483.657005	29258.738456
484.025964	28888.838751
484.394864	29080.430324
484.763706	28999.035854
485.132489	28458.084758
485.501213	28531.920018
485.869879	28692.606797
486.238487	28635.452715
486.607036	28902.414579
486.975527	28575.253776
487.343959	28942.486711
487.712333	29277.869635
488.080648	29232.317769
488.448905	29653.639763
488.817104	29533.627534
489.185244	30355.544819
489.553326	31304.894911
489.921350	33201.737431
490.289315	35707.579061
490.657222	36617.746785
491.025070	37166.131062
491.392861	36874.601135
491.760593	36090.686589
492.128267	35069.563068
492.495883	34082.079168
492.863440	33181.003165
493.230939	32221.580847
493.598380	31671.868226
493.965763	31503.886897
494.333088	31012.543276
494.700354	30832.977376
495.067563	30764.916758
495.434713	30656.600006
495.801805	30937.551072
496.168839	30765.224268
496.535815	30623.918206
496.902733	30733.999362
497.269593	30560.324050
497.636395	30705.668077
498.003139	30954.317949
498.369825	30723.450747
498.736453	31119.163680
499.103023	30962.247684
499.469535	31035.732584
499.835989	31153.390594
500.202385	31009.959685
500.568723	31054.904092
500.935003	31352.750585
501.301226	31226.336090
501.667390	31930.340787
502.033497	32125.337658
502.399546	31928.185693
502.765537	31542.537424
503.131470	31985.891781
503.497345	32403.924423
503.863163	31369.285569
504.228923	32131.341673
504.594625	32501.851357
504.960269	31993.244304
505.325856	32644.866371
505.691385	32310.804229
506.056856	32628.217960
506.422270	33103.195476
506.787625	32609.782461
507.152924	33053.666139
507.518164	33243.947012
507.883347	32808.557678
508.248472	32939.688171
508.613540	33604.916312
508.978550	33819.944209
509.343503	33656.603263
509.708398	34022.117163
510.073236	34609.144405
510.438016	34694.738157
510.802738	34367.963003
511.167403	34899.638375
511.532010	35124.466275
511.896561	35643.027086
512.261053	36378.632255
512.625488	36155.732597
512.989866	36068.145069
513.354186	36119.456454
513.718449	36074.065904
514.082655	36924.944618
514.446803	36625.709288
514.810894	37242.726354
515.174927	37239.860458
515.538904	37228.863181
515.902822	37849.560289
516.266684	37545.694659
516.630488	37883.855259
516.994235	37894.035869
517.357925	38440.141544
517.721558	38704.814724
518.085133	39056.911594
518.448651	39257.688149
518.812112	39143.427876
519.175516	39296.477307
519.538863	39726.424716
519.902152	39796.617742
520.265385	40326.639616
520.628560	40349.292041
520.991678	40272.106934
521.354739	40499.173107
521.717743	40838.200785
522.080690	40756.166088
522.443580	41431.771445
522.806413	41437.432660
523.169189	41574.244535
523.531908	41805.452015
523.894569	41644.094762
524.257174	41828.225427
524.619722	42172.069928
524.982213	42306.197388
525.344647	42365.423384
525.707025	42481.740447
526.069345	42915.345213
526.431608	42821.912467
526.793815	43205.851786
527.155964	42733.634302
527.518057	42996.228006
527.880093	42852.386242
528.242072	43469.181498
528.603995	43207.222979
528.965860	43133.082730
529.327669	43363.224006
529.689421	43417.943210
530.051117	43371.090726
530.412755	43644.555678
530.774337	43676.698075
531.135862	43608.340029
531.497331	43787.900888
531.858743	43760.764357
532.220098	44169.549002
532.581396	43899.058330
532.942638	43659.016228
533.303824	43905.548816
533.664953	43962.115603
534.026025	43642.453517
534.387040	44220.595726
534.747999	44277.780054
535.108902	44605.553357
535.469748	43932.594606
535.830537	44199.566552
536.191270	44442.945898
536.551947	44184.410323
536.912567	44469.419518
537.273131	44585.721458
537.633638	44221.006580
537.994089	44392.723403
538.354483	44165.846274
538.714821	44803.302699
539.075103	45078.065748
539.435328	44960.392614
539.795497	44710.926075
540.155609	44843.077403
540.515665	45418.769610
540.875665	44716.403289
541.235609	44984.595194
541.595496	45132.691691
541.955328	45714.274487
542.315102	45124.285567
542.674821	45046.049380
543.034483	44943.240088
543.394090	44960.120392
543.753640	44948.288804
544.113134	46001.290060
544.472571	45114.304082
544.831953	46223.776344
545.191278	45494.044119
545.550548	45187.292428
545.909761	45809.348128
546.268918	45961.880840
546.628019	46370.355454
546.987064	45792.896322
547.346053	45118.891532
547.704986	46019.420570
548.063863	45653.868861
548.422684	45869.000101
548.781449	45443.801459
549.140158	45978.451113
549.498811	45728.924080
549.857408	45148.967056
550.215949	45986.222052
550.574434	45824.012844
550.932864	45749.423932
551.291237	46455.563557
551.649555	46223.995634
552.007817	46385.826755
552.366022	46087.907166
552.724173	46163.831984
553.082267	46536.131278
553.440305	46904.374963
553.798288	46185.564398
554.156215	46556.500060
554.514086	46755.522293
554.871902	46343.168511
555.229661	46525.663322
555.587365	46211.975003
555.945014	46343.138264
556.302606	46347.420725
556.660143	46459.697303
557.017625	46687.812035
557.375050	46371.983747
557.732421	46765.385311
558.089735	46827.910742
558.446994	46700.898871
558.804197	47176.473763
559.161345	47035.881023
559.518437	46405.557831
559.875474	46640.793193
560.232455	46855.080040
560.589381	46905.524346
560.946251	46723.765544
561.303065	47368.776138
561.659825	47058.566215
562.016528	46869.338944
562.373177	46470.850856
562.729770	47110.326262
563.086307	46601.898171
563.442789	47161.249478
563.799216	46994.714961
564.155587	46904.163235
564.511904	46853.391254
564.868164	46905.214315
565.224370	47223.560660
565.580520	46956.520659
565.936615	47139.179307
566.292654	46794.409754
566.648638	47150.615164
567.004567	47105.143956
567.360441	47196.643419
567.716260	46901.884633
568.072023	47288.669683
568.427732	47200.928400
568.783385	46733.245434
569.138982	47159.170002
569.494525	47303.528484
569.850013	46921.436748
570.205445	47037.882361
570.560823	46809.036662
570.916145	46676.807196
571.271412	46917.144206
571.626625	46553.742549
571.981782	46650.507497
572.336884	46271.057326
572.691931	46568.908860
573.046923	46245.957421
573.401860	46052.606486
573.756743	46095.610049
574.111570	46223.799029
574.466342	46154.384862
574.821059	46309.508727
575.175722	45807.780329
575.530330	45884.995682
575.884882	45538.554987
576.239380	45435.697805
576.593823	45533.705397
576.948211	45481.821842
577.302544	45020.279001
577.656823	45000.540363
578.011047	45285.887315
578.365216	45126.160876
578.719330	44829.990567
579.073389	44816.228217
579.427394	44870.972627
579.781344	44786.003979
580.135239	44526.724834
580.489080	44609.888749
580.842866	44100.908651
581.196597	44600.557573
581.550273	44599.592192
581.903895	44522.757446
582.257463	44954.234845
582.610975	44391.485800
582.964434	44710.706785
583.317837	44212.653388
583.671186	44177.017471
584.024481	44463.516327
584.377721	44018.929407
584.730906	44243.974077
585.084037	44400.217078
585.437113	44098.846819
585.790135	44220.058843
586.143103	43798.152074
586.496016	43967.015605
586.848874	44064.594699
587.201679	44096.399339
587.554428	43603.190491
587.907124	43871.261408
588.259765	43637.354390
588.612352	43788.024396
588.964884	43271.943833
589.317362	43550.328951
589.669786	43560.262545
590.022155	43442.435656
590.374470	43920.047174
590.726731	43491.591947
591.078937	42829.630474
591.431090	43186.821430
591.783188	42697.345556
592.135232	42507.208356
592.487222	42756.294288
592.839157	42916.297991
593.191038	42569.060793
593.542866	42390.961869
593.894639	41759.698502
594.246358	42056.284707
594.598022	42064.224524
594.949633	41654.325784
595.301190	41651.958962
595.652692	41609.835081
596.004141	42096.596293
596.355535	41013.587568
596.706876	40991.366162
597.058162	40717.782743
597.409395	41221.401574
597.760573	41443.890378
598.111698	41060.510628
598.462768	40961.588067
598.813785	40988.354073
599.164748	40612.820879
599.515657	40892.173899
599.866511	40393.097147
600.217312	41062.327964
600.568060	40025.173575
600.918753	40837.921001
601.269392	40749.678123
601.619978	40500.143529
601.970510	40705.008459
602.320988	40843.040293
602.671412	41090.951636
603.021783	40963.831380
603.372100	40539.104086
603.722363	40641.560497
604.072572	40676.102483
604.422728	40690.142097
604.772830	40435.137850
605.122878	40622.174740
605.472872	40482.683492
605.822813	40739.121947
606.172701	40488.866467
606.522534	40814.267907
606.872314	41015.225943
607.222041	40846.536333
607.571714	41193.014837
607.921333	40666.436071
608.270899	40865.748170
608.620411	41250.695719
608.969870	41012.854081
609.319276	41026.853365
609.668627	41058.531976
610.017926	41460.868985
610.367171	41603.795778
610.716362	41634.420788
611.065500	41545.026007
611.414585	41786.882924
611.763616	41943.655247
612.112594	41838.234638
612.461518	41972.357057
612.810389	42343.577544
613.159207	42143.194199
613.507971	42112.178500
613.856682	42614.738688
614.205340	42459.549288
614.553945	43136.926610
614.902496	42478.567041
615.250994	42903.102771
615.599439	42973.237824
615.947830	43079.230604
616.296169	43101.608286
616.644454	43125.331956
616.992686	43268.288997
617.340864	43717.768356
617.688990	43240.792023
618.037063	43905.886573
618.385082	43711.413981
618.733048	44064.377930
619.080961	43948.227224
619.428821	43994.885624
619.776628	44030.803845
620.124382	43851.263151
620.472083	43974.708406
620.819731	44069.590483
621.167326	43660.909182
621.514868	43655.668902
621.862357	43125.788180
622.209793	43207.570819
622.557176	42785.386787
622.904506	42533.588714
623.251783	42177.269878
623.599007	41869.751932
623.946179	41789.945425
624.293297	41519.605989
624.640363	40983.864925
624.987376	40843.937618
625.334336	40643.408080
625.681243	40242.026369
626.028097	40135.365636
626.374899	39966.048402
626.721647	39946.254312
627.068343	39709.161284
627.414987	39432.228018
627.761577	39188.682314
628.108115	39514.744145
628.454600	38752.257023
628.801032	38996.813478
629.147412	38891.251717
629.493739	38770.952142
629.840014	38351.800364
630.186236	38762.241028
630.532405	38186.311887
630.878521	38449.954150
631.224585	38228.118175
631.570597	37888.427585
631.916556	38061.059378
632.262462	37975.072417
632.608316	37920.501927
632.954117	37767.220603
633.299866	37722.966834
633.645562	37655.702718
633.991206	37133.108984
634.336797	36745.628255
634.682336	36634.906873
635.027823	36411.651813
635.373257	36287.427700
635.718639	35941.531449
636.063968	35846.293971
636.409245	35201.921083
636.754470	35164.959343
637.099642	34914.635808
637.444762	34347.621947
637.789829	34476.166329
638.134845	34105.520533
638.479808	34009.466388
638.824719	33971.541788
639.169577	33451.294711
639.514383	33583.335133
639.859137	33188.249823
640.203839	33364.410424
640.548489	33084.155038
640.893086	33053.245203
641.237632	32764.099742
641.582125	32855.735316
641.926566	32636.384630
642.270955	32674.210928
642.615292	32617.291259
642.959576	32484.005672
643.303809	32489.641682
643.647990	32601.734259
643.992118	32570.940370
644.336195	32397.754051
644.680219	32467.931953
645.024192	32652.773421
645.368112	33176.070396
645.711981	33196.996225
646.055797	33878.298085
646.399562	33684.501008
646.743274	34532.740678
647.086935	34939.982729
647.430544	34925.827169
647.774101	34958.294721
648.117606	35273.729799
648.461059	35405.618987
648.804460	35036.256165
649.147810	34539.193355
649.491108	34218.482709
649.834354	34110.982623
650.177548	33304.279541
650.520690	32790.553197
650.863781	32777.504170
651.206820	32598.374330
651.549807	32175.552592
651.892742	31590.135999
652.235626	31496.806597
652.578458	31354.414165
652.921238	30667.816573
653.263967	30944.767483
653.606644	30640.329682
653.949269	30537.066687
654.291843	30155.768933
654.634365	30505.309938
654.976836	30051.575845
655.319255	30141.472221
655.661622	30022.679951
656.003938	29890.276566
656.346203	29700.456959
656.688416	29950.997264
657.030577	29739.762835
657.372687	29564.350846
657.714746	29697.364211
658.056753	29882.964372
658.398708	29261.037222
658.740612	29329.148252
659.082465	29524.651760
659.424266	29415.374668
659.766016	29421.706357
660.107715	29269.811350
660.449362	29354.512817
660.790958	29331.134466
661.132503	29263.454455
661.473996	29342.240128
661.815438	29414.908361
662.156829	29545.020542
662.498168	29358.649084
662.839456	29331.368880
663.180693	29453.016963
663.521879	29498.228552
663.863013	29453.112745
664.204097	29436.025754
664.545129	29841.755460
664.886110	29769.233421
665.227040	29888.292872
665.567918	29882.833302
665.908746	29946.442581
666.249522	30018.750372
666.590248	30065.761652
666.930922	30162.012402
667.271545	30159.925364
667.612118	30223.673275
667.952639	30041.874144
668.293109	30084.751678
668.633528	29930.096640
668.973896	29887.138448
669.314213	29865.665653
669.654480	29667.112247
669.994695	29666.696352
670.334859	29594.519631
670.674973	29380.124399
671.015035	29576.494986
671.355047	29510.733134
671.695008	29430.157851
672.034918	29336.079838
672.374777	29429.666339
672.714585	29318.196345
673.054342	29442.382649
673.394049	29299.909559
673.733705	29517.208496
674.073310	29215.497959
674.412864	29285.307857
674.752368	29019.883546
675.091820	29257.246274
675.431223	28839.531226
675.770574	28652.542227
676.109875	28494.980963
676.449125	28281.218396
676.788324	28183.031842
677.127473	27707.938381
677.466571	27611.173432
677.805619	27326.625504
678.144616	27261.960103
678.483562	27207.162760
678.822458	26881.083286
679.161303	26828.345255
679.500098	26739.774702
679.838842	26659.799317
680.177535	26716.242596
680.516179	26941.544364
680.854771	27009.884766
681.193314	27704.681795
681.531805	28647.140630
681.870247	29386.219154
682.208638	30203.942199
682.546978	30548.270651
682.885268	30739.093448
683.223508	30327.241261
683.561697	30068.030171
683.899836	29906.317517
684.237925	29494.084723
684.575963	29321.304216
684.913951	28933.662171
685.251889	29078.343286
685.589776	29083.139944
685.927614	29083.739841
686.265401	29243.163811
686.603137	29341.980509
686.940824	29823.327522
687.278460	30138.107251
687.616046	30331.112867
687.953582	31000.386534
688.291068	30931.665524
688.628504	31300.645218
688.965889	31320.993836
689.303224	31071.055949
689.640510	30810.597174
689.977745	30219.070702
690.314930	29483.757920
690.652065	29066.141173
690.989150	28400.958403
691.326185	27555.786275
691.663170	26949.222042
692.000105	26234.295685
692.336990	25629.906710
692.673825	25208.398192
693.010610	24709.286153
693.347345	24223.265990
693.684030	23587.750410
694.020665	23392.267067
694.357251	22725.022464
694.693786	22733.443712
695.030272	22506.783353
695.366707	22009.334894
695.703093	21708.403215
696.039429	21780.050614
696.375716	21552.389586
696.711952	21533.200434
697.048139	21402.684961
697.384276	21226.572251
697.720363	21358.794155
698.056400	21243.568501
698.392388	21085.261147
698.728326	21076.759241
699.064214	20924.869276
699.400053	20941.931061
699.735842	20560.978626
700.071581	20373.160357
700.407270	20149.375977
700.742910	19979.103444
701.078501	19704.113542
701.414042	19511.213791
701.749533	19216.815447
702.084974	18916.226567
702.420366	19137.898704
702.755709	18727.821003
703.091002	18424.593079
703.426246	18482.326893
703.761440	18425.371937
704.096584	18183.162139
704.431679	18118.567314
704.766725	18070.482268
705.101721	17986.168970
705.436668	18101.455117
705.771565	17809.194223
706.106413	18116.931460
706.441212	18190.824693
706.775961	18292.129200
707.110661	18352.224795
707.445311	18713.796513
707.779913	18597.950798
708.114465	18878.087717
708.448967	19186.117341
708.783421	19790.705442
709.117825	20132.992227
709.452180	20335.565953
709.786485	20783.152359
710.120742	21523.778517
710.454949	21615.036005
710.789107	22138.776601
711.123216	22826.047187
711.457275	23063.929155
711.791286	23614.947435
712.125247	23789.086533
712.459159	23567.303490
712.793023	24318.316946
713.126837	23340.265044
713.460602	23597.439508
713.794318	23287.327888
714.127985	23028.628475
714.461602	22141.183752
714.795171	22118.735494
715.128691	21156.164976
715.462162	20654.862555
715.795584	20213.701100
716.128957	19937.841599
716.462281	19576.080838
716.795556	19296.049783
717.128782	18820.477411
717.461960	18231.017812
717.795088	18200.879274
718.128167	17855.245164
718.461198	17400.492758
718.794180	17291.319009
719.127113	16968.160883
719.459997	16773.821882
719.792833	16397.562762
720.125619	16439.341324
720.458357	16114.363341
720.791046	15975.003164
721.123686	15822.762838
721.456278	15591.872951
721.788821	15592.553507
722.121315	15332.127499
722.453761	15427.163331
722.786158	15307.355269
723.118506	15397.455812
723.450805	15275.898469
723.783056	15459.404031
724.115259	15341.481360
724.447412	15316.111753
724.779518	15531.162335
725.111574	15578.148410
725.443582	15836.353789
725.775542	15780.172650
726.107453	16281.585976
726.439315	16185.549475
726.771129	16574.537508
727.102895	16985.149572
727.434612	17278.612781
727.766281	17437.225125
728.097901	17761.946009
728.429473	17862.557357
728.760996	17890.979383
729.092471	18004.816198
729.423897	17886.880925
729.755276	17738.887771
730.086606	17827.949836
730.417887	18366.723153
730.749120	18919.672195
731.080305	19138.349887
731.411442	19546.350633
731.742530	19656.860287
732.073570	19794.506472
732.404562	20109.823083
732.735506	20014.610811
733.066401	19890.333766
733.397249	19457.492735
733.728048	18862.253453
734.058798	18028.920475
734.389501	17270.549455
734.720156	16746.738283
735.050762	16167.827298
735.381320	15764.293015
735.711831	15475.548326
736.042293	15100.816675
736.372707	15120.373832
736.703073	14904.746038
737.033391	15086.061218
737.363661	15069.604371
737.693883	15184.575447
738.024056	15376.880342
738.354182	15574.949797
738.684260	15918.166675
739.014290	16192.609611
739.344272	16409.742189
739.674207	16752.185249
740.004093	16942.430834
740.333931	17010.930032
740.663722	17102.164835
740.993464	17157.168864
741.323159	17032.654885
741.652806	16745.845998
741.982405	16591.621979
742.311956	16233.145529
742.641460	16126.252903
742.970915	15801.479087
743.300323	15461.969978
743.629683	15258.047743
743.958996	14948.107522
744.288260	14636.536488
744.617477	14327.644828
744.946647	14288.066729
745.275768	13971.593173
745.604842	13778.360705
745.933869	13596.039814
746.262847	13565.099732
746.591778	13466.996358
746.920662	13348.128471
747.249498	13344.922297
747.578286	13481.991270
747.907027	13636.187563
748.235720	13899.066092
748.564365	13986.083969
748.892963	13926.127006
749.221514	14044.342064
749.550017	13918.749277
749.878473	13894.589548
750.206881	13674.107122
750.535242	13612.063122
750.863555	13537.360783
751.191821	13429.386830
751.520039	13443.870065
751.848210	13356.096014
752.176334	13400.911872
752.504411	13335.444928
752.832440	13165.522755
753.160421	13281.623049
753.488356	13174.470803
753.816243	13080.642327
754.144082	12904.564906
754.471875	12854.226464
754.799620	12816.480824
755.127318	12788.028552
755.454969	12774.586315
755.782572	12740.797982
756.110129	12751.868356
756.437638	12670.894822
756.765100	12681.763550
757.092515	12701.681148
757.419882	12730.997979
757.747203	12726.218965
758.074477	12814.580309
758.401703	12793.135241
758.728882	12980.149446
759.056014	13025.373637
759.383099	13187.928163
759.710138	13314.030106
760.037129	13452.407259
760.364073	13517.904450
760.690970	13533.431204
761.017820	13538.449673
761.344623	13734.255650
761.671379	14058.270772
761.998088	14594.493265
762.324751	15999.603995
762.651366	18924.118493
762.977935	23232.147418
763.304456	26515.546700
763.630931	28105.692981
763.957359	27315.620665
764.283740	25271.589056
764.610074	23128.735708
764.936362	20520.523367
765.262602	18616.212378
765.588796	16642.880431
765.914943	15319.993442
766.241044	14176.392568
766.567097	13362.677241
766.893104	12613.934825
767.219064	12146.430820
767.544978	11660.468630
767.870845	11266.338620
768.196665	11043.297809
768.522438	10811.193003
768.848165	10613.110945
769.173846	10393.465352
769.499479	10270.327607
769.825066	10109.368606
770.150607	9878.176250
770.476101	9800.527357
770.801548	9684.364049
771.126949	9528.176500
771.452303	9418.768338
771.777611	9213.548006
772.102872	9212.184374
772.428087	9072.892252
772.753256	8922.320548
773.078378	8835.806787
773.403453	8654.723499
773.728482	8533.957618
774.053465	8458.862069
774.378401	8357.734003
774.703291	8244.981035
775.028135	8126.501317
775.352932	8089.284999
775.677683	7989.868404
776.002388	7876.192905
776.327046	7887.134729
776.651658	7787.650079
776.976224	7691.293464
777.300743	7686.421189
777.625216	7597.033970
777.949643	7563.827889
778.274024	7579.760456
778.598359	7492.054461
778.922647	7512.718151
779.246889	7458.742517
779.571086	7462.704864
779.895236	7469.054197
780.219339	7477.135167
780.543397	7484.565827
780.867409	7562.625574
781.191374	7574.971360
781.515294	7542.166051
781.839167	7632.904300
782.162995	7605.213242
782.486776	7559.923516
782.810511	7512.508943
783.134201	7423.038545
783.457844	7420.175169
783.781441	7362.960594
784.104993	7307.540669
784.428498	7282.612163
784.751958	7266.258660
785.075372	7240.105154
785.398739	7178.240114
785.722061	7218.062709
786.045337	7215.416103
786.368568	7354.988009
786.691752	7367.222889
787.014891	7651.601939
787.337983	7956.949669
787.661030	8515.837190
787.984031	9131.498186
788.306987	9567.109331
788.629897	9820.293721
788.952760	9825.465945
789.275579	9639.613726
789.598351	9269.464484
789.921078	8940.786295
790.243759	8534.297896
790.566395	8234.298830
790.888984	7988.345975
791.211529	7775.042153
791.534027	7547.776855
791.856480	7346.158428
792.178888	7268.345698
792.501249	7172.533528
792.823566	7011.587129
793.145836	7010.528487
793.468062	6973.579350
793.790241	6915.386791
794.112375	6977.834084
794.434464	7118.061340
794.756507	7146.937069
795.078505	7291.620705
795.400457	7572.276863
795.722364	7904.340187
796.044226	8193.652007
796.366042	8484.450966
796.687812	8455.746636
797.009538	8555.637100
797.331218	8464.190569
797.652852	8387.779280
797.974442	8242.740242
798.295986	8158.273189
798.617484	7976.151424
798.938938	7830.439393
799.260346	7731.562201
799.581709	7535.305041
799.903026	7458.145140
800.224299	7355.771908
800.545526	7182.041144
800.866708	7092.343893
801.187845	7016.219950
801.508936	6913.304794
801.829983	6877.666357
802.150984	6728.312092
802.471940	6683.649989
802.792851	6673.494585
803.113717	6642.110882
803.434538	6607.952023
803.755314	6553.434465
804.076045	6551.357510
804.396731	6489.305947
804.717372	6519.666296
805.037967	6520.976996
805.358518	6551.604526
805.679024	6632.588142
805.999485	6645.188506
806.319901	6691.231885
806.640272	6704.802671
806.960598	6794.179808
807.280879	6797.580066
807.601115	6872.791561
807.921306	6821.754920
808.241453	6824.890517
808.561554	6856.329673
808.881611	6821.865825
809.201623	6835.544996
809.521590	6786.204703
809.841513	6759.058089
810.161390	6794.837679
810.481223	6669.063411
810.801011	6650.320401
811.120755	6631.569829
811.440453	6554.248611
811.760107	6521.844074
812.079716	6491.647563
812.399281	6428.186998
812.718801	6414.268372
813.038276	6375.806889
813.357707	6314.793804
813.677093	6348.834195
813.996434	6258.965545
814.315731	6292.025432
814.634983	6287.400174
814.954191	6289.504855
815.273354	6384.749896
815.592473	6440.696621
815.911547	6559.418315
816.230577	6633.707278
816.549562	6781.443333
816.868502	6877.999073
817.187399	6967.782023
817.506250	7109.377952
817.825058	7132.935264
818.143821	7375.686987
818.462539	7613.183306
818.781213	7934.133407
819.099843	8416.544103
819.418429	9319.245879
819.736970	10220.004289
820.055466	11310.942749
820.373919	12684.856298
820.692327	14666.269214
821.010691	17966.952092
821.329011	25393.766461
821.647286	37045.889461
821.965517	50992.390290
822.283704	58490.126132
822.601847	61651.350530
822.919945	59475.916205
823.237999	55607.909435
823.556010	49636.209000
823.873976	42977.051457
824.191897	36494.140213
824.509775	31642.579122
824.827609	27011.394592
825.145398	24202.861920
825.463144	22543.982027
825.780845	22437.054112
826.098502	23663.564323
826.416116	26964.516902
826.733685	30679.680929
827.051210	32519.419778
827.368692	31603.789964
827.686129	28072.312981
828.003522	24081.765843
828.320872	20336.654842
828.638177	17446.105117
828.955439	15253.586322
829.272656	13429.059155
829.589830	11936.658326
829.906960	10647.214351
830.224046	9674.400208
830.541088	8905.480574
830.858086	8413.463958
831.175041	8013.178699
831.491952	7854.740275
831.808819	7842.291145
832.125642	8135.119169
832.442421	8837.868618
832.759157	10306.223143
833.075849	12873.261861
833.392497	16011.755696
833.709101	18485.233119
834.025662	18855.296661
834.342179	17515.176487
834.658653	15456.543176
834.975083	13536.317264
835.291469	11888.200235
835.607811	10553.489219
835.924110	9648.017330
836.240366	8778.665308
836.556578	7978.321641
836.872746	7322.611198
837.188871	6805.252702
837.504952	6377.994749
837.820990	6054.279576
838.136984	5822.971273
838.452935	5707.647317
838.768842	5687.596127
839.084706	5967.969981
839.400526	6932.320026
839.716303	8423.967203
840.032037	9656.635182
840.347727	9895.686698
840.663373	9104.480122
840.978977	8068.901093
841.294537	7233.135759
841.610054	6619.710515
841.925527	6186.743455
842.240957	5825.128887
842.556344	5499.205687
842.871687	5218.418459
843.186987	4936.983443
843.502244	4707.247980
843.817458	4536.995612
844.132629	4398.827667
844.447756	4305.899037
844.762840	4224.126481
845.077881	4148.136128
845.392879	4090.558589
845.707833	4037.450033
846.022745	3996.107530
846.337613	3968.890341
846.652438	3926.254782
846.967221	3905.828027
847.281960	3876.702760
847.596656	3856.923793
847.911309	3837.792614
848.225919	3815.402330
848.540485	3797.672592
848.855009	3785.062145
849.169490	3763.017179
849.483928	3755.526025
849.798323	3747.739963
850.112675	3729.193558
850.426984	3731.333527
850.741251	3716.439438
851.055474	3712.091443
851.369654	3717.041856
851.683792	3712.139334
851.997887	3720.583267
852.311938	3726.317579
852.625947	3725.878999
852.939914	3718.523956
853.253837	3726.138618
853.567718	3722.239286
853.881555	3713.805436
854.195350	3725.770614
854.509103	3726.209195
854.822812	3721.082341
855.136479	3712.159499
855.450103	3721.967064
855.763685	3706.936863
856.077224	3712.272925
856.390720	3727.371181
856.704173	3745.635281
857.017584	3755.793206
857.330953	3765.015997
857.644278	3785.488123
857.957561	3794.554638
858.270802	3795.025986
858.584000	3801.302222
858.897155	3794.947848
859.210268	3779.539561
859.523339	3758.414606
859.836367	3755.057198
860.149352	3752.607197
860.462295	3743.676793
860.775195	3729.647262
861.088054	3722.635017
861.400869	3718.831466
861.713642	3720.172413
862.026373	3732.258579
862.339062	3737.135896
862.651708	3750.522680
862.964312	3781.770272
863.276873	3794.400883
863.589392	3846.765868
863.901869	3891.221283
864.214303	3933.025052
864.526696	3965.474959
864.839045	4009.975745
865.151353	4037.692008
865.463619	4046.766085
865.775842	4053.511149
866.088023	4074.074016
866.400162	4063.520360
866.712258	4068.987492
867.024313	4078.003595
867.336325	4075.866146
867.648296	4079.818411
867.960224	4076.481167
868.272110	4084.153803
868.583954	4086.316458
868.895755	4101.538222
869.207515	4092.383487
869.519233	4132.553921
869.830909	4145.197135
870.142542	4163.088190
870.454134	4183.358669
870.765684	4210.646435
871.077191	4245.218668
871.388657	4269.212040
871.700081	4304.605981
872.011463	4345.209955
872.322803	4373.274058
872.634101	4400.942431
872.945357	4443.817445
873.256571	4494.473479
873.567744	4523.311400
873.878874	4541.875449
874.189963	4583.487653
874.501010	4589.398406
874.812015	4592.007203
875.122979	4630.990446
875.433900	4631.076145
875.744780	4638.368174
876.055618	4664.582174
876.366415	4664.307432
876.677169	4681.374258
876.987882	4719.011512
877.298554	4762.105816
877.609183	4832.792875
877.919771	4932.496816
878.230317	5054.626330
878.540822	5242.076594
878.851285	5518.077247
879.161707	5905.114354
879.472087	6544.879627
879.782425	7552.951600
880.092722	9373.077840
880.402977	12218.501676
880.713191	15737.431227
881.023363	19452.701118
881.333494	21929.601484
881.643583	23396.693200
881.953631	23628.699703
882.263637	22971.219815
882.573602	21661.059219
882.883526	20222.762574
883.193408	18660.813987
883.503248	17037.622942
883.813048	15557.020934
884.122806	14189.386142
884.432522	12755.739962
884.742197	11532.418281
885.051831	10445.863105
885.361424	9451.031722
885.670975	8627.133264
885.980485	7938.315044
886.289954	7363.656273
886.599382	6887.211782
886.908768	6513.677405
887.218113	6149.199462
887.527417	5865.195977
887.836680	5596.631027
888.145901	5386.394747
888.455082	5220.659252
888.764221	5069.477569
889.073319	4933.303401
889.382376	4857.600393
889.691392	4796.801557
890.000366	4769.276857
890.309300	4749.828086
890.618193	4746.959669
890.927044	4734.046754
891.235855	4748.840020
891.544625	4775.911016
891.853353	4823.691072
892.162041	4915.150206
892.470687	5074.911933
892.779293	5288.409839
893.087858	5610.592502
893.396381	6103.640034
893.704864	6782.330576
894.013306	7813.307031
894.321707	8932.377650
894.630068	9820.455038
894.938387	10173.555097
895.246665	10066.342358
895.554903	9533.472232
895.863100	8880.539465
896.171256	8360.345320
896.479371	7868.832820
896.787446	7379.919035
897.095480	6960.555529
897.403473	6648.803013
897.711425	6346.437126
898.019336	6080.927115
898.327207	5819.124872
898.635038	5591.312609
898.942827	5349.438048
899.250576	5157.785982
899.558284	4965.198781
899.865952	4845.783929
900.173579	4702.080797
900.481165	4590.827573
900.788711	4499.484386
901.096216	4426.657357
901.403681	4361.185371
901.711105	4329.156400
902.018489	4308.021363
902.325832	4360.451883
902.633135	4446.317857
902.940397	4704.752609
903.247619	5315.750537
903.554800	6507.650706
903.861941	8266.385774
904.169041	9848.181384
904.476101	10686.046359
904.783121	10555.533407
905.090100	9936.376371
905.397039	9141.940936
905.703938	8417.640554
906.010796	7747.764470
906.317614	7214.216308
906.624391	6702.362753
906.931129	6289.313292
907.237826	5901.542697
907.544483	5538.138519
907.851099	5178.237943
908.157675	4833.818750
908.464211	4506.481507
908.770707	4268.534005
909.077163	4057.965009
909.383578	3910.014705
909.689954	3792.069349
909.996289	3718.350036
910.302584	3648.030981
910.608839	3615.124849
910.915054	3582.737956
911.221229	3566.228177
911.527363	3574.727563
911.833458	3584.517483
912.139513	3606.033128
912.445527	3625.159266
912.751502	3698.109803
913.057436	3783.322947
913.363331	3901.157398
913.669186	4075.450251
913.975000	4293.316317
914.280775	4652.596831
914.586510	5146.337521
914.892205	5835.309497
915.197859	6763.484222
915.503475	7899.788026
915.809050	8955.766083
916.114585	9673.155043
916.420081	10037.078460
916.725536	10089.695503
917.030952	9722.112209
917.336328	9363.363537
917.641665	8988.165579
917.946961	8535.001137
918.252218	8135.346021
918.557435	7647.556413
918.862612	7239.762355
919.167750	6894.392905
919.472848	6486.946687
919.777906	6123.718949
920.082925	5773.320948
920.387904	5413.468263
920.692843	5141.135050
920.997743	4889.334457
921.302603	4663.057225
921.607423	4493.225793
921.912204	4336.491279
922.216946	4223.889546
922.521647	4103.400928
922.826310	4002.920650
923.130932	3913.329264
923.435516	3815.984583
923.740059	3748.080241
924.044564	3672.939322
924.349028	3615.986886
924.653454	3554.179820
924.957840	3484.629541
925.262186	3439.488528
925.566493	3381.681617
925.870761	3326.317145
926.174989	3290.512350
926.479178	3257.535642
926.783328	3216.402347
927.087438	3189.598532
927.391509	3154.786844
927.695541	3127.662916
927.999533	3099.674430
928.303486	3079.519897
928.607400	3063.383163
928.911275	3053.605846
929.215110	3035.523227
929.518906	3027.291023
929.822663	3024.944365
930.126381	3019.767100
930.430060	3027.066691
930.733699	3026.776825
931.037299	3037.411139
931.340861	3035.987013
931.644383	3046.225596
931.947866	3045.761810
932.251309	3041.933054
932.554714	3037.033052
932.858080	3036.745707
933.161407	3025.052750
933.464694	3019.578057
933.767943	3015.411543
934.071153	3008.943743
934.374323	3000.202382
934.677455	2995.151146
934.980548	2987.632265
935.283602	2980.975422
935.586617	2976.829073
935.889593	2986.392141
936.192530	2985.777121
936.495428	2998.989985
936.798287	3016.724764
937.101108	3047.440514
937.403890	3087.704210
937.706632	3143.497180
938.009336	3217.221535
938.312002	3285.577060
938.614628	3358.172196
938.917216	3405.851429
939.219765	3437.237653
939.522275	3471.961121
939.824747	3481.272132
940.127179	3481.811536
940.429573	3475.885659
940.731929	3473.251656
941.034246	3461.551138
941.336524	3450.926907
941.638763	3438.760082
941.940964	3424.334820
942.243126	3384.940723
942.545250	3368.050337
942.847335	3331.590192
943.149381	3298.421920
943.451389	3264.555449
943.753359	3234.631160
944.055290	3207.766851
944.357182	3181.595701
944.659036	3169.312929
944.960851	3156.515960
945.262628	3142.234371
945.564367	3143.214876
945.866067	3137.329329
946.167729	3134.034935
946.469352	3134.327322
946.770937	3129.321456
947.072484	3113.242696
947.373992	3116.310238
947.675462	3109.071141
947.976893	3094.083790
948.278286	3088.906525
948.579641	3080.807912
948.880958	3073.785584
949.182236	3076.593507
949.483476	3067.509348
949.784678	3068.966241
950.085841	3068.908268
950.386967	3075.353383
950.688054	3094.093873
950.989103	3110.666666
951.290114	3127.733492
951.591087	3155.230466
951.892021	3177.761903
952.192917	3205.246274
952.493776	3233.627970
952.794596	3244.383272
953.095378	3252.260075
953.396122	3246.470309
953.696828	3241.978641
953.997496	3232.987743
954.298126	3210.635267
954.598718	3194.737989
954.899272	3170.714370
955.199788	3145.848879
955.500266	3118.046915
955.800706	3087.618511
956.101108	3048.093344
956.401472	3018.925228
956.701798	2988.630414
957.002087	2947.481995
957.302337	2920.690783
957.602550	2894.416289
957.902724	2863.539222
958.202861	2842.189936
958.502960	2822.191678
958.803022	2800.875159
959.103045	2780.254319
959.403031	2764.571290
959.702979	2750.186357
960.002889	2736.542474
960.302762	2725.409086
960.602596	2715.069680
960.902393	2707.550799
961.202153	2697.158460
961.501875	2689.274095
961.801559	2682.466017
962.101205	2677.921417
962.400814	2671.677948
962.700385	2666.319201
962.999918	2657.043478
963.299414	2653.643220
963.598873	2650.487458
963.898293	2646.416726
964.197677	2647.276243
964.497022	2643.351704
964.796331	2642.371200
965.095601	2639.306178
965.394835	2636.087402
965.694030	2635.379120
965.993189	2634.486835
966.292309	2632.722432
966.591393	2632.651855
966.890439	2630.653038
967.189447	2632.334263
967.488419	2630.615229
967.787353	2632.475415
968.086249	2632.692185
968.385108	2635.958852
968.683930	2634.607823
968.982714	2640.936992
969.281462	2643.908752
969.580172	2648.775986
969.878844	2650.489978
970.177480	2661.454488
970.476078	2665.268121
970.774639	2674.548885
971.073162	2681.679597
971.371649	2687.688653
971.670098	2694.668130
971.968510	2700.369675
972.266885	2702.940663
972.565223	2706.650953
972.863524	2708.932075
973.161788	2713.980790
973.460014	2714.507591
973.758204	2717.413816
974.056356	2718.890874
974.354471	2724.005125
974.652550	2723.110320
974.950591	2720.851883
975.248595	2718.321224
975.546563	2716.140925
975.844493	2715.326778
976.142386	2708.947198
976.440243	2705.330170
976.738062	2699.237936
977.035845	2694.695856
977.333590	2689.543797
977.631299	2686.526667
977.928971	2676.572908
978.226606	2671.327588
978.524204	2667.977741
978.821765	2663.622184
979.119290	2667.178718
979.416777	2665.109324
979.714228	2668.358348
980.011642	2671.335149
980.309020	2674.052331
980.606360	2689.354754
980.903664	2707.276056
981.200931	2734.215982
981.498162	2777.751387
981.795356	2842.164730
982.092513	2920.842018
982.389633	3016.984383
982.686717	3111.614403
982.983764	3186.173068
983.280775	3247.110536
983.577749	3261.097217
983.874686	3254.334509
984.171587	3228.917012
984.468451	3195.642876
984.765279	3154.524704
985.062070	3112.002572
985.358824	3067.411045
985.655543	3019.303314
985.952224	2970.318422
986.248869	2908.677714
986.545478	2853.371215
986.842050	2796.539767
987.138586	2752.838004
987.435086	2714.220245
987.731549	2683.635565
988.027975	2658.341575
988.324366	2640.805922
988.620719	2625.052316
988.917037	2616.026130
989.213318	2604.476847
989.509563	2596.784046
989.805772	2593.993767
990.101944	2588.488827
990.398080	2585.703590
990.694180	2584.876840
990.990244	2583.934145
991.286271	2582.935996
991.582262	2584.599577
991.878217	2588.698035
992.174136	2593.040989
992.470019	2595.738006
992.765865	2597.537698
993.061676	2598.969386
993.357450	2603.579521
993.653188	2612.288114
993.948890	2630.141361
994.244556	2644.551499
994.540186	2663.891886
994.835780	2692.066895
995.131337	2724.536967
995.426859	2762.270003
995.722345	2803.962866
996.017795	2857.182327
996.313208	2894.547359
996.608586	2922.182965
996.903928	2941.291458
997.199234	2944.202725
997.494504	2944.424536
997.789738	2931.067998
998.084936	2910.091757
998.380099	2882.783827
998.675225	2855.564117
998.970316	2825.952379
999.265371	2792.413582
999.560390	2759.845208
999.855373	2729.827657
1000.150320	2701.745910
1000.445232	2677.172806
1000.740108	2652.667757
1001.034948	2636.253760
1001.329752	2619.212139
1001.624521	2607.473813
1001.919254	2597.353696
1002.213951	2592.441092
1002.508613	2582.641089
1002.803239	2571.979048
1003.097829	2569.410580
1003.392384	2566.569890
1003.686903	2560.694425
1003.981386	2558.536812
1004.275834	2552.144628
1004.570246	2550.725544
1004.864623	2549.319062
1005.158964	2547.670604
1005.453270	2545.215563
1005.747540	2542.715150
1006.041775	2542.831097
1006.335974	2541.301107
1006.630138	2538.410005
1006.924266	2540.098791
1007.218359	2537.363965
1007.512416	2535.531506
1007.806438	2533.913296
1008.100425	2535.110570
1008.394376	2531.362472
1008.688292	2534.578728
1008.982172	2532.363141
1009.276017	2535.934798
1009.569827	2535.198790
1009.863602	2533.084026
1010.157341	2532.436237
1010.451045	2529.605630
1010.744714	2527.500948
1011.038347	2528.604961
1011.331945	2530.364323
1011.625508	2528.277286
1011.919036	2525.804600
1012.212528	2526.394415
1012.505986	2524.488858
1012.799408	2525.212264
1013.092795	2525.734023
1013.386147	2525.245032
1013.679464	2521.706142
1013.972745	2519.876203
1014.265992	2521.212108
1014.559204	2523.278982
1014.852380	2523.505833
1015.145521	2524.251924
1015.438628	2521.176820
1015.731699	2520.294618
1016.024736	2521.786800
1016.317737	2525.028262
1016.610703	2524.503982
1016.903635	2525.333252
1017.196531	2527.632018
1017.489393	2525.759229
1017.782219	2528.650331
1018.075011	2533.613347
1018.367768	2532.123686
1018.660490	2533.353727
1018.953177	2533.353727
1019.245829	2533.353727
