Dividing Wavelength (nm)	Counts (n)	Blue Motor Position (mm): 9.500000	Red Motor Position (mm): 0.000000	
326.493990	2068.181256
326.888308	2068.181256
327.282561	2068.181256
327.676750	2041.695034
328.070874	2042.494057
328.464933	2048.064532
328.858929	2057.930070
329.252859	2066.719322
329.646726	2079.642320
330.040528	2096.313415
330.434265	2113.997783
330.827938	2138.210445
331.221547	2157.366830
331.615091	2174.688234
332.008571	2196.836544
332.401986	2217.744729
332.795338	2235.466906
333.188625	2258.545308
333.581847	2275.349994
333.975006	2292.744496
334.368100	2311.300983
334.761129	2325.854794
335.154095	2341.777278
335.546996	2373.231558
335.939833	2424.734506
336.332606	2432.568459
336.725315	2449.337858
337.117960	2459.039558
337.510540	2468.690847
337.903056	2476.640747
338.295508	2485.092241
338.687896	2490.022490
339.080220	2497.138078
339.472480	2498.778974
339.864676	2502.453975
340.256807	2505.307268
340.648875	2509.635099
341.040879	2507.807680
341.432818	2510.466889
341.824694	2514.709020
342.216506	2508.987310
342.608253	2513.065604
342.999937	2512.485871
343.391557	2509.337671
343.783113	2511.036539
344.174605	2507.772392
344.566033	2504.664521
344.957397	2504.268790
345.348697	2503.810045
345.739934	2502.101094
346.131106	2498.600013
346.522215	2495.446771
346.913260	2494.872080
347.304241	2496.220588
347.695159	2491.202120
348.086012	2490.193889
348.476802	2489.049547
348.867528	2486.642396
349.258191	2479.977991
349.648789	2481.578557
350.039324	2478.213587
350.429796	2486.350009
350.820203	2481.079483
351.210548	2482.952271
351.600828	2480.096458
351.991045	2480.104019
352.381198	2477.417084
352.771288	2478.871457
353.161314	2477.868268
353.551276	2476.842393
353.941175	2475.176292
354.331010	2475.955150
354.720782	2482.165851
355.110490	2484.628455
355.500135	2477.797692
355.889717	2478.513535
356.279235	2477.868268
356.668689	2480.751808
357.058080	2481.833135
357.447408	2481.339102
357.836672	2480.381283
358.225873	2481.356746
358.615010	2481.709627
359.004084	2483.776500
359.393095	2478.195943
359.782043	2484.371356
360.170927	2483.940338
360.559748	2483.411016
360.948505	2484.194916
361.337199	2484.719196
361.725830	2482.836325
362.114398	2485.717344
362.502903	2487.905205
362.891344	2486.753301
363.279722	2487.002838
363.668037	2487.794300
364.056289	2488.028713
364.444478	2490.503920
364.832603	2488.207674
365.220665	2488.308497
365.608665	2490.559372
365.996601	2489.546101
366.384474	2490.282109
366.772284	2490.423261
367.160031	2487.816985
367.547715	2491.234887
367.935336	2490.486276
368.322893	2487.723723
368.710388	2485.311531
369.097820	2491.401245
369.485189	2485.727427
369.872495	2491.618015
370.259738	2490.627428
370.646918	2494.458705
371.034035	2491.040803
371.421090	2495.315701
371.808081	2492.114568
372.195010	2493.294198
372.581875	2493.707573
372.968678	2494.466267
373.355418	2493.702532
373.742096	2494.279744
374.128710	2495.880310
374.515262	2495.978613
374.901751	2495.968531
375.288177	2494.252018
375.674540	2494.650269
376.060841	2494.438540
376.447079	2496.523057
376.833254	2497.178407
377.219367	2496.162615
377.605417	2498.801659
377.991404	2496.318891
378.377329	2496.046668
378.763191	2498.111021
379.148991	2499.031032
379.534727	2496.744868
379.920402	2498.652945
380.306013	2496.455002
380.691563	2498.300064
381.077049	2496.001298
381.462474	2496.744868
381.847835	2497.861484
382.233134	2500.419869
382.618371	2500.515651
383.003545	2499.028511
383.388657	2502.726197
383.773706	2499.106649
384.158693	2500.712256
384.543618	2501.821310
384.928480	2500.379540
385.313280	2497.611947
385.698017	2498.980620
386.082692	2499.152019
386.467305	2500.717298
386.851856	2502.428769
387.236344	2500.412308
387.620770	2496.994405
388.005133	2501.609582
388.389435	2498.368120
388.773674	2496.364261
389.157851	2501.609582
389.541965	2501.823831
389.926018	2502.829541
390.310008	2502.968173
390.693936	2503.147134
391.077802	2506.295334
391.461606	2501.569253
391.845348	2503.121928
392.229027	2498.973058
392.612645	2504.157885
392.996200	2503.615961
393.379694	2503.641167
393.763125	2505.060252
394.146494	2502.552277
394.529801	2501.508759
394.913047	2504.460354
395.296230	2505.014881
395.679351	2505.120745
396.062410	2502.975734
396.445408	2503.605879
396.828343	2506.343225
397.211217	2506.239882
397.594028	2504.924140
397.976778	2507.976559
398.359466	2505.133348
398.742092	2505.632423
399.124656	2504.518327
399.507158	2504.296517
399.889598	2508.778103
400.271977	2503.961280
400.654294	2507.185098
401.036549	2508.344563
401.418742	2507.253153
401.800874	2508.745335
402.182944	2505.498832
402.564952	2508.120232
402.946898	2509.567043
403.328783	2509.708195
403.710606	2510.834893
404.092367	2509.272136
404.474067	2510.396313
404.855705	2510.577794
405.237282	2507.311127
405.618797	2507.694254
406.000250	2511.787671
406.381642	2510.267763
406.762972	2507.583349
407.144240	2506.227279
407.525447	2508.130314
407.906593	2503.331136
408.287677	2511.296159
408.668700	2511.157527
409.049661	2511.502846
409.430560	2509.672907
409.811399	2509.390603
410.192176	2514.111643
410.572891	2515.190450
410.953545	2512.410254
411.334138	2511.714575
411.714669	2513.877230
412.095139	2513.491581
412.475547	2512.634585
412.855894	2511.076869
413.236180	2512.082579
413.616405	2511.966632
413.996568	2512.748011
414.376670	2513.791530
414.756711	2511.671725
415.136691	2513.962929
415.516609	2515.016530
415.896466	2513.594925
416.276262	2513.930162
416.655997	2513.395799
417.035670	2512.790861
417.415283	2514.169617
417.794834	2514.305728
418.174324	2510.749194
418.553753	2512.846314
418.933121	2515.664319
419.312428	2515.127436
419.691674	2518.008455
420.070859	2510.713906
420.449983	2515.230779
420.829045	2514.696417
421.208047	2513.829339
421.586988	2515.795389
421.965867	2512.347239
422.344686	2515.397137
422.723444	2516.967457
423.102141	2517.020389
423.480777	2514.149452
423.859352	2512.647188
424.237866	2514.751870
424.616319	2514.691376
424.994712	2517.524504
425.373044	2513.809174
425.751314	2512.316993
426.129524	2510.527383
426.507673	2512.203567
426.885762	2510.335819
427.263789	2519.087262
427.641756	2515.008969
428.019662	2517.169103
428.397508	2516.014679
428.775292	2517.121212
429.153016	2516.443177
429.530679	2513.811695
429.908282	2516.362518
430.285824	2519.966943
430.663305	2514.053670
431.040726	2515.815553
431.418086	2516.866634
431.795385	2519.102386
432.172624	2516.039885
432.549802	2519.477952
432.926920	2517.635410
433.303977	2517.479134
433.680974	2516.639782
434.057910	2514.169617
434.434786	2518.298322
434.811601	2514.605676
435.188355	2520.153466
435.565050	2517.118692
435.941683	2515.729854
436.318257	2520.357633
436.694770	2519.959382
437.071222	2517.491737
437.447614	2517.738753
437.823946	2516.019720
438.200218	2519.793024
438.576429	2518.812519
438.952580	2516.987622
439.328670	2519.046933
439.704700	2517.340502
440.080670	2516.985101
440.456580	2520.090452
440.832429	2518.540297
441.208218	2517.804288
441.583947	2519.112468
441.959616	2517.905112
442.335224	2520.463497
442.710773	2518.729340
443.086261	2518.008455
443.461689	2517.053157
443.837057	2520.168590
444.212365	2518.726820
444.587612	2516.289422
444.962800	2513.617610
445.337927	2514.605676
445.712995	2515.583660
446.088002	2518.361336
446.462949	2515.286232
446.837837	2519.961902
447.212664	2519.185565
447.587431	2522.220339
447.962139	2519.452746
448.336786	2520.836543
448.711374	2519.442663
449.085901	2519.523322
449.460369	2519.752694
449.834776	2518.147087
450.209124	2519.558610
450.583412	2519.248579
450.957640	2519.427540
451.331808	2518.290760
451.705917	2522.711852
452.079965	2518.346212
452.453954	2520.902077
452.827883	2518.255472
453.201752	2520.670184
453.575562	2518.376459
453.949311	2521.701100
454.323001	2517.779083
454.696632	2518.121881
455.070202	2521.325534
455.443713	2518.467200
455.817164	2518.416789
456.190556	2520.970133
456.563888	2523.110103
456.937160	2522.119516
457.310373	2521.549866
457.683526	2520.430730
458.056619	2520.763446
458.429653	2522.427027
458.802628	2522.059022
459.175542	2523.107582
459.548398	2523.306708
459.921194	2519.785462
460.293930	2521.491893
460.666607	2519.074659
461.039224	2524.902233
461.411782	2520.944927
461.784280	2520.229083
462.156719	2520.508868
462.529099	2522.001049
462.901419	2520.302180
463.273680	2519.314114
463.645882	2515.301356
464.018024	2518.285719
464.390106	2517.821933
464.762130	2521.302849
465.134094	2525.061029
465.505999	2520.516429
465.877845	2520.594567
466.249631	2523.697397
466.621358	2518.903260
466.993026	2525.169414
467.364634	2527.952131
467.736184	2522.767304
468.107674	2521.297808
468.479105	2522.116996
468.850477	2520.836543
469.221790	2522.215298
469.593043	2521.759074
469.964238	2525.245032
470.335373	2521.275123
470.706449	2523.921729
471.077467	2521.819567
471.448425	2522.860566
471.819324	2524.907274
472.190164	2522.931142
472.560945	2522.648837
472.931667	2522.036337
473.302330	2523.687315
473.672934	2519.939217
474.043479	2522.404341
474.413965	2523.609177
474.784393	2523.263858
475.154761	2523.256296
475.525070	2523.072294
475.895321	2523.810823
476.265513	2522.951307
476.635645	2525.192099
477.005719	2521.292767
477.375734	2524.166225
477.745691	2528.078160
478.115588	2525.151770
478.485427	2523.165556
478.855207	2527.977337
479.224928	2522.747140
479.594591	2525.333252
479.964194	2525.126564
480.333739	2528.967924
480.703226	2525.960875
481.072653	2524.400638
481.442022	2526.318797
481.811333	2523.679753
482.180584	2520.672705
482.549777	2523.513395
482.918912	2519.551048
483.287988	2524.277130
483.657005	2525.267717
484.025964	2523.921729
484.394864	2526.386853
484.763706	2527.299302
485.132489	2524.093128
485.501213	2523.914167
485.869879	2526.492717
486.238487	2526.291071
486.607036	2526.175124
486.975527	2526.480114
487.343959	2528.466329
487.712333	2524.362830
488.080648	2527.248890
488.448905	2525.839888
488.817104	2525.257634
489.185244	2529.141843
489.553326	2526.739734
489.921350	2525.020700
490.289315	2527.879034
490.657222	2528.373068
491.025070	2529.550177
491.392861	2530.381967
491.760593	2528.184024
492.128267	2527.896678
492.495883	2531.271731
492.863440	2529.227543
493.230939	2529.550177
493.598380	2528.660413
493.965763	2529.721576
494.333088	2530.518078
494.700354	2529.174611
495.067563	2529.955990
495.434713	2526.800227
495.801805	2527.833664
496.168839	2527.137985
496.535815	2526.298633
496.902733	2530.192924
497.269593	2527.737882
497.636395	2525.161852
498.003139	2527.689991
498.369825	2528.050434
498.736453	2528.052954
499.103023	2528.090763
499.469535	2529.628315
499.835989	2528.509179
500.202385	2528.426000
500.568723	2526.270906
500.935003	2528.138654
501.301226	2522.981553
501.667390	2531.319622
502.033497	2527.367357
502.399546	2527.296781
502.765537	2528.713345
503.131470	2529.144364
503.497345	2528.665454
503.863163	2530.523120
504.228923	2527.074970
504.594625	2531.599406
504.960269	2528.360465
505.325856	2528.637728
505.691385	2529.739220
506.056856	2530.450023
506.422270	2528.108407
506.787625	2530.979344
507.152924	2531.443130
507.518164	2526.525485
507.883347	2528.443644
508.248472	2529.587986
508.613540	2529.172090
508.978550	2530.167718
509.343503	2529.056144
509.708398	2529.225023
510.073236	2530.346679
510.438016	2529.469518
510.802738	2532.156453
511.167403	2529.144364
511.532010	2530.102183
511.896561	2530.134951
512.261053	2530.434899
512.625488	2532.731145
512.989866	2533.023532
513.354186	2529.197296
513.718449	2532.398429
514.082655	2531.543953
514.446803	2530.881042
514.810894	2533.719211
515.174927	2531.354910
515.538904	2534.102339
515.902822	2530.870959
516.266684	2533.270548
516.630488	2535.503780
516.994235	2531.062523
517.357925	2535.823893
517.721558	2531.821217
518.085133	2533.207534
518.448651	2535.639891
518.812112	2531.715352
519.175516	2533.031094
519.538863	2531.004550
519.902152	2538.291538
520.265385	2535.594520
520.628560	2539.801363
520.991678	2538.190715
521.354739	2538.788091
521.717743	2537.963863
522.080690	2540.471837
522.443580	2542.621889
522.806413	2541.185160
523.169189	2541.424615
523.531908	2544.209852
523.894569	2544.401416
524.257174	2541.825387
524.619722	2542.576518
524.982213	2545.717157
525.344647	2547.937786
525.707025	2545.003834
526.069345	2546.637168
526.431608	2551.955585
526.793815	2551.242262
527.155964	2550.052550
527.518057	2551.607746
527.880093	2551.350647
528.242072	2553.089845
528.603995	2553.636810
528.965860	2556.142263
529.327669	2555.650751
529.689421	2556.210319
530.051117	2559.895402
530.412755	2558.201575
530.774337	2557.851215
531.135862	2560.785166
531.497331	2559.126627
531.858743	2558.486400
532.220098	2563.353634
532.581396	2561.374981
532.942638	2564.036710
533.303824	2562.567214
533.664953	2569.463512
534.026025	2565.657441
534.387040	2569.062741
534.747999	2568.687175
535.108902	2568.268759
535.469748	2567.641135
535.830537	2568.389747
536.191270	2571.132134
536.551947	2568.490570
536.912567	2570.673389
537.273131	2571.669017
537.633638	2569.307237
537.994089	2577.846951
538.354483	2577.284863
538.714821	2578.769483
539.075103	2580.044894
539.435328	2582.363825
539.795497	2579.185378
540.155609	2584.360122
540.515665	2583.460276
540.875665	2583.056984
541.235609	2583.787951
541.595496	2586.457242
541.955328	2587.697366
542.315102	2590.107037
542.674821	2589.237438
543.034483	2590.114599
543.394090	2587.835998
543.753640	2591.153077
544.113134	2595.180959
544.472571	2593.620722
544.831953	2596.784046
545.191278	2596.267327
545.550548	2595.266658
545.909761	2598.271186
546.268918	2596.975610
546.628019	2600.862339
546.987064	2599.501228
547.346053	2600.567432
547.704986	2602.936774
548.063863	2605.631271
548.422684	2601.061465
548.781449	2605.898452
549.140158	2601.560539
549.498811	2606.687392
549.857408	2604.428956
550.215949	2606.515993
550.574434	2607.241919
550.932864	2609.641509
551.291237	2611.194184
551.649555	2609.729729
552.007817	2609.694441
552.366022	2611.032867
552.724173	2610.974894
553.082267	2609.031529
553.440305	2613.225769
553.798288	2615.088475
554.156215	2613.472786
554.514086	2611.605038
554.871902	2609.679317
555.229661	2612.484719
555.587365	2608.613113
555.945014	2612.910697
556.302606	2615.436315
556.660143	2619.486882
557.017625	2614.450769
557.375050	2613.097220
557.732421	2618.503857
558.089735	2619.055863
558.446994	2619.121398
558.804197	2617.140225
559.161345	2617.508229
559.518437	2617.001593
559.875474	2619.774228
560.232455	2618.662653
560.589381	2617.432612
560.946251	2620.636265
561.303065	2619.852366
561.659825	2618.017386
562.016528	2619.781790
562.373177	2619.295318
562.729770	2622.488889
563.086307	2619.837242
563.442789	2621.059722
563.799216	2622.141050
564.155587	2623.227418
564.511904	2621.001749
564.868164	2619.078549
565.224370	2623.371091
565.580520	2623.229939
565.936615	2623.202212
566.292654	2623.451750
566.648638	2622.123406
567.004567	2621.959568
567.360441	2622.244393
567.716260	2621.074846
568.072023	2620.306070
568.427732	2623.333282
568.783385	2621.561317
569.138982	2623.618108
569.494525	2623.960906
569.850013	2625.889147
570.205445	2624.144908
570.560823	2621.883951
570.916145	2623.189610
571.271412	2623.391256
571.626625	2625.362347
571.981782	2623.015690
572.336884	2621.362191
572.691931	2619.355812
573.046923	2620.747171
573.401860	2617.120060
573.756743	2624.465022
574.111570	2625.241359
574.466342	2623.731534
574.821059	2622.652727
575.175722	2624.608694
575.530330	2621.803292
575.884882	2621.238683
576.239380	2622.670371
576.593823	2622.940072
576.948211	2622.574589
577.302544	2620.797582
577.656823	2621.326903
578.011047	2622.950155
578.365216	2621.132819
578.719330	2623.565176
579.073389	2620.661471
579.427394	2622.181379
579.781344	2620.590895
580.135239	2622.178858
580.489080	2620.434619
580.842866	2620.452263
581.196597	2624.654065
581.550273	2623.050978
581.903895	2623.766822
582.257463	2624.578447
582.610975	2620.817747
582.964434	2625.218674
583.317837	2619.713734
583.671186	2620.595936
584.024481	2624.265896
584.377721	2622.340175
584.730906	2624.344034
585.084037	2623.474435
585.437113	2623.512243
585.790135	2623.444188
586.143103	2622.446039
586.496016	2624.817902
586.848874	2626.768829
587.201679	2623.965947
587.554428	2623.930659
587.907124	2626.637759
588.259765	2625.309415
588.612352	2627.850156
588.964884	2625.075001
589.317362	2627.908130
589.669786	2628.460136
590.022155	2625.362347
590.374470	2626.294960
590.726731	2628.160187
591.078937	2625.982409
591.431090	2629.274282
591.783188	2629.118007
592.135232	2628.427368
592.487222	2632.583800
592.839157	2631.850312
593.191038	2629.730507
593.542866	2634.469191
593.894639	2631.724283
594.246358	2633.992802
594.598022	2635.139665
594.949633	2635.789974
595.301190	2638.106384
595.652692	2639.744759
596.004141	2637.690489
596.355535	2637.977834
596.706876	2638.126548
597.058162	2640.720222
597.409395	2641.977990
597.760573	2643.248361
598.111698	2643.777682
598.462768	2646.542755
598.813785	2646.036119
599.164748	2646.731798
599.515657	2651.082314
599.866511	2650.482417
600.217312	2655.314362
600.568060	2651.581388
600.918753	2656.897285
601.269392	2659.027172
601.619978	2660.232008
601.970510	2661.429282
602.320988	2665.686537
602.671412	2668.486897
603.021783	2671.831703
603.372100	2670.901610
603.722363	2676.943433
604.072572	2677.792867
604.422728	2680.804957
604.772830	2681.213290
605.122878	2686.957685
605.472872	2683.622962
605.822813	2690.214271
606.172701	2691.630835
606.522534	2693.992615
606.872314	2700.969572
607.222041	2702.832279
607.571714	2706.857640
607.921333	2704.006867
608.270899	2715.115050
608.620411	2715.218394
608.969870	2721.096379
609.319276	2729.225240
609.668627	2732.224726
610.017926	2739.741087
610.367171	2743.196798
610.716362	2750.047726
611.065500	2753.067377
611.414585	2759.005856
611.763616	2769.309974
612.112594	2772.213679
612.461518	2782.444701
612.810389	2789.497275
613.159207	2794.689663
613.507971	2799.385498
613.856682	2812.127015
614.205340	2813.367138
614.553945	2830.015549
614.902496	2830.970848
615.250994	2843.508197
615.599439	2851.405165
615.947830	2861.099304
616.296169	2870.032228
616.644454	2879.416336
616.992686	2893.460991
617.340864	2909.630492
617.688990	2915.316913
618.037063	2933.026487
618.385082	2945.442849
618.733048	2962.234932
619.080961	2972.279431
619.428821	2985.376349
619.776628	2998.392608
620.124382	3007.025584
620.472083	3018.297604
620.819731	3032.745551
621.167326	3032.246477
621.514868	3043.450441
621.862357	3046.591080
622.209793	3056.406207
622.557176	3058.165569
622.904506	3064.567835
623.251783	3071.544792
623.599007	3080.676842
623.946179	3083.923345
624.293297	3096.037238
624.640363	3095.654110
624.987376	3109.671038
625.334336	3113.111626
625.681243	3124.918008
626.028097	3134.327322
626.374899	3149.082779
626.721647	3162.298164
627.068343	3170.888290
627.414987	3186.369673
627.761577	3195.080787
628.108115	3218.033161
628.454600	3221.592215
628.801032	3239.420256
629.147412	3256.361053
629.493739	3272.432252
629.840014	3284.404992
630.186236	3312.547233
630.532405	3318.384890
630.878521	3344.104857
631.224585	3362.951210
631.570597	3374.122407
631.916556	3403.325811
632.262462	3417.120929
632.608316	3437.751851
632.954117	3458.594502
633.299866	3476.732573
633.645562	3491.850993
633.991206	3496.123371
634.336797	3500.914988
634.682336	3513.379241
635.027823	3522.070190
635.373257	3533.536295
635.718639	3542.806977
636.063968	3556.992783
636.409245	3553.164027
636.754470	3568.209351
637.099642	3578.452975
637.444762	3579.176381
637.789829	3600.515585
638.134845	3608.939353
638.479808	3625.534832
638.824719	3643.183911
639.169577	3646.117863
639.514383	3666.726100
639.859137	3677.786391
640.203839	3702.127603
640.548489	3715.514387
640.893086	3734.416193
641.237632	3745.035384
641.582125	3774.536216
641.926566	3786.748411
642.270955	3804.561328
642.615292	3824.052950
642.959576	3842.352338
643.303809	3864.062067
643.647990	3897.873086
643.992118	3917.735232
644.336195	3939.182821
644.680219	3965.981595
645.024192	3999.434692
645.368112	4051.184657
645.711981	4083.140531
646.055797	4147.090088
646.399562	4178.178884
646.743274	4257.773662
647.086935	4316.649298
647.430544	4354.432746
647.774101	4389.335174
648.117606	4437.445426
648.461059	4475.256601
648.804460	4480.181808
649.147810	4472.385663
649.491108	4477.144513
649.834354	4489.238241
650.177548	4467.785611
650.520690	4459.318993
650.863781	4481.716839
651.206820	4498.178727
651.549807	4499.479345
651.892742	4484.466789
652.235626	4505.937063
652.578458	4522.426677
652.921238	4505.145602
653.263967	4552.587901
653.606644	4560.454621
653.949269	4581.433383
654.291843	4581.539247
654.634365	4640.170387
654.976836	4635.401455
655.319255	4671.801107
655.661622	4687.663097
656.003938	4705.395356
656.346203	4722.890680
656.688416	4765.332155
657.030577	4777.362868
657.372687	4784.435607
657.714746	4828.298687
658.056753	4871.513978
658.398708	4851.273745
658.740612	4884.066451
659.082465	4932.731230
659.424266	4953.470537
659.766016	4981.537161
660.107715	5001.817723
660.449362	5040.891706
660.790958	5077.445113
661.132503	5096.447742
661.473996	5141.457684
661.815438	5179.962017
662.156829	5219.575404
662.498168	5237.378239
662.839456	5260.791878
663.180693	5305.345596
663.521879	5342.844219
663.863013	5372.092993
664.204097	5402.438219
664.545129	5479.492255
664.886110	5512.176576
665.227040	5555.545623
665.567918	5593.787816
665.908746	5635.765504
666.249522	5686.545047
666.590248	5727.968208
666.930922	5776.353203
667.271545	5813.529192
667.612118	5856.643660
667.952639	5866.983066
668.293109	5912.729017
668.633528	5923.650677
668.973896	5960.085616
669.314213	5983.824410
669.654480	5998.980639
669.994695	6023.894021
670.334859	6051.980810
670.674973	6062.254681
671.015035	6119.446572
671.355047	6150.689122
671.695008	6180.449574
672.034918	6207.936466
672.374777	6254.826758
672.714585	6279.117558
673.054342	6335.719633
673.394049	6359.123190
673.733705	6421.477222
674.073310	6432.028357
674.412864	6470.487320
674.752368	6470.096630
675.091820	6538.053905
675.431223	6513.190934
675.770574	6519.305853
676.109875	6522.496904
676.449125	6522.262490
676.788324	6541.270161
677.127473	6506.460993
677.466571	6518.784094
677.805619	6515.726634
678.144616	6538.852928
678.483562	6565.258491
678.822458	6548.128651
679.161303	6572.827784
679.500098	6592.168171
679.838842	6617.016018
680.177535	6667.961919
680.516179	6736.403144
680.854771	6785.559435
681.193314	6946.455422
681.531805	7159.993657
681.870247	7346.660023
682.208638	7541.321658
682.546978	7654.220819
682.885268	7723.324956
683.223508	7690.262548
683.561697	7687.411776
683.899836	7692.737755
684.237925	7661.686768
684.575963	7681.296856
684.913951	7648.040364
685.251889	7721.812610
685.589776	7760.279134
685.927614	7815.719223
686.265401	7901.053355
686.603137	7962.676420
686.940824	8113.969008
687.278460	8237.134479
687.616046	8329.425403
687.953582	8522.768777
688.291068	8560.204385
688.628504	8684.173920
688.965889	8733.559584
689.303224	8725.450888
689.640510	8706.193680
689.977745	8613.938044
690.314930	8491.929518
690.652065	8426.495341
690.989150	8318.947365
691.326185	8164.584714
691.663170	8054.077580
692.000105	7930.133251
692.336990	7822.154256
692.673825	7760.296778
693.010610	7674.801329
693.347345	7588.721107
693.684030	7471.728529
694.020665	7460.232178
694.357251	7339.940165
694.693786	7367.195163
695.030272	7346.312183
695.366707	7265.121880
695.703093	7220.573203
696.039429	7261.996364
696.375716	7243.407110
696.711952	7272.350894
697.048139	7272.534897
697.384276	7262.573577
697.720363	7322.921229
698.056400	7330.135120
698.392388	7319.289078
698.728326	7345.084662
699.064214	7339.015113
699.400053	7367.853033
699.735842	7298.824514
700.071581	7278.682584
700.407270	7241.468786
700.742910	7219.474232
701.078501	7184.654982
701.414042	7157.508369
701.749533	7102.370748
702.084974	7046.030813
702.420366	7129.477033
702.755709	7051.598767
703.091002	6989.569890
703.426246	7026.524068
703.761440	7038.617796
704.096584	6999.087588
704.431679	7004.872313
704.766725	7017.568458
705.101721	7018.105341
705.436668	7072.577529
705.771565	7015.867069
706.106413	7126.212886
706.441212	7176.901687
706.775961	7219.766619
707.110661	7270.021881
707.445311	7397.616006
707.779913	7395.662559
708.114465	7505.801688
708.448967	7628.571428
708.783421	7839.911721
709.117825	7968.282183
709.452180	8063.716266
709.786485	8229.131648
710.120742	8484.057756
710.454949	8546.580667
710.789107	8736.508659
711.123216	8981.410433
711.457275	9085.681659
711.791286	9285.906208
712.125247	9367.323363
712.459159	9330.210388
712.793023	9594.523126
713.126837	9331.924381
713.460602	9437.231564
713.794318	9362.206592
714.127985	9310.688520
714.461602	9065.809431
714.795171	9085.316176
715.128691	8801.169018
715.462162	8649.541193
715.795584	8541.463896
716.128957	8480.327303
716.462281	8383.771562
716.795556	8313.913773
717.128782	8182.344699
717.461960	8004.046649
717.795088	8018.794544
718.128167	7935.330681
718.461198	7802.705485
718.794180	7786.041951
719.127113	7691.865635
719.459997	7650.286198
719.792833	7535.630195
720.125619	7565.443579
720.458357	7467.758620
720.791046	7438.426667
721.123686	7406.105309
721.456278	7346.627255
721.788821	7360.371961
722.121315	7293.904348
722.453761	7341.805392
722.786158	7315.717420
723.118506	7365.118208
723.450805	7343.683221
723.783056	7425.886797
724.115259	7402.387458
724.447412	7413.399858
724.779518	7513.955754
725.111574	7553.362454
725.443582	7668.706574
725.775542	7666.997623
726.107453	7869.939354
726.439315	7861.243363
726.771129	8032.977831
727.102895	8198.355403
727.434612	8324.971544
727.766281	8404.321826
728.097901	8548.778610
728.429473	8609.678269
728.760996	8645.858630
729.092471	8706.211324
729.423897	8692.885034
729.755276	8658.199375
730.086606	8713.987304
730.417887	8941.461809
730.749120	9182.439046
731.080305	9299.935739
731.411442	9487.633020
731.742530	9555.958299
732.073570	9638.081215
732.404562	9786.681828
732.735506	9769.249518
733.066401	9745.213296
733.397249	9599.246687
733.728048	9388.987722
734.058798	9077.043642
734.389501	8800.982496
734.720156	8609.688351
735.050762	8390.156184
735.381320	8240.413750
735.711831	8127.985937
736.042293	7990.369998
736.372707	8013.269440
736.703073	7945.319727
737.033391	8039.556537
737.363661	8044.005355
737.693883	8110.351981
738.024056	8196.840537
738.354182	8292.294785
738.684260	8454.834188
739.014290	8588.825536
739.344272	8694.301598
739.674207	8860.621866
740.004093	8952.610321
740.333931	9005.711315
740.663722	9056.175786
740.993464	9109.675031
741.323159	9075.150689
741.652806	8966.455850
741.982405	8925.511599
742.311956	8794.368502
742.641460	8771.600131
742.970915	8648.391810
743.300323	8519.018158
743.629683	8442.415305
743.958996	8324.991708
744.288260	8199.562760
744.617477	8073.670025
744.946647	8078.691014
745.275768	7946.557330
745.604842	7870.609827
745.933869	7800.525186
746.262847	7801.241030
746.591778	7774.114581
746.920662	7727.922488
747.249498	7744.306238
747.578286	7815.116806
747.907027	7908.519304
748.235720	8045.527783
748.564365	8095.289013
748.892963	8078.562464
749.221514	8148.410172
749.550017	8108.680838
749.878473	8110.793082
750.206881	8028.710494
750.535242	8008.233327
750.863555	7984.131571
751.191821	7943.351157
751.520039	7965.065927
751.848210	7939.540044
752.176334	7971.511042
752.504411	7946.612783
752.832440	7868.003551
753.160421	7948.286446
753.488356	7907.306907
753.816243	7874.511680
754.144082	7800.343704
754.471875	7785.658823
754.799620	7779.218749
755.127318	7778.916280
755.454969	7783.493648
755.782572	7781.504912
756.110129	7802.924775
756.437638	7767.946729
756.765100	7774.802698
757.092515	7800.744476
757.419882	7828.743044
757.747203	7838.578336
758.074477	7882.930407
758.401703	7879.678863
758.728882	7979.849110
759.056014	8013.319851
759.383099	8107.904500
759.710138	8180.539966
760.037129	8259.756657
760.364073	8305.784912
760.690970	8326.826688
761.017820	8347.732353
761.344623	8463.643604
761.671379	8653.760639
761.998088	8960.111558
762.324751	9714.477381
762.651366	11206.331245
762.977935	13450.340386
763.304456	15168.073229
763.630931	16059.860907
763.957359	15720.850872
764.283740	14688.634293
764.610074	13600.715484
764.936362	12223.235319
765.262602	11243.844991
765.588796	10231.515764
765.914943	9532.002736
766.241044	8928.659799
766.567097	8500.905293
766.893104	8117.434802
767.219064	7868.721915
767.544978	7605.659384
767.870845	7403.688076
768.196665	7279.872296
768.522438	7164.659245
768.848165	7064.587300
769.173846	6963.492001
769.499479	6898.493884
769.825066	6820.804662
770.150607	6703.456683
770.476101	6667.026785
770.801548	6610.971674
771.126949	6525.506473
771.452303	6478.749771
771.777611	6375.910232
772.102872	6378.277054
772.428087	6311.869934
772.753256	6228.033025
773.078378	6189.329567
773.403453	6093.030925
773.728482	6034.132604
774.053465	5990.130893
774.378401	5942.854952
774.703291	5879.434716
775.028135	5815.197813
775.352932	5805.712882
775.677683	5746.839767
776.002388	5692.937230
776.327046	5698.497622
776.651658	5649.754706
776.976224	5593.439976
777.300743	5604.565803
777.625216	5556.105191
777.949643	5534.637437
778.274024	5556.891611
778.598359	5509.103993
778.922647	5523.922465
779.246889	5495.092106
779.571086	5503.374722
779.895236	5506.381770
780.219339	5513.686402
780.543397	5521.220406
780.867409	5572.710752
781.191374	5578.104786
781.515294	5570.328807
781.839167	5630.459690
782.162995	5624.853927
782.486776	5597.044401
782.810511	5576.910033
783.134201	5537.150452
783.457844	5539.295463
783.781441	5505.996122
784.104993	5475.434127
784.428498	5470.871882
784.751958	5464.721675
785.075372	5450.800528
785.398739	5419.638636
785.722061	5455.282114
786.045337	5454.248677
786.368568	5551.237957
786.691752	5553.912289
787.014891	5731.360904
787.337983	5920.817548
787.661030	6249.699905
787.984031	6625.409539
788.306987	6905.314565
788.629897	7081.538180
788.952760	7101.284380
789.275579	7008.481779
789.598351	6792.291896
789.921078	6596.165806
790.243759	6345.812023
790.566395	6172.865158
790.888984	6019.208268
791.211529	5893.186984
791.534027	5761.156644
791.856480	5632.589577
792.178888	5583.478656
792.501249	5523.662845
792.823566	5431.437456
793.145836	5430.472075
793.468062	5415.081433
793.790241	5383.236464
794.112375	5425.143576
794.434464	5517.192524
794.756507	5532.699114
795.078505	5626.285614
795.400457	5802.292460
795.722364	6007.933728
796.044226	6186.377971
796.366042	6383.411469
796.687812	6372.114243
797.009538	6442.655109
797.331218	6389.491101
797.652852	6359.783581
797.974442	6269.201608
798.295986	6229.076544
798.617484	6115.819461
798.938938	6032.610176
799.260346	5973.001052
799.581709	5850.047310
799.903026	5802.922604
800.224299	5736.079424
800.545526	5627.424915
800.866708	5567.241100
801.187845	5526.213669
801.508936	5459.098268
801.829983	5434.946099
802.150984	5331.554555
802.471940	5311.513447
802.792851	5301.463907
803.113717	5290.010406
803.434538	5264.592908
803.755314	5228.283997
804.076045	5229.637547
804.396731	5187.760682
804.717372	5207.592582
805.037967	5207.826995
805.358518	5237.995780
805.679024	5288.430004
805.999485	5293.730777
806.319901	5321.391588
806.640272	5334.707796
806.960598	5397.576026
807.280879	5399.138784
807.601115	5457.850582
807.921306	5425.282208
808.241453	5439.720072
808.561554	5456.436538
808.881611	5443.014466
809.201623	5450.984530
809.521590	5419.900776
809.841513	5414.065640
810.161390	5440.488848
810.481223	5358.733936
810.801011	5354.862329
811.120755	5343.905382
811.440453	5297.894770
811.760107	5280.767450
812.079716	5262.775572
812.399281	5225.029933
812.718801	5219.799736
813.038276	5191.478533
813.357707	5154.867153
813.677093	5187.453172
813.996434	5126.982011
814.315731	5152.676772
814.634983	5150.004961
814.954191	5154.892359
815.273354	5231.553186
815.592473	5267.267240
815.911547	5353.193707
816.230577	5407.572634
816.549562	5507.155587
816.868502	5585.142237
817.187399	5651.743441
817.506250	5760.609679
817.825058	5784.678668
818.143821	5963.685000
818.462539	6134.804447
818.781213	6365.182657
819.099843	6702.539193
819.418429	7334.415060
819.736970	7967.326884
820.055466	8741.254905
820.373919	9715.664573
820.692327	11116.926381
821.010691	13395.974062
821.329011	18208.488896
821.647286	25425.228302
821.965517	34275.044455
822.283704	40332.399134
822.601847	44278.112770
822.919945	42205.565875
823.237999	38914.756097
823.556010	34550.404881
823.873976	30113.392994
824.191897	25765.027277
824.509775	22557.625910
824.827609	19481.113061
825.145398	17627.800905
825.463144	16557.705096
825.780845	16508.135430
826.098502	17343.865476
826.416116	19588.252704
826.733685	22114.463116
827.051210	23396.526842
827.368692	22812.607471
827.686129	20478.465020
828.003522	17724.848158
828.320872	15147.177647
828.638177	13169.031398
828.955439	11618.501024
829.272656	10341.100366
829.589830	9314.497112
829.906960	8397.604488
830.224046	7711.861372
830.541088	7157.873852
830.858086	6808.519370
831.175041	6523.495052
831.491952	6423.024856
831.808819	6427.145999
832.125642	6646.295039
832.442421	7165.032291
832.759157	8248.777024
833.075849	10049.240244
833.392497	12223.157181
833.709101	13963.325680
834.025662	14256.060443
834.342179	13377.294066
834.658653	11920.662745
834.975083	10556.934847
835.291469	9385.446311
835.607811	8424.925022
835.924110	7755.691684
836.240366	7127.760520
836.556578	6541.489451
836.872746	6068.483027
837.188871	5692.118042
837.504952	5372.662644
837.820990	5140.295698
838.136984	4972.044668
838.452935	4885.977048
838.768842	4872.204616
839.084706	5083.673458
839.400526	5783.176404
839.716303	6860.440734
840.032037	7781.903163
840.347727	7955.427241
840.663373	7388.297433
840.978977	6629.013964
841.294537	6020.796232
841.610054	5571.833591
841.925527	5242.066512
842.240957	4973.662878
842.556344	4737.520109
842.871687	4526.789796
843.186987	4318.751459
843.502244	4143.989778
843.817458	4018.979245
844.132629	3921.299328
844.447756	3842.664890
844.762840	3782.070220
845.077881	3725.453022
845.392879	3682.474664
845.707833	3644.792039
846.022745	3612.543778
846.337613	3592.129626
846.652438	3561.565110
846.967221	3550.512380
847.281960	3523.088503
847.596656	3512.466792
847.911309	3496.385511
848.225919	3480.702482
848.540485	3463.600367
848.855009	3455.242134
849.169490	3441.872994
849.483928	3431.873866
849.798323	3425.743823
850.112675	3414.222265
850.426984	3418.986156
850.741251	3408.218251
851.055474	3405.801018
851.369654	3406.383271
851.683792	3407.194897
851.997887	3411.855444
852.311938	3412.248654
852.625947	3415.984149
852.939914	3408.256060
853.253837	3417.597318
853.567718	3416.563881
853.881555	3407.472160
854.195350	3419.074376
854.509103	3413.982811
854.822812	3416.183274
855.136479	3409.685227
855.450103	3418.136721
855.763685	3406.824372
856.077224	3411.895773
856.390720	3420.818615
856.704173	3432.025100
857.017584	3447.514045
857.330953	3452.688790
857.644278	3469.793425
857.957561	3477.143427
858.270802	3477.458499
858.584000	3482.262719
858.897155	3478.980928
859.210268	3468.800317
859.523339	3450.778193
859.836367	3451.299952
860.149352	3447.398099
860.462295	3440.532047
860.775195	3435.916871
861.088054	3430.232970
861.400869	3427.283895
861.713642	3426.048812
862.026373	3433.391253
862.339062	3439.664969
862.651708	3453.782720
862.964312	3477.143427
863.276873	3484.087617
863.589392	3526.564379
863.901869	3555.593863
864.214303	3591.438988
864.526696	3617.310189
864.839045	3653.447701
865.151353	3675.497708
865.463619	3683.734953
865.775842	3690.424564
866.088023	3703.748334
866.400162	3698.243394
866.712258	3706.120197
867.024313	3712.393912
867.336325	3706.394939
867.648296	3711.199159
867.960224	3710.153120
868.272110	3722.236765
868.583954	3724.714493
868.895755	3730.819330
869.207515	3728.785224
869.519233	3758.611211
869.830909	3770.324332
870.142542	3786.536683
870.454134	3799.454639
870.765684	3820.680418
871.077191	3849.278883
871.388657	3870.653376
871.700081	3891.649782
872.011463	3926.239659
872.322803	3948.355201
872.634101	3973.820589
872.945357	4004.233870
873.256571	4042.995302
873.567744	4066.908016
873.878874	4081.071137
874.189963	4111.116414
874.501010	4121.060090
874.812015	4120.288794
875.122979	4158.052077
875.433900	4155.065193
875.744780	4165.225639
876.055618	4182.196683
876.366415	4183.245243
876.677169	4202.731824
876.987882	4236.873038
877.298554	4270.628604
877.609183	4329.836956
877.919771	4406.528030
878.230317	4509.420500
878.540822	4662.890867
878.851285	4886.771030
879.161707	5195.324934
879.472087	5703.929466
879.782425	6502.264233
880.092722	7890.668578
880.402977	9942.085478
880.713191	12240.329872
881.023363	14588.998408
881.333494	16128.319776
881.643583	17190.553906
881.953631	17546.161939
882.263637	17295.132642
882.573602	16531.329779
882.883526	15599.530464
883.193408	14518.901163
883.503248	13418.714707
883.813048	12332.335971
884.122806	11341.406442
884.432522	10300.471187
884.742197	9408.804497
885.051831	8616.745967
885.361424	7880.009058
885.670975	7266.568691
885.980485	6743.561582
886.289954	6314.055275
886.599382	5952.473474
886.908768	5660.656201
887.218113	5378.948962
887.527417	5159.275643
887.836680	4947.768992
888.145901	4782.656080
888.455082	4655.649250
888.764221	4534.535529
889.073319	4429.422430
889.382376	4372.094428
889.691392	4321.478723
890.000366	4295.352943
890.309300	4280.841982
890.618193	4281.822486
890.927044	4269.252369
891.235855	4282.200573
891.544625	4302.100528
891.853353	4341.736600
892.162041	4413.643618
892.470687	4540.025345
892.779293	4715.134865
893.087858	4968.919153
893.396381	5357.811404
893.704864	5882.366147
894.013306	6672.231776
894.321707	7545.394910
894.630068	8245.585974
894.938387	8526.088377
895.246665	8458.637738
895.554903	8057.190493
895.863100	7552.001342
896.171256	7137.941130
896.479371	6753.636328
896.787446	6377.483072
897.095480	6050.062651
897.403473	5800.444877
897.711425	5555.530499
898.019336	5352.860991
898.327207	5142.196213
898.635038	4967.368998
898.942827	4774.617960
899.250576	4617.104587
899.558284	4464.662616
899.865952	4370.864387
900.173579	4255.999176
900.481165	4169.929036
900.788711	4094.478086
901.096216	4036.381308
901.403681	3983.360973
901.711105	3958.624031
902.018489	3942.588121
902.325832	3982.841734
902.633135	4055.144483
902.940397	4261.564610
903.247619	4748.280452
903.554800	5670.375546
903.861941	6996.060376
904.169041	8206.474182
904.476101	8866.086477
904.783121	8792.639386
905.090100	8337.231630
905.397039	7732.928354
905.703938	7171.729464
906.010796	6649.397870
906.317614	6231.796247
906.624391	5823.719884
906.931129	5497.985728
907.237826	5191.085323
907.544483	4905.425820
907.851099	4625.430053
908.157675	4348.166592
908.464211	4094.001697
908.770707	3904.149322
909.077163	3739.215372
909.383578	3617.171557
909.689954	3522.302083
909.996289	3461.437712
910.302584	3409.811256
910.608839	3380.988459
910.915054	3356.327134
911.221229	3339.998837
911.527363	3348.452852
911.833458	3360.675129
912.139513	3375.564177
912.445527	3395.108731
912.751502	3454.853965
913.057436	3522.518853
913.363331	3619.442597
913.669186	3763.440636
913.975000	3937.660393
914.280775	4233.084611
914.586510	4631.678563
914.892205	5177.635525
915.197859	5901.431791
915.503475	6772.328927
915.809050	7590.253618
916.114585	8153.423599
916.420081	8442.586704
916.725536	8503.801435
917.030952	8227.810865
917.336328	7941.717823
917.641665	7656.123854
917.946961	7304.594114
918.252218	6995.473081
918.557435	6614.641634
918.862612	6294.596421
919.167750	6010.466908
919.472848	5689.809194
919.777906	5404.827726
920.082925	5127.546620
920.387904	4840.241180
920.692843	4625.901401
920.997743	4429.462759
921.302603	4242.055344
921.607423	4109.838482
921.912204	3981.687310
922.216946	3883.709964
922.521647	3791.096406
922.826310	3703.909651
923.130932	3634.180411
923.435516	3555.364491
923.740059	3496.604802
924.044564	3436.549536
924.349028	3390.344840
924.653454	3339.068744
924.957840	3285.340126
925.262186	3251.140938
925.566493	3200.857949
925.870761	3155.429592
926.174989	3126.324490
926.479178	3097.864656
926.783328	3061.510375
927.087438	3041.098743
927.391509	3013.306862
927.695541	2987.594457
927.999533	2968.919502
928.303486	2950.068107
928.607400	2936.698967
928.911275	2927.413162
929.215110	2912.723240
929.518906	2907.606468
929.822663	2907.689648
930.126381	2902.759399
930.430060	2902.855181
930.733699	2906.404153
931.037299	2914.490164
931.340861	2915.843714
931.644383	2922.079621
931.947866	2921.235228
932.251309	2919.072573
932.554714	2918.243303
932.858080	2913.628127
933.161407	2907.523289
933.464694	2901.640263
933.767943	2898.905437
934.071153	2894.416289
934.374323	2884.439846
934.677455	2880.212838
934.980548	2876.696634
935.283602	2869.152547
935.586617	2868.504759
935.889593	2876.210162
936.192530	2876.673948
936.495428	2889.022255
936.798287	2898.968451
937.101108	2923.206319
937.403890	2961.813996
937.706632	3008.237982
938.009336	3068.452044
938.312002	3127.655354
938.614628	3180.700896
938.917216	3228.236456
939.219765	3255.950199
939.522275	3286.005558
939.824747	3290.290539
940.127179	3290.197278
940.429573	3287.253244
940.731929	3285.627472
941.034246	3275.459465
941.336524	3269.037035
941.638763	3256.479520
941.940964	3248.451483
942.243126	3210.088302
942.545250	3198.382743
942.847335	3166.857887
943.149381	3139.323105
943.451389	3111.316975
943.753359	3081.634661
944.055290	3063.073132
944.357182	3044.143600
944.659036	3031.003832
944.960851	3020.833304
945.262628	3009.397447
945.564367	3009.967097
945.866067	3003.895028
946.167729	2999.758761
946.469352	3002.922085
946.770937	3003.723628
947.072484	2985.479693
947.373992	2988.920280
947.675462	2984.436174
947.976893	2969.842033
948.278286	2968.609471
948.579641	2956.609004
948.880958	2954.204374
949.182236	2958.161680
949.483476	2950.095834
949.784678	2948.875874
950.085841	2953.420475
950.386967	2958.171762
950.688054	2970.673824
950.989103	2989.318531
951.290114	3003.083402
951.591087	3023.406813
951.892021	3045.913045
952.192917	3068.575552
952.493776	3088.740167
952.794596	3094.103955
953.095378	3104.304730
953.396122	3098.782146
953.696828	3096.269131
953.997496	3085.954930
954.298126	3069.573700
954.598718	3056.290260
954.899272	3035.929040
955.199788	3015.587984
955.500266	2992.499499
955.800706	2964.321970
956.101108	2931.002463
956.401472	2907.959349
956.701798	2880.900956
957.002087	2846.966429
957.302337	2826.494303
957.602550	2804.056127
957.902724	2780.191305
958.202861	2759.499889
958.502960	2738.629512
958.803022	2722.296174
959.103045	2709.030377
959.403031	2698.320446
959.702979	2684.588343
960.002889	2675.466375
960.302762	2661.434323
960.602596	2652.009886
960.902393	2644.518732
961.202153	2639.933802
961.501875	2630.335445
961.801559	2627.419138
962.101205	2623.315638
962.400814	2617.117540
962.700385	2608.913062
962.999918	2603.821497
963.299414	2598.094746
963.598873	2596.905033
963.898293	2590.845567
964.197677	2596.161463
964.497022	2592.161308
964.796331	2591.039651
965.095601	2585.559917
965.394835	2587.919177
965.694030	2585.872468
965.993189	2583.419947
966.292309	2584.418095
966.591393	2582.915832
966.890439	2579.755028
967.189447	2581.174113
967.488419	2583.586305
967.787353	2580.778382
968.086249	2584.702921
968.385108	2586.086717
968.683930	2586.532859
968.982714	2591.727768
969.281462	2595.755650
969.580172	2598.220775
969.878844	2601.721856
970.177480	2612.023454
970.476078	2614.942282
970.774639	2622.622480
971.073162	2626.980557
971.371649	2633.763430
971.670098	2635.883235
971.968510	2640.216107
972.266885	2645.169040
972.565223	2650.162303
972.863524	2650.525266
973.161788	2654.417037
973.460014	2657.882830
973.758204	2662.941628
974.056356	2662.061947
974.354471	2665.973882
974.652550	2663.105466
974.950591	2664.053203
975.248595	2659.180927
975.546563	2660.461381
975.844493	2658.704538
976.142386	2655.304280
976.440243	2649.486789
976.738062	2647.059473
977.035845	2642.325830
977.333590	2637.496404
977.631299	2630.292595
977.928971	2625.556431
978.226606	2618.871861
978.524204	2619.804475
978.821765	2613.951695
979.119290	2615.378342
979.416777	2617.185595
979.714228	2619.920421
980.011642	2621.836060
980.309020	2625.690022
980.606360	2635.200159
980.903664	2651.112561
981.200931	2676.729184
981.498162	2712.967518
981.795356	2766.849891
982.092513	2832.702484
982.389633	2909.985893
982.686717	2987.513798
982.983764	3047.886657
983.280775	3093.957762
983.577749	3106.850513
983.874686	3103.286417
984.171587	3080.598704
984.468451	3050.787841
984.765279	3023.469828
985.062070	2984.940289
985.358824	2952.482820
985.655543	2906.517579
985.952224	2870.435521
986.248869	2816.023827
986.545478	2772.256529
986.842050	2728.736248
987.138586	2687.610515
987.435086	2656.776297
987.731549	2628.959210
988.027975	2608.794595
988.324366	2594.684405
988.620719	2583.107395
988.917037	2571.532906
989.213318	2564.876062
989.509563	2559.512275
989.805772	2556.535473
990.101944	2553.412479
990.398080	2551.471634
990.694180	2549.639175
990.990244	2549.719833
991.286271	2547.300080
991.582262	2548.532642
991.878217	2551.300235
992.174136	2552.525236
992.470019	2554.977757
992.765865	2557.483210
993.061676	2562.126113
993.357450	2565.833882
993.653188	2571.744635
993.948890	2586.235431
994.244556	2600.380909
994.540186	2617.349433
994.835780	2644.175933
995.131337	2671.279697
995.426859	2702.953266
995.722345	2738.097670
996.017795	2781.141562
996.313208	2812.822694
996.608586	2835.770026
996.903928	2849.507170
997.199234	2851.256451
997.494504	2850.517922
997.789738	2841.887466
998.084936	2826.945486
998.380099	2799.975313
998.675225	2782.371604
998.970316	2755.260279
999.265371	2729.010991
999.560390	2700.145344
999.855373	2672.524862
1000.150320	2650.920997
1000.445232	2627.835033
1000.740108	2612.184771
1001.034948	2594.155084
1001.329752	2583.044381
1001.624521	2571.694223
1001.919254	2564.641649
1002.213951	2554.629917
1002.508613	2549.684545
1002.803239	2542.180788
1003.097829	2539.667773
1003.392384	2535.924716
1003.686903	2532.640404
1003.981386	2526.311236
1004.275834	2526.840557
1004.570246	2523.094979
1004.864623	2520.738240
1005.158964	2518.570544
1005.453270	2518.656243
1005.747540	2514.935872
1006.041775	2514.532580
1006.335974	2511.376817
1006.630138	2513.168948
1006.924266	2512.964781
1007.218359	2513.874709
1007.512416	2510.723988
1007.806438	2506.088647
1008.100425	2508.846158
1008.394376	2508.843638
1008.688292	2506.927999
1008.982172	2508.170643
1009.276017	2508.944461
1009.569827	2509.733401
1009.863602	2506.126456
1010.157341	2506.307937
1010.451045	2506.922958
1010.744714	2505.140910
1011.038347	2505.450941
1011.331945	2504.104953
1011.625508	2504.331805
1011.919036	2504.205776
1012.212528	2502.469098
1012.505986	2503.366424
1012.799408	2502.055724
1013.092795	2499.784684
1013.386147	2501.546567
1013.679464	2501.750734
1013.972745	2500.674448
1014.265992	2500.442555
1014.559204	2501.221413
1014.852380	2503.744510
1015.145521	2499.683861
1015.438628	2499.051196
1015.731699	2500.997082
1016.024736	2505.269459
1016.317737	2504.230982
1016.610703	2506.648215
1016.903635	2506.227279
1017.196531	2506.000427
1017.489393	2505.771054
1017.782219	2508.352125
1018.075011	2510.567712
1018.367768	2507.197701
1018.660490	2510.340860
1018.953177	2510.340860
1019.245829	2510.340860
