Dividing Wavelength (nm)	Counts (n)	Blue Motor Position (mm): 2.500000	Red Motor Position (mm): 0.000000	
326.493990	2066.343756
326.888308	2066.343756
327.282561	2066.343756
327.676750	2041.937009
328.070874	2041.758048
328.464933	2051.517722
328.858929	2057.919988
329.252859	2067.699826
329.646726	2079.619634
330.040528	2098.334918
330.434265	2112.366970
330.827938	2136.183901
331.221547	2155.350368
331.615091	2176.409788
332.008571	2194.928467
332.401986	2216.048381
332.795338	2234.476319
333.188625	2255.397107
333.581847	2276.154058
333.975006	2291.156532
334.368100	2312.044553
334.761129	2328.332521
335.154095	2343.980263
335.546996	2358.002232
335.939833	2371.114273
336.332606	2385.511809
336.725315	2396.541853
337.117960	2405.709192
337.510540	2413.681776
337.903056	2426.735844
338.295508	2433.347317
338.687896	2437.614654
339.080220	2444.246292
339.472480	2448.778289
339.864676	2451.603856
340.256807	2455.909002
340.648875	2457.028138
341.040879	2460.186421
341.432818	2460.816565
341.824694	2459.921760
342.216506	2460.299847
342.608253	2461.179528
342.999937	2459.498303
343.391557	2458.008642
343.783113	2455.014197
344.174605	2457.650720
344.566033	2454.711727
344.957397	2452.357509
345.348697	2452.264247
345.739934	2448.722837
346.131106	2449.108485
346.522215	2444.624379
346.913260	2442.597835
347.304241	2442.986004
347.695159	2440.415015
348.086012	2440.407453
348.476802	2438.315375
348.867528	2434.078285
349.258191	2433.720363
349.648789	2433.085178
350.039324	2429.127872
350.429796	2430.773808
350.820203	2430.549477
351.210548	2432.689447
351.600828	2430.935125
351.991045	2430.438572
352.381198	2429.054775
352.771288	2429.803386
353.161314	2430.088212
353.551276	2430.637697
353.941175	2431.860177
354.331010	2428.409507
354.720782	2429.480753
355.110490	2431.436720
355.500135	2428.626277
355.889717	2430.594847
356.279235	2429.488314
356.668689	2431.774477
357.058080	2430.398242
357.447408	2429.095104
357.836672	2430.362954
358.225873	2431.003181
358.615010	2433.344797
359.004084	2431.870259
359.393095	2432.311360
359.782043	2433.664910
360.170927	2435.078954
360.559748	2435.225147
360.948505	2435.613316
361.337199	2437.339911
361.725830	2436.896290
362.114398	2436.858481
362.502903	2438.098605
362.891344	2437.523913
363.279722	2437.208841
363.668037	2437.619695
364.056289	2437.675148
364.444478	2440.568770
364.832603	2439.331167
365.220665	2441.992896
365.608665	2440.049532
365.996601	2442.086158
366.384474	2439.237906
366.772284	2441.582042
367.160031	2438.718667
367.547715	2444.037084
367.935336	2439.991558
368.322893	2443.026333
368.710388	2437.123142
369.097820	2441.869388
369.485189	2439.316044
369.872495	2440.556167
370.259738	2441.171188
370.646918	2444.536158
371.034035	2445.224276
371.421090	2444.836107
371.808081	2445.093206
372.195010	2444.359718
372.581875	2443.628751
372.968678	2445.924996
373.355418	2444.644543
373.742096	2445.446087
374.128710	2447.883485
374.515262	2447.820470
374.901751	2447.800306
375.288177	2446.703855
375.674540	2444.334512
376.060841	2444.702517
376.447079	2446.071190
376.833254	2448.823660
377.219367	2448.223763
377.605417	2447.356684
377.991404	2448.765687
378.377329	2445.120932
378.763191	2447.195367
379.148991	2448.193516
379.534727	2448.448094
379.920402	2448.679987
380.306013	2452.029834
380.691563	2451.011521
381.077049	2449.635286
381.462474	2451.503033
381.847835	2450.028496
382.233134	2450.043619
382.618371	2452.090328
383.003545	2448.690069
383.388657	2452.506223
383.773706	2452.778445
384.158693	2452.589402
384.543618	2451.767694
384.928480	2454.389094
385.313280	2453.955554
385.698017	2452.675101
386.082692	2451.770214
386.467305	2451.455142
386.851856	2453.466562
387.236344	2453.247272
387.620770	2452.095369
388.005133	2452.158383
388.389435	2448.783331
388.773674	2449.007662
389.157851	2454.358847
389.541965	2455.856069
389.926018	2457.247428
390.310008	2453.726182
390.693936	2455.172993
391.077802	2452.594443
391.461606	2456.587037
391.845348	2457.383539
392.229027	2456.839094
392.612645	2456.566872
392.996200	2455.820781
393.379694	2456.944959
393.763125	2455.909002
394.146494	2455.616615
394.529801	2456.939918
394.913047	2457.098714
395.296230	2458.837912
395.679351	2460.647686
396.062410	2457.708693
396.445408	2459.662141
396.828343	2458.195165
397.211217	2459.279013
397.594028	2458.275823
397.976778	2457.905298
398.359466	2459.561317
398.742092	2461.850001
399.124656	2459.067284
399.507158	2458.142233
399.889598	2460.267079
400.271977	2458.341358
400.654294	2459.972172
401.036549	2459.861266
401.418742	2462.225567
401.800874	2458.379167
402.182944	2458.573251
402.564952	2462.102059
402.946898	2460.642645
403.328783	2460.985443
403.710606	2463.253963
404.092367	2460.045268
404.474067	2462.139868
404.855705	2460.262038
405.237282	2463.120372
405.618797	2462.757409
406.000250	2461.403859
406.381642	2462.651545
406.762972	2460.572069
407.144240	2460.022583
407.525447	2462.404528
407.906593	2458.825309
408.287677	2462.079374
408.668700	2463.874025
409.049661	2462.754888
409.430560	2463.997533
409.811399	2463.276648
410.192176	2462.109621
410.572891	2461.965948
410.953545	2464.370578
411.334138	2462.628860
411.714669	2465.404015
412.095139	2465.303192
412.475547	2466.129941
412.855894	2464.836885
413.236180	2465.716566
413.616405	2461.892851
413.996568	2466.099694
414.376670	2465.877883
414.756711	2465.714046
415.136691	2464.718418
415.516609	2465.144395
415.896466	2464.932667
416.276262	2466.719756
416.655997	2469.646146
417.035670	2466.729838
417.415283	2468.151444
417.794834	2466.200517
418.174324	2464.294961
418.553753	2468.537092
418.933121	2466.480301
419.312428	2467.065075
419.691674	2465.789663
420.070859	2469.404170
420.449983	2468.088429
420.829045	2470.046918
421.208047	2468.998357
421.586988	2467.574232
421.965867	2468.640436
422.344686	2469.976341
422.723444	2468.259828
423.102141	2464.867132
423.480777	2469.903245
423.859352	2467.980044
424.237866	2468.713532
424.616319	2469.076495
424.994712	2471.203862
425.373044	2469.699078
425.751314	2467.675055
426.129524	2467.586834
426.507673	2464.746144
426.885762	2462.606174
427.263789	2470.495580
427.641756	2468.766464
428.019662	2470.382154
428.397508	2470.114973
428.775292	2470.593883
429.153016	2471.619758
429.530679	2473.101857
429.908282	2470.009109
430.285824	2471.108080
430.663305	2470.427525
431.040726	2472.494398
431.418086	2474.231075
431.795385	2472.179326
432.172624	2470.566156
432.549802	2470.901393
432.926920	2468.653038
433.303977	2471.760910
433.680974	2472.209572
434.057910	2472.413739
434.434786	2470.430045
434.811601	2472.975828
435.188355	2472.849799
435.565050	2472.554892
435.941683	2473.767289
436.318257	2473.122021
436.694770	2470.994654
437.071222	2472.854840
437.447614	2472.859881
437.823946	2471.997844
438.200218	2472.902731
438.576429	2473.721919
438.952580	2472.683441
439.328670	2474.677217
439.704700	2473.041363
440.080670	2475.667804
440.456580	2473.616054
440.832429	2474.523462
441.208218	2472.990951
441.583947	2475.241827
441.959616	2473.500108
442.335224	2472.857361
442.710773	2474.152937
443.086261	2475.922382
443.461689	2474.311734
443.837057	2476.050932
444.212365	2474.036991
444.587612	2473.401805
444.962800	2470.606486
445.337927	2474.062197
445.712995	2469.752010
446.088002	2472.998513
446.462949	2476.514718
446.837837	2474.168061
447.212664	2476.623103
447.587431	2472.867443
447.962139	2474.904069
448.336786	2475.105715
448.711374	2475.566981
449.085901	2475.453555
449.460369	2476.648308
449.834776	2475.950109
450.209124	2478.352218
450.583412	2475.960191
450.957640	2476.068576
451.331808	2473.021198
451.705917	2475.541775
452.079965	2478.400109
452.453954	2479.511684
452.827883	2477.180150
453.201752	2475.272073
453.575562	2476.779378
453.949311	2478.684935
454.323001	2476.187043
454.696632	2477.729636
455.070202	2477.162506
455.443713	2475.075468
455.817164	2475.970273
456.190556	2475.912300
456.563888	2478.498412
456.937160	2475.808956
457.310373	2479.158803
457.683526	2478.483288
458.056619	2477.081848
458.429653	2476.829790
458.802628	2479.211735
459.175542	2477.109574
459.548398	2478.405151
459.921194	2479.168885
460.293930	2477.835500
460.666607	2479.599904
461.039224	2480.232569
461.411782	2479.700727
461.784280	2477.676704
462.156719	2478.828608
462.529099	2481.545789
462.901419	2482.599391
463.273680	2477.878350
463.645882	2473.616054
464.018024	2477.152424
464.390106	2474.767958
464.762130	2479.239462
465.134094	2476.401292
465.505999	2476.728967
465.877845	2479.607466
466.249631	2480.356077
466.621358	2478.185860
466.993026	2478.102681
467.364634	2481.863382
467.736184	2480.290542
468.107674	2477.351549
468.479105	2480.953454
468.850477	2480.565285
469.221790	2480.625779
469.593043	2478.453042
469.964238	2480.673670
470.335373	2481.540748
470.706449	2481.447487
471.077467	2478.737867
471.448425	2482.982518
471.819324	2477.757362
472.190164	2479.171406
472.560945	2479.304997
472.931667	2480.204842
473.302330	2478.644605
473.672934	2480.187198
474.043479	2480.061170
474.413965	2483.985708
474.784393	2479.844400
475.154761	2482.261633
475.525070	2477.994297
475.895321	2480.784575
476.265513	2483.539566
476.635645	2482.755666
477.005719	2480.774493
477.375734	2482.548979
477.745691	2483.721047
478.115588	2480.124184
478.485427	2481.172744
478.855207	2481.422281
479.224928	2481.064359
479.594591	2483.216932
479.964194	2479.799030
480.333739	2481.719709
480.703226	2482.866572
481.072653	2481.969246
481.442022	2478.994966
481.811333	2479.239462
482.180584	2474.588997
482.549777	2479.957826
482.918912	2476.189563
483.287988	2482.271716
483.657005	2481.606283
484.025964	2479.998155
484.394864	2482.236427
484.763706	2483.385811
485.132489	2482.017137
485.501213	2483.456387
485.869879	2480.865234
486.238487	2481.235758
486.607036	2480.328351
486.975527	2483.161479
487.343959	2483.174082
487.712333	2483.627786
488.080648	2483.302632
488.448905	2481.694503
488.817104	2481.485296
489.185244	2482.922024
489.553326	2485.160297
489.921350	2483.234576
490.289315	2482.768269
490.657222	2483.358084
491.025070	2482.133084
491.392861	2481.971767
491.760593	2483.519401
492.128267	2483.284988
492.495883	2482.521253
492.863440	2483.917652
493.230939	2482.417909
493.598380	2485.450163
493.965763	2483.771459
494.333088	2485.586274
494.700354	2484.348671
495.067563	2485.548466
495.434713	2482.644761
495.801805	2485.190544
496.168839	2482.233907
496.535815	2484.157107
496.902733	2483.816829
497.269593	2483.355564
497.636395	2485.649289
498.003139	2481.412199
498.369825	2485.855976
498.736453	2483.078300
499.103023	2483.668115
499.469535	2484.154587
499.835989	2484.668784
500.202385	2482.175934
500.568723	2479.723412
500.935003	2481.311376
501.301226	2477.313741
501.667390	2484.704072
502.033497	2484.915801
502.399546	2484.787251
502.765537	2486.571820
503.131470	2481.944041
503.497345	2486.607108
503.863163	2483.423619
504.228923	2483.043012
504.594625	2487.506954
504.960269	2485.654330
505.325856	2485.200626
505.691385	2486.271871
506.056856	2486.801192
506.422270	2484.220122
506.787625	2484.305821
507.152924	2484.015955
507.518164	2486.037457
507.883347	2484.782210
508.248472	2485.954278
508.613540	2484.391521
508.978550	2483.579895
509.343503	2485.276243
509.708398	2486.740698
510.073236	2485.455204
510.438016	2484.721716
510.802738	2487.126347
511.167403	2488.154742
511.532010	2485.258599
511.896561	2485.165338
512.261053	2484.497385
512.625488	2482.967395
512.989866	2485.462766
513.354186	2485.414875
513.718449	2483.499237
514.082655	2483.930255
514.446803	2485.850935
514.810894	2484.245327
515.174927	2485.861017
515.538904	2484.005873
515.902822	2482.594349
516.266684	2483.466469
516.630488	2486.324803
516.994235	2483.844556
517.357925	2487.726244
517.721558	2485.495533
518.085133	2485.077118
518.448651	2482.864051
518.812112	2482.387662
519.175516	2482.120481
519.538863	2480.431694
519.902152	2483.015286
520.265385	2484.207519
520.628560	2485.130050
520.991678	2484.673825
521.354739	2485.520739
521.717743	2488.739516
522.080690	2485.692138
522.443580	2487.257417
522.806413	2487.184320
523.169189	2486.977633
523.531908	2487.058291
523.894569	2488.366471
524.257174	2485.061994
524.619722	2486.493682
524.982213	2486.211377
525.344647	2486.902015
525.707025	2483.945379
526.069345	2486.108034
526.431608	2485.336737
526.793815	2485.372025
527.155964	2486.536532
527.518057	2484.096613
527.880093	2486.657519
528.242072	2486.261789
528.603995	2487.562407
528.965860	2486.014772
529.327669	2487.932931
529.689421	2487.753970
530.051117	2487.209526
530.412755	2486.072746
530.774337	2487.378404
531.135862	2485.606439
531.497331	2484.152066
531.858743	2483.703403
532.220098	2486.418065
532.581396	2484.996459
532.942638	2486.980153
533.303824	2485.747591
533.664953	2487.827067
534.026025	2486.153404
534.387040	2488.018631
534.747999	2485.223311
535.108902	2488.242962
535.469748	2485.122488
535.830537	2486.856645
536.191270	2488.064001
536.551947	2485.508136
536.912567	2484.091572
537.273131	2486.082828
537.633638	2479.123515
537.994089	2486.438229
538.354483	2488.409320
538.714821	2485.205667
539.075103	2483.549648
539.435328	2484.996459
539.795497	2485.833291
540.155609	2487.577530
540.515665	2486.758342
540.875665	2488.268168
541.235609	2486.463435
541.595496	2486.894454
541.955328	2486.155925
542.315102	2486.738178
542.674821	2489.117603
543.034483	2487.781697
543.394090	2486.279433
543.753640	2486.085348
544.113134	2488.941162
544.472571	2486.294556
544.831953	2484.847745
545.191278	2487.093579
545.550548	2484.893116
545.909761	2486.541573
546.268918	2487.474186
546.628019	2486.223980
546.987064	2486.372694
547.346053	2485.702221
547.704986	2487.459063
548.063863	2486.730616
548.422684	2485.966881
548.781449	2490.077942
549.140158	2486.589464
549.498811	2485.389669
549.857408	2490.395535
550.215949	2485.825729
550.574434	2486.110554
550.932864	2486.798672
551.291237	2485.913949
551.649555	2486.496203
552.007817	2487.532160
552.366022	2488.646255
552.724173	2488.321100
553.082267	2488.311018
553.440305	2487.078456
553.798288	2488.404279
554.156215	2486.370174
554.514086	2483.852117
554.871902	2481.833135
555.229661	2487.121306
555.587365	2483.363125
555.945014	2486.493682
556.302606	2485.901346
556.660143	2488.018631
557.017625	2487.915287
557.375050	2488.326141
557.732421	2487.491830
558.089735	2488.588281
558.446994	2486.145842
558.804197	2486.894454
559.161345	2486.854124
559.518437	2489.299084
559.875474	2488.048878
560.232455	2488.202633
560.589381	2486.191213
560.946251	2488.663899
561.303065	2489.130205
561.659825	2485.916470
562.016528	2488.358909
562.373177	2490.133395
562.729770	2485.699700
563.086307	2485.198105
563.442789	2487.300267
563.799216	2489.319249
564.155587	2485.349340
564.511904	2484.933445
564.868164	2486.982674
565.224370	2483.877323
565.580520	2487.282622
565.936615	2488.043837
566.292654	2486.884371
566.648638	2488.855463
567.004567	2489.079794
567.360441	2490.312356
567.716260	2486.791110
568.072023	2491.376039
568.427732	2487.030565
568.783385	2488.757160
569.138982	2487.653147
569.494525	2486.415544
569.850013	2488.018631
570.205445	2488.636172
570.560823	2487.088538
570.916145	2485.364463
571.271412	2489.039465
571.626625	2490.541728
571.981782	2487.522077
572.336884	2484.802375
572.691931	2481.596201
573.046923	2485.329175
573.401860	2484.532673
573.756743	2486.657519
574.111570	2487.106182
574.466342	2486.947386
574.821059	2487.736326
575.175722	2485.898826
575.530330	2488.341265
575.884882	2487.126347
576.239380	2488.948724
576.593823	2487.401090
576.948211	2490.261944
577.302544	2487.738847
577.656823	2486.718013
578.011047	2487.436378
578.365216	2488.240442
578.719330	2488.502582
579.073389	2487.648106
579.427394	2485.823208
579.781344	2487.708600
580.135239	2488.527787
580.489080	2485.286326
580.842866	2488.041316
581.196597	2490.004846
581.550273	2484.583085
581.903895	2486.662561
582.257463	2487.658188
582.610975	2486.937303
582.964434	2487.433857
583.317837	2488.361429
583.671186	2488.696666
584.024481	2489.578868
584.377721	2487.968219
584.730906	2484.270533
585.084037	2488.318580
585.437113	2488.673981
585.790135	2486.844042
586.143103	2487.509474
586.496016	2487.885040
586.848874	2485.021665
587.201679	2490.282109
587.554428	2487.469145
587.907124	2488.386635
588.259765	2487.801861
588.612352	2488.313538
588.964884	2488.535349
589.317362	2487.388487
589.669786	2487.212046
590.022155	2486.249186
590.374470	2484.351192
590.726731	2486.463435
591.078937	2483.920173
591.431090	2487.844711
591.783188	2486.667602
592.135232	2487.990905
592.487222	2488.172386
592.839157	2487.562407
593.191038	2488.550473
593.542866	2487.368322
593.894639	2486.914618
594.246358	2486.949906
594.598022	2489.026862
594.949633	2487.083497
595.301190	2489.057109
595.652692	2488.512664
596.004141	2489.175576
596.355535	2486.536532
596.706876	2487.600215
597.058162	2490.188848
597.409395	2486.546614
597.760573	2491.537356
598.111698	2485.225832
598.462768	2490.050216
598.813785	2485.374546
599.164748	2488.409320
599.515657	2487.373363
599.866511	2487.363281
600.217312	2489.054588
600.568060	2489.263796
600.918753	2487.365802
601.269392	2486.672643
601.619978	2487.116264
601.970510	2487.791779
602.320988	2488.177427
602.671412	2488.285812
603.021783	2489.019300
603.372100	2486.372694
603.722363	2489.699856
604.072572	2488.984012
604.422728	2488.560555
604.772830	2483.489154
605.122878	2487.607777
605.472872	2487.638024
605.822813	2489.031903
606.172701	2487.325472
606.522534	2485.553507
606.872314	2488.573158
607.222041	2486.297077
607.571714	2485.477889
607.921333	2484.048722
608.270899	2485.913949
608.620411	2483.839514
608.969870	2487.509474
609.319276	2487.108703
609.668627	2489.520895
610.017926	2485.240955
610.367171	2488.227839
610.716362	2486.803713
611.065500	2488.752119
611.414585	2486.718013
611.763616	2487.678353
612.112594	2487.370843
612.461518	2488.197592
612.810389	2488.197592
613.159207	2486.604587
613.507971	2487.695997
613.856682	2488.943683
614.205340	2488.094248
614.553945	2487.466625
614.902496	2488.605925
615.250994	2486.695328
615.599439	2487.544762
615.947830	2486.498723
616.296169	2488.343785
616.644454	2486.602067
616.992686	2488.419403
617.340864	2488.555514
617.688990	2488.273209
618.037063	2486.357571
618.385082	2489.089876
618.733048	2488.305977
619.080961	2489.994763
619.428821	2489.793117
619.776628	2485.566110
620.124382	2487.242293
620.472083	2487.658188
620.819731	2487.436378
621.167326	2485.684577
621.514868	2487.461583
621.862357	2486.470997
622.209793	2484.948568
622.557176	2489.760350
622.904506	2486.753301
623.251783	2486.591984
623.599007	2484.820019
623.946179	2486.710452
624.293297	2489.125164
624.640363	2487.602736
624.987376	2485.712303
625.334336	2483.295070
625.681243	2484.976295
626.028097	2482.400265
626.374899	2488.295894
626.721647	2486.929742
627.068343	2489.898981
627.414987	2484.565441
627.761577	2489.891420
628.108115	2488.426964
628.454600	2486.745740
628.801032	2483.544607
629.147412	2489.155411
629.493739	2488.265647
629.840014	2486.402941
630.186236	2491.771770
630.532405	2488.454691
630.878521	2486.942345
631.224585	2488.550473
631.570597	2487.695997
631.916556	2488.532829
632.262462	2488.873107
632.608316	2489.140288
632.954117	2488.729434
633.299866	2488.374032
633.645562	2487.411172
633.991206	2488.515185
634.336797	2485.306490
634.682336	2485.810606
635.027823	2485.868579
635.373257	2484.454535
635.718639	2483.080821
636.063968	2487.423775
636.409245	2486.307159
636.754470	2486.289515
637.099642	2485.498054
637.444762	2487.950575
637.789829	2486.176089
638.134845	2484.842704
638.479808	2486.307159
638.824719	2487.759012
639.169577	2486.939824
639.514383	2487.050729
639.859137	2487.552324
640.203839	2487.287664
640.548489	2488.666419
640.893086	2487.537201
641.237632	2485.571151
641.582125	2488.311018
641.926566	2485.407313
642.270955	2487.091059
642.615292	2485.682056
642.959576	2485.833291
643.303809	2481.238279
643.647990	2488.230359
643.992118	2486.390338
644.336195	2487.237252
644.680219	2483.111068
645.024192	2486.226501
645.368112	2483.471510
645.711981	2486.397900
646.055797	2487.597695
646.399562	2485.959320
646.743274	2484.446973
647.086935	2488.487458
647.430544	2487.900164
647.774101	2487.189361
648.117606	2485.896305
648.461059	2486.302118
648.804460	2487.287664
649.147810	2486.470997
649.491108	2488.552993
649.834354	2487.156594
650.177548	2486.692807
650.520690	2487.201964
650.863781	2489.467963
651.206820	2487.469145
651.549807	2486.118116
651.892742	2488.479897
652.235626	2486.929742
652.578458	2487.131388
652.921238	2486.120637
653.263967	2486.927221
653.606644	2486.196254
653.949269	2488.245483
654.291843	2485.974443
654.634365	2485.835811
654.976836	2484.688949
655.319255	2487.133908
655.661622	2486.286995
656.003938	2488.207674
656.346203	2484.031078
656.688416	2490.405617
657.030577	2485.049391
657.372687	2489.634321
657.714746	2487.718682
658.056753	2485.939155
658.398708	2484.091572
658.740612	2490.652634
659.082465	2486.423106
659.424266	2483.423619
659.766016	2481.936479
660.107715	2484.270533
660.449362	2479.673001
660.790958	2485.261120
661.132503	2483.476551
661.473996	2488.764722
661.815438	2488.036275
662.156829	2487.932931
662.498168	2488.351347
662.839456	2490.854280
663.180693	2488.215236
663.521879	2487.965699
663.863013	2489.268837
664.204097	2487.980822
664.545129	2484.399082
664.886110	2487.267499
665.227040	2487.295225
665.567918	2485.558548
665.908746	2486.087869
666.249522	2484.981336
666.590248	2484.860348
666.930922	2487.600215
667.271545	2487.980822
667.612118	2489.135247
667.952639	2485.596357
668.293109	2486.012252
668.633528	2484.666264
668.973896	2489.465442
669.314213	2486.430667
669.654480	2489.735144
669.994695	2484.704072
670.334859	2487.960658
670.674973	2485.067035
671.015035	2484.746922
671.355047	2485.276243
671.695008	2485.835811
672.034918	2487.993425
672.374777	2484.774648
672.714585	2486.473517
673.054342	2488.636172
673.394049	2487.688435
673.733705	2488.207674
674.073310	2485.997128
674.412864	2485.545945
674.752368	2488.096769
675.091820	2482.969915
675.431223	2487.811944
675.770574	2487.867396
676.109875	2487.862355
676.449125	2483.980667
676.788324	2482.480923
677.127473	2482.675008
677.466571	2482.145687
677.805619	2485.119968
678.144616	2484.618373
678.483562	2485.709783
678.822458	2485.664412
679.161303	2485.760194
679.500098	2488.051398
679.838842	2486.879330
680.177535	2484.111737
680.516179	2486.798672
680.854771	2486.387818
681.193314	2485.530822
681.531805	2487.055771
681.870247	2486.150883
682.208638	2485.959320
682.546978	2487.428816
682.885268	2486.531491
683.223508	2487.620380
683.561697	2485.563589
683.899836	2487.779176
684.237925	2485.387149
684.575963	2488.212715
684.913951	2486.458394
685.251889	2483.204329
685.589776	2484.394041
685.927614	2484.598208
686.265401	2487.900164
686.603137	2488.104331
686.940824	2488.926039
687.278460	2486.256748
687.616046	2487.345637
687.953582	2487.181799
688.291068	2486.244145
688.628504	2487.978302
688.965889	2484.305821
689.303224	2486.498723
689.640510	2485.762715
689.977745	2487.819505
690.314930	2485.835811
690.652065	2485.916470
690.989150	2489.437716
691.326185	2486.153404
691.663170	2484.895636
692.000105	2484.348671
692.336990	2482.657364
692.673825	2486.826398
693.010610	2487.811944
693.347345	2483.126191
693.684030	2481.354226
694.020665	2483.811788
694.357251	2479.690645
694.693786	2485.374546
695.030272	2484.862869
695.366707	2488.187510
695.703093	2484.746922
696.039429	2485.316572
696.375716	2485.654330
696.711952	2486.768425
697.048139	2484.378918
697.384276	2487.869917
697.720363	2485.593836
698.056400	2486.496202
698.392388	2484.315903
698.728326	2487.592653
699.064214	2483.814309
699.400053	2484.893116
699.735842	2487.716162
700.071581	2486.927221
700.407270	2487.103662
700.742910	2485.369505
701.078501	2487.005359
701.414042	2487.882520
701.749533	2487.585092
702.084974	2484.998980
702.420366	2486.390338
702.755709	2487.454022
703.091002	2484.877992
703.426246	2485.424957
703.761440	2482.054946
704.096584	2486.806233
704.431679	2484.930924
704.766725	2484.646099
705.101721	2487.345637
705.436668	2486.029896
705.771565	2483.640389
706.106413	2484.822539
706.441212	2485.636686
706.775961	2486.183651
707.110661	2486.279433
707.445311	2487.222129
707.779913	2487.156594
708.114465	2482.276757
708.448967	2485.442601
708.783421	2485.462766
709.117825	2485.210708
709.452180	2487.643065
709.786485	2487.562407
710.120742	2482.859010
710.454949	2483.116109
710.789107	2481.142497
711.123216	2480.298104
711.457275	2485.190544
711.791286	2486.327324
712.125247	2486.493682
712.459159	2485.677015
712.793023	2486.725575
713.126837	2485.372025
713.460602	2484.202477
713.794318	2483.262302
714.127985	2486.813795
714.461602	2484.714155
714.795171	2486.723054
715.128691	2482.299442
715.462162	2486.700369
715.795584	2485.016624
716.128957	2485.112406
716.462281	2488.091728
716.795556	2484.348671
717.128782	2485.346819
717.461960	2485.366984
717.795088	2488.288333
718.128167	2485.614001
718.461198	2485.288846
718.794180	2483.416058
719.127113	2487.287664
719.459997	2484.109216
719.792833	2486.163486
720.125619	2486.407982
720.458357	2485.850935
720.791046	2487.489310
721.123686	2484.043681
721.456278	2482.138125
721.788821	2485.785400
722.121315	2487.217088
722.453761	2485.356902
722.786158	2484.169710
723.118506	2483.501757
723.450805	2486.730616
723.783056	2484.174751
724.115259	2485.961840
724.447412	2484.746922
724.779518	2486.002169
725.111574	2485.775317
725.443582	2485.152735
725.775542	2484.046202
726.107453	2482.806078
726.439315	2487.683394
726.771129	2489.044506
727.102895	2482.657364
727.434612	2483.930255
727.766281	2481.036633
728.097901	2482.904380
728.429473	2484.512508
728.760996	2486.465956
729.092471	2484.295739
729.423897	2485.548466
729.755276	2485.195585
730.086606	2485.588795
730.417887	2485.107365
730.749120	2484.605770
731.080305	2485.359422
731.411442	2484.396562
731.742530	2483.552169
732.073570	2485.286326
732.404562	2485.026706
732.735506	2483.290029
733.066401	2485.198105
733.397249	2487.668271
733.728048	2484.179792
734.058798	2483.335399
734.389501	2486.612149
734.720156	2484.968733
735.050762	2483.829432
735.381320	2482.491006
735.711831	2484.757004
736.042293	2484.633496
736.372707	2485.177941
736.703073	2485.750112
737.033391	2483.050574
737.363661	2487.262458
737.693883	2484.494864
738.024056	2487.391007
738.354182	2483.905049
738.684260	2484.724237
739.014290	2485.757673
739.344272	2483.128712
739.674207	2483.186685
740.004093	2484.704072
740.333931	2486.390338
740.663722	2484.462097
740.993464	2484.278095
741.323159	2484.706593
741.652806	2484.076449
741.982405	2485.089721
742.311956	2483.831953
742.641460	2483.663074
742.970915	2482.339771
743.300323	2482.261633
743.629683	2479.788947
743.958996	2484.613332
744.288260	2480.761890
744.617477	2484.378918
744.946647	2485.939155
745.275768	2485.203147
745.604842	2483.731130
745.933869	2483.658033
746.262847	2482.874133
746.591778	2483.645430
746.920662	2482.717858
747.249498	2487.375884
747.578286	2483.831953
747.907027	2483.373208
748.235720	2484.872951
748.564365	2483.126191
748.892963	2484.212560
749.221514	2485.550986
749.550017	2485.009062
749.878473	2485.752632
750.206881	2485.936634
750.535242	2485.755153
750.863555	2486.788589
751.191821	2483.005203
751.520039	2485.724906
751.848210	2486.022334
752.176334	2483.378249
752.504411	2481.870944
752.832440	2487.726244
753.160421	2485.155256
753.488356	2482.717858
753.816243	2487.118785
754.144082	2485.316573
754.471875	2485.989567
754.799620	2484.502426
755.127318	2481.240800
755.454969	2484.167189
755.782572	2485.379587
756.110129	2483.748774
756.437638	2485.155256
756.765100	2481.767600
757.092515	2483.829432
757.419882	2483.496716
757.747203	2485.823208
758.074477	2484.600729
758.401703	2485.220791
758.728882	2481.956643
759.056014	2487.330513
759.383099	2483.443784
759.710138	2483.078300
760.037129	2480.751808
760.364073	2481.918835
760.690970	2477.732157
761.017820	2486.823877
761.344623	2484.744402
761.671379	2485.767756
761.998088	2482.309524
762.324751	2483.083341
762.651366	2483.320276
762.977935	2485.293887
763.304456	2483.779021
763.630931	2486.781028
763.957359	2485.654330
764.283740	2483.554689
764.610074	2482.944710
764.936362	2482.876654
765.262602	2483.892447
765.588796	2485.399752
765.914943	2484.860348
766.241044	2484.141984
766.567097	2482.740543
766.893104	2482.790954
767.219064	2482.727940
767.544978	2486.254227
767.870845	2485.366984
768.196665	2484.757004
768.522438	2484.046202
768.848165	2486.080307
769.173846	2485.387149
769.499479	2484.429329
769.825066	2483.310193
770.150607	2486.297077
770.476101	2483.912611
770.801548	2488.053919
771.126949	2483.905049
771.452303	2482.982518
771.777611	2484.104175
772.102872	2481.961685
772.428087	2483.035450
772.753256	2483.247179
773.078378	2484.862869
773.403453	2483.763897
773.728482	2482.760708
774.053465	2484.716675
774.378401	2485.170379
774.703291	2485.082159
775.028135	2482.743063
775.352932	2484.706593
775.677683	2484.109216
776.002388	2479.236941
776.327046	2475.624954
776.651658	2483.000162
776.976224	2477.951447
777.300743	2484.409165
777.625216	2483.194247
777.949643	2482.727940
778.274024	2481.681901
778.598359	2483.375728
778.922647	2484.126860
779.246889	2482.417909
779.571086	2483.925214
779.895236	2485.556027
780.219339	2482.301963
780.543397	2485.225832
780.867409	2485.734988
781.191374	2483.781541
781.515294	2484.648620
781.839167	2484.474700
782.162995	2484.993939
782.486776	2484.976295
782.810511	2484.240286
783.134201	2483.022847
783.457844	2483.713486
783.781441	2486.992756
784.104993	2483.973105
784.428498	2482.317086
784.751958	2481.636530
785.075372	2484.580564
785.398739	2481.034112
785.722061	2486.176089
786.045337	2484.686428
786.368568	2484.184833
786.691752	2484.774648
787.014891	2481.868423
787.337983	2483.756335
787.661030	2481.175265
787.984031	2482.866572
788.306987	2483.572333
788.629897	2484.147025
788.952760	2484.925883
789.275579	2481.591160
789.598351	2484.391521
789.921078	2482.806078
790.243759	2486.191213
790.566395	2483.980667
790.888984	2483.337920
791.211529	2482.488485
791.534027	2485.379587
791.856480	2484.257930
792.178888	2480.376242
792.501249	2478.011941
792.823566	2479.776344
793.145836	2478.079996
793.468062	2483.070738
793.790241	2483.922693
794.112375	2481.442446
794.434464	2486.176089
794.756507	2482.370018
795.078505	2483.090903
795.400457	2484.933445
795.722364	2484.615852
796.044226	2485.311531
796.366042	2483.216932
796.687812	2484.409165
797.009538	2484.298259
797.331218	2483.164000
797.652852	2482.821201
797.974442	2483.985708
798.295986	2482.528814
798.617484	2485.382108
798.938938	2482.589308
799.260346	2480.948413
799.581709	2484.399082
799.903026	2484.351192
800.224299	2481.893629
800.545526	2483.612662
800.866708	2485.230873
801.187845	2478.629482
801.508936	2481.104688
801.829983	2484.769607
802.150984	2483.095944
802.471940	2483.214411
802.792851	2483.209370
803.113717	2479.640233
803.434538	2483.844556
803.755314	2485.792962
804.076045	2484.053763
804.396731	2483.839514
804.717372	2483.287508
805.037967	2482.581747
805.358518	2482.163331
805.679024	2484.250368
805.999485	2480.721561
806.319901	2480.915645
806.640272	2484.976295
806.960598	2483.809268
807.280879	2481.833135
807.601115	2482.717858
807.921306	2483.637868
808.241453	2481.263485
808.561554	2479.574698
808.881611	2479.262147
809.201623	2479.743577
809.521590	2483.678197
809.841513	2481.334061
810.161390	2478.974801
810.481223	2483.443784
810.801011	2482.932107
811.120755	2483.158959
811.440453	2479.224338
811.760107	2482.889257
812.079716	2484.270533
812.399281	2483.234576
812.718801	2483.484113
813.038276	2481.845738
813.357707	2482.675008
813.677093	2481.371870
813.996434	2479.660398
814.315731	2479.773824
814.634983	2482.768269
814.954191	2482.254072
815.273354	2484.300780
815.592473	2480.693834
815.911547	2480.661067
816.230577	2483.990749
816.549562	2482.425471
816.868502	2481.422281
817.187399	2480.073773
817.506250	2482.090234
817.825058	2481.018989
818.143821	2480.903042
818.462539	2482.581747
818.781213	2481.989411
819.099843	2483.945379
819.418429	2484.620893
819.736970	2483.090903
820.055466	2481.870944
820.373919	2484.462097
820.692327	2477.974132
821.010691	2484.681387
821.329011	2482.387662
821.647286	2482.163331
821.965517	2484.837663
822.283704	2484.820019
822.601847	2481.807929
822.919945	2481.180306
823.237999	2483.219452
823.556010	2484.121819
823.873976	2481.462610
824.191897	2483.216932
824.509775	2479.478916
824.827609	2479.103350
825.145398	2478.238793
825.463144	2483.390852
825.780845	2484.323465
826.098502	2481.550831
826.416116	2482.115440
826.733685	2481.439925
827.051210	2481.636530
827.368692	2483.446304
827.686129	2485.298928
828.003522	2486.627273
828.320872	2484.409165
828.638177	2483.116109
828.955439	2484.058805
829.272656	2481.792806
829.589830	2482.977477
829.906960	2481.818012
830.224046	2481.248361
830.541088	2483.403455
830.858086	2481.235758
831.175041	2481.112250
831.491952	2480.958495
831.808819	2481.467652
832.125642	2480.124184
832.442421	2481.679380
832.759157	2482.453197
833.075849	2483.504278
833.392497	2485.006542
833.709101	2484.094093
834.025662	2483.201808
834.342179	2481.613845
834.658653	2481.732312
834.975083	2482.107878
835.291469	2485.727427
835.607811	2481.392034
835.924110	2479.272229
836.240366	2483.206850
836.556578	2482.997642
836.872746	2482.100316
837.188871	2482.531335
837.504952	2481.404637
837.820990	2482.191057
838.136984	2481.805409
838.452935	2479.325161
838.768842	2483.277426
839.084706	2482.228866
839.400526	2479.647795
839.716303	2481.944041
840.032037	2479.700727
840.347727	2477.520428
840.663373	2478.521097
840.978977	2476.376086
841.294537	2481.850779
841.610054	2482.377580
841.925527	2484.043681
842.240957	2481.240800
842.556344	2482.770790
842.871687	2481.944041
843.186987	2482.496047
843.502244	2479.988073
843.817458	2480.086375
844.132629	2480.298104
844.447756	2481.507981
844.762840	2479.415902
845.077881	2483.963023
845.392879	2482.826243
845.707833	2480.739205
846.022745	2482.657364
846.337613	2481.714668
846.652438	2483.521922
846.967221	2478.959677
847.281960	2480.293063
847.596656	2480.338433
847.911309	2483.395893
848.225919	2481.321458
848.540485	2481.356746
848.855009	2481.951602
849.169490	2481.810450
849.483928	2481.649133
849.798323	2483.894967
850.112675	2482.536376
850.426984	2482.415388
850.741251	2483.360605
851.055474	2481.780203
851.369654	2479.408340
851.683792	2481.860862
851.997887	2479.869606
852.311938	2481.823053
852.625947	2480.855151
852.939914	2480.938330
853.253837	2478.974801
853.567718	2480.449338
853.881555	2480.724081
854.195350	2481.981849
854.509103	2481.122332
854.822812	2480.661067
855.136479	2477.591004
855.450103	2482.339771
855.763685	2478.168216
856.077224	2476.552527
856.390720	2479.965388
856.704173	2476.832311
857.017584	2480.535038
857.330953	2481.165182
857.644278	2482.400265
857.957561	2483.443784
858.270802	2483.239617
858.584000	2481.807929
858.897155	2481.356746
859.210268	2479.083186
859.523339	2481.979329
859.836367	2480.867754
860.149352	2481.447487
860.462295	2484.630976
860.775195	2481.450008
861.088054	2480.961016
861.400869	2481.490337
861.713642	2480.285501
862.026373	2483.186685
862.339062	2480.512353
862.651708	2483.022848
862.964312	2480.958495
863.276873	2480.736684
863.589392	2479.178968
863.901869	2485.470328
864.214303	2481.452528
864.526696	2482.392703
864.839045	2481.502940
865.151353	2482.811119
865.463619	2481.233238
865.775842	2482.123002
866.088023	2481.893629
866.400162	2480.741725
866.712258	2479.526807
867.024313	2483.539566
867.336325	2479.299955
867.648296	2480.209884
867.960224	2479.993114
868.272110	2482.314565
868.583954	2480.852631
868.895755	2481.581078
869.207515	2480.313227
869.519233	2481.114771
869.830909	2482.778352
870.142542	2482.080152
870.454134	2482.468321
870.765684	2483.060656
871.077191	2479.889770
871.388657	2479.766262
871.700081	2478.876498
872.011463	2481.444966
872.322803	2477.525469
872.634101	2481.881026
872.945357	2479.340285
873.256571	2481.777683
873.567744	2479.713330
873.878874	2482.286839
874.189963	2479.113433
874.501010	2481.535707
874.812015	2478.319451
875.122979	2477.545634
875.433900	2482.836325
875.744780	2481.981849
876.055618	2480.303145
876.366415	2483.060656
876.677169	2478.616879
876.987882	2479.287352
877.298554	2479.917497
877.609183	2479.284832
877.919771	2478.863896
878.230317	2481.865903
878.540822	2481.487816
878.851285	2483.804226
879.161707	2480.255254
879.472087	2480.540079
879.782425	2478.143011
880.092722	2481.197950
880.402977	2481.634010
880.713191	2480.144349
881.023363	2481.087044
881.333494	2482.281798
881.643583	2483.090903
881.953631	2477.152424
882.263637	2480.973618
882.573602	2483.365646
882.883526	2481.422281
883.193408	2481.495378
883.503248	2478.218628
883.813048	2482.861531
884.122806	2480.325830
884.432522	2481.016468
884.742197	2483.378249
885.051831	2477.981694
885.361424	2481.240800
885.670975	2481.099647
885.980485	2480.129225
886.289954	2482.344812
886.599382	2481.276088
886.908768	2477.540593
887.218113	2476.381127
887.527417	2481.084524
887.836680	2474.717547
888.145901	2480.441777
888.455082	2479.811632
888.764221	2479.569657
889.073319	2481.344143
889.382376	2478.642085
889.691392	2480.086375
890.000366	2479.725933
890.309300	2479.809112
890.618193	2479.383134
890.927044	2479.274750
891.235855	2478.543782
891.544625	2481.303814
891.853353	2483.927735
892.162041	2481.051756
892.470687	2481.402117
892.779293	2479.773824
893.087858	2481.805409
893.396381	2479.713330
893.704864	2481.379431
894.013306	2481.699545
894.321707	2480.111581
894.630068	2481.250882
894.938387	2478.465644
895.246665	2480.764411
895.554903	2480.230048
895.863100	2480.101499
896.171256	2478.962198
896.479371	2478.450521
896.787446	2482.682570
897.095480	2481.394555
897.403473	2479.579739
897.711425	2477.724595
898.019336	2479.254585
898.327207	2480.464462
898.635038	2480.595532
898.942827	2480.587970
899.250576	2482.014617
899.558284	2479.249544
899.865952	2480.804740
900.173579	2479.824235
900.481165	2479.887250
900.788711	2480.666108
901.096216	2479.995635
901.403681	2481.344143
901.711105	2480.683752
902.018489	2478.924389
902.325832	2478.178299
902.633135	2477.553196
902.940397	2477.099492
903.247619	2472.857361
903.554800	2479.970429
903.861941	2480.522435
904.169041	2480.192240
904.476101	2479.488999
904.783121	2483.209370
905.090100	2477.981694
905.397039	2478.092599
905.703938	2480.214925
906.010796	2481.540748
906.317614	2479.244503
906.624391	2479.350367
906.931129	2477.033957
907.237826	2476.575212
907.544483	2479.499081
907.851099	2481.886067
908.157675	2480.998824
908.464211	2479.257106
908.770707	2478.919348
909.077163	2478.503453
909.383578	2479.804071
909.689954	2482.571664
909.996289	2481.031592
910.302584	2480.431694
910.608839	2479.002527
910.915054	2478.301807
911.221229	2479.282311
911.527363	2478.200984
911.833458	2478.500933
912.139513	2478.064873
912.445527	2479.834318
912.751502	2478.856334
913.057436	2477.371714
913.363331	2479.589822
913.669186	2478.468165
913.975000	2481.152579
914.280775	2479.156282
914.586510	2479.897332
914.892205	2478.879019
915.197859	2479.425984
915.503475	2478.415233
915.809050	2480.524956
916.114585	2478.606797
916.420081	2478.581591
916.725536	2479.438587
917.030952	2481.702065
917.336328	2481.286170
917.641665	2476.096302
917.946961	2478.579070
918.252218	2478.185860
918.557435	2475.299800
918.862612	2478.112764
919.167750	2479.945223
919.472848	2481.777682
919.777906	2479.857003
920.082925	2481.792806
920.387904	2478.775675
920.692843	2477.943885
920.997743	2479.133597
921.302603	2478.006899
921.607423	2478.634523
921.912204	2480.305666
922.216946	2481.003865
922.521647	2479.085706
922.826310	2478.203504
923.130932	2478.851293
923.435516	2477.381796
923.740059	2480.126705
924.044564	2479.332723
924.349028	2479.395737
924.653454	2478.390027
924.957840	2479.007568
925.262186	2480.610655
925.566493	2481.213073
925.870761	2480.792137
926.174989	2478.795840
926.479178	2480.913125
926.783328	2480.093937
927.087438	2479.453711
927.391509	2479.110912
927.695541	2478.581591
927.999533	2479.226859
928.303486	2477.903556
928.607400	2478.253916
928.911275	2481.218114
929.215110	2480.013279
929.518906	2478.705099
929.822663	2477.550675
930.126381	2478.200984
930.430060	2479.287353
930.733699	2477.543113
931.037299	2480.078814
931.340861	2478.435397
931.644383	2478.954636
931.947866	2478.942033
932.251309	2479.184009
932.554714	2475.519090
932.858080	2479.607466
933.161407	2472.965746
933.464694	2476.287866
933.767943	2475.264512
934.071153	2480.512353
934.374323	2477.147383
934.677455	2479.390696
934.980548	2479.120994
935.283602	2477.696868
935.586617	2480.348515
935.889593	2478.808443
936.192530	2478.193422
936.495428	2480.804740
936.798287	2478.899184
937.101108	2479.075624
937.403890	2478.833649
937.706632	2477.951447
938.009336	2479.708289
938.312002	2478.291725
938.614628	2477.941364
938.917216	2479.730974
939.219765	2477.250726
939.522275	2479.874647
939.824747	2478.269039
940.127179	2478.616879
940.429573	2479.519246
940.731929	2478.805922
941.034246	2478.158134
941.336524	2477.633854
941.638763	2479.395737
941.940964	2474.914152
942.243126	2478.584112
942.545250	2480.141828
942.847335	2479.952785
943.149381	2478.732826
943.451389	2477.137300
943.753359	2478.271560
944.055290	2480.126705
944.357182	2479.597383
944.659036	2478.788278
944.960851	2479.408340
945.262628	2478.669811
945.564367	2477.074286
945.866067	2479.715851
946.167729	2477.941364
946.469352	2477.666622
946.770937	2479.400778
947.072484	2479.408340
947.373992	2479.075624
947.675462	2480.101499
947.976893	2477.026395
948.278286	2474.430201
948.579641	2477.104533
948.880958	2473.928606
949.182236	2479.219297
949.483476	2475.198977
949.784678	2479.120994
950.085841	2477.081848
950.386967	2478.868937
950.688054	2477.149903
950.989103	2477.343988
951.290114	2480.240131
951.591087	2477.830459
951.892021	2478.533700
952.192917	2480.540079
952.493776	2481.296252
952.794596	2479.488999
953.095378	2478.737867
953.396122	2479.388176
953.696828	2478.695017
953.997496	2478.863896
954.298126	2476.718885
954.598718	2479.544451
954.899272	2478.626961
955.199788	2478.062352
955.500266	2478.390027
955.800706	2477.374235
956.101108	2479.804071
956.401472	2480.852631
956.701798	2478.029585
957.002087	2477.903556
957.302337	2479.405820
957.602550	2480.882878
957.902724	2478.891622
958.202861	2476.643267
958.502960	2476.320633
958.803022	2478.102681
959.103045	2477.669142
959.403031	2480.824904
959.702979	2478.853813
960.002889	2478.188381
960.302762	2478.233751
960.602596	2478.236272
960.902393	2480.169554
961.202153	2478.253916
961.501875	2476.870119
961.801559	2479.408340
962.101205	2476.492033
962.400814	2479.085706
962.700385	2479.050418
962.999918	2476.973463
963.299414	2473.346353
963.598873	2477.086889
963.898293	2470.447689
964.197677	2480.706437
964.497022	2476.340798
964.796331	2477.797692
965.095601	2475.171250
965.394835	2480.345995
965.694030	2476.585294
965.993189	2479.292394
966.292309	2480.015799
966.591393	2478.200984
966.890439	2476.053452
967.189447	2478.561426
967.488419	2476.996148
967.787353	2477.953967
968.086249	2477.969091
968.385108	2475.403143
968.683930	2475.375417
968.982714	2479.206694
969.281462	2478.679893
969.580172	2478.223669
969.878844	2476.484471
970.177480	2479.146200
970.476078	2477.845583
970.774639	2479.118474
971.073162	2476.920531
971.371649	2480.187198
971.670098	2479.380614
971.968510	2479.599904
972.266885	2480.935810
972.565223	2476.953298
972.863524	2477.225521
973.161788	2477.769965
973.460014	2475.713174
973.758204	2478.803402
974.056356	2476.930613
974.354471	2476.270222
974.652550	2478.052270
974.950591	2480.358598
975.248595	2476.015644
975.546563	2479.236941
975.844493	2477.475058
976.142386	2479.602425
976.440243	2479.935141
976.738062	2476.182002
977.035845	2477.706951
977.333590	2479.857003
977.631299	2477.018833
977.928971	2472.380972
978.226606	2475.836683
978.524204	2474.447845
978.821765	2474.120170
979.119290	2477.986735
979.416777	2477.812815
979.714228	2478.952116
980.011642	2475.559419
980.309020	2476.401292
980.606360	2479.730974
980.903664	2476.509677
981.200931	2479.708289
981.498162	2476.189563
981.795356	2479.055459
982.092513	2475.977835
982.389633	2478.387507
982.686717	2475.839203
982.983764	2475.909779
983.280775	2476.973463
983.577749	2477.641416
983.874686	2477.860706
984.171587	2477.832980
984.468451	2479.554534
984.765279	2477.296097
985.062070	2476.189563
985.358824	2476.960860
985.655543	2476.741570
985.952224	2477.361632
986.248869	2478.450521
986.545478	2475.854327
986.842050	2479.345326
987.138586	2478.132928
987.435086	2479.126036
987.731549	2476.673514
988.027975	2477.316261
988.324366	2476.986066
988.620719	2479.420943
988.917037	2478.599235
989.213318	2479.304997
989.509563	2476.408854
989.805772	2475.889615
990.101944	2478.410192
990.398080	2477.091930
990.694180	2479.892291
990.990244	2479.504122
991.286271	2478.160655
991.582262	2477.349029
991.878217	2475.813997
992.174136	2480.676190
992.470019	2476.842393
992.765865	2474.347022
993.061676	2473.195118
993.357450	2478.541262
993.653188	2470.624130
993.948890	2478.190902
994.244556	2477.631333
994.540186	2476.658391
994.835780	2477.437249
995.131337	2478.135449
995.426859	2478.379945
995.722345	2478.054790
996.017795	2474.644450
996.313208	2478.364821
996.608586	2476.066055
996.903928	2479.136118
997.199234	2478.150572
997.494504	2478.251395
997.789738	2474.949440
998.084936	2476.544965
998.380099	2476.794502
998.675225	2475.367855
998.970316	2476.202166
999.265371	2476.557568
999.560390	2475.357773
999.855373	2477.056642
1000.150320	2475.924903
1000.445232	2477.470017
1000.740108	2479.695686
1001.034948	2476.058493
1001.329752	2476.781899
1001.624521	2478.221148
1001.919254	2478.037146
1002.213951	2475.955150
1002.508613	2476.484471
1002.803239	2478.387507
1003.097829	2475.904738
1003.392384	2477.535552
1003.686903	2475.204018
1003.981386	2475.365335
1004.275834	2476.802064
1004.570246	2479.922538
1004.864623	2476.446662
1005.158964	2479.925058
1005.453270	2476.063535
1005.747540	2474.783082
1006.041775	2477.217959
1006.335974	2477.679224
1006.630138	2477.533031
1006.924266	2478.347177
1007.218359	2477.916159
1007.512416	2476.519759
1007.806438	2473.343832
1008.100425	2475.330047
1008.394376	2470.939202
1008.688292	2477.611169
1008.982172	2475.748462
1009.276017	2476.227372
1009.569827	2475.806436
1009.863602	2478.006899
1010.157341	2476.968422
1010.451045	2474.531024
1010.744714	2474.805767
1011.038347	2476.008082
1011.331945	2477.331385
1011.625508	2475.819039
1011.919036	2477.507825
1012.212528	2478.029585
1012.505986	2474.732670
1012.799408	2480.003196
1013.092795	2476.338278
1013.386147	2479.133597
1013.679464	2475.836683
1013.972745	2477.308700
1014.265992	2474.568833
1014.559204	2476.355922
1014.852380	2473.976497
1015.145521	2477.568319
1015.438628	2478.100161
1015.731699	2478.654688
1016.024736	2476.446662
1016.317737	2478.871457
1016.610703	2476.416415
1016.903635	2478.352218
1017.196531	2475.902218
1017.489393	2474.760396
1017.782219	2474.468009
1018.075011	2476.139152
1018.367768	2475.012454
1018.660490	2478.284163
1018.953177	2478.284163
1019.245829	2478.284163
