Dividing Wavelength (nm)	Counts (n)	Blue Motor Position (mm): 40.000000	Red Motor Position (mm): 0.000000	
326.493990	2064.599517
326.888308	2064.599517
327.282561	2064.599517
327.676750	2039.860054
328.070874	2043.179654
328.464933	2045.412885
328.858929	2056.395039
329.252859	2065.592624
329.646726	2077.905642
330.040528	2094.937180
330.434265	2113.997783
330.827938	2135.556278
331.221547	2153.361633
331.615091	2175.209994
332.008571	2197.638087
332.401986	2215.183823
332.795338	2234.619992
333.188625	2253.589854
333.581847	2270.263470
333.975006	2291.138888
334.368100	2307.918369
334.761129	2326.235401
335.154095	2341.613441
335.546996	2392.289640
335.939833	2498.431134
336.332606	2507.512773
336.725315	2521.998528
337.117960	2532.509334
337.510540	2543.161292
337.903056	2552.658826
338.295508	2558.025134
338.687896	2564.351782
339.080220	2568.185580
339.472480	2573.060376
339.864676	2578.956005
340.256807	2582.268043
340.648875	2581.363156
341.040879	2583.533373
341.432818	2586.545462
341.824694	2590.351533
342.216506	2588.335072
342.608253	2585.655699
342.999937	2585.149063
343.391557	2585.471697
343.783113	2581.542117
344.174605	2581.148907
344.566033	2580.254102
344.957397	2577.678073
345.348697	2574.552557
345.739934	2575.712023
346.131106	2575.452403
346.522215	2571.648853
346.913260	2571.600962
347.304241	2571.147258
347.695159	2565.085270
348.086012	2568.984603
348.476802	2564.727348
348.867528	2561.286761
349.258191	2556.061605
349.648789	2558.763663
350.039324	2552.857952
350.429796	2560.240722
350.820203	2558.342727
351.210548	2559.043447
351.600828	2555.118909
351.991045	2555.567572
352.381198	2555.043292
352.771288	2554.884496
353.161314	2555.229815
353.551276	2552.222766
353.941175	2552.172355
354.331010	2553.097407
354.720782	2557.586554
355.110490	2559.222408
355.500135	2553.362067
355.889717	2555.542366
356.279235	2557.720145
356.668689	2555.194527
357.058080	2555.363405
357.447408	2557.707542
357.836672	2552.610935
358.225873	2557.417675
358.615010	2558.299877
359.004084	2559.892882
359.393095	2561.165773
359.782043	2560.492779
360.170927	2557.563869
360.559748	2560.510423
360.948505	2561.695094
361.337199	2562.526885
361.725830	2562.050496
362.114398	2563.086453
362.502903	2564.374468
362.891344	2564.959242
363.279722	2559.852553
363.668037	2563.000753
364.056289	2563.666186
364.444478	2564.124931
364.832603	2567.913358
365.220665	2567.124417
365.608665	2567.552915
365.996601	2565.556618
366.384474	2569.156002
366.772284	2569.559294
367.160031	2569.634912
367.547715	2568.843451
367.935336	2567.290775
368.322893	2567.343707
368.710388	2565.614592
369.097820	2566.642987
369.485189	2567.507545
369.872495	2571.797567
370.259738	2572.412587
370.646918	2571.850499
371.034035	2576.868967
371.421090	2573.806467
371.808081	2571.626167
372.195010	2573.743452
372.581875	2571.318657
372.968678	2573.572053
373.355418	2574.398802
373.742096	2573.035170
374.128710	2577.093299
374.515262	2576.586663
374.901751	2578.162023
375.288177	2579.467682
375.674540	2575.263360
376.060841	2579.533217
376.447079	2578.837538
376.833254	2579.994483
377.219367	2577.862075
377.605417	2578.618248
377.991404	2577.751169
378.377329	2580.337281
378.763191	2578.497260
379.148991	2578.945923
379.534727	2579.901222
379.920402	2582.434401
380.306013	2584.592015
380.691563	2585.330544
381.077049	2582.131932
381.462474	2584.760894
381.847835	2585.002869
382.233134	2582.656212
382.618371	2581.164031
383.003545	2584.977663
383.388657	2586.222828
383.773706	2586.893302
384.158693	2589.214753
384.543618	2585.809454
384.928480	2588.244331
385.313280	2588.176276
385.698017	2590.263313
386.082692	2589.209712
386.467305	2590.880855
386.851856	2590.709455
387.236344	2594.127358
387.620770	2589.489496
388.005133	2590.711976
388.389435	2591.596698
388.773674	2590.391863
389.157851	2592.453695
389.541965	2597.938470
389.926018	2598.429982
390.310008	2596.859663
390.693936	2599.481063
391.077802	2600.617843
391.461606	2599.294540
391.845348	2602.205807
392.229027	2606.757969
392.612645	2605.699326
392.996200	2607.486415
393.379694	2610.627054
393.763125	2612.169647
394.146494	2619.703652
394.529801	2622.904784
394.913047	2626.615074
395.296230	2633.370220
395.679351	2635.321146
396.062410	2645.779020
396.445408	2650.686583
396.828343	2659.052378
397.211217	2670.208452
397.594028	2675.327743
397.976778	2684.096830
398.359466	2699.444623
398.742092	2708.808567
399.124656	2718.709393
399.507158	2737.099522
399.889598	2748.769793
400.271977	2771.623864
400.654294	2786.613735
401.036549	2808.338587
401.418742	2823.255362
401.800874	2848.602283
402.182944	2872.966180
402.564952	2905.521951
402.946898	2927.234201
403.328783	2944.449741
403.710606	2978.530462
404.092367	3019.515043
404.474067	3056.585167
404.855705	3076.404464
405.237282	3090.224787
405.618797	3148.755104
406.000250	3197.457691
406.381642	3249.421905
406.762972	3279.111781
407.144240	3294.951086
407.525447	3348.843541
407.906593	3382.757904
408.287677	3451.093265
408.668700	3493.149091
409.049661	3546.507183
409.430560	3592.192640
409.811399	3618.026033
410.192176	3675.674148
410.572891	3750.815067
410.953545	3839.438551
411.334138	3818.709327
411.714669	3918.866971
412.095139	3909.079571
412.475547	4006.424252
412.855894	4041.810631
413.236180	4139.004077
413.616405	4132.392604
413.996568	4234.365064
414.376670	4268.849077
414.756711	4300.399138
415.136691	4388.090009
415.516609	4482.944360
415.896466	4542.956776
416.276262	4633.934480
416.655997	4749.752469
417.035670	4864.030385
417.415283	5003.065408
417.794834	5088.477678
418.174324	5097.995376
418.553753	5134.019462
418.933121	5291.757166
419.312428	5334.690152
419.691674	5305.080935
420.070859	5527.650398
420.449983	5459.557012
420.829045	5652.446682
421.208047	5623.714626
421.586988	5783.778822
421.965867	5880.193410
422.344686	5984.310881
422.723444	6152.728269
423.102141	5839.748233
423.480777	6212.455860
423.859352	6064.838273
424.237866	6417.930770
424.616319	6442.859276
424.994712	6611.221212
425.373044	6552.922788
425.751314	6868.786364
426.129524	6623.486339
426.507673	6887.733541
426.885762	6942.798065
427.263789	6997.671024
427.641756	7097.705161
428.019662	7189.592792
428.397508	7239.316213
428.775292	7234.537199
429.153016	7403.327633
429.530679	7347.048192
429.908282	7408.363746
430.285824	7362.905141
430.663305	7644.327554
431.040726	7538.790999
431.418086	7551.794655
431.795385	7692.717590
432.172624	7883.167341
432.549802	7773.436546
432.926920	7912.370746
433.303977	7857.427210
433.680974	7904.186432
434.057910	8109.189995
434.434786	8162.157398
434.811601	8126.282027
435.188355	8463.257956
435.565050	8350.283177
435.941683	8362.490331
436.318257	8698.873925
436.694770	8655.320876
437.071222	8881.071307
437.447614	8653.624528
437.823946	8624.907595
438.200218	8777.558774
438.576429	8658.219539
438.952580	8825.822781
439.328670	8833.656734
439.704700	8912.026512
440.080670	8799.686919
440.456580	9076.370648
440.832429	9053.839211
441.208218	8791.006052
441.583947	8911.197242
441.959616	9026.117906
442.335224	9054.499602
442.710773	9139.427921
443.086261	9315.873347
443.461689	9039.053507
443.837057	9203.362355
444.212365	9418.730529
444.587612	9401.270493
444.962800	9297.417683
445.337927	9433.513713
445.712995	8979.701482
446.088002	9635.570721
446.462949	9699.797541
446.837837	9687.335809
447.212664	9702.557573
447.587431	10535.769563
447.962139	11546.334387
448.336786	12463.005199
448.711374	12230.240003
449.085901	11028.159224
449.460369	10946.275762
449.834776	10732.782897
450.209124	11651.628967
450.583412	11472.806637
450.957640	11778.870211
451.331808	11366.274453
451.705917	10803.540532
452.079965	10686.381596
452.453954	10883.556246
452.827883	10829.467186
453.201752	10790.763728
453.575562	10798.794286
453.949311	11138.552931
454.323001	11205.398631
454.696632	11124.878802
455.070202	11709.876979
455.443713	11771.850404
455.817164	11931.884353
456.190556	12243.069739
456.563888	12113.557456
456.937160	12366.799819
457.310373	11855.891480
457.683526	11864.443797
458.056619	11870.372194
458.429653	11951.829678
458.802628	12090.030391
459.175542	12140.603246
459.548398	12680.115092
459.921194	13256.225716
460.293930	13542.041495
460.666607	14402.291713
461.039224	15188.391600
461.411782	15521.959709
461.784280	15189.873699
462.156719	15112.590290
462.529099	15011.830228
462.901419	14383.130288
463.273680	13991.858611
463.645882	14197.681361
464.018024	14103.734418
464.390106	14467.481394
464.762130	15527.452046
465.134094	17073.727686
465.505999	19372.249344
465.877845	21616.084565
466.249631	22809.008087
466.621358	22323.524807
466.993026	21499.946462
467.364634	20748.199518
467.736184	19947.674370
468.107674	19352.687146
468.479105	19209.646926
468.850477	18925.708977
469.221790	18506.552158
469.593043	17834.488213
469.964238	17456.797405
470.335373	17513.046599
470.706449	18232.371362
471.077467	19098.993599
471.448425	21570.202503
471.819324	23423.784361
472.190164	23303.515033
472.560945	21572.166032
472.931667	20013.506798
473.302330	19666.929992
473.672934	19135.305031
474.043479	19558.661131
474.413965	19350.791672
474.784393	19166.464402
475.154761	19827.846143
475.525070	19958.341452
475.895321	19793.500762
476.265513	20321.445681
476.635645	20912.347049
477.005719	20952.116712
477.375734	21326.553455
477.745691	21954.484619
478.115588	22593.004727
478.485427	23786.709629
478.855207	25582.116571
479.224928	27395.485145
479.594591	28794.924576
479.964194	28423.988914
480.333739	28854.599234
480.703226	29070.133767
481.072653	29522.264773
481.442022	30035.429029
481.811333	30428.366807
482.180584	29988.526134
482.549777	29754.208262
482.918912	29530.736432
483.287988	29473.118564
483.657005	29334.479272
484.025964	28959.167889
484.394864	29141.549273
484.763706	29076.127699
485.132489	28519.372586
485.501213	28606.443395
485.869879	28762.504915
486.238487	28693.151241
486.607036	28962.565626
486.975527	28646.949066
487.343959	29002.796555
487.712333	29341.824233
488.080648	29291.531162
488.448905	29724.788088
488.817104	29613.676016
489.185244	30419.512020
489.553326	31382.216129
489.921350	33270.884417
490.289315	35769.441580
490.657222	36678.049067
491.025070	37220.721717
491.392861	36947.367670
491.760593	36166.661818
492.128267	35133.210156
492.495883	34153.703882
492.863440	33245.308123
493.230939	32296.691519
493.598380	31723.671123
493.965763	31563.977451
494.333088	31074.781362
494.700354	30868.245288
495.067563	30821.062609
495.434713	30709.380887
495.801805	30982.319038
496.168839	30828.762972
496.535815	30686.796518
496.902733	30784.161363
497.269593	30615.973347
497.636395	30758.975758
498.003139	31022.129030
498.369825	30772.997728
498.736453	31182.541066
499.103023	31001.319147
499.469535	31084.818299
499.835989	31199.093695
500.202385	31060.086398
500.568723	31110.414757
500.935003	31409.856775
501.301226	31274.327875
501.667390	31965.220530
502.033497	32177.503518
502.399546	31968.497280
502.765537	31571.120766
503.131470	32027.846784
503.497345	32448.674746
503.863163	31405.458369
504.228923	32171.935564
504.594625	32562.486355
504.960269	32018.324045
505.325856	32685.891281
505.691385	32340.665504
506.056856	32663.712725
506.422270	33136.262924
506.787625	32660.423372
507.152924	33102.303192
507.518164	33275.371044
507.883347	32846.078986
508.248472	32983.001765
508.613540	33665.039634
508.978550	33861.871486
509.343503	33707.622260
509.708398	34065.307249
510.073236	34644.790404
510.438016	34733.854990
510.802738	34419.937299
511.167403	34944.975992
511.532010	35158.708313
511.896561	35687.366555
512.261053	36416.713131
512.625488	36194.574687
512.989866	36104.171675
513.354186	36185.523295
513.718449	36135.918342
514.082655	36986.996181
514.446803	36681.386311
514.810894	37282.405276
515.174927	37299.663666
515.538904	37301.586866
515.902822	37919.876823
516.266684	37602.064841
516.630488	37930.163298
516.994235	37943.519835
517.357925	38515.413533
517.721558	38746.177392
518.085133	39138.790015
518.448651	39326.147018
518.812112	39224.834949
519.175516	39354.674908
519.538863	39800.141508
519.902152	39853.267708
520.265385	40395.791644
520.628560	40417.208986
520.991678	40353.939985
521.354739	40559.679556
521.717743	40928.424836
522.080690	40843.506599
522.443580	41484.320432
522.806413	41506.685511
523.169189	41655.669252
523.531908	41872.784186
523.894569	41733.295459
524.257174	41904.951789
524.619722	42242.252872
524.982213	42384.131106
525.344647	42431.666666
525.707025	42563.613827
526.069345	42993.639373
526.431608	42902.452462
526.793815	43278.119247
527.155964	42827.916482
527.518057	43067.146958
527.880093	42945.571971
528.242072	43558.661979
528.603995	43293.015856
528.965860	43207.981673
529.327669	43432.055920
529.689421	43479.561234
530.051117	43451.328252
530.412755	43705.364597
530.774337	43753.666412
531.135862	43706.609762
531.497331	43864.397877
531.858743	43854.791958
532.220098	44258.606026
532.581396	43985.708203
532.942638	43750.966874
533.303824	43990.756919
533.664953	44062.933639
534.026025	43721.728182
534.387040	44300.185462
534.747999	44373.700609
535.108902	44705.960538
535.469748	44022.364953
535.830537	44280.615703
536.191270	44533.996698
536.551947	44297.128003
536.912567	44554.950254
537.273131	44692.261203
537.633638	44306.844827
537.994089	44484.835366
538.354483	44262.270944
538.714821	44899.896247
539.075103	45165.645714
539.435328	45047.372683
539.795497	44820.646788
540.155609	44941.392505
540.515665	45508.890317
540.875665	44831.018963
541.235609	45089.468838
541.595496	45234.157515
541.955328	45813.668397
542.315102	45238.802938
542.674821	45142.474050
543.034483	45047.440738
543.394090	45058.042285
543.753640	45043.848916
544.113134	46097.011490
544.472571	45217.763683
544.831953	46329.151583
545.191278	45586.168685
545.550548	45285.201718
545.909761	45913.964673
546.268918	46044.805300
546.628019	46455.508104
546.987064	45905.525781
547.346053	45229.628038
547.704986	46107.751668
548.063863	45759.654954
548.422684	45962.931921
548.781449	45534.965686
549.140158	46073.285299
549.498811	45820.499160
549.857408	45247.917344
550.215949	46075.092553
550.574434	45905.331697
550.932864	45879.256329
551.291237	46565.869044
551.649555	46312.450240
552.007817	46493.314237
552.366022	46181.952411
552.724173	46252.152999
553.082267	46626.879609
553.440305	47013.581479
553.798288	46269.723941
554.156215	46671.942483
554.514086	46850.565687
554.871902	46450.688761
555.229661	46625.296686
555.587365	46321.476426
555.945014	46443.278265
556.302606	46452.349821
556.660143	46543.864408
557.017625	46777.380736
557.375050	46458.593290
557.732421	46865.318624
558.089735	46910.167249
558.446994	46782.799977
558.804197	47268.545397
559.161345	47125.452245
559.518437	46504.583737
559.875474	46733.542862
560.232455	46949.266438
560.589381	46984.244484
560.946251	46823.749269
561.303065	47464.026219
561.659825	47129.850651
562.016528	46961.977708
562.373177	46556.089206
562.729770	47182.934001
563.086307	46699.328551
563.442789	47231.568533
563.799216	47077.147908
564.155587	46988.524424
564.511904	46926.273736
564.868164	46976.455902
565.224370	47307.712641
565.580520	47021.952315
565.936615	47230.935868
566.292654	46878.526447
566.648638	47247.826254
567.004567	47190.445321
567.360441	47271.297867
567.716260	46976.455902
568.072023	47380.950524
568.427732	47292.758058
568.783385	46833.574478
569.138982	47244.310049
569.494525	47407.169566
569.850013	46994.377203
570.205445	47137.591343
570.560823	46892.293838
570.916145	46749.614061
571.271412	46991.095412
571.626625	46629.964795
571.981782	46715.994606
572.336884	46327.152766
572.691931	46651.356931
573.046923	46302.879610
573.401860	46142.722152
573.756743	46175.010743
574.111570	46309.115517
574.466342	46231.675832
574.821059	46390.971253
575.175722	45876.657614
575.530330	45967.040461
575.884882	45615.293952
576.239380	45520.137132
576.593823	45603.709380
576.948211	45551.407409
577.302544	45099.026866
577.656823	45082.953147
578.011047	45350.766965
578.365216	45201.881527
578.719330	44911.634574
579.073389	44887.799999
579.427394	44961.231966
579.781344	44861.495258
580.135239	44622.279905
580.489080	44686.116036
580.842866	44199.327098
581.196597	44669.366803
581.550273	44669.087019
581.903895	44581.116363
582.257463	45015.434453
582.610975	44455.740347
582.964434	44787.337364
583.317837	44276.776865
583.671186	44254.137043
584.024481	44525.870358
584.377721	44100.008805
584.730906	44317.958050
585.084037	44459.758146
585.437113	44176.896483
585.790135	44292.573320
586.143103	43877.209970
586.496016	44041.894383
586.848874	44152.449408
587.201679	44179.190208
587.554428	43683.493551
587.907124	43945.550372
588.259765	43727.326383
588.612352	43868.032549
588.964884	43334.491949
589.317362	43628.529850
589.669786	43629.908606
590.022155	43504.378834
590.374470	43980.609076
590.726731	43571.577415
591.078937	42915.340172
591.431090	43264.949232
591.783188	42779.597022
592.135232	42580.847011
592.487222	42855.342879
592.839157	42995.882687
593.191038	42653.086746
593.542866	42468.462048
593.894639	41841.342509
594.246358	42131.226500
594.598022	42135.178764
594.949633	41725.035528
595.301190	41744.559917
595.652692	41682.609178
596.004141	42170.456759
596.355535	41071.028996
596.706876	41087.390061
597.058162	40791.928034
597.409395	41292.197018
597.760573	41533.890098
598.111698	41136.939562
598.462768	41051.955790
598.813785	41072.352299
599.164748	40689.116222
599.515657	40965.983953
599.866511	40463.927879
600.217312	41144.397949
600.568060	40111.034507
600.918753	40908.862638
601.269392	40839.972751
601.619978	40573.635990
601.970510	40791.655812
602.320988	40909.701991
602.671412	41184.606192
603.021783	41029.583150
603.372100	40625.842179
603.722363	40723.469165
604.072572	40765.620772
604.422728	40753.070820
604.772830	40547.689171
605.122878	40716.378782
605.472872	40562.242982
605.822813	40820.455923
606.172701	40574.074570
606.522534	40896.602552
606.872314	41104.083842
607.222041	40943.969234
607.571714	41269.978132
607.921333	40750.076375
608.270899	40958.472633
608.620411	41331.137411
608.969870	41099.186361
609.319276	41107.589964
609.668627	41155.112922
610.017926	41552.013046
610.367171	41705.528784
610.716362	41721.516803
611.065500	41637.624441
611.414585	41883.819272
611.763616	42020.111907
612.112594	41933.532610
612.461518	42056.183883
612.810389	42432.475771
613.159207	42224.392064
613.507971	42191.543905
613.856682	42697.955536
614.205340	42544.192782
614.553945	43217.259917
614.902496	42562.109042
615.250994	42996.850588
615.599439	43047.297415
615.947830	43157.297912
616.296169	43168.610262
616.644454	43200.475395
616.992686	43355.647152
617.340864	43782.453921
617.688990	43306.929441
618.037063	43975.449455
618.385082	43787.215291
618.733048	44145.346422
619.080961	44031.388619
619.428821	44073.852778
619.776628	44108.384682
620.124382	43926.842650
620.472083	44048.374787
620.819731	44169.002037
621.167326	43737.227210
621.514868	43744.398251
621.862357	43179.867158
622.209793	43290.003767
622.557176	42861.167932
622.904506	42636.307265
623.251783	42261.258022
623.599007	41954.428193
623.946179	41873.464742
624.293297	41625.329067
624.640363	41070.971023
624.987376	40936.606629
625.334336	40736.621535
625.681243	40320.764151
626.028097	40227.225542
626.374899	40058.447711
626.721647	40037.451305
627.068343	39808.860184
627.414987	39517.932675
627.761577	39265.817009
628.108115	39584.365000
628.454600	38835.347841
628.801032	39075.659645
629.147412	38979.754214
629.493739	38850.403247
629.840014	38423.389790
630.186236	38854.506747
630.532405	38279.842934
630.878521	38528.442395
631.224585	38304.226996
631.570597	37978.651636
631.916556	38134.214082
632.262462	38021.869448
632.608316	37984.464087
632.954117	37854.339303
633.299866	37803.842065
633.645562	37731.574604
633.991206	37222.607109
634.336797	36796.556512
634.682336	36695.415842
635.027823	36480.579509
635.373257	36353.151743
635.718639	36027.954470
636.063968	35924.968738
636.409245	35274.748112
636.754470	35229.024847
637.099642	35004.806927
637.444762	34419.087864
637.789829	34565.488013
638.134845	34189.218811
638.479808	34085.544961
638.824719	34054.378028
639.169577	33539.666138
639.514383	33664.472504
639.859137	33273.715025
640.203839	33442.465130
640.548489	33146.751045
640.893086	33120.010244
641.237632	32844.710312
641.582125	32930.404887
641.926566	32705.556822
642.270955	32745.228182
642.615292	32696.757488
642.959576	32572.563622
643.303809	32574.602769
643.647990	32680.414067
643.992118	32641.123314
644.336195	32465.804586
644.680219	32532.753630
645.024192	32717.375807
645.368112	33238.641197
645.711981	33267.713532
646.055797	33957.539983
646.399562	33741.897065
646.743274	34613.016012
647.086935	35012.683730
647.430544	35006.266341
647.774101	35039.167431
648.117606	35339.854614
648.461059	35480.780070
648.804460	35101.529025
649.147810	34599.586378
649.491108	34288.935354
649.834354	34178.473591
650.177548	33376.733525
650.520690	32857.235059
650.863781	32842.651001
651.206820	32654.089162
651.549807	32230.733062
651.892742	31658.970434
652.235626	31579.889853
652.578458	31441.263164
652.921238	30742.546638
653.263967	31012.472700
653.606644	30700.027026
653.949269	30610.251637
654.291843	30223.915251
654.634365	30586.469994
654.976836	30144.333076
655.319255	30212.373529
655.661622	30082.158005
656.003938	29945.366295
656.346203	29770.007238
656.688416	30020.731545
657.030577	29809.592898
657.372687	29632.885333
657.714746	29763.279818
658.056753	29944.582396
658.398708	29322.887139
658.740612	29395.235258
659.082465	29591.862943
659.424266	29495.334929
659.766016	29469.773759
660.107715	29328.324023
660.449362	29440.950962
660.790958	29402.817153
661.132503	29328.823097
661.473996	29405.882175
661.815438	29487.448044
662.156829	29606.187382
662.498168	29422.563353
662.839456	29394.259795
663.180693	29514.151036
663.521879	29568.204808
663.863013	29532.984787
664.204097	29507.708442
664.545129	29916.062068
664.886110	29843.038434
665.227040	29958.755600
665.567918	29953.444744
665.908746	30007.536325
666.249522	30087.930126
666.590248	30128.587032
666.930922	30236.911345
667.271545	30230.075541
667.612118	30293.394954
667.952639	30112.571286
668.293109	30148.534877
668.633528	29991.487812
668.973896	29966.561826
669.314213	29934.094275
669.654480	29748.358003
669.994695	29729.398223
670.334859	29655.724280
670.674973	29459.424270
671.015035	29651.635904
671.355047	29583.363558
671.695008	29498.271402
672.034918	29415.528423
672.374777	29501.606125
672.714585	29376.129285
673.054342	29515.116417
673.394049	29354.124648
673.733705	29571.877289
674.073310	29301.144642
674.412864	29358.775113
674.752368	29082.527444
675.091820	29326.552058
675.431223	28929.881305
675.770574	28716.010353
676.109875	28568.100379
676.449125	28370.628301
676.788324	28260.910108
677.127473	27776.288865
677.466571	27681.855451
677.805619	27402.893120
678.144616	27331.875865
678.483562	27275.830837
678.822458	26954.086755
679.161303	26915.224500
679.500098	26825.950707
679.838842	26737.644815
680.177535	26790.637424
680.516179	27014.545313
680.854771	27095.201254
681.193314	27781.440924
681.531805	28709.784528
681.870247	29470.809716
682.208638	30276.605391
682.546978	30624.056837
682.885268	30822.549749
683.223508	30410.533725
683.561697	30151.060495
683.899836	29994.046197
684.237925	29577.861138
684.575963	29414.116900
684.913951	29023.702220
685.251889	29160.501491
685.589776	29156.380348
685.927614	29159.314299
686.265401	29327.096502
686.603137	29422.684341
686.940824	29886.926719
687.278460	30208.141480
687.616046	30405.749670
687.953582	31076.475189
688.291068	31012.329027
688.628504	31371.755735
688.965889	31399.290517
689.303224	31149.743319
689.640510	30892.236140
689.977745	30292.318667
690.314930	29553.381295
690.652065	29145.254521
690.989150	28472.099166
691.326185	27641.266600
691.663170	27028.978137
692.000105	26304.284545
692.336990	25712.700100
692.673825	25287.216633
693.010610	24783.035713
693.347345	24286.837461
693.684030	23671.191588
694.020665	23475.070539
694.357251	22794.744143
694.693786	22804.493734
695.030272	22577.543508
695.366707	22085.005134
695.703093	21790.752984
696.039429	21849.570646
696.375716	21615.570367
696.711952	21597.671750
697.048139	21471.166515
697.384276	21316.846713
697.720363	21429.435843
698.056400	21310.958646
698.392388	21155.297897
698.728326	21156.543062
699.064214	21001.270483
699.400053	21016.411588
699.735842	20631.564862
700.071581	20446.120977
700.407270	20215.803261
700.742910	20039.688031
701.078501	19788.583116
701.414042	19583.377908
701.749533	19287.749523
702.084974	18978.046236
702.420366	19200.277942
702.755709	18796.415984
703.091002	18488.124220
703.426246	18553.729797
703.761440	18491.171598
704.096584	18251.805010
704.431679	18191.679168
704.766725	18143.606725
705.101721	18051.966110
705.436668	18168.182350
705.771565	17879.132671
706.106413	18190.630608
706.441212	18262.421680
706.775961	18347.982664
707.110661	18431.670859
707.445311	18780.871586
707.779913	18665.207352
708.114465	18958.216858
708.448967	19261.154916
708.783421	19857.384784
709.117825	20196.213337
709.452180	20417.106616
709.786485	20846.166782
710.120742	21592.822160
710.454949	21684.903876
710.789107	22191.002955
711.123216	22889.739646
711.457275	23132.831646
711.791286	23692.097253
712.125247	23855.266801
712.459159	23628.611483
712.793023	24398.252002
713.126837	23413.573503
713.460602	23688.570966
713.794318	23369.523901
714.127985	23098.761008
714.461602	22217.456410
714.795171	22201.465870
715.128691	21233.803786
715.462162	20715.369004
715.795584	20281.991090
716.128957	20019.848570
716.462281	19654.879113
716.795556	19374.585918
717.128782	18895.202435
717.461960	18295.388306
717.795088	18264.536444
718.128167	17925.428108
718.461198	17477.811455
718.794180	17357.436262
719.127113	17030.807302
719.459997	16839.238415
719.792833	16462.102134
720.125619	16503.653844
720.458357	16173.692681
720.791046	16032.694128
721.123686	15877.310643
721.456278	15649.044677
721.788821	15657.864175
722.121315	15392.288629
722.453761	15489.945861
722.786158	15369.469846
723.118506	15445.692092
723.450805	15340.084960
723.783056	15509.238357
724.115259	15396.674433
724.447412	15376.411515
724.779518	15586.836838
725.111574	15634.561442
725.443582	15887.289607
725.775542	15847.479616
726.107453	16343.314905
726.439315	16243.411839
726.771129	16626.078265
727.102895	17050.840847
727.434612	17321.944019
727.766281	17501.260382
728.097901	17832.801947
728.429473	17933.032688
728.760996	17951.432900
729.092471	18069.164007
729.423897	17957.031101
729.755276	17810.920818
730.086606	17885.424031
730.417887	18437.095141
730.749120	18987.216095
731.080305	19189.376447
731.411442	19628.833992
731.742530	19731.973479
732.073570	19862.080619
732.404562	20184.613642
732.735506	20086.248127
733.066401	19962.298757
733.397249	19530.697850
733.728048	18935.239278
734.058798	18089.658818
734.389501	17345.168615
734.720156	16813.505845
735.050762	16228.858028
735.381320	15827.924980
735.711831	15532.601585
736.042293	15157.103679
736.372707	15178.644529
736.703073	14964.284585
737.033391	15147.190250
737.363661	15132.959072
737.693883	15233.993878
738.024056	15418.225366
738.354182	15629.399300
738.684260	15980.911396
739.014290	16245.851757
739.344272	16460.655322
739.674207	16812.245556
740.004093	16998.979977
740.333931	17068.646203
740.663722	17158.361097
740.993464	17218.491980
741.323159	17084.059531
741.652806	16793.583205
741.982405	16640.417827
742.311956	16282.145544
742.641460	16185.080647
742.970915	15859.265833
743.300323	15518.425860
743.629683	15304.328056
743.958996	14992.197454
744.288260	14692.218553
744.617477	14378.482344
744.946647	14343.814329
745.275768	14031.121638
745.604842	13825.634125
745.933869	13658.194720
746.262847	13605.933078
746.591778	13521.312270
746.920662	13394.771747
747.249498	13400.369948
747.578286	13533.181667
747.907027	13692.131768
748.235720	13953.626500
748.564365	14040.684707
748.892963	13971.724243
749.221514	14087.761522
749.550017	13968.172750
749.878473	13941.144603
750.206881	13728.478487
750.535242	13654.091221
750.863555	13580.321496
751.191821	13470.487357
751.520039	13488.128875
751.848210	13407.409919
752.176334	13449.218729
752.504411	13375.557389
752.832440	13204.445504
753.160421	13322.118638
753.488356	13213.350702
753.816243	13127.827527
754.144082	12951.034262
754.471875	12902.026685
754.799620	12866.211807
755.127318	12833.182167
755.454969	12819.850836
755.782572	12782.077470
756.110129	12799.943319
756.437638	12709.510060
756.765100	12715.640103
757.092515	12731.076117
757.419882	12766.898556
757.747203	12771.846448
758.074477	12859.038245
758.401703	12836.990759
758.728882	13011.830577
759.056014	13065.622209
759.383099	13231.385430
759.710138	13351.906816
760.037129	13484.529491
760.364073	13555.413155
760.690970	13579.449377
761.017820	13580.497937
761.344623	13772.926341
761.671379	14090.541718
761.998088	14634.449451
762.324751	16037.211002
762.651366	18975.210587
762.977935	23269.036061
763.304456	26581.946257
763.630931	28172.261417
763.957359	27383.356128
764.283740	25352.209709
764.610074	23199.722716
764.936362	20578.713406
765.262602	18681.575979
765.588796	16697.067794
765.914943	15372.393715
766.241044	14220.210277
766.567097	13405.794230
766.893104	12662.178667
767.219064	12185.640914
767.544978	11696.301152
767.870845	11303.249948
768.196665	11076.660165
768.522438	10837.727117
768.848165	10640.282765
769.173846	10426.706720
769.499479	10304.138626
769.825066	10138.166198
770.150607	9912.357793
770.476101	9826.743878
770.801548	9711.162823
771.126949	9550.574346
771.452303	9438.781719
771.777611	9248.727698
772.102872	9234.403259
772.428087	9097.374616
772.753256	8947.372562
773.078378	8860.894089
773.403453	8679.520935
773.728482	8561.169766
774.053465	8488.904826
774.378401	8381.543372
774.703291	8259.499558
775.028135	8151.510481
775.352932	8116.245089
775.677683	8016.800768
776.002388	7904.413284
776.327046	7905.166937
776.651658	7808.911145
776.976224	7718.498051
777.300743	7714.669295
777.625216	7631.190308
777.949643	7588.637928
778.274024	7599.090760
778.598359	7515.654623
778.922647	7530.515945
779.246889	7482.640107
779.571086	7485.967268
779.895236	7492.273752
780.219339	7496.180646
780.543397	7504.909404
780.867409	7586.019048
781.191374	7598.064886
781.515294	7561.151037
781.839167	7653.210067
782.162995	7623.782332
782.486776	7574.568068
782.810511	7533.744804
783.134201	7446.303470
783.457844	7441.842048
783.781441	7387.047227
784.104993	7323.765622
784.428498	7303.162427
784.751958	7285.702390
785.075372	7251.810713
785.398739	7195.148144
785.722061	7234.128866
786.045337	7234.254895
786.368568	7373.892336
786.691752	7380.899540
787.014891	7672.268150
787.337983	7978.674522
787.661030	8532.503245
787.984031	9147.037543
788.306987	9587.778062
788.629897	9848.531744
788.952760	9848.864461
789.275579	9671.990537
789.598351	9298.577148
789.921078	8960.696332
790.243759	8557.600629
790.566395	8263.325794
790.888984	8013.271960
791.211529	7798.213817
791.534027	7570.731749
791.856480	7360.233329
792.178888	7285.967051
792.501249	7189.922988
792.823566	7035.804832
793.145836	7031.010695
793.468062	6993.436455
793.790241	6937.507374
794.112375	6995.591548
794.434464	7139.892057
794.756507	7164.424832
795.078505	7306.229969
795.400457	7590.064574
795.722364	7920.025738
796.044226	8208.714974
796.366042	8497.131989
796.687812	8473.851940
797.009538	8567.675375
797.331218	8484.844176
797.652852	8411.528155
797.974442	8269.085312
798.295986	8183.589864
798.617484	7997.185638
798.938938	7856.303032
799.260346	7751.968792
799.581709	7557.476035
799.903026	7477.518294
800.224299	7369.924948
800.545526	7201.174843
800.866708	7103.938547
801.187845	7036.497991
801.508936	6931.939419
801.829983	6899.620582
802.150984	6748.015442
802.471940	6707.504729
802.792851	6687.198962
803.113717	6657.199055
803.434538	6618.432582
803.755314	6568.678914
804.076045	6564.913172
804.396731	6504.477299
804.717372	6529.967894
805.037967	6532.178440
805.358518	6564.661115
805.679024	6650.728734
805.999485	6660.798439
806.319901	6695.431166
806.640272	6723.054168
806.960598	6803.992414
807.280879	6811.728065
807.601115	6880.002932
807.921306	6832.845458
808.241453	6847.434557
808.561554	6871.574123
808.881611	6841.571695
809.201623	6845.254258
809.521590	6792.538913
809.841513	6772.717096
810.161390	6809.449463
810.481223	6686.016811
810.801011	6670.769841
811.120755	6640.890923
811.440453	6563.980559
811.760107	6533.849582
812.079716	6505.727506
812.399281	6439.869872
812.718801	6431.146155
813.038276	6390.050669
813.357707	6327.023643
813.677093	6366.558892
813.996434	6271.417195
814.315731	6308.215098
814.634983	6295.556761
814.954191	6307.060674
815.273354	6401.599952
815.592473	6458.252439
815.911547	6575.076138
816.230577	6650.338045
816.549562	6792.123017
816.868502	6891.002729
817.187399	6984.990002
817.506250	7128.360417
817.825058	7153.493090
818.143821	7396.922847
818.462539	7640.266905
818.781213	7950.985984
819.099843	8433.547915
819.418429	9345.777471
819.736970	10235.710004
820.055466	11331.079638
820.373919	12711.385370
820.692327	14704.748341
821.010691	18009.582609
821.329011	25429.021770
821.647286	37055.039155
821.965517	50985.385607
822.283704	58466.503285
822.601847	61629.570224
822.919945	59478.847636
823.237999	55634.292313
823.556010	49687.230518
823.873976	43043.728278
824.191897	36557.378968
824.509775	31710.170913
824.827609	27083.944357
825.145398	24253.545681
825.463144	22594.070931
825.780845	22485.711329
826.098502	23719.266552
826.416116	27008.599272
826.733685	30719.674923
827.051210	32567.938363
827.368692	31637.860602
827.686129	28136.741447
828.003522	24138.872034
828.320872	20395.107021
828.638177	17490.613465
828.955439	15287.805674
829.272656	13463.341521
829.589830	11976.672485
829.906960	10679.906234
830.224046	9703.969096
830.541088	8926.424048
830.858086	8439.441024
831.175041	8026.729321
831.491952	7875.298100
831.808819	7859.360492
832.125642	8159.929208
832.442421	8861.567083
832.759157	10337.208595
833.075849	12890.873132
833.392497	16028.197419
833.709101	18514.313015
834.025662	18892.248318
834.342179	17548.927012
834.658653	15486.361601
834.975083	13556.781828
835.291469	11917.970769
835.607811	10577.931253
835.924110	9664.486779
836.240366	8790.247359
836.556578	7998.040114
836.872746	7334.498239
837.188871	6823.834396
837.504952	6392.336832
837.820990	6068.253654
838.136984	5830.701882
838.452935	5720.524944
838.768842	5697.930493
839.084706	5984.769626
839.400526	6945.245545
839.716303	8439.501518
840.032037	9678.483543
840.347727	9913.706302
840.663373	9119.270867
840.978977	8083.079338
841.294537	7249.406083
841.610054	6634.367669
841.925527	6191.257808
842.240957	5836.201781
842.556344	5507.868910
842.871687	5229.985387
843.186987	4947.832006
843.502244	4715.782653
843.817458	4542.959297
844.132629	4404.879572
844.447756	4313.896828
844.762840	4233.709714
845.077881	4155.085358
845.392879	4093.595884
845.707833	4043.837175
846.022745	4000.710104
846.337613	3976.182370
846.652438	3929.866769
846.967221	3911.234664
847.281960	3881.020509
847.596656	3859.890512
847.911309	3843.789067
848.225919	3823.493382
848.540485	3807.172646
848.855009	3792.477683
849.169490	3771.173766
849.483928	3756.372939
849.798323	3746.111670
850.112675	3733.153384
850.426984	3736.523395
850.741251	3721.447825
851.055474	3718.657546
851.369654	3724.626272
851.683792	3720.865572
851.997887	3722.675346
852.311938	3727.713979
852.625947	3727.764391
852.939914	3719.499419
853.253837	3731.184813
853.567718	3727.066191
853.881555	3718.047567
854.195350	3730.892427
854.509103	3726.536870
854.822812	3727.106520
855.136479	3717.233420
855.450103	3726.297415
855.763685	3711.168912
856.077224	3715.912638
856.390720	3732.394690
856.704173	3749.809356
857.017584	3760.030296
857.330953	3774.334570
857.644278	3792.402065
857.957561	3797.604536
858.270802	3800.646872
858.584000	3805.383036
858.897155	3800.732572
859.210268	3782.143317
859.523339	3761.640944
859.836367	3754.893360
860.149352	3753.272629
860.462295	3744.838779
860.775195	3735.081625
861.088054	3731.043661
861.400869	3725.841190
861.713642	3728.664237
862.026373	3734.181779
862.339062	3740.458016
862.651708	3756.771190
862.964312	3786.082979
863.276873	3801.203920
863.589392	3847.101105
863.901869	3892.600039
864.214303	3936.488324
864.526696	3967.241883
864.839045	4017.660984
865.151353	4044.923544
865.463619	4051.121642
865.775842	4058.297725
866.088023	4076.859253
866.400162	4064.768046
866.712258	4079.699943
867.024313	4082.487702
867.336325	4071.750044
867.648296	4080.461158
867.960224	4082.535593
868.272110	4089.754525
868.583954	4094.112602
868.895755	4103.249694
869.207515	4099.761215
869.519233	4137.741268
869.830909	4149.436745
870.142542	4169.714787
870.454134	4187.109288
870.765684	4217.774627
871.077191	4249.329729
871.388657	4270.447123
871.700081	4305.881393
872.011463	4343.836240
872.322803	4378.468967
872.634101	4409.865273
872.945357	4450.628043
873.256571	4493.639168
873.567744	4527.992111
873.878874	4548.277714
874.189963	4590.121812
874.501010	4596.236731
874.812015	4594.913428
875.122979	4637.475890
875.433900	4636.334069
875.744780	4647.228002
876.055618	4669.988812
876.366415	4669.648534
876.677169	4684.416594
876.987882	4726.905959
877.298554	4771.951190
877.609183	4839.427034
877.919771	4936.670892
878.230317	5059.939706
878.540822	5249.270321
878.851285	5527.277353
879.161707	5910.158028
879.472087	6548.973044
879.782425	7571.253509
880.092722	9388.997804
880.402977	12223.535268
880.713191	15719.998917
881.023363	19419.300953
881.333494	21877.158361
881.643583	23337.961237
881.953631	23575.452515
882.263637	22926.557713
882.573602	21644.791415
882.883526	20208.239009
883.193408	18643.550555
883.503248	17038.878189
883.813048	15562.724999
884.122806	14193.895454
884.432522	12752.722831
884.742197	11531.062211
885.051831	10455.395927
885.361424	9455.921642
885.670975	8639.030387
885.980485	7946.171682
886.289954	7378.603294
886.599382	6903.325830
886.908768	6520.243508
887.218113	6160.907541
887.527417	5873.929776
887.836680	5607.845073
888.145901	5388.852309
888.455082	5230.532352
888.764221	5079.091049
889.073319	4942.531233
889.382376	4866.631621
889.691392	4806.019307
890.000366	4776.979741
890.309300	4755.736318
890.618193	4754.665073
890.927044	4741.502620
891.235855	4754.377727
891.544625	4777.793887
891.853353	4830.766332
892.162041	4918.525258
892.470687	5079.161626
892.779293	5294.996107
893.087858	5614.852277
893.396381	6109.192865
893.704864	6785.718231
894.013306	7808.933830
894.321707	8945.953477
894.630068	9822.380759
894.938387	10168.569396
895.246665	10063.282378
895.554903	9541.217965
895.863100	8886.956854
896.171256	8363.874128
896.479371	7878.554686
896.787446	7388.899851
897.095480	6973.392827
897.403473	6653.486245
897.711425	6349.542477
898.019336	6087.417601
898.327207	5827.336912
898.635038	5598.423157
898.942827	5354.489284
899.250576	5161.518956
899.558284	4968.112568
899.865952	4846.265359
900.173579	4702.421075
900.481165	4597.297894
900.788711	4504.215509
901.096216	4431.832101
901.403681	4366.115620
901.711105	4339.105118
902.018489	4309.851302
902.325832	4361.170248
902.633135	4450.396150
902.940397	4711.210327
903.247619	5319.123069
903.554800	6506.322362
903.861941	8271.041280
904.169041	9837.849539
904.476101	10682.600731
904.783121	10555.724971
905.090100	9935.479045
905.397039	9149.298500
905.703938	8419.079804
906.010796	7752.369564
906.317614	7219.476752
906.624391	6708.122271
906.931129	6297.485002
907.237826	5901.595629
907.544483	5543.744282
907.851099	5184.206669
908.157675	4839.124565
908.464211	4511.734390
908.770707	4269.650620
909.077163	4065.690577
909.383578	3914.952515
909.689954	3794.796613
909.996289	3721.271384
910.302584	3651.915190
910.608839	3619.951754
910.915054	3586.012186
911.221229	3572.529620
911.527363	3580.608069
911.833458	3585.518152
912.139513	3608.084878
912.445527	3631.503558
912.751502	3700.022921
913.057436	3788.177578
913.363331	3902.473139
913.669186	4081.376127
913.975000	4299.915188
914.280775	4654.414167
914.586510	5153.274149
914.892205	5835.889229
915.197859	6767.779285
915.503475	7898.348776
915.809050	8946.409702
916.114585	9667.526595
916.420081	10028.364826
916.725536	10077.732845
917.030952	9721.149348
917.336328	9355.154018
917.641665	8984.389755
917.946961	8537.867033
918.252218	8134.705795
918.557435	7648.151270
918.862612	7247.929025
919.167750	6890.047431
919.472848	6483.967365
919.777906	6128.296317
920.082925	5772.773983
920.387904	5415.862812
920.692843	5144.981451
920.997743	4897.735540
921.302603	4662.812729
921.607423	4502.662833
921.912204	4339.871373
922.216946	4224.814598
922.521647	4103.652986
922.826310	4004.541381
923.130932	3915.118873
923.435516	3813.821928
923.740059	3748.823811
924.044564	3673.771112
924.349028	3616.874129
924.653454	3555.119995
924.957840	3487.702124
925.262186	3443.395423
925.566493	3386.891650
925.870761	3333.218485
926.174989	3292.654840
926.479178	3257.767535
926.783328	3216.843448
927.087438	3193.172710
927.391509	3160.251455
927.695541	3125.500261
927.999533	3103.351952
928.303486	3083.870413
928.607400	3066.740572
928.911275	3051.039898
929.215110	3037.378371
929.518906	3029.085673
929.822663	3029.922505
930.126381	3024.833460
930.430060	3028.029552
930.733699	3029.468801
931.037299	3039.437683
931.340861	3037.227137
931.644383	3044.972870
931.947866	3047.632078
932.251309	3041.101263
932.554714	3041.376006
932.858080	3032.949718
933.161407	3026.038296
933.464694	3021.733150
933.767943	3011.963394
934.071153	3009.105060
934.374323	3000.734224
934.677455	2998.027124
934.980548	2989.527739
935.283602	2983.702686
935.586617	2979.291676
935.889593	2986.356853
936.192530	2988.706031
936.495428	2998.876559
936.798287	3019.729292
937.101108	3042.888353
937.403890	3089.224118
937.706632	3142.337715
938.009336	3215.774724
938.312002	3287.636372
938.614628	3352.637009
938.917216	3406.048034
939.219765	3441.930968
939.522275	3477.521514
939.824747	3482.716423
940.127179	3479.472440
940.429573	3475.598313
940.731929	3475.951194
941.034246	3464.510296
941.336524	3452.961012
941.638763	3438.714711
941.940964	3429.509564
942.243126	3388.056156
942.545250	3368.146119
942.847335	3333.183197
943.149381	3302.258238
943.451389	3265.886313
943.753359	3231.223340
944.055290	3210.494115
944.357182	3185.169879
944.659036	3170.910975
944.960851	3158.093841
945.262628	3147.028509
945.564367	3145.705206
945.866067	3135.829585
946.167729	3137.835965
946.469352	3134.178608
946.770937	3130.722897
947.072484	3115.425515
947.373992	3118.634210
947.675462	3113.945937
947.976893	3094.272834
948.278286	3087.860486
948.579641	3081.697675
948.880958	3075.824731
949.182236	3076.472519
949.483476	3070.047569
949.784678	3069.399781
950.085841	3067.632856
950.386967	3077.269022
950.688054	3093.010025
950.989103	3109.577777
951.290114	3125.717031
951.591087	3153.249292
951.892021	3181.169723
952.192917	3209.858930
952.493776	3236.715677
952.794596	3243.359917
953.095378	3251.793768
953.396122	3247.370155
953.696828	3244.141296
953.997496	3233.806931
954.298126	3212.621482
954.598718	3194.876620
954.899272	3172.526665
955.199788	3149.697800
955.500266	3116.736215
955.800706	3083.053746
956.101108	3051.269271
956.401472	3018.665608
956.701798	2990.077225
957.002087	2947.323199
957.302337	2921.179775
957.602550	2891.507544
957.902724	2866.412680
958.202861	2841.584997
958.502960	2820.528097
958.803022	2800.572690
959.103045	2778.144597
959.403031	2763.316042
959.702979	2752.175092
960.002889	2738.760582
960.302762	2723.997563
960.602596	2713.416181
960.902393	2708.188505
961.202153	2697.776001
961.501875	2689.768128
961.801559	2683.990966
962.101205	2677.419822
962.400814	2671.451096
962.700385	2665.232833
962.999918	2660.327790
963.299414	2654.664054
963.598873	2653.156749
963.898293	2641.988072
964.197677	2649.857313
964.497022	2643.747435
964.796331	2640.596714
965.095601	2638.963380
965.394835	2635.870632
965.694030	2634.731331
965.993189	2637.602268
966.292309	2632.714870
966.591393	2631.515075
966.890439	2630.824437
967.189447	2633.097997
967.488419	2628.671864
967.787353	2630.320322
968.086249	2629.102883
968.385108	2637.541775
968.683930	2636.815848
968.982714	2641.068062
969.281462	2645.824390
969.580172	2649.819505
969.878844	2655.876451
970.177480	2660.194199
970.476078	2667.269459
970.774639	2676.885460
971.073162	2681.049453
971.371649	2688.467511
971.670098	2691.996318
971.968510	2698.869932
972.266885	2703.795139
972.565223	2707.346632
972.863524	2708.914431
973.161788	2714.928527
973.460014	2715.288970
973.758204	2718.578323
974.056356	2719.092520
974.354471	2723.145608
974.652550	2722.013869
974.950591	2722.835577
975.248595	2722.049157
975.546563	2718.480020
975.844493	2714.237889
976.142386	2711.800491
976.440243	2705.781354
976.738062	2703.190201
977.035845	2695.653676
977.333590	2689.785772
977.631299	2686.314938
977.928971	2676.484688
978.226606	2671.415808
978.524204	2670.939419
978.821765	2665.477329
979.119290	2668.761640
979.416777	2664.217040
979.714228	2668.728873
980.011642	2671.067968
980.309020	2676.867816
980.606360	2685.992304
980.903664	2706.456868
981.200931	2737.349059
981.498162	2780.435801
981.795356	2840.612054
982.092513	2920.143818
982.389633	3016.134949
982.686717	3109.393775
982.983764	3185.948737
983.280775	3244.695823
983.577749	3259.151332
983.874686	3253.056577
984.171587	3225.836867
984.468451	3192.731609
984.765279	3152.389776
985.062070	3112.262191
985.358824	3072.142168
985.655543	3019.759539
985.952224	2970.593165
986.248869	2909.456572
986.545478	2854.767614
986.842050	2798.226033
987.138586	2751.827253
987.435086	2714.928527
987.731549	2680.757066
988.027975	2657.688746
988.324366	2640.566467
988.620719	2627.295629
988.917037	2616.056377
989.213318	2607.332660
989.509563	2599.349993
989.805772	2594.641555
990.101944	2586.958837
990.398080	2585.456573
990.694180	2586.409351
990.990244	2584.778538
991.286271	2585.491861
991.582262	2585.902715
991.878217	2586.570668
992.174136	2589.970926
992.470019	2593.923191
992.765865	2595.012080
993.061676	2597.782194
993.357450	2605.343925
993.653188	2610.054883
993.948890	2630.950466
994.244556	2645.380769
994.540186	2664.043120
994.835780	2692.666792
995.131337	2726.523181
995.426859	2762.363264
995.722345	2806.695171
996.017795	2857.051257
996.313208	2890.819426
996.608586	2923.045002
996.903928	2939.325408
997.199234	2943.005451
997.494504	2940.487394
997.789738	2929.807710
998.084936	2909.237282
998.380099	2881.304248
998.675225	2855.483458
998.970316	2827.971361
999.265371	2791.692697
999.560390	2758.617687
999.855373	2731.304716
1000.150320	2697.566793
1000.445232	2674.672393
1000.740108	2655.483241
1001.034948	2637.569501
1001.329752	2621.089969
1001.624521	2607.027670
1001.919254	2599.337390
1002.213951	2591.004363
1002.508613	2581.627817
1002.803239	2575.079358
1003.097829	2570.212124
1003.392384	2566.610219
1003.686903	2558.677964
1003.981386	2556.812737
1004.275834	2555.179403
1004.570246	2551.406099
1004.864623	2547.940306
1005.158964	2546.929555
1005.453270	2544.923176
1005.747540	2542.833617
1006.041775	2543.675490
1006.335974	2540.174409
1006.630138	2537.956301
1006.924266	2538.155427
1007.218359	2536.025539
1007.512416	2535.980169
1007.806438	2532.146371
1008.100425	2534.687113
1008.394376	2531.586803
1008.688292	2536.900179
1008.982172	2532.189221
1009.276017	2534.172915
1009.569827	2529.582944
1009.863602	2532.010260
1010.157341	2532.658048
1010.451045	2532.403470
1010.744714	2528.206709
1011.038347	2531.407842
1011.331945	2530.321473
1011.625508	2527.818541
1011.919036	2528.148736
1012.212528	2526.273427
1012.505986	2525.403828
1012.799408	2523.692356
1013.092795	2524.909795
1013.386147	2525.073632
1013.679464	2522.164887
1013.972745	2522.608508
1014.265992	2521.060874
1014.559204	2522.439629
1014.852380	2521.970802
1015.145521	2524.201513
1015.438628	2523.286543
1015.731699	2522.401821
1016.024736	2523.871317
1016.317737	2524.219157
1016.610703	2523.815864
1016.903635	2527.879034
1017.196531	2530.933974
1017.489393	2530.099663
1017.782219	2531.304498
1018.075011	2532.726104
1018.367768	2533.525127
1018.660490	2532.070754
1018.953177	2532.070754
1019.245829	2532.070754
