Dividing Wavelength (nm)	Counts (n)	Blue Motor Position (mm): 9.000000	Red Motor Position (mm): 0.000000	
326.493990	2067.346945
326.888308	2067.346945
327.282561	2067.346945
327.676750	2043.121681
328.070874	2042.287370
328.464933	2048.039326
328.858929	2057.365461
329.252859	2067.883828
329.646726	2078.860941
330.040528	2098.531523
330.434265	2114.670777
330.827938	2135.478140
331.221547	2153.772487
331.615091	2175.983811
332.008571	2196.733200
332.401986	2214.135263
332.795338	2235.925651
333.188625	2257.285019
333.581847	2274.157761
333.975006	2293.125103
334.368100	2312.631848
334.761129	2328.458550
335.154095	2343.022443
335.546996	2372.351877
335.939833	2418.266706
336.332606	2430.710794
336.725315	2442.721343
337.117960	2453.408589
337.510540	2462.364199
337.903056	2471.529017
338.295508	2477.122177
338.687896	2485.298928
339.080220	2488.847901
339.472480	2494.211688
339.864676	2496.414673
340.256807	2500.767709
340.648875	2501.531444
341.040879	2503.845333
341.432818	2507.003616
341.824694	2509.488905
342.216506	2506.197032
342.608253	2504.276352
342.999937	2505.750890
343.391557	2505.329953
343.783113	2501.838954
344.174605	2502.249808
344.566033	2498.269817
344.957397	2503.747031
345.348697	2493.601709
345.739934	2493.682367
346.131106	2492.512820
346.522215	2491.476862
346.913260	2490.203971
347.304241	2487.973261
347.695159	2484.373877
348.086012	2484.265492
348.476802	2482.622076
348.867528	2479.221818
349.258191	2475.675366
349.648789	2476.315592
350.039324	2473.759727
350.429796	2477.200315
350.820203	2475.657722
351.210548	2475.846765
351.600828	2475.803915
351.991045	2474.263843
352.381198	2472.481795
352.771288	2472.970787
353.161314	2470.893831
353.551276	2471.302165
353.941175	2471.851651
354.331010	2473.159830
354.720782	2471.498770
355.110490	2475.037660
355.500135	2472.055817
355.889717	2471.014819
356.279235	2474.410036
356.668689	2473.487505
357.058080	2476.217290
357.447408	2475.821559
357.836672	2474.571353
358.225873	2474.389872
358.615010	2476.313072
359.004084	2479.806591
359.393095	2478.909266
359.782043	2477.883391
360.170927	2480.091417
360.559748	2479.040336
360.948505	2479.872126
361.337199	2480.121663
361.725830	2479.751139
362.114398	2477.863227
362.502903	2477.772486
362.891344	2483.990749
363.279722	2480.807260
363.668037	2482.067549
364.056289	2483.877323
364.444478	2482.153248
364.832603	2482.508650
365.220665	2485.787920
365.608665	2484.401603
365.996601	2483.242138
366.384474	2484.280615
366.772284	2486.072746
367.160031	2485.528301
367.547715	2485.321614
367.935336	2485.271202
368.322893	2480.557723
368.710388	2482.659884
369.097820	2484.699031
369.485189	2481.323979
369.872495	2487.113744
370.259738	2484.573002
370.646918	2487.454022
371.034035	2486.186172
371.421090	2485.898826
371.808081	2488.076604
372.195010	2490.077942
372.581875	2485.936634
372.968678	2489.382263
373.355418	2486.521408
373.742096	2490.037613
374.128710	2493.203458
374.515262	2487.176758
374.901751	2488.832777
375.288177	2490.493837
375.674540	2489.556183
376.060841	2490.418220
376.447079	2490.662716
376.833254	2492.351503
377.219367	2492.230515
377.605417	2491.169352
377.991404	2488.510143
378.377329	2491.522233
378.763191	2490.173724
379.148991	2493.536174
379.534727	2491.696153
379.920402	2494.499034
380.306013	2492.283447
380.691563	2493.546256
381.077049	2492.787562
381.462474	2492.003663
381.847835	2494.451143
382.233134	2492.641369
382.618371	2495.179590
383.003545	2492.361585
383.388657	2494.519199
383.773706	2495.166987
384.158693	2494.105824
384.543618	2495.358551
384.928480	2495.156905
385.313280	2494.209168
385.698017	2496.124806
386.082692	2495.555156
386.467305	2493.818478
386.851856	2495.565238
387.236344	2496.003819
387.620770	2492.790083
388.005133	2491.139105
388.389435	2495.567759
388.773674	2490.987871
389.157851	2497.049858
389.541965	2497.667399
389.926018	2494.935094
390.310008	2495.887872
390.693936	2496.258397
391.077802	2497.604385
391.461606	2499.058758
391.845348	2498.050527
392.229027	2500.112359
392.612645	2499.479694
392.996200	2498.726042
393.379694	2497.432986
393.763125	2500.132524
394.146494	2498.194200
394.529801	2498.315188
394.913047	2499.225116
395.296230	2500.150168
395.679351	2500.392143
396.062410	2499.666217
396.445408	2497.962307
396.828343	2499.431803
397.211217	2497.218737
397.594028	2502.708553
397.976778	2500.006495
398.359466	2500.835765
398.742092	2501.896928
399.124656	2498.892400
399.507158	2499.572956
399.889598	2501.385250
400.271977	2501.095384
400.654294	2503.182422
401.036549	2501.135713
401.418742	2501.168481
401.800874	2500.596310
402.182944	2501.266783
402.564952	2501.886845
402.946898	2503.195025
403.328783	2503.946157
403.710606	2503.149654
404.092367	2503.154695
404.474067	2504.044459
404.855705	2501.838954
405.237282	2505.133348
405.618797	2504.392299
406.000250	2505.284583
406.381642	2504.641836
406.762972	2500.858450
407.144240	2500.089674
407.525447	2502.756444
407.906593	2499.925836
408.287677	2505.773575
408.668700	2506.819614
409.049661	2503.230313
409.430560	2505.955056
409.811399	2505.143431
410.192176	2507.888339
410.572891	2505.216527
410.953545	2505.400529
411.334138	2506.111332
411.714669	2505.435817
412.095139	2507.220386
412.475547	2506.723832
412.855894	2507.043946
413.236180	2503.805004
413.616405	2510.371107
413.996568	2507.459841
414.376670	2508.329440
414.756711	2505.763493
415.136691	2510.509739
415.516609	2508.853720
415.896466	2507.535458
416.276262	2507.661487
416.655997	2508.329440
417.035670	2509.879595
417.415283	2507.638802
417.794834	2508.906652
418.174324	2508.843637
418.553753	2507.767351
418.933121	2509.887156
419.312428	2508.528565
419.691674	2509.816580
420.070859	2508.838596
420.449983	2509.935047
420.829045	2507.548061
421.208047	2509.446055
421.586988	2510.048473
421.965867	2512.120388
422.344686	2508.505880
422.723444	2510.950840
423.102141	2512.299348
423.480777	2507.651405
423.859352	2508.074862
424.237866	2510.527383
424.616319	2510.655932
424.994712	2509.057887
425.373044	2510.691220
425.751314	2510.885305
426.129524	2506.065962
426.507673	2506.565036
426.885762	2507.795077
427.263789	2511.394461
427.641756	2514.272960
428.019662	2512.372445
428.397508	2510.303052
428.775292	2510.570233
429.153016	2513.181550
429.530679	2511.147445
429.908282	2510.441683
430.285824	2509.052845
430.663305	2508.450428
431.040726	2507.989162
431.418086	2512.327075
431.795385	2512.266581
432.172624	2511.989318
432.549802	2511.822959
432.926920	2510.635768
433.303977	2513.917559
433.680974	2510.744152
434.057910	2511.873371
434.434786	2511.636437
434.811601	2512.140552
435.188355	2508.160561
435.565050	2512.087620
435.941683	2511.976715
436.318257	2512.732888
436.694770	2513.985614
437.071222	2511.676766
437.447614	2511.969153
437.823946	2510.204749
438.200218	2512.614421
438.576429	2515.087107
438.952580	2513.680625
439.328670	2511.616272
439.704700	2515.664319
440.080670	2510.797085
440.456580	2511.923783
440.832429	2509.980418
441.208218	2513.552075
441.583947	2513.526869
441.959616	2513.620131
442.335224	2513.940244
442.710773	2511.646519
443.086261	2513.035357
443.461689	2512.478309
443.837057	2512.669873
444.212365	2511.601149
444.587612	2510.605521
444.962800	2510.502177
445.337927	2512.508556
445.712995	2507.548061
446.088002	2514.819925
446.462949	2513.116015
446.837837	2512.115346
447.212664	2513.390758
447.587431	2512.969822
447.962139	2511.187774
448.336786	2513.075686
448.711374	2514.270440
449.085901	2512.821108
449.460369	2514.585512
449.834776	2515.697086
450.209124	2511.593587
450.583412	2514.099040
450.957640	2514.663650
451.331808	2513.801612
451.705917	2515.818074
452.079965	2515.823115
452.453954	2515.578619
452.827883	2515.387055
453.201752	2515.636592
453.575562	2515.500481
453.949311	2517.085924
454.323001	2515.533249
454.696632	2515.402179
455.070202	2514.824967
455.443713	2517.741274
455.817164	2514.799761
456.190556	2514.628362
456.563888	2517.211953
456.937160	2513.499143
457.310373	2515.495440
457.683526	2512.019564
458.056619	2515.288753
458.429653	2514.736746
458.802628	2517.025430
459.175542	2515.016530
459.548398	2515.687004
459.921194	2513.736077
460.293930	2515.918897
460.666607	2514.610717
461.039224	2515.830677
461.411782	2516.765811
461.784280	2515.397138
462.156719	2515.535769
462.529099	2515.245903
462.901419	2513.617610
463.273680	2515.311438
463.645882	2512.828670
464.018024	2513.965450
464.390106	2511.628875
464.762130	2516.458300
465.134094	2515.727333
465.505999	2517.466531
465.877845	2514.225069
466.249631	2519.856038
466.621358	2514.923269
466.993026	2516.589370
467.364634	2520.869310
467.736184	2517.282529
468.107674	2517.287570
468.479105	2517.199350
468.850477	2517.358146
469.221790	2515.361849
469.593043	2518.459638
469.964238	2517.164062
470.335373	2515.765142
470.706449	2516.208763
471.077467	2516.100378
471.448425	2519.203209
471.819324	2522.439629
472.190164	2518.338651
472.560945	2514.973681
472.931667	2517.935358
473.302330	2517.045595
473.672934	2519.634227
474.043479	2517.118692
474.413965	2517.995852
474.784393	2519.127591
475.154761	2520.652540
475.525070	2515.928979
475.895321	2519.694721
476.265513	2519.132632
476.635645	2518.953672
477.005719	2516.095337
477.375734	2519.437622
477.745691	2517.254803
478.115588	2518.431912
478.485427	2520.718075
478.855207	2521.048271
479.224928	2517.511902
479.594591	2518.328568
479.964194	2521.096162
480.333739	2520.395442
480.703226	2518.510050
481.072653	2518.053826
481.442022	2519.712365
481.811333	2518.094155
482.180584	2515.495440
482.549777	2518.724299
482.918912	2515.402179
483.287988	2520.697911
483.657005	2516.619617
484.025964	2521.774197
484.394864	2521.380987
484.763706	2520.289577
485.132489	2519.634227
485.501213	2521.774197
485.869879	2519.477952
486.238487	2524.526667
486.607036	2521.217150
486.975527	2520.513909
487.343959	2522.051461
487.712333	2521.564989
488.080648	2520.655061
488.448905	2520.909639
488.817104	2520.980215
489.185244	2521.098683
489.553326	2523.619259
489.921350	2523.241173
490.289315	2524.330062
490.657222	2521.302849
491.025070	2524.509023
491.392861	2523.122706
491.760593	2524.713190
492.128267	2520.904598
492.495883	2522.399300
492.863440	2521.101203
493.230939	2521.446522
493.598380	2522.250586
493.965763	2522.356450
494.333088	2519.737571
494.700354	2521.451563
495.067563	2522.096831
495.434713	2523.263858
495.801805	2523.974661
496.168839	2521.696059
496.535815	2523.644465
496.902733	2523.848632
497.269593	2523.026924
497.636395	2522.984074
498.003139	2523.992305
498.369825	2522.195133
498.736453	2525.746626
499.103023	2521.002901
499.469535	2521.144053
499.835989	2521.804444
500.202385	2517.622807
500.568723	2516.783455
500.935003	2521.567510
501.301226	2517.690862
501.667390	2521.990967
502.033497	2520.531553
502.399546	2520.929804
502.765537	2520.317304
503.131470	2522.933662
503.497345	2522.898374
503.863163	2523.357119
504.228923	2521.174300
504.594625	2521.335617
504.960269	2525.451719
505.325856	2522.669002
505.691385	2521.338137
506.056856	2522.021214
506.422270	2522.880730
506.787625	2521.988446
507.152924	2521.922911
507.518164	2523.145391
507.883347	2521.287726
508.248472	2523.987264
508.613540	2524.650175
508.978550	2523.762932
509.343503	2522.051461
509.708398	2523.803262
510.073236	2522.177489
510.438016	2523.498272
510.802738	2524.680422
511.167403	2521.769156
511.532010	2524.662778
511.896561	2522.704290
512.261053	2523.767973
512.625488	2521.474248
512.989866	2525.212264
513.354186	2526.321318
513.718449	2521.905267
514.082655	2525.726462
514.446803	2524.972809
514.810894	2526.464991
515.174927	2526.008766
515.538904	2527.258972
515.902822	2526.974147
516.266684	2526.094466
516.630488	2527.183355
516.994235	2523.364681
517.357925	2527.619415
517.721558	2528.410876
518.085133	2525.928108
518.448651	2525.683612
518.812112	2523.183200
519.175516	2525.406348
519.538863	2524.115813
519.902152	2527.553880
520.265385	2531.543953
520.628560	2529.910619
520.991678	2530.823068
521.354739	2528.680578
521.717743	2527.803417
522.080690	2532.983203
522.443580	2530.288706
522.806413	2531.589324
523.169189	2531.223840
523.531908	2530.717204
523.894569	2533.981351
524.257174	2530.669313
524.619722	2533.673841
524.982213	2538.311702
525.344647	2535.561753
525.707025	2535.158461
526.069345	2536.020498
526.431608	2538.669624
526.793815	2537.006043
527.155964	2537.996630
527.518057	2537.469830
527.880093	2541.038967
528.242072	2538.147865
528.603995	2540.537372
528.965860	2544.474513
529.327669	2541.679193
529.689421	2544.527445
530.051117	2545.492826
530.412755	2543.700696
530.774337	2546.589277
531.135862	2544.451828
531.497331	2546.574153
531.858743	2549.752601
532.220098	2549.739998
532.581396	2549.273691
532.942638	2548.686397
533.303824	2550.665050
533.664953	2551.028013
534.026025	2553.039433
534.387040	2552.046326
534.747999	2554.697973
535.108902	2555.219732
535.469748	2553.142777
535.830537	2556.197716
536.191270	2556.898437
536.551947	2553.402396
536.912567	2554.692932
537.273131	2558.932542
537.633638	2553.876265
537.994089	2557.311811
538.354483	2561.163253
538.714821	2562.841957
539.075103	2565.314643
539.435328	2565.559139
539.795497	2566.075857
540.155609	2566.199365
540.515665	2568.641804
540.875665	2568.566187
541.235609	2568.949315
541.595496	2571.169943
541.955328	2569.922257
542.315102	2567.983934
542.674821	2570.902762
543.034483	2576.566498
543.394090	2571.797567
543.753640	2574.701271
544.113134	2574.063565
544.472571	2575.225551
544.831953	2575.795202
545.191278	2575.396951
545.550548	2577.693196
545.909761	2579.213104
546.268918	2581.290059
546.628019	2584.309711
546.987064	2577.680593
547.346053	2580.818712
547.704986	2582.978846
548.063863	2583.871130
548.422684	2584.430698
548.781449	2583.782910
549.140158	2586.265678
549.498811	2585.343147
549.857408	2584.534042
550.215949	2586.179979
550.574434	2587.130236
550.932864	2588.294743
551.291237	2591.125351
551.649555	2587.929259
552.007817	2587.435226
552.366022	2586.575709
552.724173	2590.941348
553.082267	2588.655185
553.440305	2592.405804
553.798288	2591.027048
554.156215	2593.512337
554.514086	2590.555700
554.871902	2587.629310
555.229661	2592.335227
555.587365	2591.158118
555.945014	2596.350507
556.302606	2596.463932
556.660143	2596.282451
557.017625	2595.342276
557.375050	2595.816144
557.732421	2595.932091
558.089735	2596.416042
558.446994	2595.349838
558.804197	2596.864704
559.161345	2598.321598
559.518437	2598.525764
559.875474	2597.880497
560.232455	2603.062803
560.589381	2599.997781
560.946251	2600.403594
561.303065	2601.086671
561.659825	2600.479212
562.016528	2598.747575
562.373177	2600.227154
562.729770	2601.915940
563.086307	2601.253029
563.442789	2603.208996
563.799216	2603.413163
564.155587	2601.981475
564.511904	2602.357041
564.868164	2601.311002
565.224370	2601.394181
565.580520	2604.837289
565.936615	2604.784357
566.292654	2602.089860
566.648638	2602.530961
567.004567	2603.720673
567.360441	2605.036415
567.716260	2604.721342
568.072023	2604.343256
568.427732	2604.169336
568.783385	2602.946856
569.138982	2605.217896
569.494525	2602.840992
569.850013	2604.786878
570.205445	2605.492639
570.560823	2604.340735
570.916145	2606.896600
571.271412	2604.418873
571.626625	2604.607917
571.981782	2603.889552
572.336884	2601.169850
572.691931	2602.430138
573.046923	2601.348811
573.401860	2598.124993
573.756743	2603.392998
574.111570	2604.749069
574.466342	2605.139758
574.821059	2605.701847
575.175722	2604.318050
575.530330	2603.617330
575.884882	2602.780498
576.239380	2601.563060
576.593823	2603.665221
576.948211	2602.644387
577.302544	2604.554984
577.656823	2600.539705
578.011047	2602.835951
578.365216	2605.109511
578.719330	2604.116404
579.073389	2597.691453
579.427394	2605.727053
579.781344	2603.899634
580.135239	2603.304778
580.489080	2604.612958
580.842866	2601.961311
581.196597	2605.580859
581.550273	2602.788060
581.903895	2599.997781
582.257463	2602.488111
582.610975	2603.579521
582.964434	2602.775457
583.317837	2603.513986
583.671186	2602.104984
584.024481	2601.207658
584.377721	2605.573297
584.730906	2601.598348
585.084037	2602.110025
585.437113	2604.653287
585.790135	2601.618512
586.143103	2602.283945
586.496016	2604.741507
586.848874	2604.227309
587.201679	2604.726384
587.554428	2600.448965
587.907124	2604.554984
588.259765	2600.227154
588.612352	2600.275045
588.964884	2603.637494
589.317362	2602.777978
589.669786	2605.432145
590.022155	2599.735641
590.374470	2599.541557
590.726731	2601.890735
591.078937	2597.346134
591.431090	2603.370313
591.783188	2603.498863
592.135232	2603.945005
592.487222	2603.677824
592.839157	2604.749069
593.191038	2606.878956
593.542866	2602.873760
593.894639	2602.417535
594.246358	2603.143461
594.598022	2603.713112
594.949633	2604.580190
595.301190	2606.032042
595.652692	2607.078082
596.004141	2607.897269
596.355535	2608.028339
596.706876	2607.597321
597.058162	2606.654625
597.409395	2608.545058
597.760573	2611.297528
598.111698	2608.318206
598.462768	2610.377517
598.813785	2608.474482
599.164748	2610.609410
599.515657	2610.228803
599.866511	2611.630244
600.217312	2613.666870
600.568060	2612.053701
600.918753	2614.972529
601.269392	2614.854062
601.619978	2615.191819
601.970510	2617.069649
602.320988	2618.075359
602.671412	2620.311111
603.021783	2618.440843
603.372100	2617.631737
603.722363	2621.425206
604.072572	2623.557614
604.422728	2623.925618
604.772830	2626.468880
605.122878	2626.932666
605.472872	2626.249590
605.822813	2629.425517
606.172701	2630.128758
606.522534	2631.769653
606.872314	2635.452216
607.222041	2636.601599
607.571714	2636.820890
607.921333	2635.255611
608.270899	2638.348359
608.620411	2639.956487
608.969870	2644.954791
609.319276	2648.781027
609.668627	2654.001142
610.017926	2654.646410
610.367171	2656.342758
610.716362	2661.870383
611.065500	2664.602688
611.414585	2666.583862
611.763616	2670.939419
612.112594	2671.773730
612.461518	2677.077024
612.810389	2680.232786
613.159207	2685.054650
613.507971	2687.325689
613.856682	2693.140660
614.205340	2696.291382
614.553945	2705.398226
614.902496	2707.119780
615.250994	2710.315872
615.599439	2715.382231
615.947830	2720.879609
616.296169	2721.245093
616.644454	2729.497462
616.992686	2738.952146
617.340864	2745.941706
617.688990	2752.860689
618.037063	2761.453336
618.385082	2767.316198
618.733048	2776.218876
619.080961	2784.372942
619.428821	2791.090280
619.776628	2795.932308
620.124382	2802.238791
620.472083	2807.779019
620.819731	2815.880154
621.167326	2817.591625
621.514868	2823.220074
621.862357	2823.550269
622.209793	2825.959941
622.557176	2829.937411
622.904506	2835.099553
623.251783	2837.637774
623.599007	2840.213803
623.946179	2845.701099
624.293297	2853.267871
624.640363	2851.039681
624.987376	2858.692153
625.334336	2859.405476
625.681243	2866.251363
626.028097	2872.000799
626.374899	2879.817108
626.721647	2892.273799
627.068343	2899.948956
627.414987	2903.651683
627.761577	2910.696696
628.108115	2921.719179
628.454600	2925.638676
628.801032	2938.919596
629.147412	2948.666667
629.493739	2956.891309
629.840014	2962.262658
630.186236	2981.754280
630.532405	2987.513798
630.878521	3004.978876
631.224585	3012.757376
631.570597	3024.102493
631.916556	3042.686706
632.262462	3053.903274
632.608316	3065.707135
632.954117	3078.236923
633.299866	3092.639500
633.645562	3099.876076
633.991206	3107.039556
634.336797	3107.735235
634.682336	3114.928962
635.027823	3122.606639
635.373257	3130.261631
635.718639	3132.958648
636.063968	3143.071203
636.409245	3143.716471
636.754470	3152.503202
637.099642	3157.609891
637.444762	3163.114831
637.789829	3174.003723
638.134845	3181.646112
638.479808	3191.002494
638.824719	3205.458002
639.169577	3207.030842
639.514383	3223.732185
639.859137	3228.425499
640.203839	3245.192377
640.548489	3254.518512
640.893086	3266.138371
641.237632	3278.025412
641.582125	3289.496557
641.926566	3305.966007
642.270955	3315.249292
642.615292	3328.658761
642.959576	3342.741224
643.303809	3359.160263
643.647990	3383.967781
643.992118	3397.838515
644.336195	3409.302099
644.680219	3426.013524
645.024192	3453.467648
645.368112	3489.819408
645.711981	3515.393182
646.055797	3559.236097
646.399562	3579.136052
646.743274	3634.805514
647.086935	3677.635157
647.430544	3704.365875
647.774101	3732.621542
648.117606	3765.499948
648.461059	3791.411478
648.804460	3793.770738
649.147810	3791.998773
649.491108	3796.888692
649.834354	3807.417142
650.177548	3795.628404
650.520690	3789.203453
650.863781	3805.443530
651.206820	3815.787978
651.549807	3817.229748
651.892742	3813.791681
652.235626	3828.521932
652.578458	3839.060465
652.921238	3831.594516
653.263967	3863.373950
653.606644	3874.247718
653.949269	3891.874113
654.291843	3898.135226
654.634365	3930.872479
654.976836	3931.129578
655.319255	3955.644709
655.661622	3973.041731
656.003938	3986.695696
656.346203	3994.469155
656.688416	4028.262530
657.030577	4036.666134
657.372687	4050.909914
657.714746	4075.268769
658.056753	4108.825210
658.398708	4100.734158
658.740612	4122.474134
659.082465	4155.476047
659.424266	4173.374664
659.766016	4194.890309
660.107715	4211.952094
660.449362	4240.999223
660.790958	4268.740692
661.132503	4287.188795
661.473996	4316.314061
661.815438	4343.848843
662.156829	4375.194738
662.498168	4382.491808
662.839456	4410.757558
663.180693	4442.345428
663.521879	4470.507834
663.863013	4493.258561
664.204097	4518.411398
664.545129	4571.260334
664.886110	4598.706897
665.227040	4631.819716
665.567918	4659.921628
665.908746	4692.172409
666.249522	4731.359819
666.590248	4763.734109
666.930922	4801.071415
667.271545	4828.144932
667.612118	4862.631465
667.952639	4877.943970
668.293109	4902.943052
668.633528	4918.570629
668.973896	4939.801448
669.314213	4960.939006
669.654480	4975.233198
669.994695	4995.473431
670.334859	5014.539074
670.674973	5025.801012
671.015035	5066.372218
671.355047	5090.720991
671.695008	5113.625474
672.034918	5139.925173
672.374777	5177.247356
672.714585	5196.701169
673.054342	5237.932766
673.394049	5260.582670
673.733705	5311.140402
674.073310	5314.772553
674.412864	5349.233881
674.752368	5347.454354
675.091820	5396.338423
675.431223	5383.181011
675.770574	5392.600407
676.109875	5397.742384
676.449125	5393.412033
676.788324	5409.286626
677.127473	5385.535230
677.466571	5399.663064
677.805619	5393.618720
678.144616	5413.584210
678.483562	5434.041212
678.822458	5420.435138
679.161303	5445.587975
679.500098	5466.710410
679.838842	5488.460468
680.177535	5519.783677
680.516179	5575.190999
680.854771	5613.289520
681.193314	5734.493982
681.531805	5898.913735
681.870247	6042.707607
682.208638	6182.801272
682.546978	6268.644561
682.885268	6324.500545
683.223508	6307.564789
683.561697	6305.518081
683.899836	6316.003681
684.237925	6294.747655
684.575963	6311.249872
684.913951	6290.931502
685.251889	6352.554567
685.589776	6383.159412
685.927614	6428.123983
686.265401	6490.972048
686.603137	6546.323917
686.940824	6659.926319
687.278460	6759.476505
687.616046	6837.211097
687.953582	6985.975547
688.291068	7023.310333
688.628504	7116.256607
688.965889	7162.814183
689.303224	7162.912486
689.640510	7147.632748
689.977745	7082.828716
690.314930	6987.440002
690.652065	6939.914525
690.989150	6856.727924
691.326185	6745.681388
691.663170	6667.629203
692.000105	6572.434574
692.336990	6495.322564
692.673825	6450.206758
693.010610	6385.521192
693.347345	6318.554504
693.684030	6246.314770
694.020665	6228.700978
694.357251	6143.306353
694.693786	6172.915570
695.030272	6153.350852
695.366707	6090.003713
695.703093	6065.375155
696.039429	6103.448470
696.375716	6083.074647
696.711952	6113.561024
697.048139	6115.242249
697.384276	6112.809893
697.720363	6164.292676
698.056400	6170.228635
698.392388	6166.722512
698.728326	6185.389905
699.064214	6183.058371
699.400053	6205.335230
699.735842	6158.157592
700.071581	6142.754346
700.407270	6113.616477
700.742910	6103.188850
701.078501	6076.901754
701.414042	6053.266304
701.749533	6013.655437
702.084974	5974.024407
702.420366	6035.294590
702.755709	5977.651517
703.091002	5938.229694
703.426246	5967.672553
703.761440	5976.613039
704.096584	5948.014573
704.431679	5956.493794
704.766725	5959.795750
705.101721	5964.494105
705.436668	6012.480849
705.771565	5974.838553
706.106413	6056.669083
706.441212	6095.279280
706.775961	6132.329240
707.110661	6177.208112
707.445311	6280.007322
707.779913	6282.316170
708.114465	6366.568974
708.448967	6464.634540
708.783421	6626.221165
709.117825	6729.126238
709.452180	6816.368447
709.786485	6940.690862
710.120742	7141.928683
710.454949	7196.819286
710.789107	7347.441402
711.123216	7545.321813
711.457275	7641.965774
711.791286	7800.084085
712.125247	7879.101651
712.459159	7856.643310
712.793023	8063.738952
713.126837	7854.778083
713.460602	7941.004499
713.794318	7893.622694
714.127985	7846.913883
714.461602	7646.452401
714.795171	7659.171232
715.128691	7431.505163
715.462162	7322.568348
715.795584	7233.375213
716.128957	7189.222267
716.462281	7115.283664
716.795556	7056.982720
717.128782	6956.557894
717.461960	6826.788512
717.795088	6831.444017
718.128167	6761.805518
718.461198	6664.465878
718.794180	6649.168497
719.127113	6586.592654
719.459997	6551.049999
719.792833	6466.489685
720.125619	6492.312995
720.458357	6423.423107
720.791046	6401.552061
721.123686	6371.693307
721.456278	6325.095402
721.788821	6344.450912
722.121315	6288.942767
722.453761	6330.930537
722.786158	6316.384288
723.118506	6356.920206
723.450805	6338.222566
723.783056	6406.875520
724.115259	6391.681482
724.447412	6407.714872
724.779518	6485.520040
725.111574	6515.104052
725.443582	6609.862621
725.775542	6612.857066
726.107453	6773.700121
726.439315	6764.469768
726.771129	6902.746097
727.102895	7044.974691
727.434612	7149.550907
727.766281	7219.869962
728.097901	7334.735173
728.429473	7385.945735
728.760996	7409.558499
729.092471	7471.025288
729.423897	7460.181766
729.755276	7428.500635
730.086606	7481.659602
730.417887	7669.634147
730.749120	7859.766305
731.080305	7962.857901
731.411442	8112.675953
731.742530	8174.724995
732.073570	8242.576405
732.404562	8364.761371
732.735506	8353.910287
733.066401	8331.799787
733.397249	8215.729740
733.728048	8042.354377
734.058798	7793.923795
734.389501	7571.051863
734.720156	7411.330465
735.050762	7237.992910
735.381320	7114.913139
735.711831	7036.704678
736.042293	6925.985817
736.372707	6945.643796
736.703073	6887.854529
737.033391	6962.899666
737.363661	6975.184958
737.693883	7023.574993
738.024056	7104.835873
738.354182	7191.931888
738.684260	7320.108265
739.014290	7428.556088
739.344272	7521.119234
739.674207	7659.627456
740.004093	7739.318016
740.333931	7783.173534
740.663722	7834.346287
740.993464	7871.456741
741.323159	7845.774583
741.652806	7762.968590
741.982405	7728.121614
742.311956	7621.108000
742.641460	7606.813808
742.970915	7503.084506
743.300323	7396.471664
743.629683	7338.047211
743.958996	7236.162972
744.288260	7141.729557
744.617477	7045.561986
744.946647	7048.301853
745.275768	6944.464166
745.604842	6882.447891
745.933869	6828.562998
746.262847	6822.574107
746.591778	6804.630120
746.920662	6771.018227
747.249498	6785.176307
747.578286	6845.145873
747.907027	6923.019098
748.235720	7034.037908
748.564365	7078.692449
748.892963	7065.580408
749.221514	7125.292875
749.550017	7093.652073
749.878473	7097.531241
750.206881	7027.575149
750.535242	7017.258427
750.863555	7001.217476
751.191821	6970.516849
751.520039	6992.879407
751.848210	6970.350491
752.176334	6995.289079
752.504411	6980.495813
752.832440	6922.514982
753.160421	6979.785010
753.488356	6956.096628
753.816243	6927.157885
754.144082	6867.962136
754.471875	6853.748603
754.799620	6857.602565
755.127318	6857.804211
755.454969	6859.876125
755.782572	6862.971393
756.110129	6873.525049
756.437638	6853.685588
756.765100	6859.878646
757.092515	6878.518312
757.419882	6907.772128
757.747203	6914.260093
758.074477	6961.155426
758.401703	6960.505118
758.728882	7039.477313
759.056014	7068.705923
759.383099	7146.647203
759.710138	7207.829166
760.037129	7274.183354
760.364073	7315.230949
760.690970	7337.253230
761.017820	7353.823502
761.344623	7453.356044
761.671379	7606.791123
761.998088	7871.723922
762.324751	8502.788163
762.651366	9735.907326
762.977935	11568.172665
763.304456	13017.007842
763.630931	13760.600720
763.957359	13485.472187
764.283740	12619.028911
764.610074	11714.966024
764.936362	10601.780952
765.262602	9780.662690
765.588796	8946.215617
765.914943	8365.517544
766.241044	7866.526492
766.567097	7504.979980
766.893104	7183.611463
767.219064	6981.927501
767.544978	6770.826663
767.870845	6598.091526
768.196665	6505.498133
768.522438	6406.270581
768.848165	6324.175391
769.173846	6237.669191
769.499479	6189.599268
769.825066	6121.347087
770.150607	6023.818404
770.476101	5997.533828
770.801548	5947.444923
771.126949	5879.858173
771.452303	5836.567265
771.777611	5753.161374
772.102872	5755.223206
772.428087	5698.590884
772.753256	5635.009331
773.078378	5601.359629
773.403453	5521.278380
773.728482	5468.557993
774.053465	5437.234783
774.378401	5398.135594
774.703291	5343.335731
775.028135	5295.142300
775.352932	5285.241474
775.677683	5237.290019
776.002388	5189.933420
776.327046	5198.737795
776.651658	5161.760931
776.976224	5112.251759
777.300743	5118.454899
777.625216	5082.670269
777.949643	5067.934976
778.274024	5079.385957
778.598359	5040.627046
778.922647	5054.338984
779.246889	5033.387949
779.571086	5039.490265
779.895236	5047.004105
780.219339	5050.709353
780.543397	5057.824942
780.867409	5102.824802
781.191374	5111.614053
781.515294	5103.364205
781.839167	5154.660466
782.162995	5147.232326
782.486776	5125.479747
782.810511	5108.584320
783.134201	5072.711469
783.457844	5071.403290
783.781441	5056.219334
784.104993	5027.993914
784.428498	5024.621382
784.751958	5024.689438
785.075372	5011.254763
785.398739	4990.449921
785.722061	5009.959186
786.045337	5016.850443
786.368568	5094.169141
786.691752	5103.122230
787.014891	5255.302062
787.337983	5409.773098
787.661030	5691.513104
787.984031	6012.750550
788.306987	6250.080512
788.629897	6401.834366
788.952760	6423.496204
789.275579	6351.412745
789.598351	6167.740825
789.921078	5997.828735
790.243759	5788.769564
790.566395	5640.627697
790.888984	5511.561556
791.211529	5403.005349
791.534027	5296.301766
791.856480	5182.112069
792.178888	5143.567407
792.501249	5091.683852
792.823566	5013.341800
793.145836	5011.753837
793.468062	5000.504502
793.790241	4977.113548
794.112375	5005.694370
794.434464	5086.793933
794.756507	5106.348568
795.078505	5185.275393
795.400457	5326.339481
795.722364	5508.562069
796.044226	5663.133928
796.366042	5826.056459
796.687812	5821.990768
797.009538	5882.454368
797.331218	5845.167473
797.652852	5815.994316
797.974442	5744.281382
798.295986	5711.385332
798.617484	5608.843222
798.938938	5540.273447
799.260346	5490.557588
799.581709	5388.098657
799.903026	5343.464281
800.224299	5288.490498
800.545526	5200.479513
800.866708	5147.272655
801.187845	5105.988126
801.508936	5053.655908
801.829983	5033.289646
802.150984	4947.312767
802.471940	4927.924490
802.792851	4922.182615
803.113717	4905.287188
803.434538	4886.922265
803.755314	4857.136607
804.076045	4861.209860
804.396731	4824.091844
804.717372	4844.465667
805.037967	4840.773022
805.358518	4866.477865
805.679024	4910.829937
805.999485	4917.738838
806.319901	4944.560297
806.640272	4956.338953
806.960598	5010.773333
807.280879	5011.211913
807.601115	5062.172937
807.921306	5032.351992
808.241453	5039.427251
808.561554	5060.577412
808.881611	5046.893200
809.201623	5054.719591
809.521590	5030.365777
809.841513	5028.026682
810.161390	5058.387031
810.481223	4985.839786
810.801011	4983.160412
811.120755	4975.954083
811.440453	4936.260037
811.760107	4917.975773
812.079716	4904.755347
812.399281	4875.768712
812.718801	4872.585223
813.038276	4846.613199
813.357707	4817.659332
813.677093	4840.604143
813.996434	4790.220331
814.315731	4812.363599
814.634983	4814.891738
814.954191	4825.384900
815.273354	4884.530237
815.592473	4926.500364
815.911547	4994.439994
816.230577	5044.503693
816.549562	5133.588443
816.868502	5195.657650
817.187399	5257.941106
817.506250	5353.128173
817.825058	5378.074322
818.143821	5531.325399
818.462539	5687.117218
818.781213	5892.178753
819.099843	6188.649011
819.418429	6735.911631
819.736970	7279.506812
820.055466	7960.201213
820.373919	8814.008837
820.692327	10044.957783
821.010691	11988.355359
821.329011	16107.729183
821.647286	22280.158281
821.965517	29841.798310
822.283704	35034.988315
822.601847	38535.091677
822.919945	36817.411765
823.237999	34005.483876
823.556010	30299.837548
823.873976	26464.862939
824.191897	22728.339543
824.509775	19956.766091
824.827609	17287.555788
825.145398	15708.021136
825.463144	14801.515810
825.780845	14748.674435
826.098502	15461.725482
826.416116	17359.039349
826.733685	19576.925231
827.051210	20688.330775
827.368692	20223.402800
827.686129	18196.095219
828.003522	15813.499718
828.320872	13602.759672
828.638177	11848.649862
828.955439	10514.258960
829.272656	9395.465604
829.589830	8505.152465
829.906960	7702.381482
830.224046	7099.784637
830.541088	6612.990657
830.858086	6312.285830
831.175041	6065.977573
831.491952	5974.316793
831.808819	5975.735878
832.125642	6183.295306
832.442421	6637.778010
832.759157	7579.314314
833.075849	9156.151949
833.392497	11057.241640
833.709101	12556.702605
834.025662	12826.316116
834.342179	12064.166751
834.658653	10821.560136
834.975083	9625.639648
835.291469	8599.437165
835.607811	7746.259685
835.924110	7156.593399
836.240366	6600.813749
836.556578	6085.895172
836.872746	5677.395352
837.188871	5337.074618
837.504952	5058.828132
837.820990	4849.466492
838.136984	4698.826732
838.452935	4625.087255
838.768842	4618.813539
839.084706	4800.650478
839.400526	5416.679478
839.716303	6369.137442
840.032037	7173.075452
840.347727	7331.385327
840.663373	6842.050605
840.978977	6177.351785
841.294537	5634.396831
841.610054	5234.368670
841.925527	4947.627839
842.240957	4711.104463
842.556344	4494.042460
842.871687	4306.103204
843.186987	4124.109988
843.502244	3974.380157
843.817458	3861.702807
844.132629	3765.023559
844.447756	3702.735062
844.762840	3648.555261
845.077881	3601.186059
845.392879	3557.466652
845.707833	3524.915922
846.022745	3496.375429
846.337613	3480.750373
846.652438	3451.189047
846.967221	3440.433745
847.281960	3416.783172
847.596656	3408.477871
847.911309	3392.746950
848.225919	3378.656925
848.540485	3370.664176
848.855009	3358.215046
849.169490	3345.017305
849.483928	3335.325687
849.798323	3330.027434
850.112675	3319.672904
850.426984	3324.439315
850.741251	3314.228458
851.055474	3310.651760
851.369654	3316.733912
851.683792	3313.724343
851.997887	3319.514108
852.311938	3319.435970
852.625947	3322.150632
852.939914	3313.681493
853.253837	3322.599294
853.567718	3324.998883
853.881555	3317.936227
854.195350	3323.899912
854.509103	3326.246569
854.822812	3322.979901
855.136479	3317.603511
855.450103	3328.174810
855.763685	3316.998572
856.077224	3316.242399
856.390720	3330.947445
856.704173	3341.617047
857.017584	3354.013244
857.330953	3358.131867
857.644278	3376.806822
857.957561	3379.521483
858.270802	3380.151627
858.584000	3386.561454
858.897155	3383.975342
859.210268	3369.960935
859.523339	3355.944006
859.836367	3355.855786
860.149352	3353.494006
860.462295	3346.822038
860.775195	3343.580577
861.088054	3339.824917
861.400869	3338.738548
861.713642	3335.119000
862.026373	3344.049404
862.339062	3347.827749
862.651708	3361.368288
862.964312	3383.269581
863.276873	3388.245200
863.589392	3424.947320
863.901869	3455.174079
864.214303	3481.957729
864.526696	3506.649301
864.839045	3541.163560
865.151353	3559.946900
865.463619	3568.542067
865.775842	3576.413829
866.088023	3588.285746
866.400162	3582.569077
866.712258	3591.776745
867.024313	3595.882765
867.336325	3592.565686
867.648296	3598.904937
867.960224	3598.100872
868.272110	3603.232767
868.583954	3607.280814
868.895755	3614.719036
869.207515	3613.650312
869.519233	3640.988489
869.830909	3651.000220
870.142542	3670.668282
870.454134	3677.224303
870.765684	3698.455122
871.077191	3724.835480
871.388657	3734.098600
871.700081	3762.770163
872.011463	3789.478196
872.322803	3813.458965
872.634101	3834.530988
872.945357	3864.530894
873.256571	3895.024834
873.567744	3916.147269
873.878874	3931.051440
874.189963	3961.288281
874.501010	3970.780773
874.812015	3966.314311
875.122979	3998.562572
875.433900	3998.544928
875.744780	4009.600179
876.055618	4027.254299
876.366415	4030.173127
876.677169	4043.338101
876.987882	4078.033842
877.298554	4111.363431
877.609183	4160.199609
877.919771	4232.996391
878.230317	4320.788085
878.540822	4465.449036
878.851285	4663.153007
879.161707	4947.688333
879.472087	5409.636987
879.782425	6126.247088
880.092722	7364.878753
880.402977	9172.918827
880.713191	11171.759012
881.023363	13207.039177
881.333494	14524.312842
881.643583	15454.660305
881.953631	15790.738908
882.263637	15605.141268
882.573602	14959.243431
882.883526	14162.438654
883.193408	13241.951688
883.503248	12235.215621
883.813048	11308.371760
884.122806	10417.209186
884.432522	9506.842337
884.742197	8713.394968
885.051831	8014.849842
885.361424	7349.173038
885.670975	6804.025182
885.980485	6342.716755
886.289954	5954.585717
886.599382	5631.941789
886.908768	5368.997725
887.218113	5119.367348
887.527417	4917.401081
887.836680	4727.273964
888.145901	4572.409717
888.455082	4459.981904
888.764221	4355.065411
889.073319	4257.032612
889.382376	4200.473387
889.691392	4160.809588
890.000366	4134.605671
890.309300	4119.303248
890.618193	4118.282414
890.927044	4110.403091
891.235855	4124.329278
891.544625	4139.808141
891.853353	4175.907844
892.162041	4246.068103
892.470687	4358.826111
892.779293	4512.087271
893.087858	4741.868104
893.396381	5092.508080
893.704864	5566.628600
894.013306	6271.790241
894.321707	7048.947121
894.630068	7683.862803
894.938387	7947.265612
895.246665	7884.344451
895.554903	7527.027466
895.863100	7071.521407
896.171256	6703.166817
896.479371	6359.970104
896.787446	6022.961408
897.095480	5719.670469
897.403473	5494.242672
897.711425	5272.285709
898.019336	5094.126291
898.327207	4904.422630
898.635038	4742.243670
898.942827	4565.944438
899.250576	4427.857152
899.558284	4288.670894
899.865952	4202.999005
900.173579	4099.050413
900.481165	4020.806664
900.788711	3955.049853
901.096216	3894.409813
901.403681	3848.825180
901.711105	3830.014114
902.018489	3814.920899
902.325832	3855.368597
902.633135	3920.212959
902.940397	4106.508800
903.247619	4545.900810
903.554800	5373.028127
903.861941	6555.902110
904.169041	7629.388095
904.476101	8221.801810
904.783121	8164.120927
905.090100	7767.364476
905.397039	7234.060810
905.703938	6723.331432
906.010796	6252.023877
906.317614	5885.698350
906.624391	5514.152709
906.931129	5221.760744
907.237826	4941.371768
907.544483	4682.022046
907.851099	4424.066204
908.157675	4182.184081
908.464211	3953.388793
908.770707	3778.843882
909.077163	3630.129843
909.383578	3520.290663
909.689954	3435.644649
909.996289	3379.957543
910.302584	3331.244873
910.608839	3303.485759
910.915054	3282.491874
911.221229	3268.989144
911.527363	3276.019033
911.833458	3284.468007
912.139513	3299.820841
912.445527	3320.298008
912.751502	3371.140565
913.057436	3436.957869
913.363331	3524.237886
913.669186	3652.777227
913.975000	3815.520797
914.280775	4078.779933
914.586510	4440.089511
914.892205	4931.362557
915.197859	5581.358851
915.503475	6360.000351
915.809050	7084.744354
916.114585	7584.252124
916.420081	7848.307762
916.725536	7901.247440
917.030952	7658.987230
917.336328	7418.123420
917.641665	7165.652353
917.946961	6852.543767
918.252218	6572.361477
918.557435	6226.102263
918.862612	5942.219767
919.167750	5685.612433
919.472848	5396.363628
919.777906	5138.586747
920.082925	4893.528697
920.387904	4634.587309
920.692843	4439.403914
920.997743	4257.173765
921.302603	4091.324844
921.607423	3970.526195
921.912204	3851.358359
922.216946	3766.893827
922.521647	3677.413346
922.826310	3603.686471
923.130932	3536.704660
923.435516	3460.588278
923.740059	3416.299221
924.044564	3359.941641
924.349028	3314.266267
924.653454	3269.490738
924.957840	3218.476782
925.262186	3181.925896
925.566493	3140.913589
925.870761	3097.955397
926.174989	3069.871128
926.479178	3046.361707
926.783328	3011.572705
927.087438	2994.669716
927.391509	2968.538895
927.695541	2944.084258
927.999533	2925.928542
928.303486	2912.012437
928.607400	2902.144378
928.911275	2892.218346
929.215110	2878.030019
929.518906	2871.920140
929.822663	2868.335880
930.126381	2867.070550
930.430060	2871.287476
930.733699	2871.733618
931.037299	2883.734084
931.340861	2878.700492
931.644383	2885.874054
931.947866	2887.588047
932.251309	2881.768034
932.554714	2882.619989
932.858080	2877.898949
933.161407	2871.562218
933.464694	2867.546939
933.767943	2863.695498
934.071153	2860.126361
934.374323	2850.719568
934.677455	2851.780731
934.980548	2844.632375
935.283602	2838.923268
935.586617	2833.592248
935.889593	2841.572394
936.192530	2845.960719
936.495428	2853.497244
936.798287	2871.063144
937.101108	2887.373797
937.403890	2922.452667
937.706632	2964.972279
938.009336	3023.036289
938.312002	3075.950760
938.614628	3123.193933
938.917216	3170.666479
939.219765	3193.901157
939.522275	3218.524673
939.824747	3223.028944
940.127179	3225.713358
940.429573	3219.399313
940.731929	3221.264540
941.034246	3209.369938
941.336524	3201.583876
941.638763	3193.870910
941.940964	3186.125177
942.243126	3156.982267
942.545250	3138.834113
942.847335	3110.044083
943.149381	3085.919642
943.451389	3062.253945
943.753359	3034.890562
944.055290	3015.272912
944.357182	2998.611898
944.659036	2988.527070
944.960851	2977.557519
945.262628	2965.836837
945.564367	2966.552680
945.866067	2962.567648
946.167729	2961.519088
946.469352	2961.708132
946.770937	2956.745116
947.072484	2943.582663
947.373992	2948.863272
947.675462	2944.336315
947.976893	2932.721497
948.278286	2926.798141
948.579641	2920.884868
948.880958	2916.441091
949.182236	2922.490475
949.483476	2912.390523
949.784678	2913.083682
950.085841	2916.191553
950.386967	2922.341761
950.688054	2930.871393
950.989103	2944.419494
951.290114	2959.122020
951.591087	2976.687920
951.892021	2999.826816
952.192917	3021.188706
952.493776	3038.331149
952.794596	3044.879608
953.095378	3053.063922
953.396122	3052.171637
953.696828	3043.833569
953.997496	3036.836447
954.298126	3023.832791
954.598718	3008.270749
954.899272	2991.798779
955.199788	2971.351859
955.500266	2948.270936
955.800706	2924.451484
956.101108	2896.883934
956.401472	2873.951725
956.701798	2848.582119
957.002087	2817.505926
957.302337	2797.318625
957.602550	2776.029832
957.902724	2754.814137
958.202861	2733.220354
958.502960	2721.703838
958.803022	2706.993751
959.103045	2687.847449
959.403031	2678.879236
959.702979	2667.334994
960.002889	2657.693787
960.302762	2649.547282
960.602596	2639.492701
960.902393	2633.279479
961.202153	2626.700773
961.501875	2619.081069
961.801559	2613.124946
962.101205	2611.105964
962.400814	2606.994903
962.700385	2600.050713
962.999918	2597.366299
963.299414	2592.357913
963.598873	2589.071080
963.898293	2580.352405
964.197677	2585.597725
964.497022	2583.183013
964.796331	2582.618403
965.095601	2578.240161
965.394835	2578.182188
965.694030	2575.522979
965.993189	2577.481468
966.292309	2574.497105
966.591393	2575.089440
966.890439	2572.094995
967.189447	2574.648339
967.488419	2574.325705
967.787353	2571.280848
968.086249	2572.541137
968.385108	2576.059862
968.683930	2576.853844
968.982714	2583.240986
969.281462	2586.028744
969.580172	2589.350864
969.878844	2592.763726
970.177480	2600.796804
970.476078	2604.431476
970.774639	2612.945985
971.073162	2618.047633
971.371649	2622.627521
971.670098	2625.112810
971.968510	2628.281175
972.266885	2635.578245
972.565223	2637.715694
972.863524	2638.171919
973.161788	2641.000006
973.460014	2643.467651
973.758204	2648.113074
974.056356	2649.340595
974.354471	2650.137097
974.652550	2652.241779
974.950591	2650.951244
975.248595	2649.874957
975.546563	2644.748104
975.844493	2644.697692
976.142386	2642.159472
976.440243	2634.562453
976.738062	2632.064561
977.035845	2630.466515
977.333590	2623.746657
977.631299	2618.899588
977.928971	2616.023609
978.226606	2609.333998
978.524204	2607.274687
978.821765	2604.461723
979.119290	2606.750407
979.416777	2606.785695
979.714228	2605.306116
980.011642	2609.160078
980.309020	2612.527569
980.606360	2626.126082
980.903664	2641.262146
981.200931	2662.984478
981.498162	2694.968079
981.795356	2746.481109
982.092513	2803.816672
982.389633	2872.935933
982.686717	2940.951181
982.983764	2996.035869
983.280775	3035.747558
983.577749	3050.238355
983.874686	3048.363046
984.171587	3024.311701
984.468451	3002.178515
984.765279	2969.254739
985.062070	2940.842796
985.358824	2911.102509
985.655543	2868.434183
985.952224	2834.010663
986.248869	2789.666154
986.545478	2745.664442
986.842050	2706.943340
987.138586	2670.329439
987.435086	2641.312558
987.731549	2620.553086
988.027975	2599.939808
988.324366	2584.897005
988.620719	2576.324523
988.917037	2563.890517
989.213318	2558.816596
989.509563	2551.418702
989.805772	2552.691594
990.101944	2546.029709
990.398080	2541.790098
990.694180	2542.392516
990.990244	2543.874616
991.286271	2539.277083
991.582262	2542.079965
991.878217	2546.637168
992.174136	2550.428116
992.470019	2548.499874
992.765865	2548.817467
993.061676	2553.916594
993.357450	2557.962120
993.653188	2562.683161
993.948890	2577.350398
994.244556	2591.475711
994.540186	2608.388782
994.835780	2629.128089
995.131337	2658.344096
995.426859	2686.088086
995.722345	2720.027654
996.017795	2755.265320
996.313208	2783.888991
996.608586	2806.554019
996.903928	2815.691110
997.199234	2823.560352
997.494504	2821.929538
997.789738	2813.480564
998.084936	2799.564459
998.380099	2776.294493
998.675225	2755.081318
998.970316	2736.754203
999.265371	2708.468289
999.560390	2682.145904
999.855373	2659.990033
1000.150320	2636.132772
1000.445232	2616.154679
1000.740108	2601.679006
1001.034948	2584.849114
1001.329752	2573.927454
1001.624521	2564.790363
1001.919254	2553.344423
1002.213951	2548.406613
1002.508613	2543.035263
1002.803239	2537.905889
1003.097829	2533.033614
1003.392384	2530.737369
1003.686903	2527.188396
1003.981386	2524.942562
1004.275834	2519.626666
1004.570246	2520.198837
1004.864623	2521.572551
1005.158964	2515.170286
1005.453270	2512.730367
1005.747540	2512.463186
1006.041775	2511.422188
1006.335974	2510.431601
1006.630138	2507.792557
1006.924266	2511.636437
1007.218359	2505.755931
1007.512416	2507.474964
1007.806438	2504.483039
1008.100425	2506.418843
1008.394376	2505.334994
1008.688292	2507.744666
1008.982172	2504.805673
1009.276017	2506.897752
1009.569827	2507.099398
1009.863602	2504.936743
1010.157341	2504.767865
1010.451045	2505.332474
1010.744714	2504.485560
1011.038347	2504.039418
1011.331945	2504.861126
1011.625508	2500.407267
1011.919036	2502.330467
1012.212528	2501.284427
1012.505986	2497.571618
1012.799408	2500.618995
1013.092795	2495.832419
1013.386147	2498.680671
1013.679464	2497.732934
1013.972745	2499.222595
1014.265992	2498.083295
1014.559204	2502.390961
1014.852380	2497.647235
1015.145521	2496.439878
1015.438628	2497.085146
1015.731699	2497.059940
1016.024736	2500.467760
1016.317737	2500.054386
1016.610703	2500.636639
1016.903635	2504.740138
1017.196531	2502.738800
1017.489393	2504.200735
1017.782219	2503.399191
1018.075011	2505.135869
1018.367768	2509.330109
1018.660490	2507.805160
1018.953177	2507.805160
1019.245829	2507.805160
