Dividing Wavelength (nm)	Counts (n)	Blue Motor Position (mm): 15.000000	Red Motor Position (mm): 0.000000	
326.493990	2067.563715
326.888308	2067.563715
327.282561	2067.563715
327.676750	2043.870292
328.070874	2044.303831
328.464933	2051.308514
328.858929	2060.405277
329.252859	2065.693447
329.646726	2081.101734
330.040528	2100.739548
330.434265	2116.359564
330.827938	2135.286576
331.221547	2157.747437
331.615091	2178.277536
332.008571	2198.711853
332.401986	2219.161293
332.795338	2240.371948
333.188625	2256.405338
333.581847	2277.227824
333.975006	2296.979065
334.368100	2312.173103
334.761129	2329.209682
335.154095	2346.417661
335.546996	2388.213867
335.939833	2465.940898
336.332606	2474.888946
336.725315	2488.101810
337.117960	2497.223778
337.510540	2506.325581
337.903056	2515.152642
338.295508	2517.617766
338.687896	2529.232584
339.080220	2531.856505
339.472480	2539.534182
339.864676	2543.859492
340.256807	2546.914431
340.648875	2549.061963
341.040879	2546.717826
341.432818	2549.823177
341.824694	2553.840977
342.216506	2552.237890
342.608253	2551.418702
342.999937	2549.787889
343.391557	2546.410316
343.783113	2544.971067
344.174605	2545.757487
344.566033	2544.169523
344.957397	2542.291693
345.348697	2538.440252
345.739934	2539.685417
346.131106	2539.108205
346.522215	2535.735673
346.913260	2534.447658
347.304241	2533.361289
347.695159	2534.054448
348.086012	2531.261649
348.476802	2526.785104
348.867528	2524.992974
349.258191	2521.070956
349.648789	2523.087418
350.039324	2519.578775
350.429796	2524.332583
350.820203	2522.346368
351.210548	2522.459794
351.600828	2520.148425
351.991045	2519.669515
352.381198	2518.999042
352.771288	2514.802281
353.161314	2518.084073
353.551276	2516.072652
353.941175	2514.973681
354.331010	2515.639113
354.720782	2521.209588
355.110490	2518.860410
355.500135	2515.878568
355.889717	2518.197498
356.279235	2517.917714
356.668689	2518.474762
357.058080	2519.833353
357.447408	2519.339320
357.836672	2520.589526
358.225873	2518.220184
358.615010	2520.224042
359.004084	2524.509023
359.393095	2522.064063
359.782043	2523.261337
360.170927	2521.096162
360.559748	2523.405010
360.948505	2521.133971
361.337199	2523.276461
361.725830	2525.187058
362.114398	2524.839219
362.502903	2525.144208
362.891344	2524.967768
363.279722	2523.919208
363.668037	2524.897192
364.056289	2529.300640
364.444478	2526.618746
364.832603	2526.928777
365.220665	2528.209230
365.608665	2528.302491
365.996601	2527.689991
366.384474	2529.860208
366.772284	2529.151926
367.160031	2529.300640
367.547715	2530.565969
367.935336	2529.905578
368.322893	2528.700743
368.710388	2526.848118
369.097820	2528.466329
369.485189	2526.525485
369.872495	2531.206196
370.259738	2530.177801
370.646918	2532.121165
371.034035	2533.021011
371.421090	2533.227699
371.808081	2533.212575
372.195010	2530.765095
372.581875	2532.975641
372.968678	2530.576052
373.355418	2531.773326
373.742096	2532.713501
374.128710	2535.755837
374.515262	2533.260466
374.901751	2534.240971
375.288177	2535.052596
375.674540	2533.152081
376.060841	2531.823737
376.447079	2534.377082
376.833254	2535.831455
377.219367	2535.763399
377.605417	2535.909593
377.991404	2533.010929
378.377329	2535.728111
378.763191	2535.960004
379.148991	2536.396064
379.534727	2537.273225
379.920402	2537.137113
380.306013	2535.440765
380.691563	2536.252391
381.077049	2535.402957
381.462474	2535.483615
381.847835	2537.757175
382.233134	2536.537216
382.618371	2536.393543
383.003545	2538.624254
383.388657	2537.782381
383.773706	2538.621733
384.158693	2535.975128
384.543618	2538.793133
384.928480	2540.307999
385.313280	2539.105684
385.698017	2540.809594
386.082692	2538.462937
386.467305	2539.367824
386.851856	2542.979811
387.236344	2540.328164
387.620770	2540.073586
388.005133	2536.509490
388.389435	2538.878832
388.773674	2537.936136
389.157851	2542.977290
389.541965	2542.848741
389.926018	2541.802701
390.310008	2539.589635
390.693936	2546.795964
391.077802	2538.636857
391.461606	2544.416540
391.845348	2544.809750
392.229027	2544.966025
392.612645	2542.745397
392.996200	2544.111550
393.379694	2543.995603
393.763125	2544.174564
394.146494	2545.525593
394.529801	2545.596170
394.913047	2545.021478
395.296230	2545.951571
395.679351	2545.792775
396.062410	2543.766231
396.445408	2549.268650
396.828343	2546.122970
397.211217	2545.061807
397.594028	2547.204298
397.976778	2545.386962
398.359466	2546.433001
398.742092	2546.034750
399.124656	2545.550799
399.507158	2546.337219
399.889598	2547.438711
400.271977	2547.088351
400.654294	2548.840152
401.036549	2548.240255
401.418742	2547.287477
401.800874	2551.174206
402.182944	2549.182951
402.564952	2547.902498
402.946898	2548.759494
403.328783	2548.641027
403.710606	2548.522559
404.092367	2547.794113
404.474067	2546.352343
404.855705	2550.808723
405.237282	2548.149514
405.618797	2549.901315
406.000250	2552.313507
406.381642	2548.101623
406.762972	2548.414175
407.144240	2547.244627
407.525447	2549.384597
407.906593	2550.218908
408.287677	2549.268650
408.668700	2550.748229
409.049661	2553.321738
409.430560	2553.606563
409.811399	2552.404248
410.192176	2552.976419
410.572891	2552.300904
410.953545	2554.251831
411.334138	2553.903991
411.714669	2550.826367
412.095139	2554.236707
412.475547	2553.583878
412.855894	2554.161090
413.236180	2551.259906
413.616405	2552.701676
413.996568	2552.114382
414.376670	2554.582026
414.756711	2554.824002
415.136691	2553.596481
415.516609	2552.666388
415.896466	2554.773590
416.276262	2553.919115
416.655997	2556.018755
417.035670	2554.042623
417.415283	2555.817109
417.794834	2554.042623
418.174324	2552.878116
418.553753	2553.896429
418.933121	2552.764690
419.312428	2554.551779
419.691674	2552.810061
420.070859	2553.709907
420.449983	2557.553787
420.829045	2556.124619
421.208047	2553.977088
421.586988	2552.565565
421.965867	2556.969013
422.344686	2555.360885
422.723444	2553.818292
423.102141	2556.918601
423.480777	2558.214178
423.859352	2554.871893
424.237866	2557.866338
424.616319	2558.854404
424.994712	2557.866338
425.373044	2558.602347
425.751314	2555.726368
426.129524	2554.503888
426.507673	2554.019938
426.885762	2550.052550
427.263789	2555.222253
427.641756	2556.802655
428.019662	2556.689229
428.397508	2554.546738
428.775292	2555.660833
429.153016	2554.713096
429.530679	2555.950700
429.908282	2555.207129
430.285824	2556.633776
430.663305	2555.388611
431.040726	2556.447253
431.418086	2557.200906
431.795385	2556.495144
432.172624	2557.735268
432.549802	2552.648744
432.926920	2556.444733
433.303977	2557.004301
433.680974	2556.827860
434.057910	2558.791390
434.434786	2558.093190
434.811601	2555.491955
435.188355	2557.314332
435.565050	2557.657130
435.941683	2557.342058
436.318257	2559.567727
436.694770	2557.745350
437.071222	2559.119065
437.447614	2558.546894
437.823946	2559.804662
438.200218	2557.563869
438.576429	2560.482697
438.952580	2557.490772
439.328670	2557.785680
439.704700	2558.231822
440.080670	2556.472459
440.456580	2555.993549
440.832429	2560.679302
441.208218	2558.108313
441.583947	2560.074363
441.959616	2558.627552
442.335224	2560.228119
442.710773	2557.372305
443.086261	2559.948335
443.461689	2559.323232
443.837057	2560.676781
444.212365	2557.120247
444.587612	2558.214178
444.962800	2556.296019
445.337927	2554.153528
445.712995	2556.255689
446.088002	2558.867007
446.462949	2556.931204
446.837837	2558.451112
447.212664	2560.094528
447.587431	2561.601833
447.962139	2559.844991
448.336786	2561.117882
448.711374	2559.255176
449.085901	2562.431103
449.460369	2559.925649
449.834776	2560.298695
450.209124	2562.751216
450.583412	2562.773901
450.957640	2560.961607
451.331808	2561.032183
451.705917	2560.071843
452.079965	2560.631411
452.453954	2559.035886
452.827883	2560.084446
453.201752	2560.417162
453.575562	2560.339024
453.949311	2562.375650
454.323001	2561.218705
454.696632	2561.909343
455.070202	2561.075033
455.443713	2559.028324
455.817164	2559.235011
456.190556	2557.979764
456.563888	2564.727348
456.937160	2561.795917
457.310373	2559.373643
457.683526	2559.416493
458.056619	2562.413459
458.429653	2562.320197
458.802628	2563.088973
459.175542	2562.536967
459.548398	2564.964283
459.921194	2561.969837
460.293930	2561.190979
460.666607	2564.566032
461.039224	2562.380691
461.411782	2565.652400
461.784280	2564.896227
462.156719	2562.668037
462.529099	2560.885989
462.901419	2562.970506
463.273680	2563.149467
463.645882	2559.587892
464.018024	2562.315156
464.390106	2559.802141
464.762130	2563.434293
465.134094	2566.375806
465.505999	2567.114335
465.877845	2569.241702
466.249631	2566.126269
466.621358	2566.448902
466.993026	2566.166598
467.364634	2566.327915
467.736184	2566.690878
468.107674	2566.123748
468.479105	2566.728687
468.850477	2567.157185
469.221790	2566.539643
469.593043	2566.496793
469.964238	2565.813717
470.335373	2565.740620
470.706449	2564.805486
471.077467	2566.572411
471.448425	2566.902606
471.819324	2567.038717
472.190164	2568.911506
472.560945	2564.344221
472.931667	2568.533420
473.302330	2567.694067
473.672934	2567.552915
474.043479	2566.527040
474.413965	2565.894376
474.784393	2567.318502
475.154761	2568.104922
475.525070	2570.070972
475.895321	2568.568708
476.265513	2566.736248
476.635645	2569.221537
477.005719	2570.653225
477.375734	2567.910837
477.745691	2571.830334
478.115588	2570.501990
478.485427	2569.216496
478.855207	2570.799418
479.224928	2571.132134
479.594591	2570.219686
479.964194	2569.566856
480.333739	2572.178174
480.703226	2572.609193
481.072653	2571.888307
481.442022	2572.558781
481.811333	2571.434604
482.180584	2570.706157
482.549777	2572.299162
482.918912	2567.179870
483.287988	2571.709347
483.657005	2574.736559
484.025964	2575.424677
484.394864	2574.171950
484.763706	2574.766806
485.132489	2575.235634
485.501213	2575.036508
485.869879	2578.436766
486.238487	2576.841241
486.607036	2576.715212
486.975527	2576.284194
487.343959	2574.976014
487.712333	2575.409553
488.080648	2575.210428
488.448905	2579.903742
488.817104	2578.383834
489.185244	2578.920717
489.553326	2579.273598
489.921350	2580.485995
490.289315	2585.348188
490.657222	2584.425657
491.025070	2583.737540
491.392861	2583.626634
491.760593	2587.667119
492.128267	2582.550348
492.495883	2583.649319
492.863440	2586.565627
493.230939	2584.471027
493.598380	2586.149732
493.965763	2585.234762
494.333088	2586.144691
494.700354	2585.300297
495.067563	2586.076635
495.434713	2585.547314
495.801805	2588.481265
496.168839	2586.903384
496.535815	2588.418251
496.902733	2589.454208
497.269593	2591.279106
497.636395	2589.691142
498.003139	2594.777667
498.369825	2591.954620
498.736453	2596.345465
499.103023	2594.490321
499.469535	2596.373192
499.835989	2594.434868
500.202385	2595.954776
500.568723	2591.538725
500.935003	2594.311360
501.301226	2593.734148
501.667390	2598.583738
502.033497	2600.978286
502.399546	2600.348142
502.765537	2600.753954
503.131470	2603.448451
503.497345	2605.038935
503.863163	2604.350818
504.228923	2605.646394
504.594625	2609.454986
504.960269	2607.062958
505.325856	2611.282404
505.691385	2608.381220
506.056856	2611.826849
506.422270	2612.537652
506.787625	2615.511932
507.152924	2617.493106
507.518164	2617.213322
507.883347	2616.263064
508.248472	2619.310442
508.613540	2618.254320
508.978550	2622.819085
509.343503	2622.415792
509.708398	2622.259517
510.073236	2627.840074
510.438016	2626.930146
510.802738	2629.397791
511.167403	2627.681278
511.532010	2631.051289
511.896561	2631.499952
512.261053	2635.878194
512.625488	2638.323153
512.989866	2638.837351
513.354186	2639.129738
513.718449	2640.828607
514.082655	2644.962353
514.446803	2644.317085
514.810894	2646.441932
515.174927	2650.119453
515.538904	2650.812612
515.902822	2651.783034
516.266684	2653.055926
516.630488	2655.465597
516.994235	2657.638334
517.357925	2658.260917
517.721558	2661.373829
518.085133	2665.555467
518.448651	2663.365085
518.812112	2662.082112
519.175516	2666.808193
519.538863	2667.559325
519.902152	2671.468740
520.265385	2676.656087
520.628560	2679.466531
520.991678	2682.289577
521.354739	2684.555575
521.717743	2687.222346
522.080690	2687.993642
522.443580	2688.961544
522.806413	2694.126206
523.169189	2698.302802
523.531908	2700.770447
523.894569	2701.314891
524.257174	2707.213041
524.619722	2708.243957
524.982213	2712.808722
525.344647	2711.987014
525.707025	2717.428940
526.069345	2720.456152
526.431608	2723.768191
526.793815	2726.969323
527.155964	2731.047617
527.518057	2731.443347
527.880093	2737.049110
528.242072	2741.442476
528.603995	2744.278125
528.965860	2746.549165
529.327669	2751.139135
529.689421	2757.049888
530.051117	2763.164808
530.412755	2766.524737
530.774337	2771.356683
531.135862	2776.365069
531.497331	2781.267591
531.858743	2787.858900
532.220098	2796.718728
532.581396	2796.925415
532.942638	2801.434727
533.303824	2808.734318
533.664953	2814.945020
534.026025	2817.445432
534.387040	2829.009839
534.747999	2834.688699
535.108902	2844.022395
535.469748	2846.550534
535.830537	2858.412369
536.191270	2868.416538
536.551947	2870.306971
536.912567	2878.173692
537.273131	2889.233983
537.633638	2893.700446
537.994089	2909.138979
538.354483	2915.455545
538.714821	2930.402566
539.075103	2943.224741
539.435328	2953.352419
539.795497	2962.849953
540.155609	2973.930409
540.515665	2989.767194
540.875665	2996.759274
541.235609	3012.147396
541.595496	3027.669109
541.955328	3039.810728
542.315102	3051.995197
542.674821	3064.550191
543.034483	3078.002510
543.394090	3094.746702
543.753640	3109.272787
544.113134	3138.627426
544.472571	3146.070689
544.831953	3179.864064
545.191278	3184.595187
545.550548	3199.895089
545.909761	3232.329873
546.268918	3252.393665
546.628019	3278.516924
546.987064	3293.196764
547.346053	3302.870739
547.704986	3341.117973
548.063863	3356.843852
548.422684	3386.584139
548.781449	3404.051737
549.140158	3438.505503
549.498811	3464.948876
549.857408	3475.416832
550.215949	3526.022455
550.574434	3551.684448
550.932864	3578.241247
551.291237	3623.669605
551.649555	3654.385355
552.007817	3689.222249
552.366022	3717.876167
552.724173	3757.948299
553.082267	3802.620484
553.440305	3853.306765
553.798288	3871.447357
554.156215	3924.311417
554.514086	3969.606185
554.871902	3997.665247
555.229661	4050.113412
555.587365	4083.798402
555.945014	4137.090959
556.302606	4186.703475
556.660143	4238.758430
557.017625	4297.649189
557.375050	4333.320393
557.732421	4402.663985
558.089735	4463.984581
558.446994	4509.859081
558.804197	4585.020164
559.161345	4639.953617
559.518437	4666.512936
559.875474	4731.949634
560.232455	4806.465449
560.589381	4867.115571
560.946251	4922.291000
561.303065	5018.302296
561.659825	5067.874482
562.016528	5122.525631
562.373177	5165.403165
562.729770	5271.169093
563.086307	5310.210309
563.442789	5412.601185
563.799216	5476.853211
564.155587	5542.148757
564.511904	5613.551660
564.868164	5694.686510
565.224370	5799.413961
565.580520	5854.228947
565.936615	5949.915088
566.292654	6004.697307
566.648638	6115.602692
567.004567	6192.172777
567.360441	6289.827489
567.716260	6350.462488
568.072023	6472.521425
568.427732	6557.175001
568.783385	6610.744823
569.138982	6734.343833
569.494525	6844.097313
569.850013	6897.624285
570.205445	7004.269895
570.560823	7081.334013
570.916145	7164.954153
571.271412	7283.625435
571.626625	7346.483582
571.981782	7452.932587
572.336884	7516.592278
572.691931	7653.469687
573.046923	7719.045016
573.401860	7800.210114
573.756743	7911.173472
574.111570	8033.560084
574.466342	8127.993498
574.821059	8259.214733
575.175722	8302.712329
575.530330	8422.016276
575.884882	8489.066143
576.239380	8586.441070
576.593823	8705.994554
576.948211	8813.958426
577.302544	8866.371302
577.656823	8970.085481
578.011047	9134.169997
578.365216	9224.822547
578.719330	9301.243918
579.073389	9418.347402
579.427394	9544.673676
579.781344	9650.469851
580.135239	9732.925484
580.489080	9865.094455
580.842866	9903.563500
581.196597	10117.139545
581.550273	10242.878525
581.903895	10359.477892
582.257463	10572.940511
582.610975	10592.401885
582.964434	10792.903697
583.317837	10825.467031
583.671186	10949.643253
584.024481	11142.369085
584.377721	11187.464727
584.730906	11361.182888
585.084037	11527.016685
585.437113	11600.844383
585.790135	11763.943354
586.143103	11798.674383
586.496016	11968.994807
586.848874	12139.438739
587.201679	12297.410857
587.554428	12319.571769
587.907124	12523.073068
588.259765	12613.597067
588.612352	12806.388434
588.964884	12815.487717
589.317362	13040.608004
589.669786	13184.742154
590.022155	13302.848827
590.374470	13570.771030
590.726731	13606.737143
591.078937	13568.391606
591.431090	13808.471517
591.783188	13821.490296
592.135232	13912.488164
592.487222	14127.132933
592.839157	14318.769876
593.191038	14368.357186
593.542866	14444.037508
593.894639	14405.036622
594.246358	14636.274348
594.598022	14793.538184
594.949633	14805.359690
595.301190	14953.246979
595.652692	15065.858794
596.004141	15379.184150
596.355535	15177.575804
596.706876	15310.148068
597.058162	15355.399986
597.409395	15667.951524
597.760573	15892.759259
598.111698	15899.113634
598.462768	16018.326840
598.813785	16177.581931
599.164748	16183.933785
599.515657	16414.097746
599.866511	16385.552212
600.217312	16786.291176
600.568060	16539.859411
600.918753	16984.723594
601.269392	17100.725585
601.619978	17145.415414
601.970510	17374.649282
602.320988	17575.718224
602.671412	17832.244899
603.021783	17931.621165
603.372100	17902.818532
603.722363	18097.303727
604.072572	18256.495804
604.422728	18401.900325
604.772830	18447.628632
605.122878	18664.859513
605.472872	18746.669878
605.822813	18998.258743
606.172701	19031.979021
606.522534	19328.416511
606.872314	19561.779084
607.222041	19631.951946
607.571714	19926.514127
607.921333	19848.696355
608.270899	20077.902497
608.620411	20410.679145
608.969870	20432.746796
609.319276	20581.657439
609.668627	20732.771067
610.017926	21064.037889
610.367171	21280.038729
610.716362	21444.846651
611.065500	21535.920136
611.414585	21793.523098
611.763616	22021.244620
612.112594	22098.964089
612.461518	22312.988796
612.810389	22653.856495
613.159207	22689.295807
613.507971	22804.521460
613.856682	23223.675759
614.205340	23269.247789
614.553945	23788.297592
614.902496	23561.601945
615.250994	23938.256796
615.599439	24106.283495
615.947830	24302.026457
616.296169	24444.149187
616.644454	24601.856644
616.992686	24825.578011
617.340864	25215.128133
617.688990	25066.227572
618.037063	25582.973567
618.385082	25612.199657
618.733048	25960.399715
619.080961	26022.166452
619.428821	26186.624014
619.776628	26350.491761
620.124382	26386.906536
620.472083	26575.750679
620.819731	26777.633768
621.167326	26668.525554
621.514868	26802.970607
621.862357	26610.529600
622.209793	26805.927243
622.557176	26672.288776
622.904506	26669.778281
623.251783	26566.795070
623.599007	26513.696596
623.946179	26598.960152
624.293297	26553.756125
624.640363	26339.612951
624.987376	26373.572684
625.334336	26366.726797
625.681243	26227.996764
626.028097	26289.098069
626.374899	26288.621680
626.721647	26389.510292
627.068343	26334.014750
627.414987	26264.625788
627.761577	26218.655506
628.108115	26533.568825
628.454600	26152.316442
628.801032	26407.207262
629.147412	26453.732071
629.493739	26469.037014
629.840014	26271.005368
630.186236	26670.108477
630.532405	26384.547276
630.878521	26664.346438
631.224585	26596.999143
631.570597	26465.084750
631.916556	26667.872725
632.262462	26699.722735
632.608316	26767.934588
632.954117	26771.438189
633.299866	26825.164287
633.645562	26878.716464
633.991206	26595.900171
634.336797	26415.978870
634.682336	26437.292868
635.027823	26366.918361
635.373257	26381.305814
635.718639	26239.593938
636.063968	26248.332778
636.409245	25896.051906
636.754470	25943.526973
637.099642	25876.802260
637.444762	25552.086418
637.789829	25710.913011
638.134845	25512.699883
638.479808	25536.479005
638.824719	25590.109321
639.169577	25294.120493
639.514383	25451.260820
639.859137	25240.699386
640.203839	25437.266577
640.548489	25307.782020
640.893086	25369.997420
641.237632	25231.562294
641.582125	25368.588418
641.926566	25271.793223
642.270955	25371.572781
642.615292	25391.704629
642.959576	25379.578133
643.303809	25459.041841
643.647990	25603.049962
643.992118	25636.387113
644.336195	25568.959160
644.680219	25689.838467
645.024192	25900.740179
645.368112	26373.829783
645.711981	26443.604393
646.055797	27038.803345
646.399562	26927.512313
646.743274	27678.903855
647.086935	28070.024297
647.430544	28097.342309
647.774101	28182.719291
648.117606	28508.675257
648.461059	28689.778709
648.804460	28447.180742
649.147810	28121.239899
649.491108	27941.580738
649.834354	27919.687007
650.177548	27335.634046
650.520690	26979.776475
650.863781	27025.661057
651.206820	26949.257330
651.549807	26666.239391
651.892742	26238.192497
652.235626	26218.516874
652.578458	26161.138461
652.921238	25642.060932
653.263967	25923.369919
653.606644	25711.152466
653.949269	25696.482708
654.291843	25423.955410
654.634365	25756.553097
654.976836	25436.346567
655.319255	25554.206223
655.661622	25493.024259
656.003938	25430.135865
656.346203	25329.698436
656.688416	25586.565389
657.030577	25446.358298
657.372687	25337.547513
657.714746	25510.328020
658.056753	25716.944751
658.398708	25238.554375
658.740612	25342.140004
659.082465	25564.535547
659.424266	25506.529510
659.766016	25543.284563
660.107715	25450.066067
660.449362	25580.775624
660.790958	25591.092346
661.132503	25579.386786
661.473996	25680.416551
661.815438	25788.327490
662.156829	25933.137155
662.498168	25794.054241
662.839456	25808.839945
663.180693	25958.310156
663.521879	26048.675360
663.863013	26045.191922
664.204097	26076.913383
664.545129	26451.967667
664.886110	26447.894415
665.227040	26568.186428
665.567918	26604.933919
665.908746	26688.498606
666.249522	26795.769318
666.590248	26861.102672
666.930922	26978.468296
667.271545	27031.183641
667.612118	27112.681455
667.952639	26961.431716
668.293109	27045.697123
668.633528	26955.457949
668.973896	26954.285881
669.314213	26959.868958
669.654480	26828.398187
669.994695	26848.963574
670.334859	26804.742572
670.674973	26661.157908
671.015035	26877.312502
671.355047	26836.217016
671.695008	26800.039176
672.034918	26738.310247
672.374777	26850.606990
672.714585	26769.235205
673.054342	26929.100276
673.394049	26820.717989
673.733705	27034.593982
674.073310	26810.607955
674.412864	26894.437302
674.752368	26676.230958
675.091820	26903.937357
675.431223	26575.780926
675.770574	26424.725272
676.109875	26307.447869
676.449125	26143.401161
676.788324	26079.181902
677.127473	25665.489694
677.466571	25606.402330
677.805619	25380.425047
678.144616	25343.322155
678.483562	25314.741333
678.822458	25043.789396
679.161303	25014.323852
679.500098	24957.706653
679.838842	24896.209617
680.177535	24975.436391
680.516179	25196.294382
680.854771	25278.286229
681.193314	25936.194614
681.531805	26806.688458
681.870247	27541.348411
682.208638	28317.943202
682.546978	28666.382714
682.885268	28854.818525
683.223508	28488.001486
683.561697	28263.854142
683.899836	28137.275810
684.237925	27763.920394
684.575963	27605.471888
684.913951	27274.310930
685.251889	27411.004337
685.589776	27422.518332
685.927614	27434.730527
686.265401	27610.230737
686.603137	27717.718219
686.940824	28171.953907
687.278460	28494.360901
687.616046	28680.157667
687.953582	29324.558281
688.291068	29264.540824
688.628504	29622.913930
688.965889	29660.064714
689.303224	29459.527614
689.640510	29220.276973
689.977745	28668.222736
690.314930	27999.609460
690.652065	27634.929870
690.989150	27034.344445
691.326185	26271.080985
691.663170	25701.854057
692.000105	25042.569437
692.336990	24480.251410
692.673825	24105.955820
693.010610	23647.004132
693.347345	23168.356657
693.684030	22589.551537
694.020665	22406.955903
694.357251	21797.490486
694.693786	21806.108338
695.030272	21590.735123
695.366707	21130.898713
695.703093	20870.137468
696.039429	20935.332190
696.375716	20722.159438
696.711952	20728.866693
697.048139	20601.980851
697.384276	20453.312183
697.720363	20569.480532
698.056400	20479.531224
698.392388	20325.090435
698.728326	20339.314051
699.064214	20185.924342
699.400053	20222.245855
699.735842	19859.923005
700.071581	19697.638180
700.407270	19470.723243
700.742910	19308.602256
701.078501	19082.168748
701.414042	18891.401405
701.749533	18627.678482
702.084974	18315.699115
702.420366	18552.714004
702.755709	18167.658070
703.091002	17876.899440
703.426246	17937.592412
703.761440	17881.852374
704.096584	17668.898912
704.431679	17606.007997
704.766725	17560.398157
705.101721	17488.508783
705.436668	17597.543900
705.771565	17331.749063
706.106413	17640.602915
706.441212	17707.597329
706.775961	17794.658056
707.110661	17875.530767
707.445311	18226.160661
707.779913	18121.458416
708.114465	18408.690759
708.448967	18705.776038
708.783421	19308.912287
709.117825	19641.162134
709.452180	19843.859368
709.786485	20278.396748
710.120742	20995.579020
710.454949	21085.646795
710.789107	21585.832600
711.123216	22265.402824
711.457275	22478.119352
711.791286	23022.064893
712.125247	23189.635367
712.459159	22970.231749
712.793023	23711.041910
713.126837	22770.092900
713.460602	23034.536708
713.794318	22723.031208
714.127985	22478.641111
714.461602	21645.933237
714.795171	21628.112758
715.128691	20686.604180
715.462162	20200.450427
715.795584	19785.495410
716.128957	19535.504590
716.462281	19174.870527
716.795556	18893.894255
717.128782	18448.899002
717.461960	17855.494701
717.795088	17836.081217
718.128167	17515.975510
718.461198	17074.970330
718.794180	16947.078778
719.127113	16643.780277
719.459997	16464.572299
719.792833	16092.472131
720.125619	16138.878473
720.458357	15807.447813
720.791046	15679.571384
721.123686	15528.019176
721.456278	15315.315251
721.788821	15317.215766
722.121315	15058.970057
722.453761	15157.476724
722.786158	15049.081834
723.118506	15133.735410
723.450805	15025.539646
723.783056	15187.854717
724.115259	15076.238530
724.447412	15061.959462
724.779518	15261.816006
725.111574	15320.961343
725.443582	15560.819443
725.775542	15515.655746
726.107453	16004.680437
726.439315	15925.332675
726.771129	16320.654918
727.102895	16709.973148
727.434612	16982.452554
727.766281	17153.559398
728.097901	17459.985935
728.429473	17563.201039
728.760996	17581.230726
729.092471	17717.223412
729.423897	17599.212522
729.755276	17443.511444
730.086606	17536.424950
730.417887	18074.346313
730.749120	18608.138970
731.080305	18826.960335
731.411442	19236.894363
731.742530	19348.495427
732.073570	19486.900306
732.404562	19799.600558
732.735506	19708.096054
733.066401	19578.462783
733.397249	19159.043824
733.728048	18587.785311
734.058798	17750.989061
734.389501	17014.161412
734.720156	16505.614853
735.050762	15931.745023
735.381320	15545.895107
735.711831	15255.955664
736.042293	14886.764242
736.372707	14904.541871
736.703073	14699.210634
737.033391	14883.507657
737.363661	14870.408218
737.693883	14975.770854
738.024056	15154.227700
738.354182	15359.246386
738.684260	15695.750967
739.014290	15975.373689
739.344272	16184.677355
739.674207	16525.358532
740.004093	16711.646811
740.333931	16775.770288
740.663722	16868.933331
740.993464	16920.950477
741.323159	16798.132846
741.652806	16519.606576
741.982405	16367.101589
742.311956	16018.253743
742.641460	15925.625062
742.970915	15602.398880
743.300323	15260.959010
743.629683	15058.055088
743.958996	14761.723462
744.288260	14460.736330
744.617477	14147.988187
744.946647	14115.006438
745.275768	13804.252071
745.604842	13609.514818
745.933869	13427.549329
746.262847	13391.011046
746.591778	13297.875729
746.920662	13182.955065
747.249498	13171.307479
747.578286	13314.234273
747.907027	13479.919356
748.235720	13728.407911
748.564365	13809.928410
748.892963	13750.508330
749.221514	13860.861708
749.550017	13747.904574
749.878473	13725.809196
750.206881	13515.585519
750.535242	13445.712606
750.863555	13373.286349
751.191821	13265.566974
751.520039	13273.715999
751.848210	13188.775077
752.176334	13229.779823
752.504411	13163.234071
752.832440	12991.217299
753.160421	13117.783028
753.488356	13009.360412
753.816243	12925.725149
754.144082	12750.134199
754.471875	12694.578163
754.799620	12655.534426
755.127318	12635.067342
755.454969	12622.073767
755.782572	12596.545364
756.110129	12610.678239
756.437638	12520.126513
756.765100	12521.301102
757.092515	12546.617777
757.419882	12576.380749
757.747203	12584.948190
758.074477	12663.988441
758.401703	12643.362560
758.728882	12819.934015
759.056014	12870.307745
759.383099	13034.881253
759.710138	13154.165035
760.037129	13287.604378
760.364073	13358.621633
760.690970	13385.324624
761.017820	13381.306825
761.344623	13574.998038
761.671379	13897.087439
761.998088	14427.832719
762.324751	15815.352342
762.651366	18708.223518
762.977935	22960.623310
763.304456	26188.481679
763.630931	27760.873017
763.957359	26973.727090
764.283740	24940.622183
764.610074	22826.309327
764.936362	20257.788511
765.262602	18385.503972
765.588796	16450.071420
765.914943	15136.137520
766.241044	14011.564482
766.567097	13212.488665
766.893104	12478.874751
767.219064	12011.562310
767.544978	11526.469720
767.870845	11143.452933
768.196665	10919.998748
768.522438	10688.496360
768.848165	10495.021917
769.173846	10285.751017
769.499479	10160.450618
769.825066	9993.089352
770.150607	9777.562381
770.476101	9693.838898
770.801548	9579.737421
771.126949	9419.337988
771.452303	9315.338984
771.777611	9118.428995
772.102872	9104.437272
772.428087	8976.586049
772.753256	8826.006783
773.078378	8745.902849
773.403453	8572.590500
773.728482	8454.269578
774.053465	8367.816310
774.378401	8275.704347
774.703291	8154.242787
775.028135	8040.146352
775.352932	8013.092999
775.677683	7903.518479
776.002388	7797.291286
776.327046	7803.267573
776.651658	7709.078655
776.976224	7611.154242
777.300743	7609.883871
777.625216	7528.527209
777.949643	7486.801579
778.274024	7499.558219
778.598359	7412.825167
778.922647	7432.906603
779.246889	7383.470528
779.571086	7391.801035
779.895236	7397.736993
780.219339	7398.848568
780.543397	7404.519866
780.867409	7482.728327
781.191374	7493.967579
781.515294	7456.594985
781.839167	7550.869603
782.162995	7525.394132
782.486776	7477.515774
782.810511	7433.027591
783.134201	7351.643203
783.457844	7343.884867
783.781441	7291.164481
784.104993	7228.724749
784.428498	7209.792696
784.751958	7188.950045
785.075372	7156.469891
785.398739	7106.232272
785.722061	7146.952193
786.045337	7144.847511
786.368568	7281.024200
786.691752	7287.323121
787.014891	7569.597490
787.337983	7880.470324
787.661030	8425.557687
787.984031	9035.786839
788.306987	9465.202406
788.629897	9718.906035
788.952760	9719.939472
789.275579	9538.972131
789.598351	9175.797325
789.921078	8838.907096
790.243759	8435.879449
790.566395	8155.719845
790.888984	7903.158037
791.211529	7694.948301
791.534027	7474.591904
791.856480	7268.996007
792.178888	7190.883328
792.501249	7094.491425
792.823566	6941.441994
793.145836	6937.603156
793.468062	6903.759369
793.790241	6849.960175
794.112375	6907.406644
794.434464	7047.490227
794.756507	7071.077786
795.078505	7204.252468
795.400457	7481.072308
795.722364	7819.893299
796.044226	8104.781506
796.366042	8394.229436
796.687812	8363.117955
797.009538	8454.015000
797.331218	8366.104839
797.652852	8298.324005
797.974442	8150.451839
798.295986	8070.370589
798.617484	7891.802838
798.938938	7751.898216
799.260346	7649.134295
799.581709	7456.831919
799.903026	7375.772686
800.224299	7273.238137
800.545526	7112.700073
800.866708	7013.444795
801.187845	6952.487162
801.508936	6844.049423
801.829983	6809.295708
802.150984	6662.507390
802.471940	6619.546677
802.792851	6604.856755
803.113717	6573.919194
803.434538	6542.457352
803.755314	6482.802858
804.076045	6481.661037
804.396731	6421.300782
804.717372	6453.634742
805.037967	6449.803465
805.358518	6487.506255
805.679024	6567.637916
805.999485	6575.242497
806.319901	6613.441840
806.640272	6633.563605
806.960598	6719.535443
807.280879	6718.822120
807.601115	6799.621734
807.921306	6743.218784
808.241453	6757.407111
808.561554	6778.196830
808.881611	6745.570482
809.201623	6752.744044
809.521590	6702.561878
809.841513	6689.117121
810.161390	6724.198510
810.481223	6599.293842
810.801011	6582.468991
811.120755	6560.572739
811.440453	6483.294371
811.760107	6450.297498
812.079716	6423.173570
812.399281	6362.541092
812.718801	6352.068095
813.038276	6303.599922
813.357707	6239.882258
813.677093	6283.296674
813.996434	6190.325195
814.315731	6234.999900
814.634983	6216.526592
814.954191	6222.326439
815.273354	6317.195913
815.592473	6375.048195
815.911547	6485.956100
816.230577	6562.715229
816.549562	6705.785696
816.868502	6799.082330
817.187399	6894.254274
817.506250	7029.984820
817.825058	7053.761422
818.143821	7294.171529
818.462539	7531.688013
818.781213	7846.215684
819.099843	8324.106986
819.418429	9208.184218
819.736970	10092.402603
820.055466	11168.532673
820.373919	12514.404804
820.692327	14482.856913
821.010691	17745.894975
821.329011	25056.578803
821.647286	36505.732347
821.965517	50272.039652
822.283704	57830.725565
822.601847	61074.614803
822.919945	58826.038377
823.237999	54869.239244
823.556010	48818.632149
823.873976	42263.188784
824.191897	35922.896824
824.509775	31157.060554
824.827609	26600.354031
825.145398	23848.093239
825.463144	22219.603941
825.780845	22115.990586
826.098502	23318.404081
826.416116	26571.871512
826.733685	30234.864637
827.051210	32008.720647
827.368692	31086.058423
827.686129	27627.436195
828.003522	23686.680534
828.320872	20035.657628
828.638177	17194.634720
828.955439	15039.344845
829.272656	13234.407602
829.589830	11781.491611
829.906960	10513.263332
830.224046	9546.831290
830.541088	8790.713665
830.858086	8309.154924
831.175041	7915.561796
831.491952	7754.126406
831.808819	7748.107268
832.125642	8040.726084
832.442421	8730.774346
832.759157	10190.047232
833.075849	12700.960263
833.392497	15791.079186
833.709101	18199.906332
834.025662	18563.935613
834.342179	17239.052326
834.658653	15216.997627
834.975083	13336.753107
835.291469	11718.716642
835.607811	10408.669472
835.924110	9507.336370
836.240366	8665.186414
836.556578	7870.574539
836.872746	7231.860347
837.188871	6724.382513
837.504952	6298.374766
837.820990	5986.975131
838.136984	5756.430563
838.452935	5645.331093
838.768842	5625.668073
839.084706	5904.292646
839.400526	6852.435382
839.716303	8325.485742
840.032037	9540.005567
840.347727	9758.189226
840.663373	8978.174012
840.978977	7958.981254
841.294537	7137.792416
841.610054	6540.214039
841.925527	6109.248317
842.240957	5754.109111
842.556344	5437.499444
842.871687	5161.284542
843.186987	4884.149630
843.502244	4658.394158
843.817458	4489.601204
844.132629	4351.962580
844.447756	4260.173251
844.762840	4183.419163
845.077881	4106.503758
845.392879	4043.476732
845.707833	4000.531143
846.022745	3954.558340
846.337613	3925.808640
846.652438	3888.551992
846.967221	3870.625649
847.281960	3837.268334
847.596656	3818.487516
847.911309	3802.474291
848.225919	3778.188532
848.540485	3761.439298
848.855009	3749.869850
849.169490	3726.902353
849.483928	3714.485991
849.798323	3707.612378
850.112675	3691.321889
850.426984	3698.810523
850.741251	3684.498688
851.055474	3677.035259
851.369654	3683.737473
851.683792	3675.724559
851.997887	3681.650436
852.311938	3684.476003
852.625947	3687.321734
852.939914	3677.244467
853.253837	3687.843493
853.567718	3689.423895
853.881555	3676.566432
854.195350	3687.546065
854.509103	3685.902649
854.822812	3684.211342
855.136479	3678.361083
855.450103	3685.035571
855.763685	3672.732635
856.077224	3676.097605
856.390720	3691.011858
856.704173	3707.645146
857.017584	3719.927917
857.330953	3726.862024
857.644278	3751.324223
857.957561	3755.604163
858.270802	3762.097169
858.584000	3763.662447
858.897155	3757.164400
859.210268	3738.280238
859.523339	3717.833317
859.836367	3715.290055
860.149352	3710.939540
860.462295	3706.462995
860.775195	3694.341541
861.088054	3691.495809
861.400869	3682.293183
861.713642	3682.378882
862.026373	3693.723999
862.339062	3699.657437
862.651708	3712.169581
862.964312	3744.790888
863.276873	3755.636930
863.589392	3805.745999
863.901869	3846.992720
864.214303	3892.106006
864.526696	3922.907456
864.839045	3965.820278
865.151353	3993.060153
865.463619	4002.441740
865.775842	4011.384747
866.088023	4028.796892
866.400162	4016.287269
866.712258	4028.247407
867.024313	4029.174979
867.336325	4028.726316
867.648296	4032.613046
867.960224	4028.507026
868.272110	4041.031773
868.583954	4038.024725
868.895755	4054.403433
869.207515	4050.534348
869.519233	4085.076334
869.830909	4098.301801
870.142542	4120.258547
870.454134	4132.105258
870.765684	4159.302283
871.077191	4193.135987
871.388657	4217.459555
871.700081	4249.312085
872.011463	4286.236017
872.322803	4322.063497
872.634101	4348.910162
872.945357	4386.272673
873.256571	4434.962658
873.567744	4467.762925
873.878874	4489.026512
874.189963	4524.090258
874.501010	4532.037637
874.812015	4536.481414
875.122979	4571.802258
875.433900	4574.219492
875.744780	4578.905244
876.055618	4604.927680
876.366415	4604.002629
876.677169	4618.125421
876.987882	4660.183768
877.298554	4702.620201
877.609183	4771.474801
877.919771	4860.728429
878.230317	4983.914065
878.540822	5166.890305
878.851285	5432.972488
879.161707	5817.778884
879.472087	6444.943793
879.782425	7440.924558
880.092722	9226.332372
880.402977	11999.682831
880.713191	15419.094965
881.023363	19021.125417
881.333494	21417.311868
881.643583	22846.768850
881.953631	23053.007495
882.263637	22420.262029
882.573602	21153.021816
882.883526	19755.525750
883.193408	18220.716215
883.503248	16643.656769
883.813048	15214.177102
884.122806	13891.143919
884.432522	12475.325779
884.742197	11287.035077
885.051831	10245.462116
885.361424	9265.688660
885.670975	8467.608471
885.980485	7794.311964
886.289954	7234.580049
886.599382	6774.070645
886.908768	6410.479945
887.218113	6053.551129
887.527417	5776.093583
887.836680	5518.170508
888.145901	5309.391122
888.455082	5149.163088
888.764221	4994.510570
889.073319	4869.424420
889.382376	4789.943068
889.691392	4729.532401
890.000366	4699.683729
890.309300	4680.849978
890.618193	4683.221841
890.927044	4665.096372
891.235855	4684.782078
891.544625	4707.568093
891.853353	4754.942337
892.162041	4847.024053
892.470687	4998.818236
892.779293	5213.279003
893.087858	5519.597155
893.396381	5998.370659
893.704864	6664.375138
894.013306	7675.063469
894.321707	8775.726315
894.630068	9638.187080
894.938387	9981.010747
895.246665	9864.038334
895.554903	9351.567237
895.863100	8717.874033
896.171256	8195.481946
896.479371	7715.506126
896.787446	7243.235710
897.095480	6839.749318
897.403473	6534.134407
897.711425	6231.345063
898.019336	5979.872145
898.327207	5721.208021
898.635038	5504.236759
898.942827	5265.190285
899.250576	5078.304629
899.558284	4889.309251
899.865952	4769.251652
900.173579	4630.105723
900.481165	4528.982698
900.788711	4438.816620
901.096216	4363.690825
901.403681	4302.140857
901.711105	4272.400570
902.018489	4251.736880
902.325832	4299.645486
902.633135	4384.956932
902.940397	4635.512361
903.247619	5233.247013
903.554800	6403.656743
903.861941	8110.364583
904.169041	9644.370055
904.476101	10458.140835
904.783121	10327.043109
905.090100	9717.832269
905.397039	8955.773645
905.703938	8250.859021
906.010796	7594.059689
906.317614	7074.641882
906.624391	6575.660912
906.931129	6172.086300
907.237826	5796.258198
907.544483	5445.154436
907.851099	5091.353656
908.157675	4750.707767
908.464211	4440.568421
908.770707	4201.867266
909.077163	4001.965351
909.383578	3859.509905
909.689954	3743.341556
909.996289	3669.022345
910.302584	3606.643108
910.608839	3571.450813
910.915054	3539.522665
911.221229	3524.316024
911.527363	3535.101573
911.833458	3541.720608
912.139513	3559.561251
912.445527	3581.870878
912.751502	3649.714726
913.057436	3739.931215
913.363331	3849.311651
913.669186	4018.172661
913.975000	4232.247779
914.280775	4583.878343
914.586510	5065.341302
914.892205	5741.722996
915.197859	6641.115254
915.503475	7741.599138
915.809050	8770.009647
916.114585	9463.667375
916.420081	9811.086054
916.725536	9855.460810
917.030952	9503.071554
917.336328	9149.842945
917.641665	8782.756204
917.946961	8350.661264
918.252218	7961.027962
918.557435	7482.458625
918.862612	7088.837771
919.167750	6742.828094
919.472848	6352.960379
919.777906	6003.507595
920.082925	5664.046377
920.387904	5313.310619
920.692843	5051.647008
920.997743	4817.326615
921.302603	4583.739711
921.607423	4430.118109
921.912204	4269.244808
922.216946	4156.985873
922.521647	4041.316598
922.826310	3944.682720
923.130932	3854.836756
923.435516	3761.371243
923.740059	3696.665512
924.044564	3624.670274
924.349028	3570.440061
924.653454	3508.075947
924.957840	3442.815690
925.262186	3399.585275
925.566493	3344.072089
925.870761	3290.512350
926.174989	3257.611259
926.479178	3224.160683
926.783328	3178.986903
927.087438	3155.921104
927.391509	3120.474231
927.695541	3093.168821
927.999533	3069.215778
928.303486	3049.111657
928.607400	3033.007691
928.911275	3022.645599
929.215110	3004.288238
929.518906	2997.402021
929.822663	2996.136692
930.126381	2989.852893
930.430060	2999.690705
930.733699	3001.036693
931.037299	3006.546674
931.340861	3008.328722
931.644383	3015.890453
931.947866	3013.531193
932.251309	3009.876357
932.554714	3009.881398
932.858080	3005.787981
933.161407	2999.357989
933.464694	2989.192502
933.767943	2985.734271
934.071153	2980.592294
934.374323	2968.848926
934.677455	2967.326498
934.980548	2960.089921
935.283602	2954.700928
935.586617	2950.562140
935.889593	2956.467852
936.192530	2959.868110
936.495428	2972.755820
936.798287	2989.371463
937.101108	3014.080679
937.403890	3055.337482
937.706632	3109.240019
938.009336	3181.963705
938.312002	3253.114550
938.614628	3315.009837
938.917216	3366.089328
939.219765	3394.894482
939.522275	3431.185748
939.824747	3434.349072
940.127179	3435.627005
940.429573	3428.287085
940.731929	3430.311108
941.034246	3419.391969
941.336524	3408.462747
941.638763	3393.624111
941.940964	3379.133314
942.243126	3342.700895
942.545250	3328.696570
942.847335	3291.303811
943.149381	3260.318359
943.451389	3227.069429
943.753359	3197.054399
944.055290	3171.029442
944.357182	3146.632778
944.659036	3135.474184
944.960851	3124.308028
945.262628	3107.972169
945.564367	3108.751027
945.866067	3106.578290
946.167729	3100.806169
946.469352	3097.841971
946.770937	3096.009511
947.072484	3081.622058
947.373992	3084.182964
947.675462	3079.149372
947.976893	3063.284861
948.278286	3057.381670
948.579641	3050.437480
948.880958	3040.808877
949.182236	3047.017057
949.483476	3038.094215
949.784678	3037.204452
950.085841	3036.349976
950.386967	3044.060421
950.688054	3059.405693
950.989103	3074.801377
951.290114	3094.721496
951.591087	3118.175465
951.892021	3146.042963
952.192917	3171.949453
952.493776	3196.081456
952.794596	3203.686037
953.095378	3214.577450
953.396122	3210.536965
953.696828	3207.643342
953.997496	3195.443750
954.298126	3176.967921
954.598718	3160.503513
954.899272	3136.341262
955.199788	3110.948971
955.500266	3086.020465
955.800706	3050.094682
956.101108	3015.877850
956.401472	2985.769559
956.701798	2958.673357
957.002087	2919.949734
957.302337	2894.262534
957.602550	2869.956611
957.902724	2841.821931
958.202861	2815.746563
958.502960	2798.520940
958.803022	2778.449586
959.103045	2758.393356
959.403031	2743.232086
959.702979	2730.979561
960.002889	2718.777448
960.302762	2706.393854
960.602596	2696.414890
960.902393	2687.323169
961.202153	2677.704647
961.501875	2671.080571
961.801559	2665.484890
962.101205	2662.011535
962.400814	2655.742861
962.700385	2649.317910
962.999918	2643.351704
963.299414	2636.936836
963.598873	2636.997330
963.898293	2627.217492
964.197677	2633.425672
964.497022	2628.230763
964.796331	2622.962758
965.095601	2624.467542
965.394835	2619.232304
965.694030	2620.190123
965.993189	2618.352622
966.292309	2616.058897
966.591393	2619.527211
966.890439	2615.947992
967.189447	2618.765997
967.488419	2617.404886
967.787353	2615.632920
968.086249	2619.285236
968.385108	2619.701131
968.683930	2619.907818
968.982714	2624.901081
969.281462	2627.832512
969.580172	2631.721762
969.878844	2637.992958
970.177480	2645.854637
970.476078	2654.195226
970.774639	2657.880310
971.073162	2666.437668
971.371649	2671.050324
971.670098	2675.254647
971.968510	2680.835204
972.266885	2683.864937
972.565223	2690.342820
972.863524	2693.803572
973.161788	2694.857173
973.460014	2699.583255
973.758204	2699.915971
974.056356	2702.754141
974.354471	2703.774974
974.652550	2705.617516
974.950591	2703.790098
975.248595	2699.800025
975.546563	2698.711135
975.844493	2698.227185
976.142386	2692.971782
976.440243	2688.200330
976.738062	2685.785617
977.035845	2679.101047
977.333590	2674.599297
977.631299	2668.615447
977.928971	2662.477842
978.226606	2654.497696
978.524204	2652.776142
978.821765	2649.126346
979.119290	2649.953095
979.416777	2652.183806
979.714228	2651.805719
980.011642	2654.964002
980.309020	2660.163952
980.606360	2673.896056
980.903664	2690.829291
981.200931	2717.580174
981.498162	2758.451329
981.795356	2819.615649
982.092513	2895.422000
982.389633	2988.050681
982.686717	3077.894125
982.983764	3153.947492
983.280775	3208.512942
983.577749	3223.880899
983.874686	3216.679611
984.171587	3186.634334
984.468451	3163.775222
984.765279	3120.411216
985.062070	3077.866398
985.358824	3039.914072
985.655543	2988.070846
985.952224	2942.705502
986.248869	2885.523694
986.545478	2829.836588
986.842050	2778.815070
987.138586	2735.763616
987.435086	2698.436392
987.731549	2667.680313
988.027975	2645.950419
988.324366	2623.920577
988.620719	2611.932713
988.917037	2602.959459
989.213318	2591.606781
989.509563	2584.055132
989.805772	2580.654874
990.101944	2578.227558
990.398080	2577.078175
990.694180	2575.444842
990.990244	2573.287228
991.286271	2571.434604
991.582262	2573.856878
991.878217	2576.831159
992.174136	2581.242168
992.470019	2581.829463
992.765865	2583.430029
993.061676	2584.607139
993.357450	2593.706421
993.653188	2600.073399
993.948890	2614.859103
994.244556	2634.317957
994.540186	2649.459062
994.835780	2678.443176
995.131337	2708.795964
995.426859	2745.397261
995.722345	2786.946451
996.017795	2837.534430
996.313208	2869.926364
996.608586	2899.394429
996.903928	2916.917480
997.199234	2919.440577
997.494504	2919.463262
997.789738	2906.454565
998.084936	2886.075700
998.380099	2857.018490
998.675225	2832.042093
998.970316	2806.669966
999.265371	2773.557147
999.560390	2742.112949
999.855373	2714.000955
1000.150320	2686.645134
1000.445232	2660.564724
1000.740108	2641.241982
1001.034948	2622.546862
1001.329752	2609.734770
1001.624521	2597.630960
1001.919254	2587.437747
1002.213951	2579.142528
1002.508613	2571.369069
1002.803239	2565.591906
1003.097829	2560.240722
1003.392384	2556.434650
1003.686903	2551.262427
1003.981386	2545.817980
1004.275834	2543.824204
1004.570246	2540.900335
1004.864623	2539.259439
1005.158964	2539.027546
1005.453270	2535.259284
1005.747540	2533.719211
1006.041775	2535.387833
1006.335974	2533.535209
1006.630138	2531.130579
1006.924266	2532.879859
1007.218359	2529.721576
1007.512416	2527.458098
1007.806438	2524.156142
1008.100425	2526.243180
1008.394376	2521.754033
1008.688292	2529.920702
1008.982172	2526.578417
1009.276017	2526.497758
1009.569827	2526.543129
1009.863602	2527.778211
1010.157341	2523.341996
1010.451045	2524.105731
1010.744714	2523.452901
1011.038347	2522.187572
1011.331945	2522.437109
1011.625508	2524.158663
1011.919036	2520.561800
1012.212528	2521.075997
1012.505986	2519.528363
1012.799408	2520.632376
1013.092795	2516.329751
1013.386147	2517.559792
1013.679464	2519.278826
1013.972745	2514.741787
1014.265992	2518.381501
1014.559204	2514.603156
1014.852380	2516.541479
1015.145521	2515.422343
1015.438628	2514.368742
1015.731699	2515.848321
1016.024736	2517.955523
1016.317737	2518.893178
1016.610703	2518.691532
1016.903635	2520.685308
1017.196531	2521.832170
1017.489393	2523.193282
1017.782219	2523.621780
1018.075011	2524.584640
1018.367768	2525.106400
1018.660490	2528.541946
1018.953177	2528.541946
1019.245829	2528.541946
