Dividing Wavelength (nm)	Counts (n)	Blue Motor Position (mm): 37.500000	Red Motor Position (mm): 0.000000	
326.493990	2064.929712
326.888308	2064.929712
327.282561	2064.929712
327.676750	2040.762421
328.070874	2042.857020
328.464933	2046.637885
328.858929	2055.394370
329.252859	2065.138920
329.646726	2077.938410
330.040528	2092.169587
330.434265	2109.982504
330.827938	2133.728859
331.221547	2153.268372
331.615091	2174.232010
332.008571	2194.641121
332.401986	2214.712475
332.795338	2231.479353
333.188625	2252.642117
333.581847	2273.716660
333.975006	2291.332973
334.368100	2310.587660
334.761129	2324.171049
335.154095	2338.727380
335.546996	2392.198899
335.939833	2496.185300
336.332606	2504.772906
336.725315	2521.650689
337.117960	2533.187369
337.510540	2540.683565
337.903056	2549.251006
338.295508	2555.128992
338.687896	2564.671896
339.080220	2568.838409
339.472480	2572.037022
339.864676	2576.937023
340.256807	2579.634040
340.648875	2581.358115
341.040879	2581.164031
341.432818	2583.112437
341.824694	2587.636872
342.216506	2583.971953
342.608253	2586.958837
342.999937	2584.707962
343.391557	2584.471028
343.783113	2583.150245
344.174605	2578.671180
344.566033	2576.871488
344.957397	2576.407702
345.348697	2576.785788
345.739934	2571.427042
346.131106	2571.505180
346.522215	2570.706157
346.913260	2570.698595
347.304241	2567.159705
347.695159	2561.972358
348.086012	2563.608212
348.476802	2564.828172
348.867528	2559.950855
349.258191	2556.248128
349.648789	2555.469269
350.039324	2552.603373
350.429796	2554.007335
350.820203	2557.024465
351.210548	2555.073539
351.600828	2556.243087
351.991045	2555.698642
352.381198	2550.261757
352.771288	2554.778631
353.161314	2550.639844
353.551276	2552.303425
353.941175	2550.808723
354.331010	2552.961295
354.720782	2556.185113
355.110490	2556.263251
355.500135	2555.428940
355.889717	2555.270144
356.279235	2553.704866
356.668689	2555.751574
357.058080	2557.223591
357.447408	2554.206460
357.836672	2555.799465
358.225873	2556.084290
358.615010	2556.205278
359.004084	2556.119578
359.393095	2557.314332
359.782043	2559.882800
360.170927	2560.560835
360.559748	2560.528067
360.948505	2561.044786
361.337199	2562.431103
361.725830	2562.995712
362.114398	2561.445557
362.502903	2561.397666
362.891344	2563.086453
363.279722	2563.013356
363.668037	2561.869014
364.056289	2563.837585
364.444478	2563.908161
364.832603	2564.624005
365.220665	2564.777760
365.608665	2564.966803
365.996601	2565.768347
366.384474	2565.788511
366.772284	2566.582493
367.160031	2566.464026
367.547715	2569.347566
367.935336	2566.138872
368.322893	2564.563511
368.710388	2563.794735
369.097820	2565.249108
369.485189	2562.975547
369.872495	2571.124573
370.259738	2569.014850
370.646918	2568.515776
371.034035	2574.618092
371.421090	2569.849161
371.808081	2569.965107
372.195010	2567.941084
372.581875	2570.368400
372.968678	2572.699933
373.355418	2572.715057
373.742096	2571.933678
374.128710	2571.366548
374.515262	2573.710685
374.901751	2574.353432
375.288177	2577.030284
375.674540	2576.185891
376.060841	2575.036508
376.447079	2575.187743
376.833254	2572.621795
377.219367	2574.519790
377.605417	2575.260839
377.991404	2575.878381
378.377329	2575.787640
378.763191	2578.847620
379.148991	2579.689493
379.534727	2578.540110
379.920402	2578.099009
380.306013	2579.359297
380.691563	2582.197467
381.077049	2580.828794
381.462474	2578.386355
381.847835	2579.901222
382.233134	2582.862899
382.618371	2581.153948
383.003545	2581.063207
383.388657	2584.186202
383.773706	2582.172261
384.158693	2581.287539
384.543618	2585.927921
384.928480	2580.816191
385.313280	2583.334247
385.698017	2586.164855
386.082692	2586.976481
386.467305	2589.348344
386.851856	2588.756008
387.236344	2585.000349
387.620770	2586.742067
388.005133	2582.920873
388.389435	2586.280802
388.773674	2582.333578
389.157851	2589.794486
389.541965	2591.518561
389.926018	2589.020669
390.310008	2592.753643
390.693936	2590.812799
391.077802	2591.909250
391.461606	2591.810947
391.845348	2592.491503
392.229027	2594.918819
392.612645	2590.253231
392.996200	2596.272369
393.379694	2596.658017
393.763125	2595.634663
394.146494	2597.762030
394.529801	2597.283120
394.913047	2599.349993
395.296230	2600.116248
395.679351	2600.701022
396.062410	2599.148347
396.445408	2604.605396
396.828343	2602.183122
397.211217	2604.444079
397.594028	2608.381220
397.976778	2606.856271
398.359466	2608.658484
398.742092	2608.610593
399.124656	2608.444235
399.507158	2614.317179
399.889598	2616.862962
400.271977	2619.438991
400.654294	2624.349075
401.036549	2626.284878
401.418742	2630.484159
401.800874	2635.192597
402.182944	2639.717032
402.564952	2644.390182
402.946898	2651.828405
403.328783	2658.109682
403.710606	2666.659479
404.092367	2680.235307
404.474067	2692.878520
404.855705	2698.567462
405.237282	2708.954760
405.618797	2726.873541
406.000250	2747.015472
406.381642	2765.521547
406.762972	2776.102929
407.144240	2788.768828
407.525447	2814.098106
407.906593	2828.150322
408.287677	2857.593181
408.668700	2882.612428
409.049661	2910.671490
409.430560	2939.779112
409.811399	2959.162349
410.192176	2989.681494
410.572891	3028.153060
410.953545	3073.115111
411.334138	3081.415371
411.714669	3129.404635
412.095139	3140.414515
412.475547	3197.689584
412.855894	3225.148749
413.236180	3281.546658
413.616405	3298.900830
413.996568	3356.337216
414.376670	3389.911301
414.756711	3422.514963
415.136691	3482.033346
415.516609	3544.029456
415.896466	3594.130964
416.276262	3660.596057
416.655997	3742.726535
417.035670	3819.888957
417.415283	3918.451076
417.794834	3987.436746
418.174324	4015.571425
418.553753	4061.561872
418.933121	4179.245088
419.312428	4236.704159
419.691674	4251.477261
420.070859	4407.072474
420.449983	4392.558992
420.829045	4542.079615
421.208047	4550.274011
421.586988	4690.350032
421.965867	4781.468888
422.344686	4880.852716
422.723444	5031.822670
423.102141	4849.484136
423.480777	5133.291015
423.859352	5070.574020
424.237866	5358.610427
424.616319	5404.953755
424.994712	5564.682714
425.373044	5555.280962
425.751314	5829.887736
426.129524	5686.247619
426.507673	5925.589000
426.885762	6011.069326
427.263789	6094.470175
427.641756	6204.619386
428.019662	6307.179141
428.397508	6391.777264
428.775292	6427.932419
429.153016	6610.964113
429.530679	6601.423729
429.908282	6684.680905
430.285824	6677.885430
430.663305	6946.941893
431.040726	6899.907928
431.418086	6937.298166
431.795385	7090.788697
432.172624	7289.856301
432.549802	7221.377267
432.926920	7375.999538
433.303977	7362.660645
433.680974	7431.830317
434.057910	7652.083370
434.434786	7720.832105
434.811601	7713.867751
435.188355	8052.343423
435.565050	7977.373904
435.941683	8010.365735
436.318257	8350.356274
436.694770	8335.068975
437.071222	8570.248884
437.447614	8377.328968
437.823946	8362.215588
438.200218	8525.314559
438.576429	8428.789066
438.952580	8605.015202
439.328670	8625.726782
439.704700	8724.326710
440.080670	8632.736507
440.456580	8898.649810
440.832429	8895.494048
441.208218	8649.347109
441.583947	8773.114997
441.959616	8897.051765
442.335224	8931.563504
442.710773	9025.880972
443.086261	9206.593734
443.461689	8935.004091
443.837057	9112.583777
444.212365	9329.842384
444.587612	9317.302514
444.962800	9219.443635
445.337927	9352.744346
445.712995	8917.496164
446.088002	9572.541174
446.462949	9631.852870
446.837837	9625.009503
447.212664	9652.682918
447.587431	10482.189659
447.962139	11480.350724
448.336786	12395.052966
448.711374	12167.031495
449.085901	10977.606533
449.460369	10901.273382
449.834776	10684.473519
450.209124	11601.338416
450.583412	11426.090264
450.957640	11732.758776
451.331808	11322.315592
451.705917	10772.983578
452.079965	10643.146140
452.453954	10847.401091
452.827883	10794.151383
453.201752	10769.807651
453.575562	10770.541139
453.949311	11111.991092
454.323001	11181.833758
454.696632	11098.664802
455.070202	11683.128617
455.443713	11750.402815
455.817164	11918.235429
456.190556	12225.282028
456.563888	12089.783374
456.937160	12346.297446
457.310373	11837.738285
457.683526	11849.453926
458.056619	11863.276770
458.429653	11937.613625
458.802628	12068.504664
459.175542	12123.075154
459.548398	12675.250379
459.921194	13242.481010
460.293930	13529.168908
460.666607	14388.630186
461.039224	15174.770402
461.411782	15515.832186
461.784280	15173.855433
462.156719	15107.712974
462.529099	15006.353014
462.901419	14373.211817
463.273680	13983.298732
463.645882	14189.923025
464.018024	14088.492489
464.390106	14455.027224
464.762130	15512.038718
465.134094	17065.724854
465.505999	19356.689822
465.877845	21601.608891
466.249631	22800.874186
466.621358	22314.607006
466.993026	21479.633133
467.364634	20729.776622
467.736184	19938.963256
468.107674	19328.597993
468.479105	19192.428865
468.850477	18911.296318
469.221790	18489.913830
469.593043	17817.827199
469.964238	17431.271522
470.335373	17488.085326
470.706449	18216.905102
471.077467	19081.536084
471.448425	21538.813758
471.819324	23385.217013
472.190164	23276.897740
472.560945	21542.032535
472.931667	19976.255192
473.302330	19649.139760
473.672934	19100.001830
474.043479	19523.967910
474.413965	19302.164702
474.784393	19135.413415
475.154761	19789.442633
475.525070	19924.802655
475.895321	19744.823380
476.265513	20281.348343
476.635645	20857.947958
477.005719	20918.461969
477.375734	21289.586674
477.745691	21908.587434
478.115588	22542.192417
478.485427	23714.626170
478.855207	25537.446907
479.224928	27332.180855
479.594591	28729.097189
479.964194	28354.247071
480.333739	28776.360527
480.703226	29002.879734
481.072653	29444.636045
481.442022	29955.204107
481.811333	30362.476405
482.180584	29912.699618
482.549777	29684.524392
482.918912	29447.484297
483.287988	29404.589119
483.657005	29242.987371
484.025964	28869.967192
484.394864	29067.282995
484.763706	28988.910696
485.132489	28441.658158
485.501213	28512.753551
485.869879	28681.944756
486.238487	28622.708678
486.607036	28889.962929
486.975527	28569.700945
487.343959	28912.544777
487.712333	29261.095195
488.080648	29217.786643
488.448905	29653.271759
488.817104	29536.748008
489.185244	30332.297538
489.553326	31300.362914
489.921350	33191.019938
490.289315	35683.331111
490.657222	36577.800682
491.025070	37135.349777
491.392861	36857.935081
491.760593	36074.746460
492.128267	35063.929579
492.495883	34069.425872
492.863440	33180.120963
493.230939	32205.010574
493.598380	31661.826248
493.965763	31499.513697
494.333088	31007.847441
494.700354	30812.197740
495.067563	30764.989855
495.434713	30638.237603
495.801805	30923.907189
496.168839	30763.399371
496.535815	30613.969488
496.902733	30736.487171
497.269593	30555.358513
497.636395	30706.051205
498.003139	30959.464967
498.369825	30724.436293
498.736453	31112.615221
499.103023	30951.167228
499.469535	31050.553576
499.835989	31155.205409
500.202385	31013.909429
500.568723	31060.933312
500.935003	31356.430627
501.301226	31219.074308
501.667390	31922.995825
502.033497	32127.885962
502.399546	31932.513524
502.765537	31528.442358
503.131470	31992.611639
503.497345	32401.282858
503.863163	31369.661135
504.228923	32121.735754
504.594625	32500.787673
504.960269	31990.224653
505.325856	32645.783861
505.691385	32299.822075
506.056856	32631.250214
506.422270	33100.385032
506.787625	32601.822479
507.152924	33050.389389
507.518164	33227.626276
507.883347	32820.086796
508.248472	32947.655715
508.613540	33607.346148
508.978550	33823.528469
509.343503	33653.069414
509.708398	34009.993188
510.073236	34613.568018
510.438016	34688.603072
510.802738	34373.110021
511.167403	34901.622069
511.532010	35143.448740
511.896561	35629.060569
512.261053	36366.364607
512.625488	36142.308004
512.989866	36064.255819
513.354186	36114.926977
513.718449	36078.187048
514.082655	36934.958870
514.446803	36623.796170
514.810894	37240.309120
515.174927	37236.702175
515.538904	37239.217711
515.902822	37843.309258
516.266684	37526.349231
516.630488	37870.624750
516.994235	37873.881336
517.357925	38457.268865
517.721558	38686.318731
518.085133	39057.120802
518.448651	39243.749358
518.812112	39144.516766
519.175516	39274.371848
519.538863	39723.977236
519.902152	39771.359041
520.265385	40318.261218
520.628560	40325.959060
520.991678	40260.406416
521.354739	40487.467547
521.717743	40847.282424
522.080690	40749.683165
522.443580	41408.456108
522.806413	41420.711153
523.169189	41554.185783
523.531908	41780.813375
523.894569	41621.301185
524.257174	41812.960813
524.619722	42154.640139
524.982213	42298.423929
525.344647	42338.508663
525.707025	42454.470325
526.069345	42882.670974
526.431608	42799.633088
526.793815	43177.414637
527.155964	42727.078281
527.518057	42969.744304
527.880093	42829.799353
528.242072	43442.065131
528.603995	43196.137482
528.965860	43116.575472
529.327669	43334.343235
529.689421	43380.089186
530.051117	43333.050179
530.412755	43612.766162
530.774337	43657.801310
531.135862	43584.954117
531.497331	43751.128191
531.858743	43745.225000
532.220098	44134.916275
532.581396	43851.837842
532.942638	43645.332016
533.303824	43880.247265
533.664953	43938.296151
534.026025	43605.489257
534.387040	44176.336915
534.747999	44246.991207
535.108902	44572.155712
535.469748	43899.837189
535.830537	44162.975337
536.191270	44420.066622
536.551947	44160.311087
536.912567	44432.977017
537.273131	44556.790276
537.633638	44179.482595
537.994089	44361.606881
538.354483	44133.068692
538.714821	44769.388336
539.075103	45040.378082
539.435328	44921.507674
539.795497	44678.405592
540.155609	44805.334284
540.515665	45375.614812
540.875665	44675.494325
541.235609	44943.378720
541.595496	45087.220483
541.955328	45671.787642
542.315102	45092.629641
542.674821	45000.772257
543.034483	44910.787660
543.394090	44926.291729
543.753640	44901.516978
544.113134	45979.489591
544.472571	45080.374596
544.831953	46180.435024
545.191278	45470.479246
545.550548	45156.765721
545.909761	45776.925947
546.268918	45920.992041
546.628019	46324.433063
546.987064	45774.201203
547.346053	45095.951762
547.704986	45991.283370
548.063863	45631.642413
548.422684	45826.079717
548.781449	45408.659576
549.140158	45931.971674
549.498811	45695.115582
549.857408	45120.812212
550.215949	45938.913343
550.574434	45783.837369
550.932864	45733.733341
551.291237	46425.024247
551.649555	46177.720363
552.007817	46360.555451
552.366022	46061.829277
552.724173	46123.444780
553.082267	46511.142278
553.440305	46892.452634
553.798288	46146.908830
554.156215	46532.355453
554.514086	46727.740494
554.871902	46326.235276
555.229661	46498.907398
555.587365	46196.125615
555.945014	46305.236349
556.302606	46332.617376
556.660143	46437.327183
557.017625	46660.942685
557.375050	46346.916609
557.732421	46741.681805
558.089735	46798.921587
558.446994	46654.036304
558.804197	47155.621030
559.161345	47013.188269
559.518437	46373.158336
559.875474	46626.922458
560.232455	46830.529621
560.589381	46884.764875
560.946251	46722.601038
561.303065	47345.057509
561.659825	47016.102056
562.016528	46839.946497
562.373177	46433.621935
562.729770	47093.100640
563.086307	46586.562981
563.442789	47142.113258
563.799216	46974.441961
564.155587	46880.752116
564.511904	46842.162084
564.868164	46890.829383
565.224370	47205.205819
565.580520	46930.430167
565.936615	47129.391906
566.292654	46774.247659
566.648638	47142.577044
567.004567	47091.563088
567.360441	47166.880447
567.716260	46867.080507
568.072023	47265.785365
568.427732	47195.801547
568.783385	46731.297028
569.138982	47164.372473
569.494525	47292.949622
569.850013	46898.925476
570.205445	47035.054274
570.560823	46791.082592
570.916145	46666.409817
571.271412	46891.237716
571.626625	46542.331897
571.981782	46621.667056
572.336884	46240.308808
572.691931	46558.130873
573.046923	46231.413692
573.401860	46045.800928
573.756743	46073.549960
574.111570	46216.189408
574.466342	46134.689073
574.821059	46290.097764
575.175722	45785.944571
575.530330	45883.531227
575.884882	45537.246808
576.239380	45433.051199
576.593823	45532.276230
576.948211	45466.811806
577.302544	45011.767013
577.656823	44998.947359
578.011047	45261.735147
578.365216	45128.237832
578.719330	44822.877499
579.073389	44812.815356
579.427394	44867.821906
579.781344	44762.791986
580.135239	44545.732505
580.489080	44604.477070
580.842866	44096.210296
581.196597	44576.725518
581.550273	44568.780660
581.903895	44505.302451
582.257463	44941.132886
582.610975	44363.257859
582.964434	44712.541765
583.317837	44198.500348
583.671186	44169.385164
584.024481	44451.016786
584.377721	44009.235268
584.730906	44235.983848
585.084037	44384.254265
585.437113	44099.781953
585.790135	44210.034508
586.143103	43788.369715
586.496016	43960.174759
586.848874	44062.043875
587.201679	44087.471455
587.554428	43584.555865
587.907124	43852.752812
588.259765	43625.868121
588.612352	43780.959219
588.964884	43263.489818
589.317362	43546.263261
589.669786	43550.132346
590.022155	43437.397023
590.374470	43899.678392
590.726731	43493.711752
591.078937	42830.011081
591.431090	43184.318497
591.783188	42702.963922
592.135232	42510.477545
592.487222	42766.391720
592.839157	42904.809201
593.191038	42567.182964
593.542866	42376.294632
593.894639	41751.592327
594.246358	42045.700804
594.598022	42050.247925
594.949633	41645.778508
595.301190	41640.145018
595.652692	41598.212701
596.004141	42098.020419
596.355535	41003.969047
596.706876	41015.803156
597.058162	40722.249205
597.409395	41202.880375
597.760573	41440.086828
598.111698	41057.062479
598.462768	40970.107617
598.813785	40992.689465
599.164748	40610.814500
599.515657	40877.337783
599.866511	40385.520293
600.217312	41060.198077
600.568060	40030.096262
600.918753	40824.561943
601.269392	40750.300706
601.619978	40475.285599
601.970510	40693.176871
602.320988	40837.318583
602.671412	41080.866808
603.021783	40951.777981
603.372100	40534.148632
603.722363	40633.751750
604.072572	40664.903560
604.422728	40670.048057
604.772830	40449.069078
605.122878	40620.874122
605.472872	40475.933387
605.822813	40738.829560
606.172701	40495.082210
606.522534	40801.178551
606.872314	40994.405978
607.222041	40844.570283
607.571714	41188.487881
607.921333	40674.605260
608.270899	40874.466846
608.620411	41236.686352
608.969870	41005.897288
609.319276	41022.636440
609.668627	41060.840824
610.017926	41446.494134
610.367171	41599.805705
610.716362	41624.414098
611.065500	41542.893599
611.414585	41788.861577
611.763616	41929.829883
612.112594	41824.235354
612.461518	41959.423977
612.810389	42341.876154
613.159207	42129.900676
613.507971	42110.310752
613.856682	42603.073458
614.205340	42434.053652
614.553945	43121.248621
614.902496	42464.446769
615.250994	42896.753437
615.599439	42943.800006
615.947830	43069.090323
616.296169	43078.222373
616.644454	43106.299079
616.992686	43258.907409
617.340864	43700.028535
617.688990	43210.356057
618.037063	43891.337803
618.385082	43711.550092
618.733048	44056.652361
619.080961	43944.481647
619.428821	43989.110982
619.776628	44037.231316
620.124382	43850.325496
620.472083	43967.393691
620.819731	44071.017129
621.167326	43655.121937
621.514868	43635.985717
621.862357	43102.727422
622.209793	43194.632698
622.557176	42776.973102
622.904506	42541.442832
623.251783	42177.640403
623.599007	41859.692309
623.946179	41788.596917
624.293297	41521.773685
624.640363	40993.480926
624.987376	40846.185973
625.334336	40654.967446
625.681243	40243.392522
626.028097	40145.095063
626.374899	39984.075568
626.721647	39931.987846
627.068343	39712.375020
627.414987	39420.419116
627.761577	39188.546203
628.108115	39502.547073
628.454600	38741.000127
628.801032	38986.635389
629.147412	38890.608970
629.493739	38769.875856
629.840014	38341.891977
630.186236	38756.652909
630.532405	38187.736013
630.878521	38455.277609
631.224585	38217.055363
631.570597	37900.826303
631.916556	38057.346568
632.262462	37954.993501
632.608316	37898.479646
632.954117	37759.966382
633.299866	37725.893223
633.645562	37639.712178
633.991206	37140.645509
634.336797	36744.962823
634.682336	36624.660727
635.027823	36396.818218
635.373257	36289.746631
635.718639	35946.174352
636.063968	35842.102251
636.409245	35202.026947
636.754470	35150.289586
637.099642	34917.713432
637.444762	34357.500088
637.789829	34484.302751
638.134845	34102.747899
638.479808	34006.030842
638.824719	33963.324707
639.169577	33453.512818
639.514383	33579.269442
639.859137	33197.462532
640.203839	33350.839638
640.548489	33063.932449
640.893086	33050.848134
641.237632	32772.253808
641.582125	32853.466797
641.926566	32635.721718
642.270955	32671.455937
642.615292	32614.500981
642.959576	32493.805675
643.303809	32494.387929
643.647990	32593.386108
643.992118	32573.254260
644.336195	32384.687380
644.680219	32465.391212
645.024192	32650.134377
645.368112	33164.788293
645.711981	33189.507591
646.055797	33877.627612
646.399562	33676.898948
646.743274	34533.915267
647.086935	34933.560299
647.430544	34921.857261
647.774101	34962.856965
648.117606	35269.379283
648.461059	35421.009629
648.804460	35039.943769
649.147810	34525.156262
649.491108	34214.404415
649.834354	34110.125627
650.177548	33308.677948
650.520690	32796.554690
650.863781	32773.052831
651.206820	32586.625921
651.549807	32170.203928
651.892742	31584.699114
652.235626	31510.105161
652.578458	31371.828831
652.921238	30679.491886
653.263967	30938.130804
653.606644	30638.577881
653.949269	30543.302594
654.291843	30149.449847
654.634365	30524.698216
654.976836	30059.548430
655.319255	30159.343111
655.661622	30003.846200
656.003938	29895.884849
656.346203	29699.360508
656.688416	29939.122826
657.030577	29735.371990
657.372687	29566.732791
657.714746	29689.873056
658.056753	29877.910615
658.398708	29259.555123
658.740612	29335.681587
659.082465	29541.078359
659.424266	29422.797767
659.766016	29417.323074
660.107715	29269.748336
660.449362	29362.056904
660.790958	29334.459107
661.132503	29267.951165
661.473996	29333.402986
661.815438	29433.243038
662.156829	29532.374807
662.498168	29358.228148
662.839456	29319.635594
663.180693	29443.257290
663.521879	29513.392343
663.863013	29463.328644
664.204097	29442.833833
664.545129	29844.943990
664.886110	29774.844225
665.227040	29894.435518
665.567918	29893.104653
665.908746	29944.781521
666.249522	30018.543684
666.590248	30070.086962
666.930922	30168.124801
667.271545	30178.958241
667.612118	30236.946633
667.952639	30044.808096
668.293109	30080.774208
668.633528	29926.882904
668.973896	29897.939120
669.314213	29873.456756
669.654480	29679.531129
669.994695	29673.605253
670.334859	29587.555277
670.674973	29394.095957
671.015035	29579.280223
671.355047	29509.372022
671.695008	29441.215622
672.034918	29339.727113
672.374777	29438.092627
672.714585	29315.317846
673.054342	29440.088924
673.394049	29305.003645
673.733705	29521.727890
674.073310	29224.327540
674.412864	29296.584918
674.752368	29024.171047
675.091820	29253.838454
675.431223	28870.113385
675.770574	28657.606066
676.109875	28502.898095
676.449125	28293.601990
676.788324	28191.841259
677.127473	27730.013593
677.466571	27633.162946
677.805619	27322.007807
678.144616	27262.943128
678.483562	27206.819962
678.822458	26887.780458
679.161303	26839.153488
679.500098	26749.751146
679.838842	26662.519019
680.177535	26721.976908
680.516179	26937.372809
680.854771	27020.864399
681.193314	27703.247587
681.531805	28644.632656
681.870247	29389.321985
682.208638	30196.874502
682.546978	30563.779761
682.885268	30738.385165
683.223508	30335.216366
683.561697	30064.967670
683.899836	29900.928524
684.237925	29501.011269
684.575963	29325.853858
684.913951	28937.803479
685.251889	29073.465970
685.589776	29072.402286
685.927614	29081.869573
686.265401	29248.227650
686.603137	29336.425157
686.940824	29806.888319
687.278460	30131.876384
687.616046	30323.825879
687.953582	30980.481538
688.291068	30925.149833
688.628504	31298.643880
688.965889	31316.063587
689.303224	31059.978013
689.640510	30795.572015
689.977745	30208.751460
690.314930	29482.563166
690.652065	29075.825230
690.989150	28396.123936
691.326185	27560.860197
691.663170	26951.132639
692.000105	26244.665339
692.336990	25637.208821
692.673825	25214.530756
693.010610	24719.673451
693.347345	24220.168201
693.684030	23588.451130
694.020665	23394.570874
694.357251	22726.166806
694.693786	22734.036047
695.030272	22501.694308
695.366707	21997.757884
695.703093	21716.547199
696.039429	21777.845109
696.375716	21539.396012
696.711952	21535.801669
697.048139	21395.740771
697.384276	21233.584496
697.720363	21348.099347
698.056400	21245.093450
698.392388	21083.421126
698.728326	21075.078016
699.064214	20918.028430
699.400053	20943.024991
699.735842	20565.455171
700.071581	20374.050121
700.407270	20145.516973
700.742910	19969.343770
701.078501	19718.609380
701.414042	19513.222690
701.749533	19218.678153
702.084974	18903.414474
702.420366	19133.661614
702.755709	18728.252022
703.091002	18425.293799
703.426246	18480.265062
703.761440	18423.118542
704.096584	18187.918468
704.431679	18112.623794
704.766725	18066.759376
705.101721	17986.312643
705.436668	18088.000278
705.771565	17805.816650
706.106413	18113.493393
706.441212	18187.197583
706.775961	18278.477755
707.110661	18356.729066
707.445311	18708.737716
707.779913	18595.064737
708.114465	18887.600375
708.448967	19184.357978
708.783421	19777.694224
709.117825	20120.190216
709.452180	20334.391364
709.786485	20764.495048
710.120742	21510.111949
710.454949	21600.620825
710.789107	22100.809151
711.123216	22803.127581
711.457275	23044.140106
711.791286	23595.095371
712.125247	23775.235963
712.459159	23540.983626
712.793023	24298.958915
713.126837	23330.840607
713.460602	23601.384211
713.794318	23276.668368
714.127985	23000.947499
714.461602	22129.934417
714.795171	22114.858847
715.128691	21154.468628
715.462162	20628.847681
715.795584	20211.223372
716.128957	19941.730850
716.462281	19561.489218
716.795556	19289.753382
717.128782	18825.427824
717.461960	18213.446871
717.795088	18183.217592
718.128167	17851.870111
718.461198	17410.481804
718.794180	17288.173329
719.127113	16966.151983
719.459997	16771.739885
719.792833	16396.027730
720.125619	16428.926300
720.458357	16113.289576
720.791046	15965.508151
721.123686	15814.447455
721.456278	15589.516212
721.788821	15591.963692
722.121315	15324.406972
722.453761	15416.942392
722.786158	15299.702798
723.118506	15390.259565
723.450805	15266.179124
723.783056	15445.218224
724.115259	15322.080479
724.447412	15306.052131
724.779518	15520.081879
725.111574	15565.482511
725.443582	15824.096223
725.775542	15771.350631
726.107453	16266.853204
726.439315	16174.610171
726.771129	16576.329639
727.102895	16971.576265
727.434612	17248.272597
727.766281	17418.517403
728.097901	17752.700533
728.429473	17853.243826
728.760996	17882.109473
729.092471	17993.975197
729.423897	17876.667547
729.755276	17722.413280
730.086606	17802.018141
730.417887	18352.053396
730.749120	18903.916069
731.080305	19105.668087
731.411442	19534.387975
731.742530	19633.819693
732.073570	19774.301527
732.404562	20104.625654
732.735506	19990.115844
733.066401	19874.045798
733.397249	19439.263922
733.728048	18853.766671
734.058798	18014.928753
734.389501	17259.378258
734.720156	16742.208806
735.050762	16156.557799
735.381320	15752.141314
735.711831	15462.219515
736.042293	15094.497589
736.372707	15107.198776
736.703073	14891.792793
737.033391	15076.979579
737.363661	15058.284460
737.693883	15162.832950
738.024056	15352.750859
738.354182	15548.634974
738.684260	15907.383647
739.014290	16177.697878
739.344272	16394.195271
739.674207	16732.519708
740.004093	16915.185918
740.333931	16992.207187
740.663722	17086.401147
740.993464	17137.949465
741.323159	17011.781987
741.652806	16719.586628
741.982405	16564.757670
742.311956	16215.345215
742.641460	16120.100174
742.970915	15795.175124
743.300323	15459.550224
743.629683	15248.277987
743.958996	14932.255614
744.288260	14625.884530
744.617477	14319.029496
744.946647	14284.182520
745.275768	13968.936485
745.604842	13771.850054
745.933869	13590.887755
746.262847	13553.195048
746.591778	13458.829689
746.920662	13335.727232
747.249498	13332.977283
747.578286	13476.446001
747.907027	13623.952683
748.235720	13895.229774
748.564365	13968.235764
748.892963	13913.690480
749.221514	14030.501576
749.550017	13911.784923
749.878473	13887.655441
750.206881	13671.916741
750.535242	13603.614148
750.863555	13518.837063
751.191821	13414.586002
751.520039	13424.280141
751.848210	13347.475641
752.176334	13395.084298
752.504411	13314.932473
752.832440	13153.073626
753.160421	13264.389864
753.488356	13157.943380
753.816243	13068.909042
754.144082	12890.893296
754.471875	12840.514525
754.799620	12809.680308
755.127318	12780.673509
755.454969	12762.606013
755.782572	12733.465623
756.110129	12741.589443
756.437638	12662.413081
756.765100	12661.694716
757.092515	12678.106192
757.419882	12717.084394
757.747203	12716.602964
758.074477	12797.485757
758.401703	12779.612346
758.728882	12971.634937
759.056014	13010.005679
759.383099	13174.937110
759.710138	13302.369917
760.037129	13442.241772
760.364073	13501.971883
760.690970	13525.877035
761.017820	13524.016849
761.344623	13720.021952
761.671379	14044.087486
761.998088	14579.180761
762.324751	15977.034749
762.651366	18896.540861
762.977935	23188.796015
763.304456	26467.413763
763.630931	28062.742350
763.957359	27270.010825
764.283740	25244.394552
764.610074	23101.647068
764.936362	20498.697691
765.262602	18605.028578
765.588796	16639.928836
765.914943	15319.174254
766.241044	14162.375640
766.567097	13348.751053
766.893104	12606.867127
767.219064	12142.695325
767.544978	11654.164667
767.870845	11262.484657
768.196665	11039.282530
768.522438	10802.552466
768.848165	10598.597463
769.173846	10398.267051
769.499479	10262.057594
769.825066	10096.876627
770.150607	9879.179439
770.476101	9796.882603
770.801548	9674.556484
771.126949	9519.571250
771.452303	9408.446575
771.777611	9210.036842
772.102872	9199.011839
772.428087	9070.906037
772.753256	8909.405112
773.078378	8833.044234
773.403453	8646.788723
773.728482	8531.648769
774.053465	8453.571378
774.378401	8359.455557
774.703291	8235.024756
775.028135	8116.008155
775.352932	8085.708300
775.677683	7981.855490
776.002388	7873.246351
776.327046	7886.912919
776.651658	7788.968341
776.976224	7692.402518
777.300743	7687.608381
777.625216	7606.604600
777.949643	7558.607774
778.274024	7581.020744
778.598359	7485.337124
778.922647	7500.266501
779.246889	7454.699511
779.571086	7463.524051
779.895236	7469.974208
780.219339	7474.100392
780.543397	7478.652554
780.867409	7558.350676
781.191374	7569.040442
781.515294	7535.806636
781.839167	7628.765513
782.162995	7603.776513
782.486776	7549.619397
782.810511	7508.292018
783.134201	7419.242556
783.457844	7414.314828
783.781441	7363.162240
784.104993	7299.305944
784.428498	7279.584950
784.751958	7265.038701
785.075372	7231.446972
785.398739	7173.473703
785.722061	7215.653037
786.045337	7211.652882
786.368568	7348.374015
786.691752	7353.082453
787.014891	7648.307545
787.337983	7948.102444
787.661030	8504.315633
787.984031	9122.976115
788.306987	9556.878309
788.629897	9820.699534
788.952760	9814.874481
789.275579	9632.256162
789.598351	9265.892827
789.921078	8936.236653
790.243759	8527.169704
790.566395	8230.717090
790.888984	7982.576375
791.211529	7775.064838
791.534027	7543.784262
791.856480	7340.310689
792.178888	7262.528206
792.501249	7164.608834
792.823566	7009.192581
793.145836	7005.134453
793.468062	6978.184444
793.790241	6917.347799
794.112375	6975.152190
794.434464	7118.741896
794.756507	7145.255844
795.078505	7277.802902
795.400457	7561.879483
795.722364	7891.883496
796.044226	8187.408538
796.366042	8473.935119
796.687812	8444.686345
797.009538	8540.702682
797.331218	8453.788148
797.652852	8383.433805
797.974442	8237.925940
798.295986	8153.779000
798.617484	7968.345197
798.938938	7827.639032
799.260346	7728.293013
799.581709	7533.671707
799.903026	7451.480735
800.224299	7353.084973
800.545526	7176.306831
800.866708	7084.691422
801.187845	7016.436719
801.508936	6912.021820
801.829983	6870.586056
802.150984	6727.692030
802.471940	6686.026893
802.792851	6668.229100
803.113717	6637.566282
803.434538	6607.218535
803.755314	6546.638990
804.076045	6544.607405
804.396731	6490.417521
804.717372	6508.590881
805.037967	6515.353589
805.358518	6552.602675
805.679024	6633.271218
805.999485	6642.211705
806.319901	6681.769639
806.640272	6701.377207
806.960598	6785.501462
807.280879	6790.444313
807.601115	6871.483382
807.921306	6819.899775
808.241453	6828.711712
808.561554	6851.943869
808.881611	6826.233985
809.201623	6826.173491
809.521590	6777.906963
809.841513	6753.175063
810.161390	6797.149048
810.481223	6668.886970
810.801011	6648.356871
811.120755	6625.517924
811.440453	6554.021759
811.760107	6517.332242
812.079716	6487.536502
812.399281	6428.819662
812.718801	6416.287354
813.038276	6368.628286
813.357707	6310.039996
813.677093	6350.170101
813.996434	6254.247025
814.315731	6291.730525
814.634983	6282.953876
814.954191	6283.705008
815.273354	6383.955914
815.592473	6442.433298
815.911547	6558.452934
816.230577	6632.779706
816.549562	6777.022241
816.868502	6873.827518
817.187399	6969.458207
817.506250	7106.166737
817.825058	7129.746734
818.143821	7372.420319
818.462539	7617.775797
818.781213	7934.453520
819.099843	8416.367663
819.418429	9315.976690
819.736970	10212.303927
820.055466	11298.508743
820.373919	12670.168896
820.692327	14657.590868
821.010691	17961.961349
821.329011	25391.485338
821.647286	37041.271764
821.965517	51034.481404
822.283704	58519.949598
822.601847	61681.670549
822.919945	59514.239056
823.237999	55659.004049
823.556010	49675.305669
823.873976	43025.658262
824.191897	36536.785854
824.509775	31685.479341
824.827609	27039.322584
825.145398	24216.904054
825.463144	22556.968039
825.780845	22447.564918
826.098502	23675.290047
826.416116	26963.541439
826.733685	30682.035148
827.051210	32511.462317
827.368692	31587.179362
827.686129	28078.579135
828.003522	24084.223405
828.320872	20341.317909
828.638177	17441.449612
828.955439	15256.986580
829.272656	13422.069595
829.589830	11941.883482
829.906960	10656.280866
830.224046	9684.474954
830.541088	8913.803519
830.858086	8416.115605
831.175041	8013.894543
831.491952	7854.616767
831.808819	7838.853078
832.125642	8140.205694
832.442421	8832.393925
832.759157	10305.940839
833.075849	12872.886295
833.392497	15993.317676
833.709101	18464.211507
834.025662	18841.688066
834.342179	17502.046802
834.658653	15450.534121
834.975083	13531.946584
835.291469	11884.530275
835.607811	10551.591224
835.924110	9640.924426
836.240366	8778.244371
836.556578	7977.893143
836.872746	7322.061712
837.188871	6809.028527
837.504952	6382.539350
837.820990	6058.501542
838.136984	5825.317930
838.452935	5707.291915
838.768842	5689.915058
839.084706	5970.566175
839.400526	6926.303409
839.716303	8432.264942
840.032037	9663.493672
840.347727	9897.156194
840.663373	9102.105738
840.978977	8070.504180
841.294537	7229.334729
841.610054	6617.361337
841.925527	6186.710687
842.240957	5826.386654
842.556344	5500.705431
842.871687	5221.780909
843.186987	4936.154173
843.502244	4704.664389
843.817458	4540.080798
844.132629	4399.525867
844.447756	4305.962052
844.762840	4224.723857
845.077881	4148.678052
845.392879	4084.736056
845.707833	4039.176628
846.022745	3995.000997
846.337613	3967.856904
846.652438	3927.247889
846.967221	3906.979930
847.281960	3875.019015
847.596656	3858.592415
847.911309	3837.845547
848.225919	3813.837051
848.540485	3795.872900
848.855009	3789.037095
849.169490	3768.499434
849.483928	3751.853544
849.798323	3745.610075
850.112675	3727.121643
850.426984	3732.402252
850.741251	3721.833473
851.055474	3711.330229
851.369654	3716.487329
851.683792	3712.162019
851.997887	3719.252402
852.311938	3720.547979
852.625947	3722.541755
852.939914	3714.808625
853.253837	3725.947055
853.567718	3725.221128
853.881555	3715.590004
854.195350	3727.066191
854.509103	3724.757342
854.822812	3721.374728
855.136479	3712.726629
855.450103	3721.059656
855.763685	3706.105073
856.077224	3709.389385
856.390720	3724.671643
856.704173	3744.269128
857.017584	3756.007455
857.330953	3763.390225
857.644278	3786.503915
857.957561	3793.677477
858.270802	3796.276192
858.584000	3801.294661
858.897155	3791.474493
859.210268	3777.349180
859.523339	3759.732868
859.836367	3756.877054
860.149352	3750.139552
860.462295	3744.299375
860.775195	3731.038620
861.088054	3723.280284
861.400869	3725.049729
861.713642	3722.188874
862.026373	3728.228177
862.339062	3735.507603
862.651708	3752.075355
862.964312	3784.192546
863.276873	3791.782003
863.589392	3842.551464
863.901869	3889.701376
864.214303	3928.104886
864.526696	3963.440853
864.839045	4011.672093
865.151353	4034.458108
865.463619	4043.751475
865.775842	4053.067528
866.088023	4072.685178
866.400162	4063.459866
866.712258	4072.107966
867.024313	4077.499480
867.336325	4071.934046
867.648296	4081.376127
867.960224	4076.967638
868.272110	4086.407199
868.583954	4087.072631
868.895755	4100.895475
869.207515	4095.471193
869.519233	4132.639621
869.830909	4146.250736
870.142542	4169.810568
870.454134	4182.970501
870.765684	4212.325139
871.077191	4246.516765
871.388657	4270.616001
871.700081	4301.848470
872.011463	4339.631918
872.322803	4371.935632
872.634101	4405.038369
872.945357	4442.441210
873.256571	4493.450125
873.567744	4523.790309
873.878874	4548.386099
874.189963	4585.206687
874.501010	4591.797995
874.812015	4588.667439
875.122979	4632.074294
875.433900	4632.230570
875.744780	4642.007887
876.055618	4664.836753
876.366415	4662.931197
876.677169	4682.818548
876.987882	4721.834559
877.298554	4768.256024
877.609183	4834.043082
877.919771	4929.547741
878.230317	5054.850661
878.540822	5242.011059
878.851285	5519.468605
879.161707	5906.430095
879.472087	6543.420213
879.782425	7561.297230
880.092722	9380.379951
880.402977	12229.347718
880.713191	15760.819660
881.023363	19500.823973
881.333494	21983.108291
881.643583	23459.294248
881.953631	23681.359596
882.263637	23019.443493
882.573602	21714.049307
882.883526	20265.231774
883.193408	18693.793215
883.503248	17070.912201
883.813048	15586.705768
884.122806	14217.188106
884.432522	12786.604426
884.742197	11547.763554
885.051831	10469.206168
885.361424	9464.451274
885.670975	8633.827917
885.980485	7951.036396
886.289954	7371.618775
886.599382	6896.570684
886.908768	6520.248549
887.218113	6162.830742
887.527417	5870.821905
887.836680	5603.923056
888.145901	5389.205190
888.455082	5225.849120
888.764221	5070.208536
889.073319	4940.910502
889.382376	4864.216908
889.691392	4798.926404
890.000366	4766.680663
890.309300	4748.708950
890.618193	4752.746914
890.927044	4735.438112
891.235855	4755.358232
891.544625	4775.238022
891.853353	4822.398016
892.162041	4918.787398
892.470687	5070.349689
892.779293	5293.380417
893.087858	5608.260969
893.396381	6103.067863
893.704864	6785.294774
894.013306	7813.138153
894.321707	8948.158982
894.630068	9831.843005
894.938387	10183.523979
895.246665	10071.249921
895.554903	9544.262822
895.863100	8894.904233
896.171256	8362.906227
896.479371	7869.536061
896.787446	7385.439099
897.095480	6971.351160
897.403473	6654.340721
897.711425	6348.473752
898.019336	6089.335760
898.327207	5822.046221
898.635038	5595.433753
898.942827	5352.868553
899.250576	5157.899408
899.558284	4969.002332
899.865952	4845.546995
900.173579	4701.916960
900.481165	4595.097430
900.788711	4500.331300
901.096216	4429.762708
901.403681	4364.134446
901.711105	4329.151359
902.018489	4309.352228
902.325832	4359.794013
902.633135	4447.527734
902.940397	4708.001632
903.247619	5318.467719
903.554800	6512.790162
903.861941	8279.268443
904.169041	9852.582312
904.476101	10707.884638
904.783121	10573.578217
905.090100	9946.811559
905.397039	9155.342844
905.703938	8430.901310
906.010796	7763.724763
906.317614	7227.111580
906.624391	6709.564041
906.931129	6295.584487
907.237826	5910.095014
907.544483	5547.081526
907.851099	5184.788922
908.157675	4836.178010
908.464211	4513.019884
908.770707	4269.033079
909.077163	4065.020103
909.383578	3913.866147
909.689954	3793.407775
909.996289	3719.673339
910.302584	3655.000376
910.608839	3618.240282
910.915054	3584.426743
911.221229	3571.110535
911.527363	3578.296700
911.833458	3584.618307
912.139513	3605.022377
912.445527	3629.298053
912.751502	3701.406718
913.057436	3789.611787
913.363331	3899.181265
913.669186	4077.794387
913.975000	4293.409578
914.280775	4656.385258
914.586510	5157.143234
914.892205	5839.551628
915.197859	6768.651405
915.503475	7910.215652
915.809050	8968.810069
916.114585	9689.614411
916.420081	10054.331809
916.725536	10111.014543
917.030952	9744.759592
917.336328	9378.429025
917.641665	8996.294440
917.946961	8549.202067
918.252218	8150.040985
918.557435	7658.520923
918.862612	7252.617298
919.167750	6892.628502
919.472848	6488.282593
919.777906	6131.482326
920.082925	5778.926712
920.387904	5413.427934
920.692843	5145.954393
920.997743	4902.212084
921.302603	4661.638141
921.607423	4503.605529
921.912204	4342.341538
922.216946	4222.790575
922.521647	4104.424283
922.826310	4003.046679
923.130932	3913.858585
923.435516	3820.141014
923.740059	3750.038729
924.044564	3673.413190
924.349028	3620.097947
924.653454	3556.667629
924.957840	3487.858400
925.262186	3445.157306
925.566493	3384.323182
925.870761	3329.997188
926.174989	3294.066363
926.479178	3257.681836
926.783328	3217.536607
927.087438	3188.081145
927.391509	3158.058553
927.695541	3127.877165
927.999533	3101.905141
928.303486	3077.911769
928.607400	3067.925243
928.911275	3052.927810
929.215110	3030.915612
929.518906	3026.260107
929.822663	3025.151053
930.126381	3022.643079
930.430060	3028.279089
930.733699	3029.181455
931.037299	3039.367107
931.340861	3036.329811
931.644383	3047.679969
931.947866	3045.232489
932.251309	3042.238044
932.554714	3038.623536
932.858080	3034.323432
933.161407	3026.993594
933.464694	3022.446474
933.767943	3014.635206
934.071153	3011.303003
934.374323	2999.403359
934.677455	2994.231136
934.980548	2986.140084
935.283602	2982.152531
935.586617	2977.378558
935.889593	2986.755104
936.192530	2988.854745
936.495428	2998.816065
936.798287	3017.513705
937.101108	3044.924979
937.403890	3090.113882
937.706632	3139.209679
938.009336	3218.151628
938.312002	3288.876496
938.614628	3351.311186
938.917216	3406.836975
939.219765	3441.351235
939.522275	3470.940287
939.824747	3480.735249
940.127179	3483.185250
940.429573	3478.101246
940.731929	3475.021101
941.034246	3466.559525
941.336524	3451.609983
941.638763	3440.181687
941.940964	3428.881941
942.243126	3388.023389
942.545250	3368.267107
942.847335	3335.073629
943.149381	3300.607261
943.451389	3267.945625
943.753359	3234.351376
944.055290	3208.812890
944.357182	3186.672142
944.659036	3167.213289
944.960851	3158.741630
945.262628	3143.885349
945.564367	3143.522386
945.866067	3139.509628
946.167729	3136.038793
946.469352	3134.342445
946.770937	3130.765746
947.072484	3116.141359
947.373992	3117.598252
947.675462	3112.524331
947.976893	3094.179572
948.278286	3086.259920
948.579641	3082.226997
948.880958	3073.810790
949.182236	3080.530648
949.483476	3071.340625
949.784678	3068.119327
950.085841	3071.713670
950.386967	3080.326482
950.688054	3092.576485
950.989103	3109.620627
951.290114	3128.666106
951.591087	3154.398676
951.892021	3180.143848
952.192917	3205.868856
952.493776	3235.452868
952.794596	3243.143148
953.095378	3252.214704
953.396122	3249.575660
953.696828	3244.970566
953.997496	3233.519585
954.298126	3212.397151
954.598718	3196.356199
954.899272	3174.795184
955.199788	3146.249650
955.500266	3119.720578
955.800706	3086.781679
956.101108	3048.872202
956.401472	3020.896319
956.701798	2991.208964
957.002087	2949.379990
957.302337	2923.675146
957.602550	2893.211454
957.902724	2864.141640
958.202861	2840.894359
958.502960	2822.105979
958.803022	2798.760395
959.103045	2780.476130
959.403031	2762.764036
959.702979	2748.293404
960.002889	2738.967269
960.302762	2724.806668
960.602596	2715.747715
960.902393	2702.955787
961.202153	2697.342462
961.501875	2688.996832
961.801559	2679.466531
962.101205	2678.163392
962.400814	2671.297341
962.700385	2665.436999
962.999918	2659.659837
963.299414	2653.444094
963.598873	2650.028713
963.898293	2644.450676
964.197677	2648.730616
964.497022	2642.877836
964.796331	2641.841879
965.095601	2638.902886
965.394835	2638.789460
965.694030	2632.994654
965.993189	2633.849129
966.292309	2635.212762
966.591393	2630.131278
966.890439	2630.547174
967.189447	2633.952473
967.488419	2631.993985
967.787353	2632.364510
968.086249	2634.186887
968.385108	2633.874335
968.683930	2636.994809
968.982714	2637.521610
969.281462	2640.500932
969.580172	2649.209525
969.878844	2654.976605
970.177480	2659.095228
970.476078	2670.253822
970.774639	2675.713392
971.073162	2681.215811
971.371649	2686.589681
971.670098	2695.129396
971.968510	2700.354552
972.266885	2702.330684
972.565223	2708.579194
972.863524	2709.940306
973.161788	2716.098075
973.460014	2716.703013
973.758204	2717.615462
974.056356	2720.622511
974.354471	2720.899774
974.652550	2723.914384
974.950591	2720.645196
975.248595	2719.906667
975.546563	2719.110164
975.844493	2714.457179
976.142386	2707.916282
976.440243	2706.870243
976.738062	2703.996785
977.035845	2696.102338
977.333590	2689.881554
977.631299	2682.675225
977.928971	2677.268587
978.226606	2672.560150
978.524204	2667.917247
978.821765	2663.032369
979.119290	2668.559994
979.416777	2668.970848
979.714228	2666.679644
980.011642	2670.074861
980.309020	2677.293793
980.606360	2686.740916
980.903664	2706.613144
981.200931	2738.458113
981.498162	2777.617796
981.795356	2843.362004
982.092513	2922.956782
982.389633	3019.946061
982.686717	3114.563478
982.983764	3192.109027
983.280775	3248.459045
983.577749	3265.687188
983.874686	3259.962958
984.171587	3230.893144
984.468451	3198.380222
984.765279	3157.884633
985.062070	3114.351749
985.358824	3073.828434
985.655543	3021.045033
985.952224	2970.676344
986.248869	2911.727612
986.545478	2854.399610
986.842050	2800.744089
987.138586	2751.610483
987.435086	2714.530276
987.731549	2681.924093
988.027975	2657.383756
988.324366	2640.543782
988.620719	2625.848818
988.917037	2612.598145
989.213318	2601.837802
989.509563	2597.696495
989.805772	2593.872779
990.101944	2586.656368
990.398080	2585.512026
990.694180	2583.634196
990.990244	2584.713003
991.286271	2584.781058
991.582262	2587.563775
991.878217	2586.948755
992.174136	2590.076791
992.470019	2593.625763
992.765865	2594.613829
993.061676	2599.460898
993.357450	2607.385592
993.653188	2611.388268
993.948890	2629.695219
994.244556	2644.906900
994.540186	2664.998419
994.835780	2691.923222
995.131337	2726.944117
995.426859	2764.316712
995.722345	2807.675676
996.017795	2857.731813
996.313208	2896.316804
996.608586	2927.400559
996.903928	2941.397323
997.199234	2943.867488
997.494504	2945.342026
997.789738	2933.250818
998.084936	2910.956315
998.380099	2881.279043
998.675225	2857.787266
998.970316	2826.154025
999.265371	2792.983233
999.560390	2756.989394
999.855373	2728.627863
1000.150320	2699.595858
1000.445232	2672.585356
1000.740108	2654.414517
1001.034948	2634.292751
1001.329752	2620.427057
1001.624521	2607.957763
1001.919254	2596.317739
1002.213951	2590.449836
1002.508613	2582.179823
1002.803239	2577.221848
1003.097829	2571.253122
1003.392384	2564.135013
1003.686903	2564.457647
1003.981386	2556.424568
1004.275834	2553.656975
1004.570246	2549.092210
1004.864623	2547.103475
1005.158964	2544.282949
1005.453270	2544.144317
1005.747540	2544.446787
1006.041775	2540.287835
1006.335974	2538.205838
1006.630138	2537.343801
1006.924266	2541.321271
1007.218359	2534.871115
1007.512416	2535.811290
1007.806438	2531.286854
1008.100425	2534.160312
1008.394376	2532.494211
1008.688292	2533.192411
1008.982172	2533.520086
1009.276017	2535.912113
1009.569827	2534.303985
1009.863602	2530.359282
1010.157341	2531.581762
1010.451045	2531.352389
1010.744714	2528.121010
1011.038347	2531.057482
1011.331945	2527.674868
1011.625508	2528.448685
1011.919036	2524.854342
1012.212528	2524.282171
1012.505986	2526.689322
1012.799408	2524.912315
1013.092795	2524.267048
1013.386147	2523.107582
1013.679464	2522.207736
1013.972745	2523.238652
1014.265992	2521.597757
1014.559204	2521.806965
1014.852380	2521.207067
1015.145521	2523.233611
1015.438628	2522.270751
1015.731699	2522.215298
1016.024736	2525.066071
1016.317737	2523.641945
1016.610703	2526.197810
1016.903635	2526.250742
1017.196531	2528.824251
1017.489393	2528.582275
1017.782219	2528.569672
1018.075011	2532.680733
1018.367768	2533.172246
1018.660490	2531.722914
1018.953177	2531.722914
1019.245829	2531.722914
