Dividing Wavelength (nm)	Counts (n)	Blue Motor Position (mm): 12.500000	Red Motor Position (mm): 0.000000	
326.493990	2066.011040
326.888308	2066.011040
327.282561	2066.011040
327.676750	2040.948943
328.070874	2042.395754
328.464933	2048.611497
328.858929	2058.282951
329.252859	2066.951215
329.646726	2079.289439
330.040528	2098.299630
330.434265	2114.264964
330.827938	2135.692389
331.221547	2155.972951
331.615091	2175.005827
332.008571	2196.559280
332.401986	2218.755481
332.795338	2235.121587
333.188625	2257.567324
333.581847	2276.743873
333.975006	2293.863632
334.368100	2309.914666
334.761129	2325.166677
335.154095	2343.430777
335.546996	2381.486447
335.939833	2449.448763
336.332606	2462.439816
336.725315	2472.953143
337.117960	2485.997128
337.510540	2494.380567
337.903056	2502.176712
338.295508	2506.998575
338.687896	2516.816222
339.080220	2521.738909
339.472480	2527.299302
339.864676	2527.818541
340.256807	2531.672503
340.648875	2531.818696
341.040879	2533.905734
341.432818	2534.016639
341.824694	2537.222813
342.216506	2535.806249
342.608253	2537.558050
342.999937	2533.658717
343.391557	2537.769778
343.783113	2533.167205
344.174605	2532.506814
344.566033	2533.061341
344.957397	2527.581606
345.348697	2526.429703
345.739934	2526.631349
346.131106	2521.534742
346.522215	2523.430216
346.913260	2521.272602
347.304241	2520.463497
347.695159	2516.944772
348.086012	2516.644823
348.476802	2512.780779
348.867528	2511.172651
349.258191	2506.413801
349.648789	2510.033350
350.039324	2506.431445
350.429796	2507.222907
350.820203	2504.999758
351.210548	2507.043946
351.600828	2505.236692
351.991045	2508.107629
352.381198	2504.263749
352.771288	2504.266270
353.161314	2503.845333
353.551276	2502.610251
353.941175	2503.565549
354.331010	2504.054541
354.720782	2505.390447
355.110490	2508.246261
355.500135	2502.388440
355.889717	2505.778616
356.279235	2504.649398
356.668689	2506.255005
357.058080	2505.120745
357.447408	2503.699140
357.836672	2507.497649
358.225873	2507.485047
358.615010	2508.677279
359.004084	2506.439007
359.393095	2508.435304
359.782043	2507.326250
360.170927	2510.721467
360.559748	2507.800119
360.948505	2508.314316
361.337199	2510.572753
361.725830	2509.640140
362.114398	2511.669204
362.502903	2510.691220
362.891344	2512.458145
363.279722	2508.334481
363.668037	2512.543844
364.056289	2513.869668
364.444478	2512.884122
364.832603	2511.812877
365.220665	2512.415295
365.608665	2514.283042
365.996601	2514.494771
366.384474	2515.271109
366.772284	2517.032992
367.160031	2513.315141
367.547715	2517.370749
367.935336	2513.431088
368.322893	2511.003772
368.710388	2511.828001
369.097820	2512.233813
369.485189	2512.349760
369.872495	2514.686335
370.259738	2518.666326
370.646918	2519.818229
371.034035	2516.652385
371.421090	2517.219515
371.808081	2517.257323
372.195010	2516.329751
372.581875	2517.839577
372.968678	2518.270595
373.355418	2521.438960
373.742096	2519.273785
374.128710	2516.380162
374.515262	2521.373425
374.901751	2518.351254
375.288177	2519.435102
375.674540	2519.694721
376.060841	2520.544156
376.447079	2519.651871
376.833254	2521.461646
377.219367	2519.178003
377.605417	2522.162366
377.991404	2525.582789
378.377329	2521.484331
378.763191	2523.238652
379.148991	2523.221008
379.534727	2524.902233
379.920402	2523.334434
380.306013	2524.025072
380.691563	2523.394928
381.077049	2524.493900
381.462474	2525.275278
381.847835	2523.059691
382.233134	2524.178827
382.618371	2520.687828
383.003545	2523.198323
383.388657	2522.830319
383.773706	2522.921060
384.158693	2524.009949
384.543618	2524.705628
384.928480	2524.443488
385.313280	2524.622449
385.698017	2524.660258
386.082692	2525.078673
386.467305	2526.059178
386.851856	2525.454239
387.236344	2525.887779
387.620770	2524.788807
388.005133	2520.047602
388.389435	2522.653878
388.773674	2522.046419
389.157851	2527.518592
389.541965	2530.447502
389.926018	2526.238139
390.310008	2528.307532
390.693936	2529.003212
391.077802	2530.654190
391.461606	2527.400125
391.845348	2528.373067
392.229027	2531.455733
392.612645	2528.511699
392.996200	2531.279293
393.379694	2528.562111
393.763125	2526.361647
394.146494	2530.407173
394.529801	2528.728469
394.913047	2530.543284
395.296230	2529.295599
395.679351	2528.942718
396.062410	2529.519930
396.445408	2530.208048
396.828343	2532.063192
397.211217	2531.551515
397.594028	2532.227030
397.976778	2529.716535
398.359466	2531.246525
398.742092	2531.009591
399.124656	2532.063192
399.507158	2531.652338
399.889598	2535.332380
400.271977	2527.609333
400.654294	2533.462112
401.036549	2532.597554
401.418742	2535.213913
401.800874	2533.467153
402.182944	2534.205683
402.564952	2532.655528
402.946898	2536.123842
403.328783	2533.918337
403.710606	2531.957328
404.092367	2536.766589
404.474067	2535.150899
404.855705	2533.436907
405.237282	2534.606454
405.618797	2534.016639
406.000250	2536.539737
406.381642	2536.101156
406.762972	2532.900024
407.144240	2531.790970
407.525447	2533.368851
407.906593	2531.397760
408.287677	2534.729962
408.668700	2536.428831
409.049661	2536.169212
409.430560	2537.941177
409.811399	2533.827596
410.192176	2536.567463
410.572891	2535.861702
410.953545	2536.529654
411.334138	2538.094933
411.714669	2537.323636
412.095139	2537.573173
412.475547	2538.243647
412.855894	2540.265149
413.236180	2535.128214
413.616405	2536.070909
413.996568	2535.342463
414.376670	2538.561239
414.756711	2535.768440
415.136691	2538.168029
415.516609	2538.457896
415.896466	2539.435880
416.276262	2540.212217
416.655997	2534.641742
417.035670	2540.756662
417.415283	2539.151054
417.794834	2540.197094
418.174324	2536.779192
418.553753	2537.832793
418.933121	2536.837165
419.312428	2538.982176
419.691674	2538.599048
420.070859	2542.314378
420.449983	2539.909748
420.829045	2539.932433
421.208047	2538.243647
421.586988	2538.835982
421.965867	2541.462423
422.344686	2537.467309
422.723444	2542.253885
423.102141	2538.936805
423.480777	2540.451672
423.859352	2540.582742
424.237866	2542.836138
424.616319	2540.668442
424.994712	2539.511497
425.373044	2544.013247
425.751314	2539.025026
426.129524	2535.377751
426.507673	2539.526620
426.885762	2536.968235
427.263789	2541.374203
427.641756	2538.034439
428.019662	2539.143493
428.397508	2539.624923
428.775292	2542.899152
429.153016	2540.552495
429.530679	2542.755479
429.908282	2538.931764
430.285824	2543.173895
430.663305	2541.850592
431.040726	2538.972093
431.418086	2541.275901
431.795385	2542.637012
432.172624	2541.570808
432.549802	2542.942002
432.926920	2541.391847
433.303977	2540.865047
433.680974	2539.811446
434.057910	2541.104502
434.434786	2544.204811
434.811601	2541.956457
435.188355	2538.866229
435.565050	2538.178112
435.941683	2543.216745
436.318257	2540.461754
436.694770	2542.016950
437.071222	2540.938143
437.447614	2541.792619
437.823946	2540.842362
438.200218	2544.235058
438.576429	2541.492670
438.952580	2543.814122
439.328670	2542.798329
439.704700	2540.612989
440.080670	2539.995448
440.456580	2542.377393
440.832429	2543.587270
441.208218	2542.228679
441.583947	2541.215407
441.959616	2545.268495
442.335224	2542.667259
442.710773	2543.052908
443.086261	2541.389327
443.461689	2543.347815
443.837057	2542.573998
444.212365	2545.192877
444.587612	2538.223482
444.962800	2538.394881
445.337927	2539.466127
445.712995	2538.815818
446.088002	2542.929399
446.462949	2543.519214
446.837837	2541.596014
447.212664	2542.256405
447.587431	2543.690613
447.962139	2542.085006
448.336786	2544.928217
448.711374	2542.730274
449.085901	2541.250695
449.460369	2543.690613
449.834776	2544.066179
450.209124	2544.424101
450.583412	2544.744215
450.957640	2543.340253
451.331808	2546.259081
451.705917	2541.815304
452.079965	2545.626417
452.453954	2544.953423
452.827883	2545.155069
453.201752	2542.747918
453.575562	2544.512322
453.949311	2542.296734
454.323001	2546.788403
454.696632	2545.026519
455.070202	2545.931406
455.443713	2544.565254
455.817164	2543.458720
456.190556	2544.542568
456.563888	2546.624565
456.937160	2547.529452
457.310373	2542.629451
457.683526	2547.116078
458.056619	2546.942158
458.429653	2544.358566
458.802628	2543.257074
459.175542	2544.648433
459.548398	2542.712630
459.921194	2548.872920
460.293930	2542.795809
460.666607	2545.858310
461.039224	2543.693134
461.411782	2545.344112
461.784280	2545.452497
462.156719	2545.570964
462.529099	2545.971736
462.901419	2544.834955
463.273680	2544.512322
463.645882	2539.980324
464.018024	2544.880326
464.390106	2544.207332
464.762130	2545.150027
465.134094	2547.589946
465.505999	2550.191181
465.877845	2545.931406
466.249631	2547.771428
466.621358	2547.663043
466.993026	2551.209494
467.364634	2550.561706
467.736184	2548.280584
468.107674	2547.446273
468.479105	2548.255378
468.850477	2546.806047
469.221790	2548.411654
469.593043	2547.297559
469.964238	2548.285625
470.335373	2545.724719
470.706449	2547.978115
471.077467	2549.369473
471.448425	2548.479710
471.819324	2547.695810
472.190164	2551.297715
472.560945	2548.295707
472.931667	2546.712785
473.302330	2547.332847
473.672934	2549.240924
474.043479	2547.209339
474.413965	2545.722198
474.784393	2548.537683
475.154761	2547.395862
475.525070	2546.576674
475.895321	2547.277394
476.265513	2551.264947
476.635645	2548.270502
477.005719	2548.028526
477.375734	2546.380069
477.745691	2549.855945
478.115588	2546.974925
478.485427	2548.192364
478.855207	2551.247303
479.224928	2551.650595
479.594591	2552.116902
479.964194	2553.495658
480.333739	2551.839639
480.703226	2550.251675
481.072653	2552.114382
481.442022	2552.852911
481.811333	2552.973898
482.180584	2548.825029
482.549777	2554.521533
482.918912	2546.304452
483.287988	2550.193702
483.657005	2550.055070
484.025964	2551.716130
484.394864	2553.493137
484.763706	2555.532284
485.132489	2551.403579
485.501213	2550.375183
485.869879	2552.827705
486.238487	2552.149670
486.607036	2553.256203
486.975527	2552.835267
487.343959	2555.050854
487.712333	2553.039433
488.080648	2553.364588
488.448905	2554.002294
488.817104	2552.386604
489.185244	2554.236707
489.553326	2556.298539
489.921350	2552.739485
490.289315	2552.822664
490.657222	2558.446071
491.025070	2556.530432
491.392861	2554.758467
491.760593	2556.777449
492.128267	2554.944989
492.495883	2554.108158
492.863440	2552.651264
493.230939	2556.268292
493.598380	2557.556307
493.965763	2557.727706
494.333088	2557.946997
494.700354	2556.653941
495.067563	2556.200237
495.434713	2556.144784
495.801805	2555.376008
496.168839	2558.088149
496.535815	2556.081770
496.902733	2556.502706
497.269593	2556.454815
497.636395	2558.201575
498.003139	2558.592264
498.369825	2555.675957
498.736453	2556.495144
499.103023	2556.480021
499.469535	2557.790721
499.835989	2556.273333
500.202385	2555.433981
500.568723	2554.443395
500.935003	2553.709907
501.301226	2554.087993
501.667390	2558.556976
502.033497	2560.462532
502.399546	2561.218705
502.765537	2560.921277
503.131470	2562.877245
503.497345	2561.054868
503.863163	2560.555794
504.228923	2563.545198
504.594625	2563.877914
504.960269	2560.974209
505.325856	2563.280537
505.691385	2564.951680
506.056856	2565.959911
506.422270	2566.877401
506.787625	2568.399829
507.152924	2566.133830
507.518164	2565.899417
507.883347	2566.698440
508.248472	2568.198183
508.613540	2569.622309
508.978550	2569.675241
509.343503	2571.341342
509.708398	2572.284038
510.073236	2572.760427
510.438016	2570.224727
510.802738	2571.910993
511.167403	2575.323854
511.532010	2575.810325
511.896561	2576.264029
512.261053	2579.172775
512.625488	2577.799060
512.989866	2578.802250
513.354186	2579.530697
513.718449	2580.627148
514.082655	2582.840214
514.446803	2585.065884
514.810894	2584.655030
515.174927	2586.764752
515.538904	2585.456573
515.902822	2586.956316
516.266684	2586.472366
516.630488	2588.962696
516.994235	2590.994281
517.357925	2594.709611
517.721558	2597.141968
518.085133	2592.650300
518.448651	2592.360433
518.812112	2591.722727
519.175516	2595.032245
519.538863	2594.510485
519.902152	2599.307143
520.265385	2601.399222
520.628560	2603.914758
520.991678	2602.029366
521.354739	2603.458533
521.717743	2606.634460
522.080690	2610.052363
522.443580	2612.376335
522.806413	2610.622013
523.169189	2612.167127
523.531908	2613.377004
523.894569	2614.516304
524.257174	2616.570575
524.619722	2617.253651
524.982213	2618.682818
525.344647	2620.245576
525.707025	2624.039044
526.069345	2625.425361
526.431608	2625.221195
526.793815	2627.797224
527.155964	2628.187914
527.518057	2628.374436
527.880093	2631.338635
528.242072	2633.105559
528.603995	2635.437093
528.965860	2636.377268
529.327669	2637.060344
529.689421	2638.199645
530.051117	2640.432876
530.412755	2641.473875
530.774337	2643.883546
531.135862	2644.672487
531.497331	2646.996459
531.858743	2646.804895
532.220098	2651.357057
532.581396	2649.892602
532.942638	2651.180616
533.303824	2654.822850
533.664953	2658.391987
534.026025	2657.361071
534.387040	2660.615136
534.747999	2660.587409
535.108902	2663.488593
535.469748	2664.494304
535.830537	2666.682164
536.191270	2667.609737
536.551947	2665.464726
536.912567	2665.704181
537.273131	2672.822290
537.633638	2664.406083
537.994089	2674.793381
538.354483	2676.784637
538.714821	2676.971159
539.075103	2679.388393
539.435328	2680.268074
539.795497	2680.137004
540.155609	2681.263702
540.515665	2687.466842
540.875665	2684.419464
541.235609	2685.687314
541.595496	2688.028930
541.955328	2691.557738
542.315102	2691.184693
542.674821	2692.472707
543.034483	2694.085877
543.394090	2695.673840
543.753640	2697.904551
544.113134	2700.664582
544.472571	2698.128882
544.831953	2703.404450
545.191278	2701.014943
545.550548	2701.856815
545.909761	2705.138607
546.268918	2704.730273
546.628019	2709.789071
546.987064	2710.656149
547.346053	2707.628937
547.704986	2710.930892
548.063863	2710.991386
548.422684	2710.804863
548.781449	2710.096581
549.140158	2712.687734
549.498811	2715.959443
549.857408	2712.871737
550.215949	2715.974567
550.574434	2714.613455
550.932864	2718.021275
551.291237	2719.205946
551.649555	2719.896584
552.007817	2719.702500
552.366022	2722.742316
552.724173	2724.733572
553.082267	2725.653582
553.440305	2726.495455
553.798288	2727.047461
554.156215	2728.151474
554.514086	2725.784652
554.871902	2725.330948
555.229661	2729.835219
555.587365	2726.485372
555.945014	2733.810169
556.302606	2734.982237
556.660143	2735.579614
557.017625	2738.972311
557.375050	2738.947105
557.732421	2741.951632
558.089735	2743.849627
558.446994	2742.942219
558.804197	2748.348857
559.161345	2747.504463
559.518437	2746.365163
559.875474	2749.457911
560.232455	2752.492685
560.589381	2755.764394
560.946251	2759.076432
561.303065	2763.860487
561.659825	2765.138420
562.016528	2763.457195
562.373177	2764.170518
562.729770	2770.751744
563.086307	2770.890376
563.442789	2775.598814
563.799216	2779.556120
564.155587	2779.213321
564.511904	2786.563323
564.868164	2788.433592
565.224370	2792.015331
565.580520	2796.403656
565.936615	2799.612350
566.292654	2803.438586
566.648638	2807.176602
567.004567	2813.720019
567.360441	2820.228149
567.716260	2821.291832
568.072023	2829.995384
568.427732	2834.219871
568.783385	2837.408401
569.138982	2846.588342
569.494525	2853.582943
569.850013	2859.090404
570.205445	2865.454861
570.560823	2869.724718
570.916145	2875.481716
571.271412	2885.269116
571.626625	2892.273799
571.981782	2900.886610
572.336884	2906.452044
572.691931	2913.378590
573.046923	2920.831936
573.401860	2926.047009
573.756743	2939.156530
574.111570	2951.630865
574.466342	2959.061526
574.821059	2967.442444
575.175722	2974.994093
575.530330	2988.063284
575.884882	2994.629387
576.239380	3004.731859
576.593823	3017.080165
576.948211	3029.630118
577.302544	3034.023483
577.656823	3049.167110
578.011047	3062.795869
578.365216	3072.789957
578.719330	3088.107503
579.073389	3099.510593
579.427394	3115.357460
579.781344	3129.797845
580.135239	3145.276708
580.489080	3161.577279
580.842866	3172.894669
581.196597	3197.997095
581.550273	3214.852192
581.903895	3231.266189
582.257463	3258.732916
582.610975	3270.231788
582.964434	3296.281951
583.317837	3309.850216
583.671186	3328.346210
584.024481	3356.954758
584.377721	3370.545708
584.730906	3394.879358
585.084037	3421.146290
585.437113	3437.633384
585.790135	3463.554997
586.143103	3479.585866
586.496016	3509.714322
586.848874	3537.725493
587.201679	3562.684246
587.554428	3577.999272
587.907124	3612.069910
588.259765	3634.392139
588.612352	3670.212058
588.964884	3687.805685
589.317362	3721.778020
589.669786	3750.709202
590.022155	3778.904376
590.374470	3821.202177
590.726731	3842.856453
591.078937	3851.234851
591.431090	3897.341244
591.783188	3909.734921
592.135232	3935.815330
592.487222	3976.920899
592.839157	4013.779295
593.191038	4035.342831
593.542866	4065.751071
593.894639	4078.548040
594.246358	4121.907004
594.598022	4158.261285
594.949633	4177.110159
595.301190	4210.243143
595.652692	4244.815376
596.004141	4300.530208
596.355535	4294.029640
596.706876	4323.759845
597.058162	4351.329916
597.409395	4409.769492
597.760573	4459.762614
598.111698	4481.734483
598.462768	4513.849154
598.813785	4556.144435
599.164748	4579.613526
599.515657	4631.744098
599.866511	4646.839833
600.217312	4727.503336
600.568060	4713.861974
600.918753	4805.147188
601.269392	4847.356769
601.619978	4872.749061
601.970510	4925.940796
602.320988	4980.281913
602.671412	5042.572931
603.021783	5081.452830
603.372100	5102.058546
603.722363	5153.654756
604.072572	5207.141398
604.422728	5254.369448
604.772830	5287.988903
605.122878	5349.707750
605.472872	5389.283328
605.822813	5460.819822
606.172701	5490.855016
606.522534	5569.769238
606.872314	5641.267923
607.222041	5677.672616
607.571714	5758.585656
607.921333	5776.045692
608.270899	5850.437999
608.620411	5934.582419
608.969870	5979.398277
609.319276	6033.878026
609.668627	6098.089723
610.017926	6197.276946
610.367171	6271.611280
610.716362	6338.003276
611.065500	6398.159365
611.414585	6480.705738
611.763616	6560.035856
612.112594	6620.403673
612.461518	6695.290014
612.810389	6804.441077
613.159207	6852.039651
613.507971	6923.500528
613.856682	7046.519805
614.205340	7099.797239
614.553945	7251.467915
614.902496	7253.723831
615.250994	7375.485340
615.599439	7458.228319
615.947830	7552.414717
616.296169	7626.766695
616.644454	7722.178093
616.992686	7825.017632
617.340864	7972.521793
617.688990	7995.552305
618.037063	8166.429776
618.385082	8241.202690
618.733048	8380.290646
619.080961	8450.660112
619.428821	8538.963483
619.776628	8634.538719
620.124382	8691.148356
620.472083	8786.761401
620.819731	8881.126760
621.167326	8893.863235
621.514868	8973.185791
621.862357	8960.736661
622.209793	9054.008090
622.557176	9055.013800
622.904506	9099.053320
623.251783	9116.848593
623.599007	9142.135021
623.946179	9204.466367
624.293297	9236.003826
624.640363	9226.987722
624.987376	9269.484649
625.334336	9324.327362
625.681243	9327.631838
626.028097	9391.707424
626.374899	9459.077404
626.721647	9529.787148
627.068343	9572.561339
627.414987	9596.398435
627.761577	9641.660435
628.108115	9785.020768
628.454600	9736.746678
628.801032	9864.403817
629.147412	9929.069218
629.493739	9996.144291
629.840014	9996.474486
630.186236	10175.372433
630.532405	10151.071551
630.878521	10298.273244
631.224585	10340.500469
631.570597	10357.320279
631.916556	10487.659311
632.262462	10563.385004
632.608316	10627.137956
632.954117	10689.759169
633.299866	10769.414441
633.645562	10833.973978
633.991206	10800.384770
634.336797	10784.222830
634.682336	10840.746768
635.027823	10862.264933
635.373257	10917.268963
635.718639	10912.399208
636.063968	10967.395676
636.409245	10895.239120
636.754470	10948.778695
637.099642	10981.664662
637.444762	10913.853581
637.789829	11027.143431
638.134845	11003.818012
638.479808	11055.552854
638.824719	11133.105965
639.169577	11079.952038
639.514383	11188.412463
639.859137	11164.018320
640.203839	11281.502410
640.548489	11297.250975
640.893086	11367.507016
641.237632	11368.777386
641.582125	11481.694191
641.926566	11499.630617
642.270955	11582.224881
642.615292	11651.160140
642.959576	11700.079497
643.303809	11784.919595
643.647990	11893.944629
643.992118	11970.481948
644.336195	12001.492606
644.680219	12105.965478
645.024192	12257.552974
645.368112	12506.291067
645.711981	12612.576234
646.055797	12941.647633
646.399562	12976.986122
646.743274	13363.002395
647.086935	13605.434004
647.430544	13686.273947
647.774101	13793.090956
648.117606	13995.347090
648.461059	14142.717661
648.804460	14098.602523
649.147810	13998.787677
649.491108	13978.625582
649.834354	14022.397921
650.177548	13813.242969
650.520690	13703.733984
650.863781	13774.484057
651.206820	13800.317450
651.549807	13728.211306
651.892742	13589.261983
652.235626	13630.433086
652.578458	13660.914423
652.921238	13479.175786
653.263967	13658.179597
653.606644	13628.557777
653.949269	13674.969160
654.291843	13593.481428
654.634365	13805.988748
654.976836	13714.118761
655.319255	13828.578159
655.661622	13854.703938
656.003938	13877.472310
656.346203	13880.522208
656.688416	14055.178024
657.030577	14046.819791
657.372687	14050.535121
657.714746	14185.650647
658.056753	14337.407022
658.398708	14161.095187
658.740612	14257.129168
659.082465	14426.418676
659.424266	14454.228201
659.766016	14526.162946
660.107715	14534.561508
660.449362	14655.534077
660.790958	14734.697836
661.132503	14765.043062
661.473996	14879.767120
661.815438	14991.272402
662.156829	15123.963133
662.498168	15107.576863
662.839456	15170.351831
663.180693	15304.895186
663.521879	15416.513894
663.863013	15462.257324
664.204097	15527.492375
664.545129	15806.164839
664.886110	15843.449213
665.227040	15985.052704
665.567918	16052.818415
665.908746	16153.684341
666.249522	16272.264883
666.590248	16362.194026
666.930922	16492.548182
667.271545	16578.764516
667.612118	16677.528282
667.952639	16656.589849
668.293109	16761.496261
668.633528	16749.107625
668.973896	16816.646484
669.314213	16870.070112
669.654480	16850.293665
669.994695	16916.473933
670.334859	16952.918954
670.674973	16922.024243
671.015035	17099.714834
671.355047	17143.731669
671.695008	17164.347467
672.034918	17195.970625
672.374777	17315.667782
672.714585	17322.831262
673.054342	17466.836863
673.394049	17450.153164
673.733705	17647.504255
674.073310	17558.938743
674.412864	17665.707861
674.752368	17583.794153
675.091820	17785.533568
675.431223	17635.516391
675.770574	17589.256243
676.109875	17569.066422
676.449125	17500.930186
676.788324	17512.643307
677.127473	17302.243190
677.466571	17313.013615
677.805619	17217.710601
678.144616	17248.408708
678.483562	17272.828057
678.822458	17150.766599
679.161303	17179.617122
679.500098	17193.928958
679.838842	17217.050210
680.177535	17309.840208
680.516179	17501.746853
680.854771	17605.597143
681.193314	18091.700485
681.531805	18731.289317
681.870247	19259.632487
682.208638	19829.050979
682.546978	20111.960533
682.885268	20297.565735
683.223508	20114.478589
683.561697	20007.543113
683.899836	19952.481110
684.237925	19763.785681
684.575963	19720.862776
684.913951	19521.497744
685.251889	19665.294137
685.589776	19713.079235
685.927614	19770.500497
686.265401	19932.634088
686.603137	20039.594769
686.940824	20397.980478
687.278460	20666.928557
687.616046	20825.520736
687.953582	21308.831279
688.291068	21315.299079
688.628504	21615.588011
688.965889	21685.097961
689.303224	21588.406109
689.640510	21462.236111
689.977745	21135.203858
690.314930	20712.745083
690.652065	20508.530462
690.989150	20123.595516
691.326185	19626.046234
691.663170	19267.763868
692.000105	18841.972891
692.336990	18476.786665
692.673825	18227.388182
693.010610	17940.206250
693.347345	17631.168396
693.684030	17247.034993
694.020665	17150.403636
694.357251	16720.768779
694.693786	16765.773680
695.030272	16649.726318
695.366707	16337.436920
695.703093	16172.296281
696.039429	16259.044457
696.375716	16124.478417
696.711952	16152.943292
697.048139	16095.143942
697.384276	16004.841753
697.720363	16120.367356
698.056400	16066.716876
698.392388	15989.103271
698.728326	16020.658374
699.064214	15942.792711
699.400053	15987.737118
699.735842	15760.731440
700.071581	15664.964641
700.407270	15532.778025
700.742910	15437.439723
701.078501	15288.362722
701.414042	15182.851372
701.749533	14990.790972
702.084974	14785.172389
702.420366	14997.331869
702.755709	14729.911261
703.091002	14536.774574
703.426246	14611.308034
703.761440	14596.116517
704.096584	14459.970075
704.431679	14426.958079
704.766725	14417.402572
705.101721	14389.560279
705.436668	14495.535415
705.771565	14317.078569
706.106413	14569.857147
706.441212	14640.239216
706.775961	14735.343104
707.110661	14812.301358
707.445311	15112.512152
707.779913	15039.259146
708.114465	15275.323777
708.448967	15544.355035
708.783421	16034.660178
709.117825	16310.756613
709.452180	16507.437230
709.786485	16841.774115
710.120742	17437.683870
710.454949	17524.432045
710.789107	17943.102393
711.123216	18496.550509
711.457275	18675.219084
711.791286	19118.092011
712.125247	19269.684548
712.459159	19120.995715
712.793023	19743.691641
713.126837	19004.691255
713.460602	19250.563452
713.794318	19046.807575
714.127985	18882.145846
714.461602	18221.356441
714.795171	18250.310308
715.128691	17494.432139
715.462162	17122.705016
715.795584	16818.839386
716.128957	16637.793907
716.462281	16359.623038
716.795556	16161.661967
717.128782	15818.777806
717.461960	15357.010634
717.795088	15361.129257
718.128167	15115.347801
718.461198	14779.808601
718.794180	14691.714438
719.127113	14457.159632
719.459997	14316.713086
719.792833	14027.789435
720.125619	14077.248196
720.458357	13818.982322
720.791046	13713.970047
721.123686	13607.314355
721.456278	13432.587962
721.788821	13444.651443
722.121315	13243.902615
722.453761	13329.551819
722.786158	13245.346906
723.118506	13327.636180
723.450805	13247.315476
723.783056	13406.200042
724.115259	13309.989621
724.447412	13310.370228
724.779518	13506.075383
725.111574	13547.075087
725.443582	13768.371658
725.775542	13744.937855
726.107453	14164.780270
726.439315	14100.500518
726.771129	14444.831490
727.102895	14781.535197
727.434612	15024.256672
727.766281	15172.348128
728.097901	15451.743997
728.429473	15545.322936
728.760996	15573.439972
729.092471	15699.050402
729.423897	15619.627023
729.755276	15509.613923
730.086606	15592.366984
730.417887	16063.339303
730.749120	16543.201696
731.080305	16744.258035
731.411442	17114.225795
731.742530	17232.382880
732.073570	17377.144653
732.404562	17679.412238
732.735506	17590.211541
733.066401	17502.576123
733.397249	17145.833830
733.728048	16656.851989
734.058798	15973.455530
734.389501	15356.675398
734.720156	14933.939360
735.050762	14433.824131
735.381320	14104.178039
735.711831	13864.067882
736.042293	13545.209860
736.372707	13573.657091
736.703073	13395.623702
737.033391	13566.163416
737.363661	13546.606259
737.693883	13654.968382
738.024056	13808.088389
738.354182	14001.464530
738.684260	14296.941680
739.014290	14535.320202
739.344272	14731.481580
739.674207	15034.144895
740.004093	15199.555235
740.333931	15260.311221
740.663722	15357.812178
740.993464	15421.368525
741.323159	15310.994982
741.652806	15080.311782
741.982405	14959.878617
742.311956	14663.236960
742.641460	14603.514410
742.970915	14326.472759
743.300323	14041.766034
743.629683	13858.968755
743.958996	13611.206125
744.288260	13351.080066
744.617477	13078.104106
744.946647	13051.358264
745.275768	12768.516766
745.604842	12588.114035
745.933869	12429.728542
746.262847	12408.331365
746.591778	12331.123573
746.920662	12230.978532
747.249498	12235.260992
747.578286	12360.548788
747.907027	12513.641069
748.235720	12752.730393
748.564365	12832.292403
748.892963	12786.468315
749.221514	12897.673648
749.550017	12786.468315
749.878473	12781.573355
750.206881	12596.371445
750.535242	12534.035057
750.863555	12474.524236
751.191821	12379.821119
751.520039	12392.953325
751.848210	12325.328767
752.176334	12364.934592
752.504411	12311.382415
752.832440	12152.139927
753.160421	12271.211980
753.488356	12179.775532
753.816243	12110.245417
754.144082	11959.953498
754.471875	11911.593709
754.799620	11887.353321
755.127318	11868.529652
755.454969	11858.039011
755.782572	11833.118067
756.110129	11852.362672
756.437638	11779.482711
756.765100	11781.610078
757.092515	11805.550517
757.419882	11844.183400
757.747203	11845.312618
758.074477	11916.791139
758.401703	11901.556772
758.728882	12059.644836
759.056014	12099.729571
759.383099	12258.906524
759.710138	12373.623021
760.037129	12504.390552
760.364073	12575.004514
760.690970	12596.973863
761.017820	12602.050304
761.344623	12797.521045
761.671379	13104.522273
761.998088	13628.419145
762.324751	14921.762453
762.651366	17582.493535
762.977935	21544.386754
763.304456	24547.722213
763.630931	26033.461157
763.957359	25352.615522
764.283740	23467.327327
764.610074	21502.071309
764.936362	19116.168811
765.262602	17357.194287
765.588796	15574.458285
765.914943	14364.110014
766.241044	13306.276812
766.567097	12538.889688
766.893104	11872.451670
767.219064	11437.805906
767.544978	10996.836014
767.870845	10630.137443
768.196665	10429.731413
768.522438	10223.863292
768.848165	10035.011587
769.173846	9843.725004
769.499479	9731.226615
769.825066	9579.825642
770.150607	9375.517758
770.476101	9297.064802
770.801548	9189.698307
771.126949	9049.733191
771.452303	8954.803223
771.777611	8775.456613
772.102872	8764.318184
772.428087	8639.174060
772.753256	8503.425869
773.078378	8428.809231
773.403453	8264.984334
773.728482	8149.103330
774.053465	8081.662774
774.378401	7991.854618
774.703291	7870.299796
775.028135	7767.150227
775.352932	7742.960250
775.677683	7638.021071
776.002388	7542.284518
776.327046	7553.959831
776.651658	7461.805018
776.976224	7367.953857
777.300743	7371.870833
777.625216	7292.081971
777.949643	7249.741319
778.274024	7263.410408
778.598359	7189.852412
778.922647	7207.166255
779.246889	7159.476939
779.571086	7163.512383
779.895236	7167.749473
780.219339	7175.669125
780.543397	7180.806061
780.867409	7259.498473
781.191374	7267.309741
781.515294	7241.945175
781.839167	7328.156467
782.162995	7309.940258
782.486776	7262.334122
782.810511	7224.006229
783.134201	7142.805843
783.457844	7137.817622
783.781441	7091.590241
784.104993	7033.657301
784.428498	7016.930752
784.751958	7004.353074
785.075372	6969.770758
785.398739	6924.453306
785.722061	6960.401774
786.045337	6960.817669
786.368568	7095.151816
786.691752	7098.342867
787.014891	7370.131635
787.337983	7663.930081
787.661030	8183.146242
787.984031	8772.585676
788.306987	9186.648409
788.629897	9439.525289
788.952760	9440.677193
789.275579	9279.582080
789.598351	8929.922608
789.921078	8611.702292
790.243759	8229.335814
790.566395	7949.380377
790.888984	7710.606125
791.211529	7509.209508
791.534027	7297.922147
791.856480	7099.582990
792.178888	7024.308481
792.501249	6935.163237
792.823566	6794.757020
793.145836	6788.886597
793.468062	6756.315702
793.790241	6701.578853
794.112375	6761.969356
794.434464	6892.699078
794.756507	6922.787204
795.078505	7054.666310
795.400457	7312.836401
795.722364	7639.659446
796.044226	7914.745129
796.366042	8189.656892
796.687812	8166.888521
797.009538	8260.023838
797.331218	8178.437804
797.652852	8112.312989
797.974442	7967.770506
798.295986	7898.633601
798.617484	7726.490800
798.938938	7585.661127
799.260346	7489.846436
799.581709	7301.841644
799.903026	7229.269194
800.224299	7134.220758
800.545526	6973.667570
800.866708	6882.946966
801.187845	6813.555483
801.508936	6715.825154
801.829983	6679.233939
802.150984	6535.142638
802.471940	6494.294169
802.792851	6480.751109
803.113717	6449.790862
803.434538	6417.537560
803.755314	6362.772985
804.076045	6366.432863
804.396731	6311.456560
804.717372	6337.315158
805.037967	6336.022102
805.358518	6372.053750
805.679024	6449.342200
805.999485	6456.099867
806.319901	6497.427246
806.640272	6515.325863
806.960598	6597.955415
807.280879	6603.490602
807.601115	6673.449215
807.921306	6625.215455
808.241453	6636.827752
808.561554	6663.268604
808.881611	6631.950436
809.201623	6637.626775
809.521590	6592.324446
809.841513	6571.272588
810.161390	6608.120902
810.481223	6486.079608
810.801011	6476.849256
811.120755	6454.670699
811.440453	6380.628752
811.760107	6346.167425
812.079716	6318.594834
812.399281	6257.077633
812.718801	6253.558908
813.038276	6212.907043
813.357707	6146.557897
813.677093	6187.219844
813.996434	6091.677376
814.315731	6137.723275
814.634983	6125.266584
814.954191	6125.659794
815.273354	6224.484053
815.592473	6277.771570
815.911547	6390.645525
816.230577	6463.265867
816.549562	6602.363904
816.868502	6699.025509
817.187399	6787.197810
817.506250	6922.303254
817.825058	6945.850483
818.143821	7182.739344
818.462539	7407.058087
818.781213	7721.121972
819.099843	8186.828805
819.418429	9061.234584
819.736970	9915.926930
820.055466	10973.936573
820.373919	12288.208231
820.692327	14231.406680
821.010691	17401.110299
821.329011	24535.837693
821.647286	35622.665866
821.965517	48982.668774
822.283704	56714.576294
822.601847	60124.112807
822.919945	57843.749386
823.237999	53770.703765
823.556010	47729.813494
823.873976	41323.484939
824.191897	35107.802741
824.509775	30466.482971
824.827609	26045.544803
825.145398	23360.986707
825.463144	21781.809977
825.780845	21692.304290
826.098502	22861.000028
826.416116	26056.829426
826.733685	29623.909558
827.051210	31375.955016
827.368692	30462.482815
827.686129	27095.188651
828.003522	23239.174786
828.320872	19665.626853
828.638177	16873.755195
828.955439	14774.089412
829.272656	13002.113753
829.589830	11580.657082
829.906960	10336.994346
830.224046	9405.008508
830.541088	8654.887337
830.858086	8185.422323
831.175041	7795.756254
831.491952	7648.161352
831.808819	7637.960577
832.125642	7930.682737
832.442421	8606.777085
832.759157	10047.904338
833.075849	12502.081703
833.392497	15533.206523
833.709101	17895.329898
834.025662	18268.992824
834.342179	16964.715254
834.658653	14980.577594
834.975083	13128.878608
835.291469	11550.049717
835.607811	10261.838304
835.924110	9378.295434
836.240366	8543.046818
836.556578	7768.450844
836.872746	7134.979452
837.188871	6635.312886
837.504952	6220.330142
837.820990	5912.429068
838.136984	5693.040573
838.452935	5574.359209
838.768842	5559.437394
839.084706	5839.102965
839.400526	6775.683815
839.716303	8218.900626
840.032037	9413.215507
840.347727	9626.910018
840.663373	8856.553655
840.978977	7853.066612
841.294537	7044.273971
841.610054	6455.315967
841.925527	6040.373553
842.240957	5690.472106
842.556344	5376.408221
842.871687	5106.315801
843.186987	4835.797403
843.502244	4608.252321
843.817458	4448.099905
844.132629	4309.853822
844.447756	4219.468454
844.762840	4141.086074
845.077881	4070.373809
845.392879	4010.789891
845.707833	3962.780462
846.022745	3920.323865
846.337613	3893.451994
846.652438	3850.773586
846.967221	3835.743385
847.281960	3802.628046
847.596656	3786.579533
847.911309	3768.537243
848.225919	3744.990013
848.540485	3729.304463
848.855009	3717.881208
849.169490	3693.507230
849.483928	3688.385417
849.798323	3676.193387
850.112675	3658.332579
850.426984	3662.922549
850.741251	3647.599962
851.055474	3646.463182
851.369654	3650.465858
851.683792	3648.754386
851.997887	3650.889315
852.311938	3653.787978
852.625947	3658.617404
852.939914	3648.499808
853.253837	3660.729647
853.567718	3656.981549
853.881555	3645.742297
854.195350	3659.416427
854.509103	3653.601456
854.822812	3657.924245
855.136479	3645.144920
855.450103	3652.666322
855.763685	3641.505207
856.077224	3644.968480
856.390720	3660.996828
856.704173	3678.315713
857.017584	3686.643699
857.330953	3696.703321
857.644278	3716.620920
857.957561	3727.446798
858.270802	3725.579050
858.584000	3733.347468
858.897155	3725.226170
859.210268	3708.151782
859.523339	3689.360881
859.836367	3688.244265
860.149352	3679.679345
860.462295	3673.466122
860.775195	3668.054444
861.088054	3657.369718
861.400869	3659.804596
861.713642	3654.022392
862.026373	3662.599915
862.339062	3667.109228
862.651708	3679.901155
862.964312	3713.893656
863.276873	3727.507292
863.589392	3771.710649
863.901869	3817.065910
864.214303	3859.467055
864.526696	3893.411665
864.839045	3932.891461
865.151353	3959.362560
865.463619	3973.140033
865.775842	3975.552226
866.088023	3993.959999
866.400162	3983.809636
866.712258	3993.768435
867.024313	3998.557531
867.336325	3992.119978
867.648296	3997.393025
867.960224	3997.289681
868.272110	4006.567925
868.583954	4010.457175
868.895755	4018.986807
869.207515	4012.657638
869.519233	4049.984862
869.830909	4064.334507
870.142542	4081.872681
870.454134	4098.503447
870.765684	4125.332468
871.077191	4161.641379
871.388657	4179.255170
871.700081	4214.560891
872.011463	4253.569340
872.322803	4283.007158
872.634101	4314.514369
872.945357	4350.651880
873.256571	4398.752050
873.567744	4431.706073
873.878874	4448.969504
874.189963	4483.634998
874.501010	4496.825177
874.812015	4495.078417
875.122979	4536.216753
875.433900	4531.707441
875.744780	4543.279410
876.055618	4564.991660
876.366415	4562.450918
876.677169	4579.719391
876.987882	4620.257829
877.298554	4667.591743
877.609183	4725.980908
877.919771	4819.224610
878.230317	4943.040389
878.540822	5117.915496
878.851285	5386.732504
879.161707	5764.292242
879.472087	6381.402569
879.782425	7362.338011
880.092722	9126.464594
880.402977	11866.785413
880.713191	15228.620008
881.023363	18754.276979
881.333494	21091.161818
881.643583	22500.507116
881.953631	22711.282799
882.263637	22109.122014
882.573602	20870.364320
882.883526	19492.145626
883.193408	17959.037480
883.503248	16440.127744
883.813048	15030.502662
884.122806	13715.323596
884.432522	12334.173471
884.742197	11155.692854
885.051831	10121.422005
885.361424	9169.400101
885.670975	8376.431642
885.980485	7710.533028
886.289954	7162.287382
886.599382	6704.898453
886.908768	6344.791190
887.218113	5999.726729
887.527417	5722.249019
887.836680	5466.496161
888.145901	5260.703658
888.455082	5103.308753
888.764221	4953.319302
889.073319	4823.406247
889.382376	4746.498404
889.691392	4688.270556
890.000366	4660.889529
890.309300	4642.111231
890.618193	4640.790449
890.927044	4629.508347
891.235855	4644.717508
891.544625	4665.025796
891.853353	4710.673444
892.162041	4806.117610
892.470687	4964.571158
892.779293	5168.793341
893.087858	5475.164425
893.396381	5947.273524
893.704864	6605.033195
894.013306	7593.979030
894.321707	8688.305146
894.630068	9552.618534
894.938387	9881.659687
895.246665	9765.866904
895.554903	9262.502651
895.863100	8629.847926
896.171256	8119.496634
896.479371	7637.665670
896.787446	7177.862027
897.095480	6774.559637
897.403473	6474.003524
897.711425	6176.698956
898.019336	5927.071100
898.327207	5673.715310
898.635038	5455.801353
898.942827	5220.807966
899.250576	5035.991705
899.558284	4848.203683
899.865952	4729.081217
900.173579	4596.176237
900.481165	4489.681862
900.788711	4400.501330
901.096216	4328.470803
901.403681	4264.692646
901.711105	4236.258017
902.018489	4217.131880
902.325832	4265.327831
902.633135	4350.235985
902.940397	4598.595991
903.247619	5194.846024
903.554800	6343.538463
903.861941	8036.846916
904.169041	9549.808091
904.476101	10363.125167
904.783121	10228.722965
905.090100	9618.440880
905.397039	8862.129171
905.703938	8167.120414
906.010796	7525.709204
906.317614	7008.990935
906.624391	6519.716707
906.931129	6114.193689
907.237826	5739.812399
907.544483	5397.828084
907.851099	5049.290268
908.157675	4714.555132
908.464211	4402.905961
908.770707	4169.014066
909.077163	3974.425528
909.383578	3829.943538
909.689954	3713.066907
909.996289	3640.741472
910.302584	3577.414498
910.608839	3546.741597
910.915054	3513.301103
911.221229	3499.944566
911.527363	3508.146523
911.833458	3518.833769
912.139513	3537.571738
912.445527	3558.875654
912.751502	3625.832260
913.057436	3710.470712
913.363331	3821.481961
913.669186	3992.036799
913.975000	4199.308880
914.280775	4549.308630
914.586510	5025.692627
914.892205	5690.451941
915.197859	6588.178097
915.503475	7666.813621
915.809050	8682.714506
916.114585	9369.327222
916.420081	9717.055932
916.725536	9763.157283
917.030952	9407.138396
917.336328	9062.157115
917.641665	8705.593783
917.946961	8269.682689
918.252218	7888.664720
918.557435	7418.680467
918.862612	7031.724018
919.167750	6687.176277
919.472848	6299.385517
919.777906	5950.257887
920.082925	5611.532677
920.387904	5269.815543
920.692843	5011.983209
920.997743	4775.091828
921.302603	4552.819794
921.607423	4393.431112
921.912204	4239.686002
922.216946	4127.081748
922.521647	4014.139738
922.826310	3916.023760
923.130932	3832.375895
923.435516	3737.715628
923.740059	3674.010567
924.044564	3600.702108
924.349028	3544.142882
924.653454	3486.235148
924.957840	3420.904315
925.262186	3375.342366
925.566493	3318.130311
925.870761	3266.415635
926.174989	3230.847774
926.479178	3201.593958
926.783328	3160.276661
927.087438	3133.384626
927.391509	3105.103753
927.695541	3074.723239
927.999533	3051.609549
928.303486	3030.860159
928.607400	3016.107223
928.911275	3003.199348
929.215110	2988.078407
929.518906	2977.986017
929.822663	2976.876963
930.126381	2972.443269
930.430060	2978.926193
930.733699	2980.514156
931.037299	2990.898933
931.340861	2989.013541
931.644383	2997.792711
931.947866	2998.385046
932.251309	2995.052844
932.554714	2991.554283
932.858080	2986.702172
933.161407	2978.348980
933.464694	2972.841520
933.767943	2966.106538
934.071153	2963.858184
934.374323	2956.233438
934.677455	2949.495936
934.980548	2940.134514
935.283602	2938.148299
935.586617	2931.078081
935.889593	2939.988320
936.192530	2945.440328
936.495428	2951.330916
936.798287	2968.808597
937.101108	2995.314984
937.403890	3036.889379
937.706632	3091.331320
938.009336	3161.257165
938.312002	3233.786766
938.614628	3291.097124
938.917216	3341.417922
939.219765	3374.984444
939.522275	3405.090215
939.824747	3412.561205
940.127179	3414.267636
940.429573	3407.081471
940.731929	3408.971904
941.034246	3397.563772
941.336524	3387.675549
941.638763	3371.357334
941.940964	3362.250490
942.243126	3327.017866
942.545250	3304.667910
942.847335	3268.994185
943.149381	3241.247674
943.451389	3211.013354
943.753359	3173.781912
944.055290	3155.716937
944.357182	3126.974799
944.659036	3115.763272
944.960851	3103.924123
945.262628	3089.929880
945.564367	3090.257555
945.866067	3085.387800
946.167729	3082.350505
946.469352	3081.145669
946.770937	3075.640729
947.072484	3062.289233
947.373992	3066.629667
947.675462	3061.147412
947.976893	3044.577139
948.278286	3037.388454
948.579641	3029.859490
948.880958	3023.989067
949.182236	3027.142308
949.483476	3019.762059
949.784678	3021.249200
950.085841	3021.551669
950.386967	3026.809592
950.688054	3041.890204
950.989103	3057.900909
951.290114	3075.613003
951.591087	3101.690892
951.892021	3128.149388
952.192917	3153.541679
952.493776	3177.777027
952.794596	3185.744570
953.095378	3197.445088
953.396122	3191.304963
953.696828	3189.273378
953.997496	3177.315761
954.298126	3158.449243
954.598718	3141.921820
954.899272	3121.127060
955.199788	3093.259562
955.500266	3066.463308
955.800706	3032.115407
956.101108	3000.600633
956.401472	2971.636684
956.701798	2945.117694
957.002087	2904.042373
957.302337	2877.840976
957.602550	2853.961030
957.902724	2828.515806
958.202861	2799.955149
958.502960	2781.098713
958.803022	2764.757812
959.103045	2743.763927
959.403031	2730.046948
959.702979	2714.842828
960.002889	2702.645756
960.302762	2692.490352
960.602596	2680.578105
960.902393	2672.187104
961.202153	2668.575118
961.501875	2659.536329
961.801559	2650.908394
962.101205	2646.820018
962.400814	2640.798360
962.700385	2634.312916
962.999918	2628.989457
963.299414	2624.039044
963.598873	2623.088787
963.898293	2614.352467
964.197677	2617.798096
964.497022	2613.848352
964.796331	2612.724174
965.095601	2608.139245
965.394835	2608.421549
965.694030	2603.163626
965.993189	2603.871908
966.292309	2605.427104
966.591393	2603.511466
966.890439	2600.837133
967.189447	2600.771598
967.488419	2603.589603
967.787353	2604.491970
968.086249	2605.233020
968.385108	2606.019440
968.683930	2605.895931
968.982714	2611.675614
969.281462	2612.880450
969.580172	2619.675925
969.878844	2624.462501
970.177480	2632.049437
970.476078	2639.157464
970.774639	2646.187353
971.073162	2653.108858
971.371649	2658.215547
971.670098	2663.937256
971.968510	2666.283913
972.266885	2671.486384
972.565223	2676.073834
972.863524	2678.491067
973.161788	2684.711851
973.460014	2687.066070
973.758204	2687.592871
974.056356	2689.523632
974.354471	2690.791483
974.652550	2690.867100
974.950591	2691.154446
975.248595	2691.081349
975.546563	2687.318128
975.844493	2683.996007
976.142386	2680.867971
976.440243	2674.954698
976.738062	2672.131652
977.035845	2667.332473
977.333590	2661.661175
977.631299	2655.475679
977.928971	2647.268681
978.226606	2642.441776
978.524204	2641.284831
978.821765	2637.141003
979.119290	2636.858698
979.416777	2636.561270
979.714228	2638.441621
980.011642	2643.281128
980.309020	2649.532159
980.606360	2661.066319
980.903664	2677.719771
981.200931	2706.522403
981.498162	2745.077148
981.795356	2806.528813
982.092513	2884.603683
982.389633	2974.971407
982.686717	3065.132444
982.983764	3137.621716
983.280775	3190.987370
983.577749	3207.333312
983.874686	3204.182590
984.171587	3172.725790
984.468451	3142.539361
984.765279	3108.872015
985.062070	3063.504151
985.358824	3026.416382
985.655543	2974.847899
985.952224	2929.006167
986.248869	2872.560367
986.545478	2817.289156
986.842050	2765.783687
987.138586	2721.436657
987.435086	2687.638241
987.731549	2656.622542
988.027975	2632.016670
988.324366	2617.460338
988.620719	2600.007864
988.917037	2588.524115
989.213318	2582.172261
989.509563	2575.689337
989.805772	2570.310426
990.101944	2563.492266
990.398080	2564.497976
990.694180	2560.671740
990.990244	2560.936401
991.286271	2560.323901
991.582262	2562.171483
991.878217	2567.237843
992.174136	2566.728687
992.470019	2571.341342
992.765865	2573.272104
993.061676	2575.427197
993.357450	2586.303487
993.653188	2587.921697
993.948890	2604.106322
994.244556	2624.187758
994.540186	2642.406488
994.835780	2666.024294
995.131337	2699.273224
995.426859	2733.895869
995.722345	2778.023609
996.017795	2824.296360
996.313208	2861.827750
996.608586	2885.337171
996.903928	2903.024060
997.199234	2907.737538
997.494504	2908.004720
997.789738	2894.640621
998.084936	2872.900645
998.380099	2847.026923
998.675225	2822.720999
998.970316	2794.901392
999.265371	2762.043151
999.560390	2728.970661
999.855373	2704.029553
1000.150320	2674.775737
1000.445232	2650.467293
1000.740108	2631.376443
1001.034948	2615.234669
1001.329752	2601.948708
1001.624521	2588.952613
1001.919254	2573.577094
1002.213951	2573.176322
1002.508613	2562.471432
1002.803239	2559.965979
1003.097829	2550.599515
1003.392384	2546.301931
1003.686903	2540.212217
1003.981386	2541.051569
1004.275834	2535.947401
1004.570246	2535.042514
1004.864623	2530.739889
1005.158964	2529.749302
1005.453270	2529.265352
1005.747540	2526.742254
1006.041775	2525.834847
1006.335974	2523.778056
1006.630138	2523.031965
1006.924266	2520.060205
1007.218359	2521.943076
1007.512416	2518.873013
1007.806438	2516.642303
1008.100425	2517.474093
1008.394376	2513.158865
1008.688292	2518.169772
1008.982172	2517.668177
1009.276017	2519.336799
1009.569827	2517.559793
1009.863602	2515.311438
1010.157341	2515.220697
1010.451045	2515.636592
1010.744714	2514.784637
1011.038347	2516.259175
1011.331945	2512.715244
1011.625508	2515.089627
1011.919036	2511.023937
1012.212528	2512.087620
1012.505986	2508.803308
1012.799408	2511.696931
1013.092795	2507.626199
1013.386147	2508.364728
1013.679464	2507.212824
1013.972745	2508.669718
1014.265992	2508.573936
1014.559204	2508.324399
1014.852380	2507.976559
1015.145521	2509.073010
1015.438628	2509.070489
1015.731699	2510.749194
1016.024736	2512.616941
1016.317737	2509.105778
1016.610703	2513.350429
1016.903635	2514.656088
1017.196531	2516.491068
1017.489393	2512.001920
1017.782219	2517.055677
1018.075011	2519.974505
1018.367768	2519.742612
1018.660490	2518.200019
1018.953177	2518.200019
1019.245829	2518.200019
