Dividing Wavelength (nm)	Counts (n)	Blue Motor Position (mm): 25.000000	Red Motor Position (mm): 0.000000	
326.493990	2069.307954
326.888308	2069.307954
327.282561	2069.307954
327.676750	2041.130425
328.070874	2045.813657
328.464933	2049.377752
328.858929	2058.489638
329.252859	2068.067830
329.646726	2083.150963
330.040528	2098.155957
330.434265	2115.590788
330.827938	2138.417132
331.221547	2156.078815
331.615091	2176.840807
332.008571	2198.485001
332.401986	2217.107023
332.795338	2238.284911
333.188625	2258.583117
333.581847	2276.380910
333.975006	2295.582665
334.368100	2311.563123
334.761129	2328.738334
335.154095	2341.815087
335.546996	2392.519013
335.939833	2492.815289
336.332606	2501.942298
336.725315	2515.823115
337.117960	2523.273940
337.510540	2537.084181
337.903056	2542.170706
338.295508	2548.446942
338.687896	2556.865669
339.080220	2561.959755
339.472480	2569.340004
339.864676	2573.327557
340.256807	2574.487022
340.648875	2577.932651
341.040879	2577.557085
341.432818	2579.167734
341.824694	2581.244689
342.216506	2577.773855
342.608253	2576.316961
342.999937	2576.395099
343.391557	2578.116653
343.783113	2575.026426
344.174605	2573.766137
344.566033	2572.946950
344.957397	2569.133317
345.348697	2570.028122
345.739934	2565.886814
346.131106	2566.058213
346.522215	2561.755588
346.913260	2562.042934
347.304241	2560.875907
347.695159	2560.792728
348.086012	2556.785011
348.476802	2554.637479
348.867528	2555.809547
349.258191	2547.267312
349.648789	2550.511295
350.039324	2544.928217
350.429796	2553.929197
350.820203	2550.521377
351.210548	2549.621531
351.600828	2544.154400
351.991045	2546.705223
352.381198	2547.330327
352.771288	2545.175233
353.161314	2546.364946
353.551276	2543.005017
353.941175	2543.052908
354.331010	2546.884184
354.720782	2548.797302
355.110490	2550.062632
355.500135	2546.001982
355.889717	2547.254709
356.279235	2549.326623
356.668689	2545.984338
357.058080	2547.146324
357.447408	2547.564740
357.836672	2551.847200
358.225873	2548.457024
358.615010	2551.637992
359.004084	2551.259906
359.393095	2549.240924
359.782043	2552.784855
360.170927	2551.897612
360.559748	2550.642365
360.948505	2554.506409
361.337199	2554.264434
361.725830	2553.256203
362.114398	2551.373332
362.502903	2551.963147
362.891344	2552.941131
363.279722	2551.227138
363.668037	2554.854249
364.056289	2555.355843
364.444478	2557.286605
364.832603	2557.110165
365.220665	2557.218550
365.608665	2557.904147
365.996601	2559.224929
366.384474	2556.298539
366.772284	2560.644014
367.160031	2556.298539
367.547715	2558.221739
367.935336	2558.322563
368.322893	2556.905998
368.710388	2555.716286
369.097820	2557.357182
369.485189	2557.475649
369.872495	2561.921946
370.259738	2555.807027
370.646918	2562.904971
371.034035	2561.579148
371.421090	2558.458674
371.808081	2559.958417
372.195010	2564.775239
372.581875	2561.490928
372.968678	2564.006463
373.355418	2561.543860
373.742096	2565.032338
374.128710	2563.777091
374.515262	2565.213820
374.901751	2565.838923
375.288177	2567.991496
375.674540	2561.957234
376.060841	2566.348079
376.447079	2564.936556
376.833254	2568.067113
377.219367	2565.755744
377.605417	2564.210630
377.991404	2567.016032
378.377329	2569.551733
378.763191	2568.016701
379.148991	2566.123748
379.534727	2569.642473
379.920402	2567.439489
380.306013	2568.213306
380.691563	2569.072823
381.077049	2568.455282
381.462474	2567.489901
381.847835	2567.878070
382.233134	2568.535940
382.618371	2567.724314
383.003545	2568.876218
383.388657	2565.312122
383.773706	2569.844120
384.158693	2570.806980
384.543618	2571.094326
384.928480	2572.828483
385.313280	2571.084243
385.698017	2569.261866
386.082692	2572.324367
386.467305	2572.321847
386.851856	2570.151630
387.236344	2570.489387
387.620770	2570.938050
388.005133	2568.483008
388.389435	2569.957546
388.773674	2569.750858
389.157851	2573.141034
389.541965	2573.496436
389.926018	2574.902917
390.310008	2571.905952
390.693936	2574.940726
391.077802	2576.022054
391.461606	2576.201015
391.845348	2573.224213
392.229027	2574.948288
392.612645	2574.789492
392.996200	2577.783937
393.379694	2577.854513
393.763125	2580.259143
394.146494	2579.888619
394.529801	2579.618917
394.913047	2577.962898
395.296230	2578.149421
395.679351	2577.355439
396.062410	2579.515573
396.445408	2579.185378
396.828343	2580.458269
397.211217	2579.984401
397.594028	2581.116140
397.976778	2578.943402
398.359466	2577.718402
398.742092	2581.499267
399.124656	2579.964236
399.507158	2578.822415
399.889598	2581.317786
400.271977	2583.936665
400.654294	2579.815522
401.036549	2582.653692
401.418742	2580.261664
401.800874	2583.341809
402.182944	2581.877354
402.564952	2585.393559
402.946898	2584.468507
403.328783	2582.343661
403.710606	2584.135791
404.092367	2585.522108
404.474067	2583.596387
404.855705	2585.922880
405.237282	2585.232242
405.618797	2583.157807
406.000250	2586.721903
406.381642	2587.203333
406.762972	2583.750142
407.144240	2582.018506
407.525447	2584.990266
407.906593	2581.897518
408.287677	2586.691656
408.668700	2586.530339
409.049661	2587.488158
409.430560	2589.524784
409.811399	2590.311204
410.192176	2587.808271
410.572891	2589.328179
410.953545	2587.820874
411.334138	2589.728951
411.714669	2588.811461
412.095139	2590.142326
412.475547	2589.736513
412.855894	2590.238107
413.236180	2590.202819
413.616405	2593.993767
413.996568	2589.050916
414.376670	2591.543766
414.756711	2592.010073
415.136691	2594.492841
415.516609	2592.776328
415.896466	2592.241966
416.276262	2593.343458
416.655997	2592.347830
417.035670	2591.538725
417.415283	2597.283120
417.794834	2594.233222
418.174324	2592.554518
418.553753	2593.776997
418.933121	2594.520568
419.312428	2594.878490
419.691674	2594.641555
420.070859	2593.897985
420.449983	2594.170207
420.829045	2595.677512
421.208047	2595.080136
421.586988	2591.339600
421.965867	2596.474015
422.344686	2596.595003
422.723444	2598.054417
423.102141	2598.162801
423.480777	2597.961155
423.859352	2595.269179
424.237866	2598.044334
424.616319	2599.007195
424.994712	2600.126331
425.373044	2598.177925
425.751314	2594.160125
426.129524	2594.722214
426.507673	2593.963520
426.885762	2592.899837
427.263789	2596.874787
427.641756	2597.444437
428.019662	2599.523913
428.397508	2599.977617
428.775292	2600.048193
429.153016	2601.868049
429.530679	2599.392843
429.908282	2602.503235
430.285824	2601.426948
430.663305	2601.217741
431.040726	2601.482401
431.418086	2603.887032
431.795385	2603.771085
432.172624	2604.383585
432.549802	2600.683378
432.926920	2602.755292
433.303977	2605.694285
433.680974	2602.926692
434.057910	2607.262084
434.434786	2606.568925
434.811601	2605.233020
435.188355	2609.507918
435.565050	2605.011209
435.941683	2607.136055
436.318257	2611.030347
436.694770	2608.592949
437.071222	2611.047991
437.447614	2610.546396
437.823946	2613.026643
438.200218	2614.579319
438.576429	2610.216200
438.952580	2611.771396
439.328670	2612.429267
439.704700	2615.325410
440.080670	2612.877929
440.456580	2612.943464
440.832429	2616.381531
441.208218	2614.985132
441.583947	2616.429422
441.959616	2615.612755
442.335224	2616.953702
442.710773	2618.024947
443.086261	2617.057046
443.461689	2619.083590
443.837057	2622.055350
444.212365	2623.318159
444.587612	2622.201543
444.962800	2619.557458
445.337927	2621.389918
445.712995	2618.738271
446.088002	2628.061885
446.462949	2627.245218
446.837837	2627.073819
447.212664	2628.664303
447.587431	2632.281331
447.962139	2639.333905
448.336786	2641.637712
448.711374	2642.058648
449.085901	2637.569501
449.460369	2640.873977
449.834776	2642.338432
450.209124	2648.120636
450.583412	2650.736995
450.957640	2651.291522
451.331808	2654.013745
451.705917	2651.185657
452.079965	2656.393169
452.453954	2658.845691
452.827883	2665.507576
453.201752	2665.749551
453.575562	2670.856240
453.949311	2681.243537
454.323001	2683.633044
454.696632	2687.895340
455.070202	2699.021166
455.443713	2705.962835
455.817164	2714.641182
456.190556	2725.504868
456.563888	2735.110787
456.937160	2743.705954
457.310373	2748.805081
457.683526	2756.449991
458.056619	2769.320057
458.429653	2780.352622
458.802628	2794.278809
459.175542	2811.703558
459.548398	2839.016529
459.921194	2869.167670
460.293930	2895.295971
460.666607	2940.159719
461.039224	2985.179744
461.411782	3020.256092
461.784280	3030.925694
462.156719	3052.748849
462.529099	3073.775502
462.901419	3077.085020
463.273680	3088.243614
463.645882	3125.054119
464.018024	3150.794251
464.390106	3201.709904
464.762130	3295.553504
465.134094	3430.653906
465.505999	3616.614510
465.877845	3798.101090
466.249631	3922.799071
466.621358	3942.338583
466.993026	3938.638377
467.364634	3944.992751
467.736184	3949.517187
468.107674	3960.519505
468.479105	4012.350128
468.850477	4048.346487
469.221790	4075.273810
469.593043	4073.504365
469.964238	4099.738530
470.335373	4161.656502
470.706449	4298.085249
471.077467	4470.588492
471.448425	4819.418694
471.819324	5105.615080
472.190164	5170.078835
472.560945	5045.837078
472.931667	4928.627731
473.302330	4967.996622
473.672934	4978.283096
474.043479	5116.408191
474.413965	5170.078835
474.784393	5227.152258
475.154761	5410.625053
475.525070	5516.753944
475.895321	5579.811217
476.265513	5760.781078
476.635645	5960.889680
477.005719	6070.877575
477.375734	6239.413430
477.745691	6464.206042
478.115588	6697.200611
478.485427	7052.319652
478.855207	7566.562715
479.224928	8104.700847
479.594591	8549.663333
479.964194	8610.394113
480.333739	8847.547634
480.703226	9057.980519
481.072653	9339.032407
481.442022	9637.816555
481.811333	9911.894007
482.180584	9968.208737
482.549777	10082.718546
482.918912	10197.641731
483.287988	10362.152225
483.657005	10488.261729
484.025964	10561.660929
484.394864	10794.237083
484.763706	10957.119284
485.132489	10979.958231
485.501213	11173.294043
485.869879	11408.693242
486.238487	11584.894172
486.607036	11853.380985
486.975527	11947.310284
487.343959	12252.242118
487.712333	12581.147160
488.080648	12776.466666
488.448905	13146.888130
488.817104	13312.898367
489.185244	13847.101878
489.553326	14466.526096
489.921350	15485.383617
490.289315	16797.376673
490.657222	17455.232127
491.025070	17979.386098
491.392861	18110.337631
491.760593	18017.464453
492.128267	17790.778888
492.495883	17562.858241
492.863440	17386.591776
493.230939	17161.027867
493.598380	17114.361906
493.965763	17274.640352
494.333088	17260.651150
494.700354	17386.490953
495.067563	17596.555833
495.434713	17761.038601
495.801805	18159.657759
496.168839	18297.414850
496.535815	18436.041539
496.902733	18730.283607
497.269593	18868.922900
497.636395	19176.831535
498.003139	19553.289781
498.369825	19637.330857
498.736453	20100.146589
499.103023	20225.716690
499.469535	20499.053092
499.835989	20793.174172
500.202385	20936.534506
500.568723	21177.055517
500.935003	21599.461360
501.301226	21717.618444
501.667390	22411.538312
502.033497	22769.780349
502.399546	22842.778777
502.765537	22785.140744
503.131470	23326.273322
503.497345	23841.927907
503.863163	23298.247027
504.228923	24045.721593
504.594625	24537.208887
504.960269	24346.522202
505.325856	25044.827874
505.691385	25000.299362
506.056856	25424.799804
506.422270	25997.542936
506.787625	25805.875746
507.152924	26337.898959
507.518164	26666.219226
507.883347	26531.945573
508.248472	26806.985886
508.613540	27532.647379
508.978550	27882.511018
509.343503	27946.037118
509.708398	28396.648216
510.073236	29069.485979
510.438016	29308.386260
510.802738	29195.764362
511.167403	29822.089919
511.532010	30184.697594
511.896561	30762.307961
512.261053	31552.108055
512.625488	31525.369775
512.989866	31609.105861
513.354186	31789.107820
513.718449	31895.360220
514.082655	32799.415545
514.446803	32647.971722
514.810894	33346.622713
515.174927	33470.438492
515.538904	33606.431179
515.902822	34303.043023
516.266684	34137.431037
516.630488	34558.914348
516.994235	34692.252868
517.357925	35318.336449
517.721558	35655.251884
518.085133	36100.171520
518.448651	36374.720320
518.812112	36373.500361
519.175516	36601.539475
519.538863	37108.737526
519.902152	37260.428365
520.265385	37863.622588
520.628560	37944.006306
520.991678	37995.660489
521.354739	38276.709857
521.717743	38700.454126
522.080690	38687.803351
522.443580	39401.313142
522.806413	39476.988423
523.169189	39687.774189
523.531908	39962.769132
523.894569	39895.376466
524.257174	40133.853290
524.619722	40526.039936
524.982213	40729.258930
525.344647	40823.546151
525.707025	40996.319096
526.069345	41446.647890
526.431608	41426.674838
526.793815	41833.304390
527.155964	41446.889865
527.518057	41735.657240
527.880093	41633.652012
528.242072	42294.287662
528.603995	42072.199629
528.965860	42055.281517
529.327669	42300.911738
529.689421	42356.528268
530.051117	42361.932385
530.412755	42668.076617
530.774337	42754.958383
531.135862	42720.378588
531.497331	42905.247782
531.858743	42917.704473
532.220098	43337.698123
532.581396	43101.414201
532.942638	42888.790935
533.303824	43177.510419
533.664953	43249.172941
534.026025	42951.787714
534.387040	43522.065722
534.747999	43605.080923
535.108902	43941.716574
535.469748	43327.058768
535.830537	43589.534005
536.191270	43835.106253
536.551947	43611.183240
536.912567	43887.995518
537.273131	44034.478846
537.633638	43673.544834
537.994089	43859.190365
538.354483	43638.574349
538.714821	44288.379080
539.075103	44578.580663
539.435328	44460.587416
539.795497	44235.930916
540.155609	44382.172268
540.515665	44963.160208
540.875665	44258.273309
541.235609	44553.596705
541.595496	44689.710379
541.955328	45276.430111
542.315102	44721.202467
542.674821	44634.197193
543.034483	44539.302513
543.394090	44565.408128
543.753640	44578.898256
544.113134	45630.195602
544.472571	44731.786370
544.831953	45854.910076
545.191278	45157.385783
545.550548	44848.421026
545.909761	45466.348020
546.268918	45620.952647
546.628019	46013.661052
546.987064	45476.427807
547.346053	44803.524509
547.704986	45687.009406
548.063863	45341.276993
548.422684	45547.379527
548.781449	45142.272404
549.140158	45659.978739
549.498811	45434.586230
549.857408	44850.838259
550.215949	45676.859043
550.574434	45523.030754
550.932864	45478.169526
551.291237	46188.384924
551.649555	45939.871163
552.007817	46108.326359
552.366022	45834.074987
552.724173	45880.897224
553.082267	46281.583255
553.440305	46660.312541
553.798288	45927.114523
554.156215	46298.534135
554.514086	46499.227511
554.871902	46116.583769
555.229661	46285.041487
555.587365	45976.986658
555.945014	46112.691999
556.302606	46128.213711
556.660143	46199.669547
557.017625	46457.116232
557.375050	46133.380894
557.732421	46539.413069
558.089735	46609.931249
558.446994	46484.562794
558.804197	46954.335318
559.161345	46829.702872
559.518437	46201.471759
559.875474	46431.277798
560.232455	46648.284348
560.589381	46685.936726
560.946251	46518.101591
561.303065	47157.556833
561.659825	46851.793208
562.016528	46671.483738
562.373177	46265.890143
562.729770	46895.830208
563.086307	46414.510921
563.442789	46952.281048
563.799216	46793.678787
564.155587	46709.816672
564.511904	46673.835436
564.868164	46743.133657
565.224370	47046.865697
565.580520	46762.670649
565.936615	46962.086093
566.292654	46621.563712
566.648638	46999.090682
567.004567	46938.306970
567.360441	47002.236362
567.716260	46734.735095
568.072023	47131.110940
568.427732	47056.731235
568.783385	46602.165352
569.138982	47019.189763
569.494525	47156.069692
569.850013	46763.537728
570.205445	46885.319402
570.560823	46651.288876
570.916145	46512.155550
571.271412	46734.210815
571.626625	46393.766572
571.981782	46477.411918
572.336884	46101.798065
572.691931	46438.955476
573.046923	46097.316479
573.401860	45929.125943
573.756743	45957.003524
574.111570	46099.083404
574.466342	46007.636873
574.821059	46169.447829
575.175722	45679.331729
575.530330	45761.878103
575.884882	45408.586479
576.239380	45304.632846
576.593823	45423.445280
576.948211	45353.877357
577.302544	44901.096042
577.656823	44896.269137
578.011047	45163.084807
578.365216	45020.836049
578.719330	44736.953552
579.073389	44720.862189
579.427394	44764.473211
579.781344	44672.492318
580.135239	44436.505824
580.489080	44500.024363
580.842866	44003.347201
581.196597	44465.994054
581.550273	44487.993649
581.903895	44408.787040
582.257463	44856.000400
582.610975	44283.789110
582.964434	44627.852901
583.317837	44125.675840
583.671186	44087.617649
584.024481	44365.178538
584.377721	43932.980255
584.730906	44138.132531
585.084037	44293.657168
585.437113	44015.965209
585.790135	44134.873425
586.143103	43707.502046
586.496016	43879.417995
586.848874	43998.069112
587.201679	44020.630797
587.554428	43510.758414
587.907124	43769.006643
588.259765	43569.870984
588.612352	43720.069642
588.964884	43183.287581
589.317362	43471.036642
589.669786	43458.073315
590.022155	43365.913461
590.374470	43823.680478
590.726731	43414.046398
591.078937	42767.604117
591.431090	43112.139256
591.783188	42636.950012
592.135232	42439.309055
592.487222	42705.159344
592.839157	42839.299407
593.191038	42512.617514
593.542866	42307.321565
593.894639	41684.640763
594.246358	41992.037721
594.598022	42001.545338
594.949633	41588.689961
595.301190	41594.399068
595.652692	41528.382637
596.004141	42025.367310
596.355535	40942.681219
596.706876	40944.102824
597.058162	40652.734214
597.409395	41155.165854
597.760573	41385.947356
598.111698	41009.322752
598.462768	40922.844279
598.813785	40943.379419
599.164748	40554.517414
599.515657	40818.295789
599.866511	40325.066776
600.217312	41010.278051
600.568060	39978.237912
600.918753	40774.652000
601.269392	40703.294467
601.619978	40451.062855
601.970510	40644.696095
602.320988	40791.983487
602.671412	41034.561289
603.021783	40923.015678
603.372100	40487.538123
603.722363	40601.536256
604.072572	40628.632458
604.422728	40627.798147
604.772830	40406.912429
605.122878	40584.202248
605.472872	40426.421695
605.822813	40688.390296
606.172701	40427.694586
606.522534	40763.989959
606.872314	40949.043155
607.222041	40797.564044
607.571714	41129.917235
607.921333	40635.233849
608.270899	40824.796357
608.620411	41205.670653
608.969870	40969.142236
609.319276	40985.558753
609.668627	41020.378003
610.017926	41412.625142
610.367171	41552.633108
610.716362	41591.235744
611.065500	41484.138951
611.414585	41734.356622
611.763616	41886.322205
612.112594	41795.949440
612.461518	41919.215733
612.810389	42307.770228
613.159207	42089.069851
613.507971	42060.746128
613.856682	42568.314703
614.205340	42402.039805
614.553945	43077.476282
614.902496	42429.546861
615.250994	42854.208620
615.599439	42922.599433
615.947830	43011.825336
616.296169	43033.991289
616.644454	43095.450516
616.992686	43233.444541
617.340864	43670.346222
617.688990	43171.697968
618.037063	43852.341958
618.385082	43678.389382
618.733048	44022.869069
619.080961	43896.729317
619.428821	43943.785968
619.776628	43989.683153
620.124382	43800.992765
620.472083	43927.109831
620.819731	44018.516032
621.167326	43618.467707
621.514868	43597.584728
621.862357	43056.696646
622.209793	43164.915096
622.557176	42737.082451
622.904506	42503.407326
623.251783	42149.770384
623.599007	41841.808816
623.946179	41764.588422
624.293297	41512.439988
624.640363	40977.694553
624.987376	40819.523310
625.334336	40640.068315
625.681243	40226.033309
626.028097	40117.131783
626.374899	39957.770827
626.721647	39928.277557
627.068343	39698.103513
627.414987	39402.404552
627.761577	39170.012401
628.108115	39468.524326
628.454600	38723.943382
628.801032	38968.593099
629.147412	38866.403870
629.493739	38746.467258
629.840014	38311.342584
630.186236	38733.274558
630.532405	38177.744446
630.878521	38430.230636
631.224585	38195.859832
631.570597	37874.574494
631.916556	38038.507776
632.262462	37957.272103
632.608316	37898.698936
632.954117	37744.303517
633.299866	37701.796508
633.645562	37633.093143
633.991206	37112.594008
634.336797	36710.256999
634.682336	36613.544983
635.027823	36375.804168
635.373257	36279.646679
635.718639	35935.708917
636.063968	35837.101427
636.409245	35204.499633
636.754470	35149.001571
637.099642	34923.304072
637.444762	34360.156776
637.789829	34486.788040
638.134845	34085.776854
638.479808	34006.784494
638.824719	33967.408041
639.169577	33471.824810
639.514383	33576.675768
639.859137	33191.824002
640.203839	33343.691282
640.548489	33062.899013
640.893086	33051.276632
641.237632	32771.923613
641.582125	32856.660368
641.926566	32643.517862
642.270955	32675.992975
642.615292	32620.504995
642.959576	32488.376353
643.303809	32495.592764
643.647990	32596.292333
643.992118	32552.404048
644.336195	32395.583834
644.680219	32458.933494
645.024192	32651.190498
645.368112	33174.651311
645.711981	33188.280070
646.055797	33884.939806
646.399562	33670.854605
646.743274	34536.597160
647.086935	34953.351869
647.430544	34927.768014
647.774101	34943.446002
648.117606	35260.368221
648.461059	35419.792191
648.804460	35026.804002
649.147810	34541.603026
649.491108	34214.099425
649.834354	34123.184736
650.177548	33303.225940
650.520690	32794.127375
650.863781	32785.595222
651.206820	32599.710235
651.549807	32173.687365
651.892742	31589.894023
652.235626	31505.353873
652.578458	31363.079909
652.921238	30666.405050
653.263967	30945.185899
653.606644	30636.747942
653.949269	30554.062937
654.291843	30172.823157
654.634365	30508.982418
654.976836	30061.537165
655.319255	30151.950259
655.661622	30025.056855
656.003938	29895.985673
656.346203	29706.982732
656.688416	29958.208634
657.030577	29738.310983
657.372687	29564.983511
657.714746	29701.916373
658.056753	29879.080163
658.398708	29265.118036
658.740612	29342.814820
659.082465	29529.924807
659.424266	29434.183213
659.766016	29429.220197
660.107715	29275.260838
660.449362	29378.750685
660.790958	29354.608599
661.132503	29275.364181
661.473996	29371.970333
661.815438	29428.847151
662.156829	29546.910974
662.498168	29363.964981
662.839456	29329.833849
663.180693	29454.534351
663.521879	29506.518729
663.863013	29457.221286
664.204097	29440.492217
664.545129	29849.602016
664.886110	29790.391143
665.227040	29885.356400
665.567918	29874.346520
665.908746	29950.535998
666.249522	30029.261177
666.590248	30074.923949
666.930922	30163.179429
667.271545	30175.333651
667.612118	30224.626053
667.952639	30046.491841
668.293109	30075.092827
668.633528	29940.675501
668.973896	29896.633461
669.314213	29876.471366
669.654480	29679.591623
669.994695	29669.988225
670.334859	29582.942622
670.674973	29397.975125
671.015035	29591.285731
671.355047	29509.132567
671.695008	29432.910321
672.034918	29338.988584
672.374777	29438.105230
672.714585	29310.289295
673.054342	29454.425966
673.394049	29296.476534
673.733705	29513.525933
674.073310	29234.608973
674.412864	29295.009558
674.752368	29022.220120
675.091820	29252.379040
675.431223	28849.963893
675.770574	28664.643516
676.109875	28500.770728
676.449125	28294.257340
676.788324	28200.073463
677.127473	27714.950626
677.466571	27616.232230
677.805619	27336.768305
678.144616	27257.284433
678.483562	27209.809366
678.822458	26893.212302
679.161303	26832.660482
679.500098	26761.623063
679.838842	26680.057194
680.177535	26730.889668
680.516179	26939.321215
680.854771	27006.280341
681.193314	27700.396814
681.531805	28646.686926
681.870247	29389.866429
682.208638	30190.739417
682.546978	30559.635932
682.885268	30726.001571
683.223508	30317.713480
683.561697	30067.894060
683.899836	29892.519879
684.237925	29489.865278
684.575963	29314.642332
684.913951	28934.488920
685.251889	29060.081706
685.589776	29070.897502
685.927614	29063.552541
686.265401	29247.877290
686.603137	29336.452884
686.940824	29796.916917
687.278460	30137.333433
687.616046	30315.356740
687.953582	30993.954021
688.291068	30901.894990
688.628504	31279.787444
688.965889	31296.357717
689.303224	31062.538919
689.640510	30797.076799
689.977745	30190.414263
690.314930	29474.701487
690.652065	29054.546519
690.989150	28387.969870
691.326185	27559.587305
691.663170	26951.031816
692.000105	26228.636990
692.336990	25630.420907
692.673825	25210.941455
693.010610	24701.860533
693.347345	24204.570871
693.684030	23588.322581
694.020665	23394.903590
694.357251	22720.820662
694.693786	22733.204257
695.030272	22492.264829
695.366707	22004.823061
695.703093	21714.099719
696.039429	21777.116662
696.375716	21552.288763
696.711952	21529.157428
697.048139	21399.012480
697.384276	21233.057695
697.720363	21347.320488
698.056400	21246.532700
698.392388	21084.283163
698.728326	21070.117521
699.064214	20933.948394
699.400053	20937.736821
699.735842	20557.268337
700.071581	20370.591890
700.407270	20130.549788
700.742910	19957.766760
701.078501	19713.918587
701.414042	19511.919552
701.749533	19205.084682
702.084974	18902.479340
702.420366	19137.757552
702.755709	18721.869921
703.091002	18431.446528
703.426246	18479.660123
703.761440	18421.167615
704.096584	18186.050720
704.431679	18114.047920
704.766725	18057.347542
705.101721	17981.248804
705.436668	18093.270804
705.771565	17815.099935
706.106413	18120.583776
706.441212	18180.651644
706.775961	18273.915511
707.110661	18342.376901
707.445311	18698.846972
707.779913	18594.762268
708.114465	18871.229228
708.448967	19177.282719
708.783421	19779.935017
709.117825	20119.025710
709.452180	20335.626447
709.786485	20769.223651
710.120742	21498.398828
710.454949	21602.410435
710.789107	22104.869800
711.123216	22809.297954
711.457275	23018.309233
711.791286	23589.623199
712.125247	23752.419700
712.459159	23533.250496
712.793023	24299.382372
713.126837	23314.403925
713.460602	23590.248302
713.794318	23264.791409
714.127985	23005.139219
714.461602	22129.488275
714.795171	22103.080191
715.128691	21137.600927
715.462162	20627.650407
715.795584	20200.034532
716.128957	19929.291802
716.462281	19558.492252
716.795556	19287.265572
717.128782	18815.952976
717.461960	18220.849805
717.795088	18180.046706
718.128167	17857.846399
718.461198	17387.375675
718.794180	17277.400383
719.127113	16956.266281
719.459997	16762.761590
719.792833	16390.260650
720.125619	16432.235818
720.458357	16092.310814
720.791046	15942.273473
721.123686	15801.285002
721.456278	15585.367342
721.788821	15579.645632
722.121315	15318.017309
722.453761	15412.110446
722.786158	15296.799093
723.118506	15377.722215
723.450805	15261.886582
723.783056	15441.417194
724.115259	15325.049719
724.447412	15297.653568
724.779518	15509.838254
725.111574	15561.260544
725.443582	15812.662887
725.775542	15760.229845
726.107453	16258.600835
726.439315	16162.861762
726.771129	16563.073925
727.102895	16960.722661
727.434612	17239.745485
727.766281	17421.010254
728.097901	17737.350219
728.429473	17833.500147
728.760996	17866.907873
729.092471	17985.720308
729.423897	17864.011730
729.755276	17712.948514
730.086606	17794.272408
730.417887	18342.029061
730.749120	18877.082007
731.080305	19095.595862
731.411442	19507.241361
731.742530	19624.521285
732.073570	19766.361710
732.404562	20085.370967
732.735506	19992.167594
733.066401	19866.922647
733.397249	19431.003992
733.728048	18842.204784
734.058798	17996.097523
734.389501	17252.436590
734.720156	16726.666929
735.050762	16148.653270
735.381320	15748.279790
735.711831	15451.048318
736.042293	15084.017030
736.372707	15098.782570
736.703073	14881.140835
737.033391	15072.835751
737.363661	15054.014603
737.693883	15165.524926
738.024056	15339.323746
738.354182	15548.007351
738.684260	15890.523508
739.014290	16158.796071
739.344272	16390.575722
739.674207	16719.838686
740.004093	16913.217347
740.333931	16986.495560
740.663722	17069.750215
740.993464	17129.976880
741.323159	16995.244482
741.652806	16713.701081
741.982405	16555.348356
742.311956	16210.230964
742.641460	16115.663959
742.970915	15780.555778
743.300323	15431.052582
743.629683	15233.343569
743.958996	14926.286888
744.288260	14615.343478
744.617477	14303.601044
744.946647	14274.518628
745.275768	13947.811529
745.604842	13750.387342
745.933869	13570.080392
746.262847	13535.677038
746.591778	13451.325931
746.920662	13328.861181
747.249498	13322.164008
747.578286	13467.155154
747.907027	13617.295839
748.235720	13882.858783
748.564365	13961.538591
748.892963	13897.944436
749.221514	14017.777704
749.550017	13899.580290
749.878473	13864.635012
750.206881	13655.238084
750.535242	13592.868928
750.863555	13506.251823
751.191821	13395.182601
751.520039	13409.257502
751.848210	13325.097959
752.176334	13379.008059
752.504411	13305.704641
752.832440	13131.563022
753.160421	13249.505858
753.488356	13138.320689
753.816243	13059.542578
754.144082	12882.577913
754.471875	12827.402484
754.799620	12791.554839
755.127318	12760.239192
755.454969	12749.932553
755.782572	12720.078839
756.110129	12736.114750
756.437638	12639.430460
756.765100	12645.560503
757.092515	12664.812670
757.419882	12696.735777
757.747203	12693.597658
758.074477	12786.974951
758.401703	12762.696754
758.728882	12955.727576
759.056014	12985.246052
759.383099	13164.970749
759.710138	13286.991878
760.037129	13413.209767
760.364073	13483.775838
760.690970	13510.587215
761.017820	13504.885670
761.344623	13697.992109
761.671379	14022.357592
761.998088	14562.602926
762.324751	15967.885055
762.651366	18880.010917
762.977935	23158.901973
763.304456	26427.243328
763.630931	28010.833589
763.957359	27222.124905
764.283740	25190.630646
764.610074	23056.238875
764.936362	20449.526277
765.262602	18562.541733
765.588796	16609.470184
765.914943	15280.276711
766.241044	14146.680007
766.567097	13327.515193
766.893104	12592.585538
767.219064	12113.953186
767.544978	11626.178702
767.870845	11244.233160
768.196665	11020.539520
768.522438	10783.811976
768.848165	10584.903169
769.173846	10374.535819
769.499479	10250.210883
769.825066	10077.455582
770.150607	9855.105409
770.476101	9774.512483
770.801548	9660.350513
771.126949	9506.887707
771.452303	9397.121623
771.777611	9198.384215
772.102872	9185.078090
772.428087	9048.210763
772.753256	8905.455368
773.078378	8819.720465
773.403453	8637.243298
773.728482	8520.807768
774.053465	8445.182898
774.378401	8344.619441
774.703291	8223.072181
775.028135	8109.376517
775.352932	8076.127587
775.677683	7976.920200
776.002388	7867.277624
776.327046	7872.981690
776.651658	7777.209849
776.976224	7675.212183
777.300743	7671.950557
777.625216	7591.589523
777.949643	7547.640744
778.274024	7562.567601
778.598359	7477.558623
778.922647	7491.472208
779.246889	7441.340454
779.571086	7449.945703
779.895236	7452.047864
780.219339	7459.430634
780.543397	7461.570604
780.867409	7546.196454
781.191374	7552.666775
781.515294	7522.424893
781.839167	7614.919983
782.162995	7585.197340
782.486776	7535.602469
782.810511	7492.619071
783.134201	7409.606390
783.457844	7400.698671
783.781441	7347.849735
784.104993	7289.037114
784.428498	7260.915037
784.751958	7252.062771
785.075372	7219.214612
785.398739	7164.533217
785.722061	7202.644340
786.045337	7196.443720
786.368568	7343.103489
786.691752	7341.530649
787.014891	7630.923126
787.337983	7936.653984
787.661030	8484.544228
787.984031	9101.994833
788.306987	9539.108242
788.629897	9794.621645
788.952760	9797.510226
789.275579	9613.722360
789.598351	9247.356504
789.921078	8915.091534
790.243759	8508.013319
790.566395	8215.555820
790.888984	7967.757903
791.211529	7763.205524
791.534027	7531.723301
791.856480	7324.368040
792.178888	7249.252327
792.501249	7152.555435
792.823566	6995.629357
793.145836	6992.488718
793.468062	6956.754499
793.790241	6904.613845
794.112375	6962.803884
794.434464	7103.520132
794.756507	7129.560212
795.078505	7268.670852
795.400457	7544.800054
795.722364	7883.202629
796.044226	8164.740989
796.366042	8457.412738
796.687812	8423.493334
797.009538	8526.416052
797.331218	8434.775436
797.652852	8361.169549
797.974442	8217.726037
798.295986	8135.598079
798.617484	7957.496634
798.938938	7809.107750
799.260346	7710.250723
799.581709	7516.206629
799.903026	7437.980525
800.224299	7335.466141
800.545526	7169.123187
800.866708	7068.980666
801.187845	6998.157496
801.508936	6899.527321
801.829983	6859.613985
802.150984	6710.814247
802.471940	6670.699265
802.792851	6655.558160
803.113717	6622.221009
803.434538	6585.115596
803.755314	6529.867071
804.076045	6531.966711
804.396731	6474.391693
804.717372	6508.048957
805.037967	6500.169633
805.358518	6537.685900
805.679024	6614.843281
805.999485	6630.848944
806.319901	6666.245406
806.640272	6684.582603
806.960598	6775.898064
807.280879	6770.970336
807.601115	6851.255752
807.921306	6797.932947
808.241453	6812.353168
808.561554	6838.627662
808.881611	6805.711448
809.201623	6810.969371
809.521590	6760.464571
809.841513	6739.790799
810.161390	6774.973012
810.481223	6646.443753
810.801011	6635.413709
811.120755	6607.654595
811.440453	6533.506784
811.760107	6505.901425
812.079716	6473.479244
812.399281	6407.243524
812.718801	6399.344036
813.038276	6356.907603
813.357707	6294.586338
813.677093	6330.338202
813.996434	6240.096507
814.315731	6278.903309
814.634983	6269.962822
814.954191	6272.284274
815.273354	6366.473192
815.592473	6424.259939
815.911547	6541.300408
816.230577	6616.532067
816.549562	6760.081443
816.868502	6856.536361
817.187399	6946.616739
817.506250	7085.170332
817.825058	7114.681246
818.143821	7354.199068
818.462539	7588.751354
818.781213	7909.923265
819.099843	8384.265595
819.418429	9289.235890
819.736970	10176.680613
820.055466	11264.170923
820.373919	12622.280455
820.692327	14606.922230
821.010691	17900.247544
821.329011	25294.906913
821.647286	36884.436426
821.965517	50777.637136
822.283704	58284.812538
822.601847	61471.661121
822.919945	59276.231060
823.237999	55378.857048
823.556010	49374.492457
823.873976	42762.613375
824.191897	36315.953069
824.509775	31492.113283
824.827609	26879.051701
825.145398	24100.471044
825.463144	22438.589144
825.780845	22334.620387
826.098502	23563.903232
826.416116	26837.129465
826.733685	30529.557888
827.051210	32327.871055
827.368692	31395.318088
827.686129	27914.965966
828.003522	23945.125368
828.320872	20235.541899
828.638177	17364.934979
828.955439	15184.945971
829.272656	13368.807284
829.589830	11895.772048
829.906960	10601.677608
830.224046	9645.418615
830.541088	8865.405921
830.858086	8385.588898
831.175041	7979.362639
831.491952	7824.390008
831.808819	7815.295767
832.125642	8110.692258
832.442421	8806.507600
832.759157	10266.186299
833.075849	12816.324549
833.392497	15928.516164
833.709101	18385.493890
834.025662	18740.653261
834.342179	17413.932474
834.658653	15370.193252
834.975083	13465.126090
835.291469	11832.215701
835.607811	10507.402990
835.924110	9598.573693
836.240366	8740.405471
836.556578	7943.220087
836.872746	7298.282590
837.188871	6781.997860
837.504952	6352.395770
837.820990	6039.345158
838.136984	5805.544004
838.452935	5693.748856
838.768842	5675.136916
839.084706	5949.809224
839.400526	6910.640544
839.716303	8393.861432
840.032037	9622.617476
840.347727	9845.794398
840.663373	9063.944204
840.978977	8029.055813
841.294537	7200.269956
841.610054	6598.709068
841.925527	6159.533827
842.240957	5803.053674
842.556344	5481.833871
842.871687	5204.867838
843.186987	4924.355353
843.502244	4698.037792
843.817458	4527.160321
844.132629	4389.493971
844.447756	4298.856545
844.762840	4218.170357
845.077881	4140.402998
845.392879	4079.145417
845.707833	4031.824105
846.022745	3991.527642
846.337613	3957.600677
846.652438	3917.682300
846.967221	3903.642687
847.281960	3870.711349
847.596656	3853.268957
847.911309	3831.143333
848.225919	3810.217503
848.540485	3791.507260
848.855009	3777.155095
849.169490	3759.369905
849.483928	3746.537648
849.798323	3736.777974
850.112675	3719.025550
850.426984	3725.299266
850.741251	3712.981207
851.055474	3705.308571
851.369654	3710.180846
851.683792	3705.396791
851.997887	3712.051114
852.311938	3711.370558
852.625947	3719.433884
852.939914	3711.272256
853.253837	3715.958008
853.567718	3716.202504
853.881555	3707.009960
854.195350	3718.082855
854.509103	3716.547823
854.822812	3712.550188
855.136479	3705.111966
855.450103	3714.591856
855.763685	3696.599977
856.077224	3704.433931
856.390720	3719.627968
856.704173	3735.502562
857.017584	3750.825149
857.330953	3757.817229
857.644278	3777.591155
857.957561	3786.698000
858.270802	3789.349647
858.584000	3792.886016
858.897155	3786.004841
859.210268	3770.263838
859.523339	3748.231475
859.836367	3748.871702
860.149352	3738.333170
860.462295	3737.662696
860.775195	3722.718196
861.088054	3718.841548
861.400869	3715.776527
861.713642	3715.148903
862.026373	3724.994277
862.339062	3728.104668
862.651708	3746.575456
862.964312	3775.423459
863.276873	3783.955612
863.589392	3834.084846
863.901869	3879.246022
864.214303	3922.771345
864.526696	3953.383752
864.839045	4001.481400
865.151353	4027.377808
865.463619	4037.737379
865.775842	4041.631670
866.088023	4062.176893
866.400162	4052.402095
866.712258	4059.247982
867.024313	4063.709403
867.336325	4060.183116
867.648296	4067.676792
867.960224	4065.294846
868.272110	4077.993513
868.583954	4077.549891
868.895755	4089.688990
869.207515	4080.655242
869.519233	4123.799957
869.830909	4135.583654
870.142542	4154.777848
870.454134	4171.257380
870.765684	4198.212429
871.077191	4233.049323
871.388657	4251.996500
871.700081	4287.317344
872.011463	4331.281247
872.322803	4361.122357
872.634101	4389.763672
872.945357	4427.025361
873.256571	4479.619719
873.567744	4514.093650
873.878874	4530.782390
874.189963	4566.143563
874.501010	4576.742589
874.812015	4573.438113
875.122979	4614.531078
875.433900	4615.430924
875.744780	4625.883757
876.055618	4649.793950
876.366415	4647.976614
876.677169	4664.982946
876.987882	4706.640521
877.298554	4748.398919
877.609183	4818.458354
877.919771	4909.955297
878.230317	5037.342734
878.540822	5222.012802
878.851285	5495.139997
879.161707	5882.230036
879.472087	6516.739906
879.782425	7528.179370
880.092722	9334.084515
880.402977	12149.387457
880.713191	15640.744417
881.023363	19317.956117
881.333494	21769.373450
881.643583	23225.556109
881.953631	23442.305560
882.263637	22785.846506
882.573602	21496.233653
882.883526	20067.603420
883.193408	18512.205812
883.503248	16919.367555
883.813048	15445.608913
884.122806	14097.548922
884.432522	12662.372751
884.742197	11459.460182
885.051831	10381.555626
885.361424	9393.675995
885.670975	8581.220956
885.980485	7887.545583
886.289954	7328.080850
886.599382	6851.253231
886.908768	6482.883517
887.218113	6127.693899
887.527417	5837.749415
887.836680	5579.975054
888.145901	5362.635789
888.455082	5202.311973
888.764221	5046.956214
889.073319	4918.547943
889.382376	4839.094318
889.691392	4774.166777
890.000366	4751.012757
890.309300	4726.790013
890.618193	4731.725302
890.927044	4717.710895
891.235855	4731.518615
891.544625	4755.050721
891.853353	4804.166683
892.162041	4895.371239
892.470687	5054.217996
892.779293	5269.084576
893.087858	5583.604685
893.396381	6066.998407
893.704864	6746.878662
894.013306	7762.078826
894.321707	8888.769149
894.630068	9765.750957
894.938387	10108.504048
895.246665	9996.381225
895.554903	9469.220206
895.863100	8826.231115
896.171256	8307.203997
896.479371	7817.168555
896.787446	7338.395051
897.095480	6918.976092
897.403473	6609.633248
897.711425	6309.029244
898.019336	6054.617333
898.327207	5790.188649
898.635038	5566.326130
898.942827	5325.253112
899.250576	5133.270850
899.558284	4945.787818
899.865952	4824.444725
900.173579	4680.532385
900.481165	4578.128907
900.788711	4483.355214
901.096216	4410.571035
901.403681	4342.674254
901.711105	4315.953618
902.018489	4294.256492
902.325832	4346.936550
902.633135	4430.266823
902.940397	4688.058828
903.247619	5291.915962
903.554800	6476.864379
903.861941	8221.395997
904.169041	9785.345922
904.476101	10619.808118
904.783121	10480.768054
905.090100	9864.413900
905.397039	9082.046987
905.703938	8358.470011
906.010796	7704.692851
906.317614	7176.856317
906.624391	6662.585528
906.931129	6253.785760
907.237826	5872.321648
907.544483	5508.917470
907.851099	5156.003934
908.157675	4815.650432
908.464211	4486.929392
908.770707	4249.123042
909.077163	4045.130231
909.383578	3897.608425
909.689954	3777.414715
909.996289	3703.090463
910.302584	3641.059065
910.608839	3609.710650
910.915054	3575.960125
911.221229	3559.430181
911.527363	3567.364957
911.833458	3576.958273
912.139513	3598.337807
912.445527	3616.818677
912.751502	3689.650747
913.057436	3773.981689
913.363331	3889.320768
913.669186	4059.164803
913.975000	4278.175212
914.280775	4633.173265
914.586510	5130.326817
914.892205	5810.801927
915.197859	6730.252936
915.503475	7847.869182
915.809050	8898.564111
916.114585	9603.151060
916.420081	9970.174787
916.725536	10010.937557
917.030952	9645.572370
917.336328	9280.638202
917.641665	8920.067152
917.946961	8471.197773
918.252218	8079.946261
918.557435	7594.150430
918.862612	7196.484050
919.167750	6846.340627
919.472848	6438.458349
919.777906	6086.613537
920.082925	5744.578810
920.387904	5375.717583
920.692843	5121.411536
920.997743	4868.978278
921.302603	4636.180314
921.607423	4477.734328
921.912204	4319.023681
922.216946	4202.303326
922.521647	4087.226386
922.826310	3989.715347
923.130932	3896.912746
923.435516	3802.338179
923.740059	3733.972572
924.044564	3662.783917
924.349028	3606.214610
924.653454	3544.432749
924.957840	3481.703151
925.262186	3430.230449
925.566493	3375.065103
925.870761	3319.791372
926.174989	3287.283491
926.479178	3248.902666
926.783328	3209.604351
927.087438	3182.999662
927.391509	3150.632934
927.695541	3122.135291
927.999533	3097.960438
928.303486	3075.192066
928.607400	3059.375446
928.911275	3048.990669
929.215110	3033.438710
929.518906	3022.464118
929.822663	3020.621576
930.126381	3015.101513
930.430060	3025.413193
930.733699	3023.495034
931.037299	3033.758823
931.340861	3031.218081
931.644383	3044.501522
931.947866	3038.200079
932.251309	3036.216385
932.554714	3035.450130
932.858080	3030.872762
933.161407	3021.534025
933.464694	3016.654188
933.767943	3010.418281
934.071153	3005.160357
934.374323	2996.557628
934.677455	2994.268944
934.980548	2982.018940
935.283602	2975.619196
935.586617	2972.329843
935.889593	2979.682366
936.192530	2984.534476
936.495428	2996.227433
936.798287	3012.868281
937.101108	3038.903320
937.403890	3083.572985
937.706632	3139.086171
938.009336	3209.896738
938.312002	3283.283335
938.614628	3344.341791
938.917216	3395.547311
939.219765	3432.221705
939.522275	3465.508444
939.824747	3471.714104
940.127179	3467.676140
940.429573	3466.385605
940.731929	3464.059112
941.034246	3454.992597
941.336524	3444.829631
941.638763	3427.568720
941.940964	3416.251330
942.243126	3373.807335
942.545250	3360.017259
942.847335	3323.413441
943.149381	3291.276085
943.451389	3256.716455
943.753359	3225.743605
944.055290	3199.471632
944.357182	3175.672345
944.659036	3159.601146
944.960851	3152.430105
945.262628	3137.417549
945.564367	3139.257570
945.866067	3133.256076
946.167729	3129.581075
946.469352	3128.721558
946.770937	3123.191413
947.072484	3107.856223
947.373992	3109.093826
947.675462	3105.033177
947.976893	3088.810743
948.278286	3082.053077
948.579641	3073.883887
948.880958	3068.734348
949.182236	3072.769792
949.483476	3063.201682
949.784678	3063.814182
950.085841	3064.247721
950.386967	3073.034453
950.688054	3084.631627
950.989103	3103.175511
951.290114	3119.922224
951.591087	3143.010709
951.892021	3170.984072
952.192917	3198.292002
952.493776	3228.009604
952.794596	3238.626274
953.095378	3242.858323
953.396122	3240.551995
953.696828	3234.885738
953.997496	3224.692525
954.298126	3204.550595
954.598718	3190.112730
954.899272	3166.414266
955.199788	3138.748413
955.500266	3108.927468
955.800706	3079.759352
956.101108	3041.524720
956.401472	3014.257119
956.701798	2982.691934
957.002087	2942.322374
957.302337	2918.402099
957.602550	2890.516957
957.902724	2862.513347
958.202861	2836.962259
958.502960	2817.173210
958.803022	2795.269396
959.103045	2777.983280
959.403031	2760.122472
959.702979	2748.308527
960.002889	2739.766292
960.302762	2723.765670
960.602596	2711.356870
960.902393	2707.248329
961.202153	2695.905733
961.501875	2687.804599
961.801559	2681.495595
962.101205	2676.436797
962.400814	2671.138544
962.700385	2666.714932
962.999918	2657.381236
963.299414	2651.173055
963.598873	2651.382262
963.898293	2644.243989
964.197677	2645.504277
964.497022	2644.475882
964.796331	2643.918834
965.095601	2639.044038
965.394835	2638.333236
965.694030	2634.262504
965.993189	2632.813172
966.292309	2630.527009
966.591393	2629.405352
966.890439	2630.932822
967.189447	2631.048768
967.488419	2631.333594
967.787353	2631.625981
968.086249	2633.171094
968.385108	2633.188738
968.683930	2636.609161
968.982714	2641.539410
969.281462	2643.097126
969.580172	2648.128198
969.878844	2655.465597
970.177480	2659.866524
970.476078	2668.454130
970.774639	2674.117866
971.073162	2682.534073
971.371649	2685.773014
971.670098	2694.201823
971.968510	2699.495035
972.266885	2704.526106
972.565223	2704.926878
972.863524	2706.547609
973.161788	2712.057590
973.460014	2715.901470
973.758204	2715.278887
974.056356	2721.338354
974.354471	2721.666029
974.652550	2720.872048
974.950591	2720.181410
975.248595	2715.858620
975.546563	2715.316696
975.844493	2716.594629
976.142386	2709.534493
976.440243	2704.258925
976.738062	2701.990406
977.035845	2694.532019
977.333590	2690.302491
977.631299	2683.746470
977.928971	2680.172292
978.226606	2672.396312
978.524204	2668.668379
978.821765	2662.500527
979.119290	2663.859118
979.416777	2664.390960
979.714228	2667.783657
980.011642	2670.838596
980.309020	2675.874708
980.606360	2684.903415
980.903664	2707.021477
981.200931	2734.223544
981.498162	2775.455141
981.795356	2839.414780
982.092513	2916.877150
982.389633	3015.842562
982.686717	3108.433435
982.983764	3181.812470
983.280775	3236.904720
983.577749	3252.935589
983.874686	3247.750762
984.171587	3223.505333
984.468451	3186.752801
984.765279	3149.223931
985.062070	3105.728856
985.358824	3065.704615
985.655543	3013.569002
985.952224	2965.466312
986.248869	2906.573032
986.545478	2850.578416
986.842050	2794.614046
987.138586	2750.972777
987.435086	2713.262426
987.731549	2683.040709
988.027975	2657.285454
988.324366	2639.802732
988.620719	2627.628346
988.917037	2615.310286
989.213318	2602.346959
989.509563	2600.804366
989.805772	2594.089549
990.101944	2590.843046
990.398080	2585.834660
990.694180	2584.281984
990.990244	2585.201995
991.286271	2586.280802
991.582262	2586.671491
991.878217	2590.603591
992.174136	2590.969075
992.470019	2595.087697
992.765865	2593.998808
993.061676	2600.660693
993.357450	2604.746548
993.653188	2610.848865
993.948890	2627.696401
994.244556	2643.150058
994.540186	2663.203768
994.835780	2691.401462
995.131337	2726.014025
995.426859	2763.512647
995.722345	2805.392033
996.017795	2856.297605
996.313208	2889.057543
996.608586	2920.587440
996.903928	2934.392639
997.199234	2936.514965
997.494504	2939.431273
997.789738	2928.973399
998.084936	2904.768299
998.380099	2876.338712
998.675225	2853.035978
998.970316	2822.635300
999.265371	2789.802265
999.560390	2756.535691
999.855373	2726.800445
1000.150320	2697.261804
1000.445232	2674.715243
1000.740108	2655.200937
1001.034948	2636.767957
1001.329752	2624.354116
1001.624521	2608.764348
1001.919254	2598.911413
1002.213951	2591.400093
1002.508613	2582.119329
1002.803239	2575.807805
1003.097829	2571.033832
1003.392384	2564.079560
1003.686903	2562.695763
1003.981386	2559.242573
1004.275834	2555.733930
1004.570246	2553.820812
1004.864623	2550.186140
1005.158964	2546.793444
1005.453270	2546.274205
1005.747540	2544.613145
1006.041775	2544.570295
1006.335974	2542.427804
1006.630138	2540.242464
1006.924266	2541.696837
1007.218359	2537.056455
1007.512416	2534.999664
1007.806438	2533.114273
1008.100425	2536.161650
1008.394376	2532.879859
1008.688292	2537.676517
1008.982172	2534.503111
1009.276017	2533.961187
1009.569827	2533.951104
1009.863602	2534.805580
1010.157341	2534.309026
1010.451045	2532.897503
1010.744714	2535.808769
1011.038347	2533.399098
1011.331945	2530.928933
1011.625508	2529.915661
1011.919036	2527.664785
1012.212528	2526.724610
1012.505986	2528.546987
1012.799408	2526.863242
1013.092795	2523.168076
1013.386147	2526.651513
1013.679464	2524.924918
1013.972745	2522.830319
1014.265992	2523.442819
1014.559204	2523.357119
1014.852380	2523.200844
1015.145521	2524.514064
1015.438628	2523.364681
1015.731699	2525.741585
1016.024736	2527.589168
1016.317737	2524.851822
1016.610703	2525.855011
1016.903635	2526.838036
1017.196531	2530.795342
1017.489393	2528.468849
1017.782219	2531.175949
1018.075011	2531.828778
1018.367768	2533.746937
1018.660490	2531.178470
1018.953177	2531.178470
1019.245829	2531.178470
