Dividing Wavelength (nm)	Counts (n)	Blue Motor Position (mm): 26.500000	Red Motor Position (mm): 0.000000	
326.493990	2069.403736
326.888308	2069.403736
327.282561	2069.403736
327.676750	2041.402647
328.070874	2044.530683
328.464933	2049.390355
328.858929	2059.031562
329.252859	2068.793757
329.646726	2081.235324
330.040528	2097.167891
330.434265	2115.426950
330.827938	2138.805301
331.221547	2156.840029
331.615091	2178.030519
332.008571	2198.729497
332.401986	2216.504605
332.795338	2236.961608
333.188625	2257.489186
333.581847	2274.145158
333.975006	2290.874228
334.368100	2310.643112
334.761129	2327.896461
335.154095	2345.961436
335.546996	2393.595299
335.939833	2494.645228
336.332606	2502.133862
336.725315	2516.644823
337.117960	2530.056813
337.510540	2538.382278
337.903056	2547.703372
338.295508	2554.493806
338.687896	2563.094015
339.080220	2565.370096
339.472480	2569.874367
339.864676	2575.046590
340.256807	2575.039029
340.648875	2577.597414
341.040879	2578.245202
341.432818	2582.991449
341.824694	2582.920873
342.216506	2581.776531
342.608253	2581.607652
342.999937	2580.450707
343.391557	2581.567323
343.783113	2579.203022
344.174605	2575.147413
344.566033	2574.081209
344.957397	2572.583987
345.348697	2571.139696
345.739934	2572.326888
346.131106	2570.839747
346.522215	2568.392267
346.913260	2563.711556
347.304241	2564.576114
347.695159	2566.302709
348.086012	2561.218705
348.476802	2558.919939
348.867528	2553.984650
349.258191	2552.129505
349.648789	2553.150339
350.039324	2549.137580
350.429796	2554.206460
350.820203	2553.377191
351.210548	2552.005997
351.600828	2550.239072
351.991045	2548.724206
352.381198	2549.669422
352.771288	2548.388969
353.161314	2547.940306
353.551276	2547.118598
353.941175	2545.576005
354.331010	2549.714792
354.720782	2551.096068
355.110490	2553.697304
355.500135	2549.608928
355.889717	2552.116902
356.279235	2549.581202
356.668689	2547.403423
357.058080	2550.854093
357.447408	2548.719164
357.836672	2552.013558
358.225873	2551.335523
358.615010	2554.208981
359.004084	2552.749567
359.393095	2552.890719
359.782043	2550.531459
360.170927	2554.529094
360.559748	2555.280226
360.948505	2557.218550
361.337199	2556.565720
361.725830	2557.818447
362.114398	2556.298539
362.502903	2558.415824
362.891344	2555.950700
363.279722	2556.848025
363.668037	2558.914898
364.056289	2560.487738
364.444478	2557.682336
364.832603	2559.320711
365.220665	2560.419683
365.608665	2560.878427
365.996601	2561.793397
366.384474	2561.271637
366.772284	2558.564538
367.160031	2560.437327
367.547715	2560.931360
367.935336	2559.895403
368.322893	2563.212482
368.710388	2558.466235
369.097820	2562.378171
369.485189	2555.408776
369.872495	2565.423028
370.259738	2565.259190
370.646918	2564.387071
371.034035	2565.690209
371.421090	2564.366906
371.808081	2565.014694
372.195010	2567.454613
372.581875	2566.118707
372.968678	2566.237174
373.355418	2567.734397
373.742096	2567.321022
374.128710	2566.587534
374.515262	2569.201372
374.901751	2569.874367
375.288177	2568.493090
375.674540	2569.597103
376.060841	2570.895200
376.447079	2569.627350
376.833254	2572.004254
377.219367	2571.830334
377.605417	2568.591393
377.991404	2569.929819
378.377329	2573.372927
378.763191	2570.648184
379.148991	2570.630540
379.534727	2573.937537
379.920402	2571.079202
380.306013	2571.338822
380.691563	2572.465520
381.077049	2572.553740
381.462474	2569.907134
381.847835	2571.056517
382.233134	2572.301682
382.618371	2571.318657
383.003545	2575.681776
383.388657	2573.965263
383.773706	2574.698751
384.158693	2574.892835
384.543618	2575.795202
384.928480	2572.969635
385.313280	2574.403843
385.698017	2575.326374
386.082692	2576.611869
386.467305	2575.154975
386.851856	2578.494740
387.236344	2577.980542
387.620770	2576.876529
388.005133	2571.966445
388.389435	2574.005592
388.773674	2571.162381
389.157851	2578.086406
389.541965	2578.961046
389.926018	2579.654205
390.310008	2578.895511
390.693936	2578.086406
391.077802	2580.082703
391.461606	2579.949112
391.845348	2579.326530
392.229027	2577.327713
392.612645	2581.647981
392.996200	2581.983218
393.379694	2582.875502
393.763125	2580.919535
394.146494	2580.087744
394.529801	2581.718558
394.913047	2583.989597
395.296230	2583.341809
395.679351	2586.119485
396.062410	2585.065884
396.445408	2582.961202
396.828343	2580.201170
397.211217	2586.764752
397.594028	2585.885071
397.976778	2585.360791
398.359466	2583.835842
398.742092	2584.501274
399.124656	2583.735019
399.507158	2587.115113
399.889598	2588.375401
400.271977	2584.392890
400.654294	2586.316090
401.036549	2587.548652
401.418742	2588.692994
401.800874	2584.536562
402.182944	2587.757860
402.564952	2592.383118
402.946898	2588.045206
403.328783	2588.839187
403.710606	2590.298601
404.092367	2593.285485
404.474067	2590.349013
404.855705	2590.258272
405.237282	2589.484455
405.618797	2591.747933
406.000250	2589.529825
406.381642	2592.249528
406.762972	2590.386822
407.144240	2588.403128
407.525447	2591.846236
407.906593	2587.289032
408.287677	2593.852615
408.668700	2593.408993
409.049661	2594.709611
409.430560	2592.907398
409.811399	2596.305136
410.192176	2594.787749
410.572891	2593.197265
410.953545	2595.221288
411.334138	2596.466453
411.714669	2595.480907
412.095139	2596.252204
412.475547	2595.249014
412.855894	2595.052409
413.236180	2594.596185
413.616405	2595.634663
413.996568	2596.781525
414.376670	2597.199941
414.756711	2598.974427
415.136691	2596.315218
415.516609	2598.460229
415.896466	2600.605240
416.276262	2600.365786
416.655997	2600.595158
417.035670	2599.148347
417.415283	2603.100612
417.794834	2598.389653
418.174324	2598.157760
418.553753	2599.125662
418.933121	2600.103646
419.312428	2601.986517
419.691674	2600.559870
420.070859	2602.243615
420.449983	2600.103646
420.829045	2600.597679
421.208047	2600.287648
421.586988	2604.343256
421.965867	2604.076075
422.344686	2603.241764
422.723444	2605.099429
423.102141	2603.556836
423.480777	2605.175046
423.859352	2602.893924
424.237866	2606.495829
424.616319	2608.693772
424.994712	2606.163112
425.373044	2606.745366
425.751314	2606.344594
426.129524	2603.198914
426.507673	2603.264449
426.885762	2599.836464
427.263789	2607.864502
427.641756	2609.147476
428.019662	2609.323916
428.397508	2610.503546
428.775292	2611.612600
429.153016	2611.320213
429.530679	2609.830552
429.908282	2614.856582
430.285824	2613.656788
430.663305	2612.618310
431.040726	2614.095368
431.418086	2614.372632
431.795385	2618.508898
432.172624	2617.409927
432.549802	2615.481685
432.926920	2619.297839
433.303977	2617.843466
433.680974	2619.254989
434.057910	2620.936214
434.434786	2622.982922
434.811601	2620.974022
435.188355	2624.535598
435.565050	2621.155504
435.941683	2621.768004
436.318257	2626.037862
436.694770	2625.581637
437.071222	2625.911833
437.447614	2627.076339
437.823946	2631.172277
438.200218	2629.690177
438.576429	2630.849643
438.952580	2631.326032
439.328670	2632.263687
439.704700	2633.841568
440.080670	2634.847278
440.456580	2637.418266
440.832429	2641.615027
441.208218	2640.357259
441.583947	2645.169040
441.959616	2644.954791
442.335224	2648.541572
442.710773	2650.893271
443.086261	2651.218425
443.461689	2655.967192
443.837057	2658.419713
444.212365	2663.334838
444.587612	2665.328615
444.962800	2664.935405
445.337927	2670.662155
445.712995	2673.344049
446.088002	2685.276460
446.462949	2689.790814
446.837837	2700.387319
447.212664	2708.947198
447.587431	2726.828171
447.962139	2751.338261
448.336786	2773.242074
448.711374	2780.093002
449.085901	2771.611261
449.460369	2784.814043
449.834776	2796.592699
450.209124	2834.149295
450.583412	2846.389217
450.957640	2870.329656
451.331808	2882.171327
451.705917	2882.834238
452.079965	2902.227557
452.453954	2929.588420
452.827883	2952.699590
453.201752	2974.000985
453.575562	3001.550891
453.949311	3045.260215
454.323001	3079.696337
454.696632	3111.972325
455.070202	3176.549506
455.443713	3213.728015
455.817164	3264.409255
456.190556	3328.729337
456.563888	3366.482538
456.937160	3423.533277
457.310373	3431.858742
457.683526	3474.365751
458.056619	3520.842669
458.429653	3580.582863
458.802628	3648.865292
459.175542	3709.275959
459.548398	3825.938341
459.921194	3958.724854
460.293930	4065.617480
460.666607	4248.462651
461.039224	4432.242955
461.411782	4557.150145
461.784280	4582.902879
462.156719	4650.040966
462.529099	4720.624682
462.901419	4697.548800
463.273680	4711.293506
463.645882	4823.701154
464.018024	4897.654881
464.390106	5051.767996
464.762130	5361.420871
465.134094	5795.189474
465.505999	6400.448049
465.877845	7004.277456
466.249631	7405.505412
466.621358	7436.327026
466.993026	7376.024744
467.364634	7344.532656
467.736184	7277.805423
468.107674	7260.441168
468.479105	7354.516661
468.850477	7409.916421
469.221790	7421.044768
469.593043	7357.342228
469.964238	7377.063222
470.335373	7513.224787
470.706449	7876.797843
471.077467	8304.081002
471.448425	9273.008416
471.819324	10052.630420
472.190164	10168.791207
472.560945	9715.019305
472.931667	9288.230180
473.302330	9313.136000
473.672934	9250.224921
474.043479	9551.852279
474.413965	9607.688099
474.784393	9677.581176
475.154761	10087.376573
475.525070	10286.086254
475.895321	10356.826246
476.265513	10724.969108
476.635645	11131.354164
477.005719	11305.788169
477.375734	11625.104936
477.745691	12072.613204
478.115588	12537.168134
478.485427	13312.474910
478.855207	14381.736408
479.224928	15471.971627
479.594591	16392.519087
479.964194	16398.656692
480.333739	16837.063157
480.703226	17165.509453
481.072653	17627.629506
481.442022	18128.458058
481.811333	18567.784533
482.180584	18528.186270
482.549777	18598.376776
482.918912	18654.036155
483.287988	18837.685390
483.657005	18936.494526
484.025964	18903.812725
484.394864	19210.529128
484.763706	19360.936994
485.132489	19219.827537
485.501213	19452.106262
485.869879	19742.333050
486.238487	19893.146729
486.607036	20244.114381
486.975527	20208.627178
487.343959	20627.640324
487.712333	21046.802184
488.080648	21192.163855
488.448905	21680.906241
488.817104	21770.419490
489.185244	22541.801728
489.553326	23421.420059
489.921350	24988.387115
490.289315	27016.047577
490.657222	27905.672599
491.025070	28514.291103
491.392861	28513.025773
491.760593	28134.026786
492.128267	27559.420947
492.495883	26983.068348
492.863440	26477.352398
493.230939	25909.751242
493.598380	25627.184487
493.965763	25676.373545
494.333088	25440.170282
494.700354	25433.581494
495.067563	25566.980507
495.434713	25616.524967
495.801805	25991.201165
496.168839	26008.923341
496.535815	26022.826843
496.902733	26260.786949
497.269593	26253.376453
497.636395	26511.019743
498.003139	26867.078960
498.369825	26802.020349
498.736453	27265.297347
499.103023	27250.400737
499.469535	27456.399927
499.835989	27671.755499
500.202385	27680.441407
500.568723	27830.529160
500.935003	28224.558347
501.301226	28207.390698
501.667390	28949.158678
502.033497	29258.998075
502.399546	29177.081846
502.765537	28918.637012
503.131470	29440.101527
503.497345	29943.102817
503.863163	29062.904752
504.228923	29849.493631
504.594625	30292.495108
504.960269	29900.968853
505.325856	30593.333525
505.691385	30359.197135
506.056856	30744.633676
506.422270	31257.669382
506.787625	30880.671733
507.152924	31374.677083
507.518164	31604.523452
507.883347	31292.191203
508.248472	31475.840438
508.613540	32158.205982
508.978550	32433.483228
509.343503	32335.248784
509.708398	32736.610330
510.073236	33362.527553
510.438016	33491.712162
510.802738	33237.907709
511.167403	33805.634894
511.532010	34072.364864
511.896561	34611.155826
512.261053	35365.070466
512.625488	35202.704983
512.989866	35186.706881
513.354186	35259.193632
513.718449	35249.030666
514.082655	36122.798739
514.446803	35850.964600
514.810894	36488.741138
515.174927	36517.815992
515.538904	36555.440644
515.902822	37181.131015
516.266684	36915.565551
516.630488	37264.710826
516.994235	37303.071486
517.357925	37883.109168
517.721558	38144.881164
518.085133	38539.071668
518.448651	38735.593489
518.812112	38651.600304
519.175516	38796.195720
519.538863	39261.713510
519.902152	39346.546047
520.265385	39899.679091
520.628560	39928.678329
520.991678	39881.009178
521.354739	40109.197007
521.717743	40480.109983
522.080690	40380.766485
522.443580	41081.935532
522.806413	41108.457043
523.169189	41230.778120
523.531908	41467.568678
523.894569	41337.464059
524.257174	41528.160827
524.619722	41889.503173
524.982213	42036.321737
525.344647	42081.848398
525.707025	42193.560367
526.069345	42643.901763
526.431608	42573.703696
526.793815	42930.221658
527.155964	42507.987215
527.518057	42767.263839
527.880093	42622.101294
528.242072	43240.144235
528.603995	43004.409798
528.965860	42928.570680
529.327669	43164.247143
529.689421	43212.942168
530.051117	43174.551261
530.412755	43455.535094
530.774337	43500.275335
531.135862	43434.458030
531.497331	43608.874392
531.858743	43601.663021
532.220098	44001.055996
532.581396	43721.488727
532.942638	43515.413920
533.303824	43742.462448
533.664953	43829.641642
534.026025	43513.067263
534.387040	44080.171865
534.747999	44132.138599
535.108902	44476.149458
535.469748	43809.204804
535.830537	44084.265282
536.191270	44315.170292
536.551947	44072.327829
536.912567	44348.615828
537.273131	44484.444677
537.633638	44114.431546
537.994089	44296.354186
538.354483	44065.613012
538.714821	44689.846490
539.075103	44984.978322
539.435328	44861.371750
539.795497	44625.937262
540.155609	44760.452891
540.515665	45334.950345
540.875665	44633.483870
541.235609	44909.217341
541.595496	45036.700560
541.955328	45629.134439
542.315102	45058.349795
542.674821	44967.830837
543.034483	44869.808121
543.394090	44901.864818
543.753640	44882.766407
544.113134	45933.809175
544.472571	45050.210852
544.831953	46153.868143
545.191278	45435.866683
545.550548	45148.115101
545.909761	45775.274969
546.268918	45911.307985
546.628019	46298.297201
546.987064	45761.268123
547.346053	45085.642602
547.704986	45975.844836
548.063863	45619.934334
548.422684	45808.644887
548.781449	45405.778557
549.140158	45927.694255
549.498811	45678.444486
549.857408	45087.119660
550.215949	45923.268122
550.574434	45765.800120
550.932864	45717.455455
551.291237	46424.936027
551.649555	46154.954512
552.007817	46338.155084
552.366022	46061.572178
552.724173	46116.540920
553.082267	46500.235742
553.440305	46884.943836
553.798288	46138.124620
554.156215	46522.822632
554.514086	46715.916468
554.871902	46314.680951
555.229661	46498.443612
555.587365	46179.262956
555.945014	46318.928123
556.302606	46313.947463
556.660143	46412.393636
557.017625	46656.128383
557.375050	46337.482090
557.732421	46735.022441
558.089735	46789.227448
558.446994	46662.268509
558.804197	47150.779002
559.161345	46998.876433
559.518437	46357.742487
559.875474	46594.676718
560.232455	46827.915783
560.589381	46863.997842
560.946251	46691.683641
561.303065	47343.411572
561.659825	47017.397633
562.016528	46821.826069
562.373177	46429.921728
562.729770	47049.966007
563.086307	46573.360199
563.442789	47112.161243
563.799216	46952.180225
564.155587	46862.878705
564.511904	46827.139445
564.868164	46874.299439
565.224370	47185.454578
565.580520	46889.707726
565.936615	47112.206613
566.292654	46748.822600
566.648638	47128.797050
567.004567	47073.087259
567.360441	47150.713467
567.716260	46854.124742
568.072023	47259.420908
568.427732	47184.653035
568.783385	46711.830613
569.138982	47127.173799
569.494525	47268.487423
569.850013	46883.854947
570.205445	46993.069024
570.560823	46761.433046
570.916145	46614.775798
571.271412	46849.736417
571.626625	46490.748290
571.981782	46589.648167
572.336884	46200.909670
572.691931	46532.673046
573.046923	46192.750563
573.401860	46031.090841
573.756743	46046.226906
574.111570	46174.017635
574.466342	46096.353619
574.821059	46247.152175
575.175722	45761.230314
575.530330	45831.872003
575.884882	45491.576474
576.239380	45401.037351
576.593823	45482.457027
576.948211	45436.542198
577.302544	44987.559392
577.656823	44975.994985
578.011047	45240.378299
578.365216	45085.161172
578.719330	44805.762782
579.073389	44767.923881
579.427394	44850.364390
579.781344	44743.917906
580.135239	44503.855640
580.489080	44570.013222
580.842866	44072.169033
581.196597	44544.726794
581.550273	44540.313264
581.903895	44466.425072
582.257463	44925.134784
582.610975	44361.276685
582.964434	44674.440724
583.317837	44188.549111
583.671186	44140.436338
584.024481	44418.360191
584.377721	43984.049664
584.730906	44203.433117
585.084037	44362.453795
585.437113	44063.468001
585.790135	44190.615984
586.143103	43777.228765
586.496016	43937.968476
586.848874	44036.427252
587.201679	44071.591821
587.554428	43567.748658
587.907124	43834.110625
588.259765	43597.524234
588.612352	43768.215182
588.964884	43233.845313
589.317362	43514.874516
589.669786	43538.865368
590.022155	43394.895055
590.374470	43885.694232
590.726731	43478.653826
591.078937	42812.062053
591.431090	43173.089327
591.783188	42680.102289
592.135232	42484.419820
592.487222	42744.041764
592.839157	42900.526741
593.191038	42548.210581
593.542866	42359.719318
593.894639	41754.700198
594.246358	42030.247147
594.598022	42045.713407
594.949633	41631.728812
595.301190	41650.267655
595.652692	41577.168404
596.004141	42075.161307
596.355535	40996.971925
596.706876	40998.272543
597.058162	40716.870294
597.409395	41208.919677
597.760573	41447.061264
598.111698	41062.766545
598.462768	40969.966464
598.813785	41003.076763
599.164748	40606.088418
599.515657	40865.349919
599.866511	40388.849975
600.217312	41078.149626
600.568060	40030.325634
600.918753	40838.467966
601.269392	40755.460327
601.619978	40507.065033
601.970510	40707.579448
602.320988	40857.717612
602.671412	41100.302976
603.021783	40968.890178
603.372100	40550.991127
603.722363	40653.107260
604.072572	40700.206760
604.422728	40686.608248
604.772830	40469.538684
605.122878	40632.090689
605.472872	40511.579386
605.822813	40748.833730
606.172701	40498.767294
606.522534	40822.159833
606.872314	41032.441484
607.222041	40880.296940
607.571714	41209.010418
607.921333	40696.047808
608.270899	40891.810936
608.620411	41278.094390
608.969870	41059.517521
609.319276	41075.601323
609.668627	41106.667433
610.017926	41475.616880
610.367171	41635.055973
610.716362	41658.162102
611.065500	41571.882754
611.414585	41804.963023
611.763616	41963.814822
612.112594	41864.231868
612.461518	41991.526044
612.810389	42375.228428
613.159207	42161.206242
613.507971	42137.064156
613.856682	42631.293838
614.205340	42472.951195
614.553945	43146.477076
614.902496	42498.625792
615.250994	42914.604163
615.599439	42986.869104
615.947830	43083.813013
616.296169	43108.575160
616.644454	43161.978624
616.992686	43296.756392
617.340864	43734.648659
617.688990	43240.247578
618.037063	43916.220939
618.385082	43746.545783
618.733048	44100.492756
619.080961	43975.588087
619.428821	44014.699879
619.776628	44045.380341
620.124382	43886.248758
620.472083	43998.389226
620.819731	44107.641112
621.167326	43685.182337
621.514868	43672.997868
621.862357	43136.452741
622.209793	43240.933175
622.557176	42818.673526
622.904506	42572.990373
623.251783	42219.063564
623.599007	41916.644745
623.946179	41833.674914
624.293297	41564.681466
624.640363	41039.473893
624.987376	40878.315767
625.334336	40702.402183
625.681243	40278.146237
626.028097	40174.971462
626.374899	40011.887614
626.721647	39979.649435
627.068343	39761.470817
627.414987	39475.297116
627.761577	39212.408505
628.108115	39534.092094
628.454600	38790.607601
628.801032	39031.607522
629.147412	38919.351108
629.493739	38800.127820
629.840014	38375.060248
630.186236	38806.388933
630.532405	38233.454237
630.878521	38491.737754
631.224585	38250.642051
631.570597	37924.297915
631.916556	38093.322763
632.262462	37991.582196
632.608316	37953.123233
632.954117	37798.939543
633.299866	37746.267047
633.645562	37669.802825
633.991206	37167.547626
634.336797	36756.363392
634.682336	36664.115318
635.027823	36441.024096
635.373257	36320.522875
635.718639	35986.576679
636.063968	35885.504065
636.409245	35247.107466
636.754470	35205.676743
637.099642	34961.886543
637.444762	34387.416815
637.789829	34524.004358
638.134845	34142.573014
638.479808	34048.275711
638.824719	34015.054507
639.169577	33492.889271
639.514383	33611.522744
639.859137	33227.268354
640.203839	33390.768097
640.548489	33101.259673
640.893086	33082.307455
641.237632	32798.162818
641.582125	32902.655855
641.926566	32683.421116
642.270955	32716.178533
642.615292	32653.728719
642.959576	32529.786911
643.303809	32522.124357
643.647990	32635.835144
643.992118	32597.620677
644.336195	32426.561724
644.680219	32494.014883
645.024192	32675.935002
645.368112	33211.139183
645.711981	33222.469176
646.055797	33914.203704
646.399562	33698.238152
646.743274	34575.232563
647.086935	34974.680991
647.430544	34956.328671
647.774101	34995.264022
648.117606	35292.460206
648.461059	35435.507988
648.804460	35058.303651
649.147810	34559.249585
649.491108	34244.880711
649.834354	34146.588293
650.177548	33326.342151
650.520690	32818.027485
650.863781	32807.516679
651.206820	32630.947745
651.549807	32193.736034
651.892742	31615.629114
652.235626	31532.172812
652.578458	31379.730840
652.921238	30686.095797
653.263967	30964.296913
653.606644	30664.577632
653.949269	30573.572202
654.291843	30183.162563
654.634365	30542.057429
654.976836	30082.798231
655.319255	30180.493272
655.661622	30048.064681
656.003938	29917.718087
656.346203	29738.936086
656.688416	29978.693363
657.030577	29761.780075
657.372687	29581.886500
657.714746	29727.086854
658.056753	29909.327086
658.398708	29284.667631
658.740612	29363.014723
659.082465	29570.248996
659.424266	29452.313723
659.766016	29464.132708
660.107715	29305.401897
660.449362	29392.941533
660.790958	29374.475787
661.132503	29295.012078
661.473996	29365.321051
661.815438	29454.229361
662.156829	29570.717823
662.498168	29367.723161
662.839456	29355.039618
663.180693	29483.773043
663.521879	29529.483706
663.863013	29478.915891
664.204097	29459.172212
664.545129	29885.527799
664.886110	29794.965991
665.227040	29906.607384
665.567918	29911.144422
665.908746	29962.538986
666.249522	30056.095239
666.590248	30095.391033
666.930922	30188.917040
667.271545	30196.630006
667.612118	30255.982030
667.952639	30056.143130
668.293109	30103.240110
668.633528	29964.613420
668.973896	29934.185016
669.314213	29902.347609
669.654480	29708.910974
669.994695	29684.519351
670.334859	29620.468971
670.674973	29418.313660
671.015035	29608.793658
671.355047	29545.703618
671.695008	29450.440934
672.034918	29379.453926
672.374777	29463.769745
672.714585	29338.655868
673.054342	29474.247783
673.394049	29325.964763
673.733705	29540.710355
674.073310	29260.598642
674.412864	29320.701798
674.752368	29054.722960
675.091820	29273.682957
675.431223	28888.024605
675.770574	28678.219344
676.109875	28529.865748
676.449125	28326.795468
676.788324	28230.564882
677.127473	27745.331139
677.466571	27647.212641
677.805619	27369.545887
678.144616	27278.631198
678.483562	27227.531542
678.822458	26920.653823
679.161303	26877.809056
679.500098	26783.859593
679.838842	26709.716822
680.177535	26762.873269
680.516179	26966.210730
680.854771	27045.190487
681.193314	27737.532474
681.531805	28676.573407
681.870247	29424.746173
682.208638	30225.104963
682.546978	30590.626426
682.885268	30769.589908
683.223508	30359.562618
683.561697	30107.126840
683.899836	29945.772108
684.237925	29528.886329
684.575963	29362.089672
684.913951	28970.598705
685.251889	29111.458626
685.589776	29105.323542
685.927614	29104.537122
686.265401	29280.324677
686.603137	29377.056857
686.940824	29848.682005
687.278460	30188.339828
687.616046	30359.832320
687.953582	31030.134382
688.291068	30963.966718
688.628504	31331.928099
688.965889	31364.803983
689.303224	31120.136623
689.640510	30856.035614
689.977745	30267.367476
690.314930	29525.488591
690.652065	29119.156468
690.989150	28438.996429
691.326185	27606.162526
691.663170	26998.932860
692.000105	26280.578519
692.336990	25677.694327
692.673825	25257.214206
693.010610	24763.488639
693.347345	24250.979733
693.684030	23632.190702
694.020665	23439.888327
694.357251	22775.822172
694.693786	22781.743007
695.030272	22548.498901
695.366707	22048.229916
695.703093	21754.469279
696.039429	21820.200884
696.375716	21581.711457
696.711952	21582.807908
697.048139	21447.334460
697.384276	21284.081734
697.720363	21390.618959
698.056400	21285.122732
698.392388	21124.879575
698.728326	21117.925303
699.064214	20979.981690
699.400053	20994.134729
699.735842	20594.046075
700.071581	20418.145094
700.407270	20188.943993
700.742910	20006.199646
701.078501	19761.113869
701.414042	19556.616943
701.749533	19268.772099
702.084974	18946.355023
702.420366	19186.039203
702.755709	18778.421585
703.091002	18472.065625
703.426246	18529.539820
703.761440	18470.202918
704.096584	18238.264471
704.431679	18166.501126
704.766725	18117.322149
705.101721	18030.826032
705.436668	18132.004510
705.771565	17850.088063
706.106413	18163.063059
706.441212	18236.661384
706.775961	18323.391916
707.110661	18392.092760
707.445311	18750.939735
707.779913	18643.313621
708.114465	18925.320808
708.448967	19227.003619
708.783421	19830.961576
709.117825	20173.041673
709.452180	20381.100175
709.786485	20826.128195
710.120742	21558.743960
710.454949	21653.295842
710.789107	22169.315911
711.123216	22858.776879
711.457275	23091.894956
711.791286	23661.371421
712.125247	23832.689993
712.459159	23605.525518
712.793023	24370.505491
713.126837	23389.287745
713.460602	23661.530217
713.794318	23341.800076
714.127985	23071.667326
714.461602	22196.039068
714.795171	22177.860667
715.128691	21207.448634
715.462162	20696.179852
715.795584	20265.945098
716.128957	19997.387709
716.462281	19624.924577
716.795556	19338.208952
717.128782	18868.920379
717.461960	18278.976830
717.795088	18244.797807
718.128167	17905.636537
718.461198	17453.160212
718.794180	17331.814598
719.127113	17007.497007
719.459997	16827.192578
719.792833	16443.505317
720.125619	16476.517313
720.458357	16152.378683
720.791046	16015.355080
721.123686	15856.604104
721.456278	15633.356606
721.788821	15632.297964
722.121315	15377.704571
722.453761	15468.069774
722.786158	15349.748852
723.118506	15431.443271
723.450805	15323.280274
723.783056	15493.179762
724.115259	15377.412184
724.447412	15348.453276
724.779518	15566.054682
725.111574	15620.831859
725.443582	15868.004673
725.775542	15819.927189
726.107453	16321.592573
726.439315	16222.793519
726.771129	16617.273890
727.102895	17020.283893
727.434612	17305.968602
727.766281	17482.590468
728.097901	17800.576371
728.429473	17919.076254
728.760996	17932.528573
729.092471	18059.142193
729.423897	17935.296166
729.755276	17784.215306
730.086606	17864.087348
730.417887	18410.767715
730.749120	18954.030179
731.080305	19167.288631
731.411442	19584.035778
731.742530	19701.416525
732.073570	19843.443473
732.404562	20163.604633
732.735506	20067.658873
733.066401	19944.488361
733.397249	19508.110960
733.728048	18910.030989
734.058798	18071.137618
734.389501	17317.883369
734.720156	16796.406251
735.050762	16217.253291
735.381320	15814.817980
735.711831	15519.270253
736.042293	15136.059382
736.372707	15160.030068
736.703073	14944.104846
737.033391	15128.369102
737.363661	15110.851092
737.693883	15212.291710
738.024056	15408.533747
738.354182	15608.972545
738.684260	15958.105216
739.014290	16222.649847
739.344272	16441.955162
739.674207	16798.412630
740.004093	16982.097153
740.333931	17050.911423
740.663722	17140.510371
740.993464	17197.097323
741.323159	17071.633086
741.652806	16780.546781
741.982405	16626.768903
742.311956	16266.880930
742.641460	16176.649318
742.970915	15850.501787
743.300323	15498.914074
743.629683	15298.376974
743.958996	14993.939173
744.288260	14681.168344
744.617477	14368.601682
744.946647	14337.865767
745.275768	14018.549000
745.604842	13813.457218
745.933869	13635.469199
746.262847	13599.344290
746.591778	13509.952030
746.920662	13380.555693
747.249498	13381.261454
747.578286	13520.949307
747.907027	13674.679293
748.235720	13939.919603
748.564365	14019.516902
748.892963	13955.038023
749.221514	14074.389861
749.550017	13952.293115
749.878473	13934.386937
750.206881	13716.898957
750.535242	13645.861537
750.863555	13572.432091
751.191821	13465.582314
751.520039	13479.400117
751.848210	13387.938463
752.176334	13430.710133
752.504411	13368.469527
752.832440	13190.630222
753.160421	13311.915342
753.488356	13201.887118
753.816243	13110.929579
754.144082	12942.091255
754.471875	12885.973130
754.799620	12839.473527
755.127318	12824.193790
755.454969	12813.047799
755.782572	12772.350564
756.110129	12783.967903
756.437638	12701.698793
756.765100	12705.693907
757.092515	12729.515879
757.419882	12758.063934
757.747203	12766.248247
758.074477	12838.548475
758.401703	12819.966782
758.728882	13009.083148
759.056014	13047.370712
759.383099	13218.104510
759.710138	13341.645547
760.037129	13466.547695
760.364073	13536.481102
760.690970	13568.923448
761.017820	13569.576277
761.344623	13763.701029
761.671379	14084.409155
761.998088	14620.687101
762.324751	16030.657502
762.651366	18954.123441
762.977935	23260.599690
763.304456	26548.664560
763.630931	28134.029307
763.957359	27350.641561
764.283740	25314.091024
764.610074	23166.627541
764.936362	20541.658404
765.262602	18656.768461
765.588796	16685.954570
765.914943	15354.777403
766.241044	14209.785171
766.567097	13387.215057
766.893104	12646.457829
767.219064	12171.931497
767.544978	11683.320181
767.870845	11288.365941
768.196665	11063.807743
768.522438	10831.634882
768.848165	10628.730961
769.173846	10416.410163
769.499479	10290.789651
769.825066	10122.339495
770.150607	9897.514116
770.476101	9822.075769
770.801548	9707.119817
771.126949	9549.989572
771.452303	9428.459956
771.777611	9235.776974
772.102872	9227.411179
772.428087	9090.324562
772.753256	8940.907283
773.078378	8854.375877
773.403453	8671.838217
773.728482	8558.896206
774.053465	8477.718505
774.378401	8375.919965
774.703291	8259.910412
775.028135	8143.086713
775.352932	8109.565561
775.677683	8004.931371
776.002388	7898.106801
776.327046	7909.522494
776.651658	7811.782082
776.976224	7705.053294
777.300743	7707.072276
777.625216	7620.064481
777.949643	7572.977583
778.274024	7598.669824
778.598359	7506.729260
778.922647	7519.642176
779.246889	7472.532593
779.571086	7481.646999
779.895236	7481.941907
780.219339	7492.606468
780.543397	7494.068402
780.867409	7572.738129
781.191374	7588.552228
781.515294	7557.367651
781.839167	7642.389231
782.162995	7619.008359
782.486776	7571.424908
782.810511	7526.188114
783.134201	7443.011596
783.457844	7431.371572
783.781441	7375.513067
784.104993	7315.306566
784.428498	7299.119421
784.751958	7277.825587
785.075372	7245.859631
785.398739	7193.416507
785.722061	7230.284986
786.045337	7232.704740
786.368568	7373.446194
786.691752	7375.760083
787.014891	7667.627768
787.337983	7973.653532
787.661030	8522.519240
787.984031	9142.162747
788.306987	9572.886493
788.629897	9836.876597
788.952760	9839.155198
789.275579	9658.233228
789.598351	9278.906566
789.921078	8944.733518
790.243759	8543.061942
790.566395	8256.169876
790.888984	8000.033890
791.211529	7791.317518
791.534027	7559.303454
791.856480	7355.870211
792.178888	7276.023375
792.501249	7178.643406
792.823566	7021.109869
793.145836	7016.603077
793.468062	6986.076370
793.790241	6932.456138
794.112375	6989.002760
794.434464	7132.448793
794.756507	7157.543657
795.078505	7292.394522
795.400457	7575.853562
795.722364	7911.206239
796.044226	8198.068058
796.366042	8490.654106
796.687812	8463.593192
797.009538	8560.942914
797.331218	8471.475036
797.652852	8400.041886
797.974442	8251.121161
798.295986	8167.095208
798.617484	7980.461611
798.938938	7844.055549
799.260346	7744.202894
799.581709	7548.182668
799.903026	7468.149310
800.224299	7365.375306
800.545526	7198.419853
800.866708	7097.475788
801.187845	7026.148502
801.508936	6924.284427
801.829983	6891.050620
802.150984	6741.111582
802.471940	6696.578028
802.792851	6680.683270
803.113717	6647.446943
803.434538	6616.073322
803.755314	6558.795732
804.076045	6553.673920
804.396731	6499.763821
804.717372	6525.297265
805.037967	6518.436254
805.358518	6560.441669
805.679024	6639.371015
805.999485	6650.388456
806.319901	6689.480084
806.640272	6708.621345
806.960598	6794.933461
807.280879	6795.561084
807.601115	6876.897581
807.921306	6823.859601
808.241453	6833.730181
808.561554	6861.698502
808.881611	6832.578277
809.201623	6837.569019
809.521590	6784.780577
809.841513	6764.119408
810.161390	6806.243289
810.481223	6676.446181
810.801011	6661.242061
811.120755	6638.062835
811.440453	6561.772533
811.760107	6530.724067
812.079716	6495.698130
812.399281	6435.045487
812.718801	6419.720380
813.038276	6379.232353
813.357707	6317.453012
813.677093	6355.972469
813.996434	6257.191059
814.315731	6299.234282
814.634983	6289.734228
814.954191	6296.779240
815.273354	6396.006792
815.592473	6444.822805
815.911547	6561.260856
816.230577	6639.902856
816.549562	6781.400483
816.868502	6885.036524
817.187399	6973.780996
817.506250	7114.721575
817.825058	7139.309803
818.143821	7381.552369
818.462539	7621.108000
818.781213	7940.142462
819.099843	8423.947038
819.418429	9320.385179
819.736970	10218.602848
820.055466	11313.765795
820.373919	12679.921008
820.692327	14668.933464
821.010691	17970.957288
821.329011	25365.135227
821.647286	36937.807122
821.965517	50767.262442
822.283704	58274.349624
822.601847	61452.000621
822.919945	59265.455593
823.237999	55416.461535
823.556010	49453.532708
823.873976	42841.230169
824.191897	36402.895329
824.509775	31586.453436
824.827609	26970.644425
825.145398	24178.394680
825.463144	22526.196836
825.780845	22423.536258
826.098502	23653.718949
826.416116	26935.142099
826.733685	30626.007764
827.051210	32428.051385
827.368692	31508.169358
827.686129	28019.070834
828.003522	24039.699935
828.320872	20317.405196
828.638177	17441.651258
828.955439	15249.505508
829.272656	13424.570007
829.589830	11946.481014
829.906960	10651.547223
830.224046	9681.946816
830.541088	8907.292869
830.858086	8420.415710
831.175041	8013.607197
831.491952	7859.456274
831.808819	7845.789706
832.125642	8139.497412
832.442421	8835.829472
832.759157	10311.687754
833.075849	12865.218700
833.392497	15977.783360
833.709101	18444.830791
834.025662	18810.332089
834.342179	17472.861042
834.658653	15426.545790
834.975083	13514.962937
835.291469	11877.449974
835.607811	10549.229444
835.924110	9636.629363
836.240366	8778.897201
836.556578	7972.559602
836.872746	7319.606671
837.188871	6805.235058
837.504952	6376.477362
837.820990	6058.577159
838.136984	5821.418597
838.452935	5709.527667
838.768842	5689.128638
839.084706	5969.237831
839.400526	6930.661487
839.716303	8418.391686
840.032037	9659.584257
840.347727	9883.570284
840.663373	9097.510727
840.978977	8061.999753
841.294537	7232.198104
841.610054	6618.450226
841.925527	6186.947622
842.240957	5821.627805
842.556344	5501.330534
842.871687	5215.212286
843.186987	4932.791724
843.502244	4707.505079
843.817458	4540.952918
844.132629	4398.618459
844.447756	4303.136485
844.762840	4225.253178
845.077881	4147.876508
845.392879	4090.235955
845.707833	4037.961710
846.022745	3997.501409
846.337613	3968.729024
846.652438	3925.528856
846.967221	3907.100918
847.281960	3878.913306
847.596656	3860.303887
847.911309	3841.124817
848.225919	3815.374603
848.540485	3796.606388
848.855009	3785.881333
849.169490	3764.587499
849.483928	3749.222062
849.798323	3743.855754
850.112675	3730.070718
850.426984	3733.498703
850.741251	3719.358267
851.055474	3711.128583
851.369654	3716.346177
851.683792	3717.470354
851.997887	3720.205180
852.311938	3723.771797
852.625947	3728.666757
852.939914	3714.838872
853.253837	3726.032754
853.567718	3722.529152
853.881555	3713.487843
854.195350	3728.782704
854.509103	3724.270871
854.822812	3723.691138
855.136479	3711.509190
855.450103	3723.676015
855.763685	3706.873849
856.077224	3710.533727
856.390720	3724.512846
856.704173	3743.649066
857.017584	3754.595932
857.330953	3767.077829
857.644278	3788.938793
857.957561	3791.086324
858.270802	3792.296201
858.584000	3799.293323
858.897155	3792.674288
859.210268	3779.227010
859.523339	3755.548710
859.836367	3755.188268
860.149352	3749.103595
860.462295	3740.417687
860.775195	3729.405286
861.088054	3725.828588
861.400869	3721.241138
861.713642	3717.276270
862.026373	3727.376222
862.339062	3734.325452
862.651708	3751.127618
862.964312	3782.813791
863.276873	3789.546252
863.589392	3843.809232
863.901869	3889.832446
864.214303	3928.165379
864.526696	3963.662664
864.839045	4008.128162
865.151353	4036.227553
865.463619	4046.035118
865.775842	4048.918658
866.088023	4072.700301
866.400162	4057.859144
866.712258	4068.518664
867.024313	4071.757606
867.336325	4070.734251
867.648296	4077.650714
867.960224	4073.448913
868.272110	4085.779575
868.583954	4085.436777
868.895755	4098.568982
869.207515	4094.120164
869.519233	4129.577120
869.830909	4142.895848
870.142542	4163.020134
870.454134	4181.485881
870.765684	4207.402453
871.077191	4238.357658
871.388657	4262.325824
871.700081	4296.328407
872.011463	4334.474818
872.322803	4367.948079
872.634101	4400.410589
872.945357	4434.748409
873.256571	4487.234382
873.567744	4519.132283
873.878874	4534.875807
874.189963	4577.322322
874.501010	4584.019495
874.812015	4585.904886
875.122979	4624.883088
875.433900	4619.952839
875.744780	4633.485817
876.055618	4660.004807
876.366415	4657.506915
876.677169	4676.189431
876.987882	4712.513465
877.298554	4760.366618
877.609183	4821.500691
877.919771	4923.460548
878.230317	5044.934712
878.540822	5230.202157
878.851285	5504.241800
879.161707	5894.278394
879.472087	6525.221647
879.782425	7538.133128
880.092722	9342.843520
880.402977	12156.946667
880.713191	15620.121057
881.023363	19261.228013
881.333494	21697.027851
881.643583	23132.123364
881.953631	23358.183826
882.263637	22723.116908
882.573602	21455.435594
882.883526	20042.528721
883.193408	18491.005240
883.503248	16903.402221
883.813048	15442.284272
884.122806	14088.739506
884.432522	12667.497084
884.742197	11452.029522
885.051831	10387.020237
885.361424	9407.080423
885.670975	8587.973581
885.980485	7905.865137
886.289954	7335.390523
886.599382	6867.324430
886.908768	6493.467419
887.218113	6138.673532
887.527417	5849.432289
887.836680	5585.936219
888.145901	5373.123909
888.455082	5205.765163
888.764221	5060.975663
889.073319	4925.703861
889.382376	4853.940516
889.691392	4785.559784
890.000366	4753.634157
890.309300	4740.406169
890.618193	4740.050768
890.927044	4722.626020
891.235855	4744.577724
891.544625	4760.386783
891.853353	4810.243794
892.162041	4907.991767
892.470687	5063.183688
892.779293	5272.905771
893.087858	5591.363021
893.396381	6077.521816
893.704864	6752.118941
894.013306	7765.668128
894.321707	8894.639572
894.630068	9768.090052
894.938387	10109.802145
895.246665	9995.057922
895.554903	9478.664807
895.863100	8827.365374
896.171256	8310.878998
896.479371	7828.012077
896.787446	7346.866710
897.095480	6932.879594
897.403473	6623.524148
897.711425	6318.501572
898.019336	6062.594959
898.327207	5794.438342
898.635038	5573.204785
898.942827	5334.523794
899.250576	5141.528260
899.558284	4952.051452
899.865952	4832.195499
900.173579	4687.907593
900.481165	4577.027414
900.788711	4488.895442
901.096216	4418.576387
901.403681	4352.048280
901.711105	4318.794309
902.018489	4298.420485
902.325832	4349.999051
902.633135	4435.219757
902.940397	4691.817008
903.247619	5298.290501
903.554800	6478.853114
903.861941	8211.933751
904.169041	9772.337225
904.476101	10602.040572
904.783121	10472.296395
905.090100	9854.465182
905.397039	9079.332326
905.703938	8367.062658
906.010796	7704.234106
906.317614	7172.349526
906.624391	6667.059552
906.931129	6255.111583
907.237826	5871.636051
907.544483	5516.396022
907.851099	5161.483668
908.157675	4816.366276
908.464211	4493.843335
908.770707	4252.833331
909.077163	4049.042166
909.383578	3907.852050
909.689954	3783.219603
909.996289	3709.003737
910.302584	3646.130466
910.608839	3608.715022
910.915054	3579.362904
911.221229	3558.492527
911.527363	3569.388981
911.833458	3577.941298
912.139513	3602.859722
912.445527	3622.989049
912.751502	3693.867672
913.057436	3779.040487
913.363331	3894.588774
913.669186	4064.815937
913.975000	4282.021612
914.280775	4640.709790
914.586510	5130.049553
914.892205	5805.095341
915.197859	6728.791002
915.503475	7845.514963
915.809050	8884.897543
916.114585	9589.875182
916.420081	9947.255181
916.725536	10000.315846
917.030952	9644.947267
917.336328	9278.324312
917.641665	8913.317047
917.946961	8477.983166
918.252218	8074.587515
918.557435	7595.319977
918.862612	7193.655962
919.167750	6839.280491
919.472848	6444.928670
919.777906	6088.829124
920.082925	5738.776442
920.387904	5384.027925
920.692843	5122.694510
920.997743	4877.049165
921.302603	4638.509327
921.607423	4481.747086
921.912204	4323.449814
922.216946	4207.208368
922.521647	4095.640072
922.826310	3991.431860
923.130932	3900.585227
923.435516	3806.048469
923.740059	3737.685381
924.044564	3664.651665
924.349028	3605.907099
924.653454	3542.965773
924.957840	3477.841627
925.262186	3434.228084
925.566493	3375.493601
925.870761	3323.085766
926.174989	3287.699386
926.479178	3249.847882
926.783328	3212.324054
927.087438	3184.643078
927.391509	3155.472441
927.695541	3121.273254
927.999533	3097.176538
928.303486	3076.898497
928.607400	3059.783780
928.911275	3049.121739
929.215110	3032.949718
929.518906	3024.599046
929.822663	3023.739530
930.126381	3016.497912
930.430060	3024.041999
930.733699	3026.005528
931.037299	3034.978782
931.340861	3032.410314
931.644383	3044.584701
931.947866	3044.067983
932.251309	3035.913916
932.554714	3035.074564
932.858080	3029.347813
933.161407	3023.714324
933.464694	3013.266532
933.767943	3011.232427
934.071153	3009.236130
934.374323	2995.224243
934.677455	2994.342041
934.980548	2985.595639
935.283602	2979.878971
935.586617	2972.856643
935.889593	2983.979949
936.192530	2985.520022
936.495428	2997.127278
936.798287	3016.306348
937.101108	3038.860471
937.403890	3086.469128
937.706632	3139.585245
938.009336	3212.157696
938.312002	3285.594704
938.614628	3343.726770
938.917216	3397.828433
939.219765	3429.691046
939.522275	3464.084318
939.824747	3471.681337
940.127179	3470.234526
940.429573	3467.625729
940.731929	3463.635655
941.034246	3454.753142
941.336524	3443.408026
941.638763	3429.731375
941.940964	3415.326278
942.243126	3383.435939
942.545250	3359.916436
942.847335	3324.151970
943.149381	3290.892957
943.451389	3258.730396
943.753359	3223.520457
944.055290	3199.592620
944.357182	3174.583456
944.659036	3159.207936
944.960851	3152.868685
945.262628	3138.501397
945.564367	3137.871253
945.866067	3132.633494
946.167729	3128.161990
946.469352	3127.335241
946.770937	3123.435909
947.072484	3108.302365
947.373992	3113.441821
947.675462	3105.194493
947.976893	3089.602205
948.278286	3083.792275
948.579641	3075.456727
948.880958	3070.639904
949.182236	3071.070923
949.483476	3063.090777
949.784678	3062.765622
950.085841	3062.596743
950.386967	3072.205183
950.688054	3088.306628
950.989103	3104.241715
951.290114	3123.380456
951.591087	3143.918117
951.892021	3174.785102
952.192917	3202.108156
952.493776	3225.657906
952.794596	3236.748444
953.095378	3243.180957
953.396122	3238.953949
953.696828	3233.716190
953.997496	3223.661609
954.298126	3204.366592
954.598718	3187.942513
954.899272	3162.615756
955.199788	3139.121459
955.500266	3111.100205
955.800706	3079.653488
956.101108	3044.357849
956.401472	3013.818539
956.701798	2985.245279
957.002087	2940.787343
957.302337	2918.351688
957.602550	2892.916546
957.902724	2864.003008
958.202861	2837.496621
958.502960	2817.629434
958.803022	2801.505303
959.103045	2777.834566
959.403031	2761.067688
959.702979	2750.577047
960.002889	2737.152454
960.302762	2726.525702
960.602596	2715.372149
960.902393	2703.822865
961.202153	2694.360620
961.501875	2689.800896
961.801559	2685.263857
962.101205	2676.439318
962.400814	2673.228103
962.700385	2665.328615
962.999918	2656.902326
963.299414	2652.844197
963.598873	2650.542910
963.898293	2645.075779
964.197677	2645.879843
964.497022	2642.782054
964.796331	2641.247023
965.095601	2638.214769
965.394835	2637.927423
965.694030	2635.832823
965.993189	2635.263173
966.292309	2631.489869
966.591393	2632.863584
966.890439	2629.299488
967.189447	2631.782256
967.488419	2632.079684
967.787353	2632.724952
968.086249	2634.373409
968.385108	2634.272586
968.683930	2636.412556
968.982714	2640.256436
969.281462	2642.424132
969.580172	2648.967550
969.878844	2653.050884
970.177480	2661.114210
970.476078	2669.296003
970.774639	2675.610048
971.073162	2682.526511
971.371649	2687.829805
971.670098	2693.087728
971.968510	2699.033769
972.266885	2703.233050
972.565223	2704.732794
972.863524	2709.942826
973.161788	2710.290666
973.460014	2714.162272
973.758204	2717.005483
974.056356	2720.536811
974.354471	2723.546380
974.652550	2721.305587
974.950591	2719.636965
975.248595	2718.853066
975.546563	2718.905998
975.844493	2714.878116
976.142386	2708.644729
976.440243	2703.827907
976.738062	2701.007381
977.035845	2696.974458
977.333590	2688.613704
977.631299	2685.531039
977.928971	2676.739266
978.226606	2673.540654
978.524204	2669.752227
978.821765	2663.944818
979.119290	2666.170487
979.416777	2663.463388
979.714228	2666.397339
980.011642	2669.419511
980.309020	2677.568536
980.606360	2687.744105
980.903664	2704.944522
981.200931	2734.120200
981.498162	2772.541354
981.795356	2837.504183
982.092513	2916.151224
982.389633	3010.834176
982.686717	3101.857250
982.983764	3179.909435
983.280775	3233.993454
983.577749	3251.408120
983.874686	3243.559043
984.171587	3216.140207
984.468451	3182.964374
984.765279	3145.417860
985.062070	3104.932353
985.358824	3064.436765
985.655543	3012.044053
985.952224	2964.246353
986.248869	2906.459606
986.545478	2850.659074
986.842050	2795.218985
987.138586	2751.207191
987.435086	2712.594473
987.731549	2681.919052
988.027975	2659.753098
988.324366	2641.259626
988.620719	2624.656585
988.917037	2615.186778
989.213318	2608.182095
989.509563	2598.185487
989.805772	2590.217943
990.101944	2588.940010
990.398080	2587.049578
990.694180	2587.334403
990.990244	2586.137129
991.286271	2584.574371
991.582262	2589.393714
991.878217	2589.837336
992.174136	2590.291040
992.470019	2596.030393
992.765865	2593.030907
993.061676	2599.115579
993.357450	2607.478854
993.653188	2611.327775
993.948890	2628.510547
994.244556	2641.443628
994.540186	2662.785352
994.835780	2691.978674
995.131337	2725.913202
995.426859	2760.190527
995.722345	2803.252063
996.017795	2851.236286
996.313208	2887.724158
996.608586	2918.918818
996.903928	2932.222423
997.199234	2936.683844
997.494504	2934.374995
997.789738	2923.108017
998.084936	2904.896848
998.380099	2875.539689
998.675225	2850.207891
998.970316	2823.225115
999.265371	2790.835701
999.560390	2755.668612
999.855373	2727.269272
1000.150320	2698.880014
1000.445232	2674.296827
1000.740108	2653.766728
1001.034948	2637.579583
1001.329752	2623.744137
1001.624521	2610.697630
1001.919254	2597.036103
1002.213951	2592.509147
1002.508613	2582.804926
1002.803239	2576.944585
1003.097829	2572.619275
1003.392384	2567.434448
1003.686903	2564.692060
1003.981386	2558.052861
1004.275834	2556.767367
1004.570246	2554.294681
1004.864623	2550.808723
1005.158964	2547.905018
1005.453270	2546.599359
1005.747540	2543.647764
1006.041775	2546.339740
1006.335974	2539.655170
1006.630138	2538.336908
1006.924266	2539.594676
1007.218359	2538.778009
1007.512416	2538.835982
1007.806438	2535.549150
1008.100425	2536.267514
1008.394376	2532.098480
1008.688292	2537.923533
1008.982172	2537.807587
1009.276017	2536.494366
1009.569827	2531.014632
1009.863602	2532.121165
1010.157341	2535.526465
1010.451045	2533.570497
1010.744714	2531.869108
1011.038347	2533.625950
1011.331945	2530.371885
1011.625508	2531.828778
1011.919036	2529.376257
1012.212528	2528.725948
1012.505986	2526.880886
1012.799408	2526.785104
1013.092795	2523.967099
1013.386147	2527.276617
1013.679464	2524.549352
1013.972745	2522.361492
1014.265992	2524.042716
1014.559204	2525.764270
1014.852380	2524.617408
1015.145521	2523.722603
1015.438628	2523.231091
1015.731699	2525.305525
1016.024736	2522.263189
1016.317737	2529.282996
1016.610703	2527.937008
1016.903635	2528.859539
1017.196531	2528.461288
1017.489393	2530.573531
1017.782219	2531.186031
1018.075011	2531.531350
1018.367768	2534.566125
1018.660490	2534.432534
1018.953177	2534.432534
1019.245829	2534.432534
