Dividing Wavelength (nm)	Counts (n)	Blue Motor Position (mm): 3.000000	Red Motor Position (mm): 0.000000	
326.493990	2065.824517
326.888308	2065.824517
327.282561	2065.824517
327.676750	2044.074459
328.070874	2042.156300
328.464933	2047.867927
328.858929	2057.045348
329.252859	2067.719991
329.646726	2080.544686
330.040528	2098.513879
330.434265	2113.443256
330.827938	2134.689199
331.221547	2156.323311
331.615091	2175.701506
332.008571	2193.917716
332.401986	2215.882023
332.795338	2237.508573
333.188625	2255.147570
333.581847	2275.637340
333.975006	2291.814403
334.368100	2309.077834
334.761129	2325.645586
335.154095	2344.348267
335.546996	2356.414269
335.939833	2370.080837
336.332606	2386.993908
336.725315	2397.209806
337.117960	2405.121897
337.510540	2415.363001
337.903056	2425.339445
338.295508	2431.600558
338.687896	2440.271342
339.080220	2445.186467
339.472480	2449.993208
339.864676	2453.496809
340.256807	2458.439661
340.648875	2457.658282
341.040879	2458.905967
341.432818	2461.744137
341.824694	2463.092646
342.216506	2458.180041
342.608253	2459.052161
342.999937	2458.691718
343.391557	2460.945114
343.783113	2458.560648
344.174605	2456.332458
344.566033	2454.293312
344.957397	2453.814402
345.348697	2451.586212
345.739934	2451.669391
346.131106	2449.887343
346.522215	2445.383072
346.913260	2446.691252
347.304241	2441.929882
347.695159	2442.252516
348.086012	2443.217897
348.476802	2437.723039
348.867528	2434.766402
349.258191	2432.565939
349.648789	2433.198603
350.039324	2429.299271
350.429796	2429.931936
350.820203	2432.991916
351.210548	2431.625763
351.600828	2430.975455
351.991045	2431.920671
352.381198	2429.127872
352.771288	2430.647780
353.161314	2429.465629
353.551276	2430.100814
353.941175	2429.354724
354.331010	2429.999991
354.720782	2427.885227
355.110490	2430.504107
355.500135	2429.117789
355.889717	2427.978489
356.279235	2428.429672
356.668689	2429.705084
357.058080	2433.085177
357.447408	2429.740372
357.836672	2434.776485
358.225873	2432.601227
358.615010	2433.795980
359.004084	2434.859664
359.393095	2434.045517
359.782043	2433.367482
360.170927	2436.581218
360.559748	2433.609457
360.948505	2435.157092
361.337199	2437.367638
361.725830	2437.160950
362.114398	2438.557350
362.502903	2440.596497
362.891344	2435.411670
363.279722	2436.881166
363.668037	2441.017433
364.056289	2438.748914
364.444478	2438.630447
364.832603	2439.941147
365.220665	2440.314192
365.608665	2441.360232
365.996601	2440.432659
366.384474	2441.990376
366.772284	2440.951898
367.160031	2440.203287
367.547715	2441.332505
367.935336	2440.974583
368.322893	2439.318564
368.710388	2438.287648
369.097820	2440.399892
369.485189	2438.496856
369.872495	2442.096240
370.259738	2444.831066
370.646918	2441.982814
371.034035	2444.957095
371.421090	2444.949533
371.808081	2444.069852
372.195010	2447.270984
372.581875	2446.789554
372.968678	2445.216714
373.355418	2444.977259
373.742096	2446.892898
374.128710	2447.739812
374.515262	2446.918104
374.901751	2446.671087
375.288177	2448.180913
375.674540	2445.405758
376.060841	2448.006993
376.447079	2448.450614
376.833254	2447.941458
377.219367	2447.752415
377.605417	2448.886674
377.991404	2448.498505
378.377329	2448.506067
378.763191	2449.088320
379.148991	2450.940944
379.534727	2451.929011
379.920402	2449.337858
380.306013	2451.371963
380.691563	2449.713423
381.077049	2448.679987
381.462474	2449.473969
381.847835	2452.370112
382.233134	2452.559155
382.618371	2451.747529
383.003545	2451.457663
383.388657	2450.555296
383.773706	2452.150821
384.158693	2452.007148
384.543618	2452.692745
384.928480	2449.841973
385.313280	2451.124947
385.698017	2452.029834
386.082692	2452.881789
386.467305	2454.585699
386.851856	2454.222736
387.236344	2455.944290
387.620770	2450.492282
388.005133	2451.301387
388.389435	2450.915739
388.773674	2448.788372
389.157851	2456.476131
389.541965	2453.390945
389.926018	2453.441357
390.310008	2455.399845
390.693936	2454.252982
391.077802	2454.678960
391.461606	2457.290278
391.845348	2454.888168
392.229027	2455.788014
392.612645	2455.964454
392.996200	2457.169290
393.379694	2455.319187
393.763125	2455.389763
394.146494	2458.225412
394.529801	2458.389249
394.913047	2456.743312
395.296230	2460.052830
395.679351	2456.269444
396.062410	2457.663323
396.445408	2457.549897
396.828343	2456.839094
397.211217	2458.106945
397.594028	2459.253807
397.976778	2459.710032
398.359466	2459.473097
398.742092	2459.647017
399.124656	2460.395628
399.507158	2459.132819
399.889598	2460.929991
400.271977	2462.457460
400.654294	2458.298508
401.036549	2457.355813
401.418742	2462.036524
401.800874	2459.962089
402.182944	2462.452419
402.564952	2456.652572
402.946898	2460.451081
403.328783	2460.100721
403.710606	2460.766153
404.092367	2461.970989
404.474067	2459.848663
404.855705	2461.739096
405.237282	2461.862604
405.618797	2461.600464
406.000250	2464.554580
406.381642	2461.839919
406.762972	2460.491410
407.144240	2459.710032
407.525447	2460.057871
407.906593	2459.344548
408.287677	2459.788169
408.668700	2464.393263
409.049661	2464.239508
409.430560	2466.147585
409.811399	2464.350414
410.192176	2465.492235
410.572891	2465.073819
410.953545	2464.388222
411.334138	2465.003243
411.714669	2463.695064
412.095139	2467.034828
412.475547	2465.716566
412.855894	2465.018367
413.236180	2462.563325
413.616405	2463.180866
413.996568	2466.684468
414.376670	2467.112966
414.756711	2469.099181
415.136691	2466.596248
415.516609	2462.961576
415.896466	2466.114818
416.276262	2465.469550
416.655997	2464.794035
417.035670	2467.004581
417.415283	2467.604478
417.794834	2465.893007
418.174324	2464.662965
418.553753	2469.139510
418.933121	2466.949128
419.312428	2468.937864
419.691674	2466.802935
420.070859	2468.590024
420.449983	2467.891824
420.829045	2466.523151
421.208047	2467.823769
421.586988	2466.097173
421.965867	2469.515076
422.344686	2467.969962
422.723444	2470.188070
423.102141	2469.026084
423.480777	2468.897534
423.859352	2469.164716
424.237866	2469.605817
424.616319	2469.467185
424.994712	2469.557926
425.373044	2469.709160
425.751314	2468.453913
426.129524	2465.260342
426.507673	2469.638584
426.885762	2465.283027
427.263789	2472.088585
427.641756	2470.745117
428.019662	2468.211937
428.397508	2470.697226
428.775292	2468.877370
429.153016	2473.288379
429.530679	2469.898203
429.908282	2471.839048
430.285824	2471.428194
430.663305	2468.557257
431.040726	2471.846609
431.418086	2473.048925
431.795385	2470.215796
432.172624	2472.131435
432.549802	2472.454068
432.926920	2472.060858
433.303977	2469.298306
433.680974	2470.369551
434.057910	2472.504480
434.434786	2472.058338
434.811601	2472.766620
435.188355	2472.665797
435.565050	2472.668318
435.941683	2470.782926
436.318257	2469.666310
436.694770	2473.946250
437.071222	2470.611527
437.447614	2476.164358
437.823946	2473.026239
438.200218	2475.067907
438.576429	2471.133286
438.952580	2475.962712
439.328670	2473.268215
439.704700	2475.158648
440.080670	2473.724439
440.456580	2473.237968
440.832429	2478.029585
441.208218	2473.921044
441.583947	2474.979687
441.959616	2473.989100
442.335224	2476.532362
442.710773	2477.593525
443.086261	2475.617392
443.461689	2474.631847
443.837057	2475.655201
444.212365	2475.274594
444.587612	2471.244192
444.962800	2469.961218
445.337927	2473.719398
445.712995	2471.047587
446.088002	2477.588484
446.462949	2479.990593
446.837837	2476.522280
447.212664	2477.865747
447.587431	2474.621765
447.962139	2475.330047
448.336786	2477.273412
448.711374	2474.228555
449.085901	2477.165027
449.460369	2477.439770
449.834776	2477.442290
450.209124	2476.449183
450.583412	2474.515900
450.957640	2476.262660
451.331808	2475.675366
451.705917	2476.355922
452.079965	2475.914821
452.453954	2476.340798
452.827883	2474.641929
453.201752	2477.659060
453.575562	2477.855665
453.949311	2477.021354
454.323001	2477.172588
454.696632	2478.236272
455.070202	2477.268370
455.443713	2479.022692
455.817164	2477.081848
456.190556	2478.561426
456.563888	2478.581591
456.937160	2477.333905
457.310373	2476.441621
457.683526	2478.916828
458.056619	2476.091261
458.429653	2475.609831
458.802628	2476.986066
459.175542	2475.569502
459.548398	2476.182002
459.921194	2481.513022
460.293930	2477.303658
460.666607	2477.752321
461.039224	2480.953454
461.411782	2478.387507
461.784280	2477.885912
462.156719	2479.758700
462.529099	2482.004534
462.901419	2478.122846
463.273680	2478.488330
463.645882	2474.641929
464.018024	2475.720736
464.390106	2474.185705
464.762130	2480.824904
465.134094	2475.130921
465.505999	2480.497229
465.877845	2479.972949
466.249631	2479.791468
466.621358	2478.669811
466.993026	2480.721561
467.364634	2484.837663
467.736184	2480.109061
468.107674	2481.059318
468.479105	2482.697693
468.850477	2479.907414
469.221790	2480.882878
469.593043	2478.765593
469.964238	2479.241982
470.335373	2479.073103
470.706449	2481.187867
471.077467	2481.770121
471.448425	2478.291725
471.819324	2477.744759
472.190164	2480.461941
472.560945	2479.115953
472.931667	2480.280460
473.302330	2482.480923
473.672934	2481.911273
474.043479	2483.095944
474.413965	2481.041674
474.784393	2482.175934
475.154761	2482.710296
475.525070	2482.400265
475.895321	2480.144349
476.265513	2480.585450
476.635645	2480.497229
477.005719	2481.306335
477.375734	2482.344812
477.745691	2481.845738
478.115588	2480.585450
478.485427	2481.513022
478.855207	2484.015955
479.224928	2484.101654
479.594591	2480.857672
479.964194	2482.183495
480.333739	2481.056798
480.703226	2481.802888
481.072653	2480.136787
481.442022	2480.688793
481.811333	2479.700727
482.180584	2478.294245
482.549777	2480.986221
482.918912	2479.252064
483.287988	2480.784575
483.657005	2484.474700
484.025964	2484.446973
484.394864	2480.890439
484.763706	2481.787765
485.132489	2481.762559
485.501213	2482.808598
485.869879	2483.940338
486.238487	2483.126191
486.607036	2482.173413
486.975527	2483.274905
487.343959	2482.458238
487.712333	2484.189875
488.080648	2483.668115
488.448905	2481.301293
488.817104	2482.891778
489.185244	2484.089052
489.553326	2483.075780
489.921350	2481.104688
490.289315	2481.046715
490.657222	2482.879175
491.025070	2483.106027
491.392861	2483.534525
491.760593	2483.907570
492.128267	2481.974288
492.495883	2483.050574
492.863440	2483.156438
493.230939	2482.790954
493.598380	2485.850935
493.965763	2483.801706
494.333088	2484.474700
494.700354	2482.390183
495.067563	2482.939668
495.434713	2484.550317
495.801805	2481.865903
496.168839	2484.946048
496.535815	2483.814309
496.902733	2483.043012
497.269593	2483.179123
497.636395	2482.732981
498.003139	2484.157107
498.369825	2483.516881
498.736453	2483.050574
499.103023	2484.688949
499.469535	2485.079638
499.835989	2485.651809
500.202385	2482.559061
500.568723	2481.845738
500.935003	2482.672487
501.301226	2478.921869
501.667390	2482.740543
502.033497	2483.993270
502.399546	2484.552838
502.765537	2483.789103
503.131470	2484.930924
503.497345	2484.709113
503.863163	2484.381438
504.228923	2484.099134
504.594625	2483.257261
504.960269	2483.814309
505.325856	2485.235914
505.691385	2484.605770
506.056856	2485.818167
506.422270	2485.475369
506.787625	2484.164669
507.152924	2485.044350
507.518164	2485.475369
507.883347	2485.213229
508.248472	2487.086017
508.613540	2483.244658
508.978550	2486.493682
509.343503	2484.262971
509.708398	2486.496203
510.073236	2484.099134
510.438016	2483.479072
510.802738	2484.436891
511.167403	2485.828250
511.532010	2484.693990
511.896561	2488.109372
512.261053	2482.964874
512.625488	2488.767242
512.989866	2485.830770
513.354186	2485.432519
513.718449	2481.444966
514.082655	2485.361943
514.446803	2484.474700
514.810894	2486.092910
515.174927	2486.118116
515.538904	2481.961685
515.902822	2486.004690
516.266684	2484.164669
516.630488	2486.102992
516.994235	2484.487303
517.357925	2485.550986
517.721558	2487.789258
518.085133	2487.517036
518.448651	2483.879844
518.812112	2481.293732
519.175516	2485.092241
519.538863	2481.896150
519.902152	2484.711634
520.265385	2486.473517
520.628560	2484.890595
520.991678	2485.581233
521.354739	2486.627273
521.717743	2484.348671
522.080690	2485.298928
522.443580	2489.140288
522.806413	2485.263640
523.169189	2485.903867
523.531908	2486.833960
523.894569	2486.375215
524.257174	2487.615339
524.619722	2486.909577
524.982213	2486.423106
525.344647	2487.360760
525.707025	2483.693321
526.069345	2486.695328
526.431608	2485.417396
526.793815	2486.778507
527.155964	2484.633496
527.518057	2487.665750
527.880093	2487.753970
528.242072	2483.206850
528.603995	2484.653661
528.965860	2488.885709
529.327669	2485.185503
529.689421	2485.437560
530.051117	2489.231028
530.412755	2485.064515
530.774337	2487.585092
531.135862	2490.360247
531.497331	2485.845894
531.858743	2486.839001
532.220098	2485.457725
532.581396	2487.406131
532.942638	2489.994763
533.303824	2484.837663
533.664953	2487.688435
534.026025	2486.962509
534.387040	2488.326141
534.747999	2486.483600
535.108902	2484.699031
535.469748	2485.228352
535.830537	2489.021821
536.191270	2484.250368
536.551947	2484.827581
536.912567	2482.402786
537.273131	2483.451346
537.633638	2482.443115
537.994089	2488.311018
538.354483	2485.122488
538.714821	2487.506954
539.075103	2485.293887
539.435328	2485.989567
539.795497	2489.125164
540.155609	2485.624083
540.515665	2487.751450
540.875665	2484.920842
541.235609	2489.493168
541.595496	2487.229690
541.955328	2484.716675
542.315102	2488.404279
542.674821	2487.350678
543.034483	2488.283292
543.394090	2484.555358
543.753640	2484.575523
544.113134	2487.179279
544.472571	2486.864207
544.831953	2485.808085
545.191278	2485.997128
545.550548	2486.886892
545.909761	2486.246665
546.268918	2485.810606
546.628019	2485.669453
546.987064	2487.448981
547.346053	2486.649958
547.704986	2487.673312
548.063863	2486.586943
548.422684	2487.393528
548.781449	2486.397900
549.140158	2487.438898
549.498811	2489.460401
549.857408	2487.580051
550.215949	2486.947386
550.574434	2486.407982
550.932864	2488.467294
551.291237	2487.433857
551.649555	2488.547952
552.007817	2486.539052
552.366022	2490.042654
552.724173	2488.386635
553.082267	2487.726244
553.440305	2486.869248
553.798288	2488.550473
554.156215	2485.969402
554.514086	2486.128198
554.871902	2484.444453
555.229661	2485.931593
555.587365	2481.248361
555.945014	2488.616008
556.302606	2488.084166
556.660143	2485.016624
557.017625	2488.137098
557.375050	2487.794300
557.732421	2486.803713
558.089735	2486.793631
558.446994	2487.050729
558.804197	2485.092241
559.161345	2489.566265
559.518437	2487.217088
559.875474	2485.452684
560.232455	2489.964516
560.589381	2487.023003
560.946251	2485.235914
561.303065	2489.097438
561.659825	2488.542911
562.016528	2487.912767
562.373177	2486.730616
562.729770	2486.687766
563.086307	2486.193733
563.442789	2486.176089
563.799216	2488.099289
564.155587	2486.166007
564.511904	2485.971923
564.868164	2488.076604
565.224370	2488.573158
565.580520	2486.844042
565.936615	2489.500730
566.292654	2489.455360
566.648638	2487.726244
567.004567	2487.572489
567.360441	2486.644917
567.716260	2488.230359
568.072023	2486.997797
568.427732	2486.526449
568.783385	2486.811275
569.138982	2484.688949
569.494525	2490.614825
569.850013	2487.955617
570.205445	2487.302787
570.560823	2487.814464
570.916145	2488.605925
571.271412	2485.687097
571.626625	2490.587099
571.981782	2487.373363
572.336884	2484.641058
572.691931	2483.779021
573.046923	2487.585092
573.401860	2482.354895
573.756743	2487.383446
574.111570	2487.879999
574.466342	2488.621049
574.821059	2487.716162
575.175722	2486.768425
575.530330	2489.382263
575.884882	2489.573827
576.239380	2485.568630
576.593823	2489.697335
576.948211	2484.230204
577.302544	2487.814464
577.656823	2488.056440
578.011047	2489.657006
578.365216	2485.588795
578.719330	2488.610967
579.073389	2489.112561
579.427394	2487.738847
579.781344	2488.729434
580.135239	2491.814620
580.489080	2487.242293
580.842866	2487.774135
581.196597	2490.700525
581.550273	2488.817654
581.903895	2488.694146
582.257463	2485.934114
582.610975	2486.629793
582.964434	2485.558548
583.317837	2487.143991
583.671186	2489.717500
584.024481	2487.380925
584.377721	2489.379743
584.730906	2485.238435
585.084037	2487.378404
585.437113	2486.425626
585.790135	2489.485607
586.143103	2486.642396
586.496016	2490.294712
586.848874	2488.434526
587.201679	2485.871099
587.554428	2486.309680
587.907124	2486.806233
588.259765	2487.822026
588.612352	2485.558548
588.964884	2489.720020
589.317362	2485.840853
589.669786	2489.142808
590.022155	2485.866058
590.374470	2484.008393
590.726731	2486.065184
591.078937	2483.484113
591.431090	2489.873776
591.783188	2486.682725
592.135232	2487.761532
592.487222	2487.670791
592.839157	2488.124495
593.191038	2486.670122
593.542866	2487.580051
593.894639	2487.275061
594.246358	2487.277581
594.598022	2486.798672
594.949633	2491.020638
595.301190	2486.375215
595.652692	2489.795638
596.004141	2485.157776
596.355535	2486.443270
596.706876	2488.232880
597.058162	2486.145842
597.409395	2486.045019
597.760573	2489.404948
598.111698	2485.125009
598.462768	2487.403610
598.813785	2486.995277
599.164748	2489.919146
599.515657	2486.375215
599.866511	2484.721716
600.217312	2486.377735
600.568060	2489.039465
600.918753	2490.075422
601.269392	2490.118272
601.619978	2489.561224
601.970510	2487.912767
602.320988	2489.503251
602.671412	2486.866727
603.021783	2487.980822
603.372100	2489.021821
603.722363	2488.132057
604.072572	2490.040134
604.422728	2484.855307
604.772830	2488.006028
605.122878	2486.392859
605.472872	2485.004021
605.822813	2490.025010
606.172701	2486.405462
606.522534	2487.396048
606.872314	2488.928559
607.222041	2485.848414
607.571714	2484.764566
607.921333	2484.842704
608.270899	2488.230359
608.620411	2479.718371
608.969870	2488.726913
609.319276	2487.993425
609.668627	2487.330513
610.017926	2487.002838
610.367171	2488.154742
610.716362	2487.852273
611.065500	2489.737664
611.414585	2487.784217
611.763616	2488.764722
612.112594	2489.319249
612.461518	2488.671460
612.810389	2487.171717
613.159207	2490.181286
613.507971	2487.050729
613.856682	2487.575009
614.205340	2488.643734
614.553945	2487.514516
614.902496	2487.953096
615.250994	2485.283805
615.599439	2489.137767
615.947830	2488.920998
616.296169	2485.566110
616.644454	2486.586943
616.992686	2488.752119
617.340864	2488.137098
617.688990	2488.429485
618.037063	2488.585761
618.385082	2487.489310
618.733048	2487.580051
619.080961	2487.358240
619.428821	2486.619711
619.776628	2485.198105
620.124382	2487.486789
620.472083	2487.769094
620.819731	2488.747078
621.167326	2487.287664
621.514868	2489.609115
621.862357	2484.744402
622.209793	2487.431337
622.557176	2488.661378
622.904506	2487.852273
623.251783	2488.358909
623.599007	2488.973930
623.946179	2488.227839
624.293297	2488.787407
624.640363	2488.920997
624.987376	2485.732468
625.334336	2484.015955
625.681243	2486.886892
626.028097	2484.515029
626.374899	2487.822026
626.721647	2486.102993
627.068343	2487.368322
627.414987	2490.720689
627.761577	2487.025524
628.108115	2488.575678
628.454600	2486.907057
628.801032	2486.864207
629.147412	2488.812613
629.493739	2487.955617
629.840014	2487.766573
630.186236	2485.268682
630.532405	2488.159783
630.878521	2488.782366
631.224585	2488.817654
631.570597	2486.833960
631.916556	2487.491830
632.262462	2486.768425
632.608316	2487.476707
632.954117	2488.235401
633.299866	2488.608446
633.645562	2486.465956
633.991206	2489.346975
634.336797	2488.255565
634.682336	2486.775987
635.027823	2486.125678
635.373257	2487.562407
635.718639	2487.075935
636.063968	2487.433857
636.409245	2486.962509
636.754470	2486.266830
637.099642	2487.638024
637.444762	2490.214053
637.789829	2486.927221
638.134845	2487.610297
638.479808	2486.042499
638.824719	2484.820019
639.169577	2488.560555
639.514383	2486.231542
639.859137	2486.758343
640.203839	2485.558548
640.548489	2484.575523
640.893086	2485.067035
641.237632	2487.756491
641.582125	2485.306490
641.926566	2486.826398
642.270955	2484.691469
642.615292	2484.951089
642.959576	2487.363281
643.303809	2482.024699
643.647990	2487.035606
643.992118	2486.690287
644.336195	2487.665750
644.680219	2487.690956
645.024192	2487.920328
645.368112	2486.085348
645.711981	2487.590133
646.055797	2488.472335
646.399562	2487.632983
646.743274	2488.321100
647.086935	2487.675832
647.430544	2485.346819
647.774101	2487.322952
648.117606	2487.257417
648.461059	2489.062150
648.804460	2489.941831
649.147810	2486.544093
649.491108	2487.769094
649.834354	2488.298415
650.177548	2485.583754
650.520690	2490.332521
650.863781	2486.791110
651.206820	2488.280771
651.549807	2486.581902
651.892742	2487.537201
652.235626	2488.232880
652.578458	2484.507467
652.921238	2487.242293
653.263967	2491.373519
653.606644	2486.637355
653.949269	2485.969402
654.291843	2487.249855
654.634365	2487.532160
654.976836	2485.286326
655.319255	2488.006028
655.661622	2485.117447
656.003938	2489.362098
656.346203	2486.546614
656.688416	2486.864207
657.030577	2486.970071
657.372687	2486.115595
657.714746	2488.532829
658.056753	2486.430667
658.398708	2487.128867
658.740612	2484.971253
659.082465	2487.501913
659.424266	2485.339258
659.766016	2481.082003
660.107715	2486.097951
660.449362	2482.417909
660.790958	2487.572489
661.132503	2486.113075
661.473996	2487.101141
661.815438	2487.769094
662.156829	2489.480566
662.498168	2484.787251
662.839456	2488.021152
663.180693	2487.985863
663.521879	2489.147849
663.863013	2487.156594
664.204097	2486.108034
664.545129	2485.770276
664.886110	2486.470997
665.227040	2486.755822
665.567918	2486.478558
665.908746	2486.997797
666.249522	2484.641058
666.590248	2486.571820
666.930922	2488.484938
667.271545	2489.576348
667.612118	2489.425113
667.952639	2484.746922
668.293109	2487.050729
668.633528	2486.145842
668.973896	2486.347488
669.314213	2489.725062
669.654480	2487.280102
669.994695	2487.995946
670.334859	2487.063332
670.674973	2487.186841
671.015035	2485.878661
671.355047	2488.295894
671.695008	2485.654330
672.034918	2487.043168
672.374777	2484.250368
672.714585	2489.364619
673.054342	2487.701038
673.394049	2487.121306
673.733705	2486.375215
674.073310	2489.848570
674.412864	2488.106851
674.752368	2487.088538
675.091820	2486.539052
675.431223	2486.208857
675.770574	2486.327324
676.109875	2488.285812
676.449125	2485.200626
676.788324	2482.170892
677.127473	2485.097282
677.466571	2483.317755
677.805619	2487.012921
678.144616	2488.210195
678.483562	2485.591315
678.822458	2485.427478
679.161303	2483.358084
679.500098	2487.643065
679.838842	2487.363281
680.177535	2488.731954
680.516179	2485.724906
680.854771	2487.504433
681.193314	2488.021152
681.531805	2488.449650
681.870247	2489.006697
682.208638	2484.706593
682.546978	2485.261120
682.885268	2486.929742
683.223508	2485.177941
683.561697	2484.676346
683.899836	2484.875472
684.237925	2485.356902
684.575963	2487.227170
684.913951	2486.617190
685.251889	2487.116264
685.589776	2485.775318
685.927614	2487.648106
686.265401	2485.346819
686.603137	2483.889926
686.940824	2487.285143
687.278460	2487.678353
687.616046	2488.429485
687.953582	2488.235401
688.291068	2485.364463
688.628504	2485.520739
688.965889	2486.183651
689.303224	2486.488641
689.640510	2486.531491
689.977745	2486.733137
690.314930	2483.816829
690.652065	2486.148363
690.989150	2488.560555
691.326185	2486.561737
691.663170	2485.629124
692.000105	2486.281953
692.336990	2485.291367
692.673825	2486.266830
693.010610	2486.241624
693.347345	2482.669967
693.684030	2480.867754
694.020665	2484.678867
694.357251	2482.223825
694.693786	2483.098465
695.030272	2484.318424
695.366707	2487.212046
695.703093	2486.115595
696.039429	2485.349340
696.375716	2487.950575
696.711952	2485.596357
697.048139	2485.780359
697.384276	2486.907057
697.720363	2485.954278
698.056400	2487.169197
698.392388	2486.652478
698.728326	2488.800010
699.064214	2488.676502
699.400053	2485.989567
699.735842	2486.634834
700.071581	2486.919659
700.407270	2487.411172
700.742910	2486.891933
701.078501	2485.893785
701.414042	2486.614670
701.749533	2484.711634
702.084974	2487.781697
702.420366	2483.290029
702.755709	2487.191882
703.091002	2485.719865
703.426246	2486.672643
703.761440	2487.091059
704.096584	2487.280102
704.431679	2485.130050
704.766725	2486.639875
705.101721	2485.505616
705.436668	2484.661223
705.771565	2486.692807
706.106413	2485.185503
706.441212	2484.068887
706.775961	2487.751450
707.110661	2485.346819
707.445311	2484.862869
707.779913	2485.893785
708.114465	2485.787920
708.448967	2485.462766
708.783421	2486.034937
709.117825	2486.420585
709.452180	2485.649289
709.786485	2486.123157
710.120742	2482.904380
710.454949	2480.847590
710.789107	2482.702734
711.123216	2480.464462
711.457275	2486.753301
711.791286	2484.144504
712.125247	2486.470997
712.459159	2484.502426
712.793023	2484.522591
713.126837	2487.201964
713.460602	2487.801861
713.794318	2485.301449
714.127985	2486.433188
714.461602	2488.091728
714.795171	2485.094762
715.128691	2485.099803
715.462162	2486.728096
715.795584	2486.629793
716.128957	2484.638537
716.462281	2486.879330
716.795556	2488.248003
717.128782	2485.941676
717.461960	2486.077787
717.795088	2484.893116
718.128167	2485.669453
718.461198	2486.665081
718.794180	2486.239104
719.127113	2487.844711
719.459997	2486.153404
719.792833	2485.281284
720.125619	2485.127529
720.458357	2487.335555
720.791046	2485.170379
721.123686	2484.303301
721.456278	2485.966881
721.788821	2483.658033
722.121315	2485.561068
722.453761	2484.615852
722.786158	2487.943014
723.118506	2485.019144
723.450805	2485.200626
723.783056	2484.719196
724.115259	2484.089052
724.447412	2486.662561
724.779518	2484.820019
725.111574	2485.291367
725.443582	2485.687097
725.775542	2484.479741
726.107453	2484.089052
726.439315	2485.619042
726.771129	2488.835298
727.102895	2481.492857
727.434612	2483.388331
727.766281	2481.192909
728.097901	2484.855307
728.429473	2485.392190
728.760996	2485.256079
729.092471	2483.721047
729.423897	2484.797334
729.755276	2486.055102
730.086606	2485.364463
730.417887	2485.508136
730.749120	2485.177941
731.080305	2484.762046
731.411442	2485.392190
731.742530	2486.155925
732.073570	2486.423106
732.404562	2485.099803
732.735506	2487.227170
733.066401	2484.651140
733.397249	2485.936634
733.728048	2483.753815
734.058798	2486.009731
734.389501	2485.329175
734.720156	2481.132415
735.050762	2484.250368
735.381320	2484.265492
735.711831	2484.681387
736.042293	2483.292549
736.372707	2487.063332
736.703073	2484.376397
737.033391	2482.841366
737.363661	2483.665595
737.693883	2483.988228
738.024056	2483.756335
738.354182	2482.720378
738.684260	2482.919504
739.014290	2485.036788
739.344272	2484.484782
739.674207	2483.489154
740.004093	2484.711634
740.333931	2485.871099
740.663722	2486.564258
740.993464	2485.228352
741.323159	2486.894454
741.652806	2484.066366
741.982405	2482.334730
742.311956	2486.680205
742.641460	2486.609628
742.970915	2487.511995
743.300323	2482.969915
743.629683	2479.662918
743.958996	2484.600729
744.288260	2479.841879
744.617477	2485.828250
744.946647	2482.566623
745.275768	2486.264309
745.604842	2486.430668
745.933869	2485.712303
746.262847	2484.951089
746.591778	2485.561068
746.920662	2485.888743
747.249498	2485.840852
747.578286	2483.408496
747.907027	2484.799854
748.235720	2484.676346
748.564365	2485.908908
748.892963	2484.152066
749.221514	2483.942858
749.550017	2485.251037
749.878473	2483.537045
750.206881	2482.964874
750.535242	2484.315903
750.863555	2483.882364
751.191821	2482.644761
751.520039	2484.288177
751.848210	2483.221973
752.176334	2484.020996
752.504411	2484.512508
752.832440	2484.222642
753.160421	2483.161479
753.488356	2484.288177
753.816243	2487.096100
754.144082	2484.139463
754.471875	2483.476551
754.799620	2483.821870
755.127318	2485.041830
755.454969	2485.157776
755.782572	2486.307159
756.110129	2482.811119
756.437638	2482.372539
756.765100	2485.140132
757.092515	2483.539566
757.419882	2485.374546
757.747203	2484.691469
758.074477	2484.162148
758.401703	2482.967395
758.728882	2486.178610
759.056014	2485.455204
759.383099	2483.342961
759.710138	2482.478403
760.037129	2479.463793
760.364073	2480.850110
760.690970	2477.628813
761.017820	2485.147694
761.344623	2484.199957
761.671379	2485.021665
761.998088	2481.565954
762.324751	2484.164669
762.651366	2484.172231
762.977935	2486.559217
763.304456	2483.617704
763.630931	2484.827581
763.957359	2482.100316
764.283740	2482.896819
764.610074	2483.108547
764.936362	2485.671974
765.262602	2484.625934
765.588796	2486.612149
765.914943	2482.299442
766.241044	2488.386635
766.567097	2481.752477
766.893104	2489.120123
767.219064	2483.491675
767.544978	2485.482931
767.870845	2483.831953
768.196665	2482.750625
768.522438	2483.174082
768.848165	2485.155256
769.173846	2482.740543
769.499479	2485.510657
769.825066	2483.063177
770.150607	2486.823877
770.476101	2482.296921
770.801548	2484.774648
771.126949	2482.695172
771.452303	2483.857158
771.777611	2485.228352
772.102872	2480.930769
772.428087	2483.670636
772.753256	2480.368680
773.078378	2485.525780
773.403453	2482.914463
773.728482	2483.322796
774.053465	2485.193064
774.378401	2482.470841
774.703291	2484.441932
775.028135	2483.544607
775.352932	2482.531335
775.677683	2482.364977
776.002388	2481.102168
776.327046	2479.849441
776.651658	2483.284987
776.976224	2480.630820
777.300743	2483.146356
777.625216	2484.076449
777.949643	2483.385811
778.274024	2484.860348
778.598359	2483.295070
778.922647	2484.250368
779.246889	2484.608290
779.571086	2484.386480
779.895236	2484.930924
780.219339	2484.494864
780.543397	2485.571151
780.867409	2482.460759
781.191374	2484.371356
781.515294	2483.695842
781.839167	2483.438743
782.162995	2482.022178
782.486776	2485.767756
782.810511	2484.532673
783.134201	2485.427478
783.457844	2484.784731
783.781441	2482.110399
784.104993	2485.109885
784.428498	2485.399752
784.751958	2481.175265
785.075372	2482.619555
785.398739	2482.732981
785.722061	2482.370018
786.045337	2481.611324
786.368568	2484.769607
786.691752	2484.429329
787.014891	2483.852117
787.337983	2482.231386
787.661030	2483.131232
787.984031	2482.843887
788.306987	2482.095275
788.629897	2485.702221
788.952760	2484.623414
789.275579	2484.084010
789.598351	2484.860348
789.921078	2482.571664
790.243759	2483.668115
790.566395	2483.781541
790.888984	2484.162148
791.211529	2482.173413
791.534027	2485.687097
791.856480	2482.231386
792.178888	2480.368680
792.501249	2480.282980
792.823566	2483.655512
793.145836	2476.698720
793.468062	2483.332878
793.790241	2485.614001
794.112375	2481.984370
794.434464	2484.504947
794.756507	2484.096613
795.078505	2484.295739
795.400457	2481.155100
795.722364	2484.154587
796.044226	2483.650471
796.366042	2482.977477
796.687812	2482.798516
797.009538	2482.914463
797.331218	2483.552169
797.652852	2480.973618
797.974442	2481.480254
798.295986	2483.476551
798.617484	2484.598208
798.938938	2482.717858
799.260346	2485.510657
799.581709	2482.238948
799.903026	2485.296408
800.224299	2482.364977
800.545526	2483.519401
800.866708	2482.841366
801.187845	2483.597539
801.508936	2482.836325
801.829983	2483.121150
802.150984	2485.059474
802.471940	2484.600729
802.792851	2482.443115
803.113717	2482.828763
803.434538	2483.254741
803.755314	2480.398927
804.076045	2484.507467
804.396731	2482.102837
804.717372	2481.573516
805.037967	2483.405975
805.358518	2482.738022
805.679024	2484.426809
805.999485	2482.967395
806.319901	2480.925727
806.640272	2483.383290
806.960598	2484.389000
807.280879	2483.065697
807.601115	2482.027220
807.921306	2483.564772
808.241453	2481.414719
808.561554	2478.742908
808.881611	2482.337251
809.201623	2478.790799
809.521590	2483.342961
809.841513	2483.355564
810.161390	2483.476551
810.481223	2480.610655
810.801011	2481.263485
811.120755	2483.070738
811.440453	2483.708444
811.760107	2483.514360
812.079716	2480.582929
812.399281	2482.042343
812.718801	2485.354381
813.038276	2480.383803
813.357707	2484.323465
813.677093	2482.445635
813.996434	2482.889257
814.315731	2481.621407
814.634983	2483.831953
814.954191	2483.713486
815.273354	2485.578712
815.592473	2485.518219
815.911547	2484.757004
816.230577	2481.843218
816.549562	2482.296921
816.868502	2480.076293
817.187399	2481.838176
817.506250	2483.327837
817.825058	2482.329689
818.143821	2483.910091
818.462539	2483.562251
818.781213	2484.081490
819.099843	2481.591160
819.418429	2482.790954
819.736970	2480.388845
820.055466	2481.767600
820.373919	2483.315234
820.692327	2482.314565
821.010691	2481.392034
821.329011	2484.754484
821.647286	2483.564772
821.965517	2482.019658
822.283704	2483.831953
822.601847	2482.009576
822.919945	2482.531335
823.237999	2481.674339
823.556010	2480.590491
823.873976	2481.767600
824.191897	2480.610655
824.509775	2480.406489
824.827609	2480.756849
825.145398	2477.706951
825.463144	2479.388176
825.780845	2483.602580
826.098502	2483.448825
826.416116	2481.326499
826.733685	2480.794658
827.051210	2483.927735
827.368692	2481.810450
827.686129	2482.238948
828.003522	2483.622745
828.320872	2484.066366
828.638177	2482.208701
828.955439	2480.542600
829.272656	2482.158290
829.589830	2482.629638
829.906960	2481.636530
830.224046	2483.816829
830.541088	2485.503095
830.858086	2481.102168
831.175041	2483.887405
831.491952	2480.532517
831.808819	2480.713999
832.125642	2482.002014
832.442421	2484.028558
832.759157	2483.002683
833.075849	2482.329689
833.392497	2482.906901
833.709101	2481.442446
834.025662	2483.731130
834.342179	2483.559730
834.658653	2482.841366
834.975083	2480.497229
835.291469	2482.377580
835.607811	2480.494709
835.924110	2480.474544
836.240366	2480.199801
836.556578	2481.460090
836.872746	2482.828763
837.188871	2481.205512
837.504952	2484.139463
837.820990	2481.870944
838.136984	2479.667960
838.452935	2481.608804
838.768842	2480.328351
839.084706	2479.254585
839.400526	2484.736840
839.716303	2481.966726
840.032037	2476.955819
840.347727	2477.200315
840.663373	2479.811633
840.978977	2477.711992
841.294537	2483.884885
841.610054	2480.159472
841.925527	2485.765235
842.240957	2480.688793
842.556344	2483.496716
842.871687	2480.729122
843.186987	2482.768269
843.502244	2480.976139
843.817458	2481.064359
844.132629	2481.883547
844.447756	2482.135604
844.762840	2479.294914
845.077881	2482.546458
845.392879	2480.807260
845.707833	2482.707775
846.022745	2481.271047
846.337613	2483.158959
846.652438	2481.175265
846.967221	2480.232569
847.281960	2479.612507
847.596656	2479.927579
847.911309	2480.540079
848.225919	2482.738022
848.540485	2484.441932
848.855009	2480.860192
849.169490	2483.751294
849.483928	2479.728453
849.798323	2482.460759
850.112675	2481.651654
850.426984	2479.466313
850.741251	2483.637868
851.055474	2480.945892
851.369654	2483.015286
851.683792	2482.289360
851.997887	2479.917497
852.311938	2480.572847
852.625947	2480.640902
852.939914	2481.689462
853.253837	2480.703917
853.567718	2481.593680
853.881555	2481.583598
854.195350	2483.935296
854.509103	2483.940338
854.822812	2482.763228
855.136479	2482.344812
855.450103	2480.603094
855.763685	2480.829946
856.077224	2475.912300
856.390720	2479.703248
856.704173	2475.476240
857.017584	2479.236941
857.330953	2481.881026
857.644278	2481.797847
857.957561	2483.302632
858.270802	2480.020840
858.584000	2481.066880
858.897155	2481.467652
859.210268	2482.856489
859.523339	2481.361787
859.836367	2481.848259
860.149352	2484.935965
860.462295	2480.736684
860.775195	2482.279277
861.088054	2479.728453
861.400869	2480.703917
861.713642	2481.593680
862.026373	2479.977991
862.339062	2481.170223
862.651708	2483.093424
862.964312	2479.572178
863.276873	2480.371201
863.589392	2481.064359
863.901869	2481.001345
864.214303	2480.020840
864.526696	2478.321972
864.839045	2481.959164
865.151353	2480.086375
865.463619	2480.318268
865.775842	2480.560244
866.088023	2481.828094
866.400162	2482.629637
866.712258	2479.720892
867.024313	2481.918835
867.336325	2480.298104
867.648296	2480.446818
867.960224	2483.156438
868.272110	2478.561426
868.583954	2481.523104
868.895755	2484.565441
869.207515	2481.071921
869.519233	2481.041674
869.830909	2482.957313
870.142542	2479.005048
870.454134	2480.890439
870.765684	2479.342805
871.077191	2479.211735
871.388657	2479.688124
871.700081	2477.984214
872.011463	2479.133597
872.322803	2476.310551
872.634101	2482.155769
872.945357	2481.142497
873.256571	2480.915645
873.567744	2481.293732
873.878874	2483.060656
874.189963	2477.336426
874.501010	2481.412199
874.812015	2479.952785
875.122979	2481.591160
875.433900	2481.767600
875.744780	2480.376242
876.055618	2479.234420
876.366415	2479.297435
876.677169	2481.961685
876.987882	2480.807260
877.298554	2481.921355
877.609183	2481.513022
877.919771	2479.012610
878.230317	2481.283649
878.540822	2483.582416
878.851285	2480.507312
879.161707	2480.509832
879.472087	2480.320789
879.782425	2480.759369
880.092722	2480.048567
880.402977	2481.457569
880.713191	2480.819863
881.023363	2477.343988
881.333494	2482.322127
881.643583	2478.682414
881.953631	2482.521253
882.263637	2481.313896
882.573602	2479.662918
882.883526	2477.628813
883.193408	2480.560244
883.503248	2481.686942
883.813048	2481.548310
884.122806	2482.029740
884.432522	2480.479585
884.742197	2482.264154
885.051831	2478.279122
885.361424	2482.538897
885.670975	2481.868423
885.980485	2479.932620
886.289954	2480.464462
886.599382	2478.780717
886.908768	2477.790130
887.218113	2476.544965
887.527417	2478.276601
887.836680	2475.077989
888.145901	2479.746098
888.455082	2480.867754
888.764221	2477.686786
889.073319	2481.714668
889.382376	2482.523773
889.691392	2480.134266
890.000366	2481.999493
890.309300	2482.014617
890.618193	2481.051756
890.927044	2482.790954
891.235855	2479.736015
891.544625	2479.486478
891.853353	2482.601911
892.162041	2480.396406
892.470687	2483.955461
892.779293	2479.511684
893.087858	2481.737353
893.396381	2478.546303
893.704864	2479.783906
894.013306	2479.604945
894.321707	2481.371870
894.630068	2480.232569
894.938387	2481.825573
895.246665	2479.536890
895.554903	2481.505460
895.863100	2479.362970
896.171256	2480.623258
896.479371	2478.778196
896.787446	2481.757518
897.095480	2478.332054
897.403473	2480.192240
897.711425	2479.526807
898.019336	2481.044195
898.327207	2480.880357
898.635038	2480.492188
898.942827	2478.453042
899.250576	2480.608135
899.558284	2479.955305
899.865952	2481.775162
900.173579	2478.765593
900.481165	2479.552013
900.788711	2478.074955
901.096216	2479.055459
901.403681	2478.039667
901.711105	2483.486634
902.018489	2478.871457
902.325832	2479.615028
902.633135	2473.868112
902.940397	2478.934472
903.247619	2473.104377
903.554800	2480.424133
903.861941	2480.300624
904.169041	2480.073772
904.476101	2478.556385
904.783121	2480.590491
905.090100	2478.213587
905.397039	2478.430356
905.703938	2478.710140
906.010796	2477.495222
906.317614	2478.536221
906.624391	2480.499750
906.931129	2480.764411
907.237826	2480.716520
907.544483	2481.543269
907.851099	2482.669967
908.157675	2478.195943
908.464211	2478.480768
908.770707	2479.065542
909.077163	2478.642085
909.383578	2476.754173
909.689954	2479.488999
909.996289	2479.226859
910.302584	2483.027889
910.608839	2477.727115
910.915054	2479.478916
911.221229	2480.804740
911.527363	2479.428505
911.833458	2477.414564
912.139513	2480.358598
912.445527	2480.792137
912.751502	2479.040336
913.057436	2477.495222
913.363331	2480.711478
913.669186	2480.446818
913.975000	2478.616879
914.280775	2478.513535
914.586510	2480.766931
914.892205	2481.507981
915.197859	2478.440439
915.503475	2479.667960
915.809050	2479.897332
916.114585	2476.862557
916.420081	2480.605614
916.725536	2481.109730
917.030952	2477.361632
917.336328	2481.384473
917.641665	2478.644605
917.946961	2473.200159
918.252218	2477.588484
918.557435	2476.343319
918.862612	2477.517908
919.167750	2476.655870
919.472848	2480.547641
919.777906	2478.009420
920.082925	2480.545120
920.387904	2479.229379
920.692843	2478.294245
920.997743	2483.070738
921.302603	2479.867085
921.607423	2479.967908
921.912204	2479.862044
922.216946	2480.701396
922.521647	2478.551344
922.826310	2477.651498
923.130932	2479.773824
923.435516	2478.324492
923.740059	2479.299955
924.044564	2477.517908
924.349028	2481.175265
924.653454	2480.114102
924.957840	2480.121663
925.262186	2479.105871
925.566493	2480.406489
925.870761	2482.289360
926.174989	2481.538228
926.479178	2480.351036
926.783328	2477.457414
927.087438	2480.275419
927.391509	2481.001345
927.695541	2479.284832
927.999533	2480.431694
928.303486	2479.854482
928.607400	2479.630151
928.911275	2476.413895
929.215110	2480.393886
929.518906	2478.052270
929.822663	2477.933803
930.126381	2480.035964
930.430060	2481.477734
930.733699	2477.623772
931.037299	2481.384473
931.340861	2479.005048
931.644383	2477.659060
931.947866	2479.514204
932.251309	2481.255923
932.554714	2479.793988
932.858080	2478.621920
933.161407	2476.809625
933.464694	2474.785602
933.767943	2474.997331
934.071153	2478.019502
934.374323	2478.253916
934.677455	2480.293063
934.980548	2478.087558
935.283602	2479.015130
935.586617	2476.829790
935.889593	2478.750470
936.192530	2479.148721
936.495428	2478.304328
936.798287	2479.748618
937.101108	2478.082517
937.403890	2479.720892
937.706632	2478.889101
938.009336	2478.097640
938.312002	2478.674852
938.614628	2481.089565
938.917216	2477.023874
939.219765	2480.436736
939.522275	2480.746767
939.824747	2477.908597
940.127179	2479.292394
940.429573	2478.266519
940.731929	2477.560757
941.034246	2477.510346
941.336524	2480.033443
941.638763	2478.763073
941.940964	2478.654688
942.243126	2480.671149
942.545250	2481.263485
942.847335	2479.816674
943.149381	2478.032105
943.451389	2476.814667
943.753359	2481.802888
944.055290	2478.513535
944.357182	2481.006386
944.659036	2479.662918
944.960851	2479.483958
945.262628	2478.057311
945.564367	2478.629482
945.866067	2478.879019
946.167729	2480.167034
946.469352	2480.008237
946.770937	2478.851293
947.072484	2481.029071
947.373992	2478.947075
947.675462	2478.783237
947.976893	2474.810808
948.278286	2475.279635
948.579641	2476.406333
948.880958	2474.084882
949.182236	2476.708802
949.483476	2479.599904
949.784678	2478.435398
950.085841	2476.766776
950.386967	2478.327013
950.688054	2478.868937
950.989103	2477.840541
951.290114	2477.684266
951.591087	2479.352888
951.892021	2477.611169
952.192917	2478.987404
952.493776	2482.228866
952.794596	2478.379945
953.095378	2477.104533
953.396122	2475.879532
953.696828	2477.923720
953.997496	2480.809781
954.298126	2479.564616
954.598718	2477.643936
954.899272	2480.824904
955.199788	2479.932620
955.500266	2477.117136
955.800706	2476.550006
956.101108	2479.821715
956.401472	2477.636375
956.701798	2478.677373
957.002087	2477.830459
957.302337	2478.689976
957.602550	2480.787096
957.902724	2476.363483
958.202861	2477.520428
958.502960	2478.616879
958.803022	2477.991776
959.103045	2476.489512
959.403031	2477.482619
959.702979	2479.589822
960.002889	2479.090747
960.302762	2479.761221
960.602596	2478.382465
960.902393	2481.024030
961.202153	2477.447331
961.501875	2478.034626
961.801559	2479.022692
962.101205	2478.324492
962.400814	2478.936992
962.700385	2479.476396
962.999918	2473.759727
963.299414	2474.445324
963.598873	2475.897177
963.898293	2475.080510
964.197677	2476.766776
964.497022	2478.402630
964.796331	2480.182157
965.095601	2475.758545
965.394835	2477.858185
965.694030	2480.109061
965.993189	2478.473206
966.292309	2477.848103
966.591393	2477.233082
966.890439	2478.170737
967.189447	2478.793319
967.488419	2477.563278
967.787353	2477.268370
968.086249	2476.809625
968.385108	2480.524956
968.683930	2482.521253
968.982714	2475.665283
969.281462	2481.966726
969.580172	2479.710809
969.878844	2478.700058
970.177480	2479.350367
970.476078	2479.158803
970.774639	2479.383134
971.073162	2476.466827
971.371649	2478.327013
971.670098	2479.718371
971.968510	2478.705099
972.266885	2476.257619
972.565223	2478.420274
972.863524	2477.525469
973.161788	2481.873464
973.460014	2477.187712
973.758204	2481.339102
974.056356	2477.986735
974.354471	2476.804584
974.652550	2476.524800
974.950591	2477.129739
975.248595	2474.752835
975.546563	2476.860037
975.844493	2479.214256
976.142386	2476.020685
976.440243	2478.145531
976.738062	2478.619400
977.035845	2477.301138
977.333590	2479.403299
977.631299	2474.485653
977.928971	2476.476909
978.226606	2472.345684
978.524204	2472.907772
978.821765	2470.435086
979.119290	2480.164513
979.416777	2477.752321
979.714228	2478.266519
980.011642	2476.832311
980.309020	2477.775006
980.606360	2478.891622
980.903664	2477.838021
981.200931	2476.234934
981.498162	2476.865078
981.795356	2479.098309
982.092513	2476.484471
982.389633	2477.089409
982.686717	2475.904738
982.983764	2475.458596
983.280775	2479.173927
983.577749	2478.090078
983.874686	2475.062866
984.171587	2474.178143
984.468451	2477.744759
984.765279	2476.653350
985.062070	2479.662918
985.358824	2478.863896
985.655543	2478.160655
985.952224	2478.523618
986.248869	2481.349184
986.545478	2478.120325
986.842050	2477.038998
987.138586	2474.833493
987.435086	2478.173258
987.731549	2477.724595
988.027975	2477.091930
988.324366	2478.266519
988.620719	2479.892291
988.917037	2478.178299
989.213318	2477.185191
989.509563	2478.092599
989.805772	2477.654019
990.101944	2477.447331
990.398080	2479.368011
990.694180	2478.216107
990.990244	2477.109574
991.286271	2473.938688
991.582262	2475.524131
991.878217	2478.276601
992.174136	2476.144193
992.470019	2477.343988
992.765865	2475.544296
993.061676	2472.907772
993.357450	2476.025726
993.653188	2475.108236
993.948890	2478.067393
994.244556	2477.006230
994.540186	2478.906745
994.835780	2476.731487
995.131337	2477.394399
995.426859	2479.272229
995.722345	2479.907414
996.017795	2476.754173
996.313208	2477.853144
996.608586	2478.377424
996.903928	2476.975983
997.199234	2476.555047
997.494504	2477.500263
997.789738	2477.197794
998.084936	2476.839872
998.380099	2474.392392
998.675225	2480.416571
998.970316	2477.641416
999.265371	2478.004379
999.560390	2476.194605
999.855373	2476.439101
1000.150320	2477.190233
1000.445232	2475.758545
1000.740108	2479.020171
1001.034948	2479.478916
1001.329752	2479.925058
1001.624521	2478.251395
1001.919254	2475.980356
1002.213951	2478.029585
1002.508613	2474.495736
1002.803239	2479.917497
1003.097829	2476.413895
1003.392384	2478.372383
1003.686903	2474.165540
1003.981386	2478.871457
1004.275834	2474.309213
1004.570246	2478.838690
1004.864623	2478.516056
1005.158964	2479.534369
1005.453270	2476.174440
1005.747540	2476.061014
1006.041775	2476.776858
1006.335974	2477.028916
1006.630138	2478.485809
1006.924266	2478.551344
1007.218359	2476.391210
1007.512416	2475.564460
1007.806438	2472.648153
1008.100425	2475.355253
1008.394376	2472.373410
1008.688292	2475.382979
1008.982172	2477.565798
1009.276017	2478.992445
1009.569827	2476.615541
1009.863602	2475.771148
1010.157341	2474.914152
1010.451045	2478.415233
1010.744714	2476.875160
1011.038347	2476.189563
1011.331945	2476.338278
1011.625508	2477.669142
1011.919036	2474.558750
1012.212528	2476.991107
1012.505986	2478.432877
1012.799408	2475.173771
1013.092795	2478.629482
1013.386147	2475.655201
1013.679464	2475.093113
1013.972745	2478.238792
1014.265992	2478.387507
1014.559204	2479.050418
1014.852380	2476.870119
1015.145521	2474.422639
1015.438628	2479.146200
1015.731699	2475.720736
1016.024736	2476.761734
1016.317737	2477.102012
1016.610703	2476.179481
1016.903635	2476.350880
1017.196531	2476.764255
1017.489393	2475.579584
1017.782219	2477.187712
1018.075011	2480.225007
1018.367768	2475.506487
1018.660490	2475.067907
1018.953177	2475.067907
1019.245829	2475.067907
