Dividing Wavelength (nm)	Counts (n)	Blue Motor Position (mm): 30.000000	Red Motor Position (mm): 0.000000	
326.493990	2065.915258
326.888308	2065.915258
327.282561	2065.915258
327.676750	2041.039684
328.070874	2042.660415
328.464933	2050.726261
328.858929	2056.773125
329.252859	2067.916596
329.646726	2081.487382
330.040528	2096.310895
330.434265	2113.271857
330.827938	2134.364045
331.221547	2156.328352
331.615091	2175.278049
332.008571	2196.004753
332.401986	2215.617362
332.795338	2236.044118
333.188625	2254.474576
333.581847	2274.601383
333.975006	2292.184928
334.368100	2311.134625
334.761129	2324.934783
335.154095	2343.216528
335.546996	2395.561349
335.939833	2496.144971
336.332606	2502.925323
336.725315	2517.660616
337.117960	2530.291227
337.510540	2538.432690
337.903056	2548.313352
338.295508	2554.418189
338.687896	2561.274158
339.080220	2565.997719
339.472480	2570.081054
339.864676	2572.432752
340.256807	2580.370049
340.648875	2582.096644
341.040879	2579.255954
341.432818	2584.513877
341.824694	2585.822057
342.216506	2584.481110
342.608253	2581.935327
342.999937	2582.918352
343.391557	2579.848289
343.783113	2579.084555
344.174605	2577.660429
344.566033	2577.579770
344.957397	2576.064903
345.348697	2574.499625
345.739934	2573.078020
346.131106	2572.624316
346.522215	2567.875549
346.913260	2568.160374
347.304241	2567.207596
347.695159	2566.925292
348.086012	2562.695763
348.476802	2560.414641
348.867528	2557.735268
349.258191	2554.350133
349.648789	2556.512788
350.039324	2550.491130
350.429796	2558.108313
350.820203	2556.694270
351.210548	2553.084804
351.600828	2550.566747
351.991045	2551.489278
352.381198	2550.145811
352.771288	2552.946172
353.161314	2549.240924
353.551276	2550.959957
353.941175	2547.012734
354.331010	2549.639175
354.720782	2551.143959
355.110490	2555.335679
355.500135	2552.016079
355.889717	2548.714123
356.279235	2552.197561
356.668689	2552.104299
357.058080	2550.584391
357.447408	2553.732592
357.836672	2553.856100
358.225873	2548.973743
358.615010	2553.843497
359.004084	2553.997253
359.393095	2555.224773
359.782043	2556.981616
360.170927	2554.463559
360.559748	2555.761656
360.948505	2558.279713
361.337199	2556.888354
361.725830	2558.607388
362.114398	2560.056719
362.502903	2560.160063
362.891344	2559.902964
363.279722	2558.357851
363.668037	2561.823644
364.056289	2561.211144
364.444478	2561.087635
364.832603	2562.899930
365.220665	2562.496638
365.608665	2559.671071
365.996601	2567.835220
366.384474	2564.361865
366.772284	2565.279355
367.160031	2562.242060
367.547715	2564.303892
367.935336	2561.294323
368.322893	2562.783984
368.710388	2562.400856
369.097820	2561.054868
369.485189	2560.293654
369.872495	2566.965621
370.259738	2569.861764
370.646918	2565.107956
371.034035	2565.347410
371.421090	2566.824468
371.808081	2565.760785
372.195010	2568.024263
372.581875	2564.180383
372.968678	2566.912689
373.355418	2569.841599
373.742096	2567.590724
374.128710	2568.503173
374.515262	2569.259346
374.901751	2569.410580
375.288177	2571.968966
375.674540	2570.451579
376.060841	2571.464851
376.447079	2569.090467
376.833254	2572.513411
377.219367	2571.006106
377.605417	2573.763617
377.991404	2572.405026
378.377329	2571.752196
378.763191	2573.962742
379.148991	2573.932495
379.534727	2574.386199
379.920402	2575.452403
380.306013	2573.597259
380.691563	2577.814184
381.077049	2572.992320
381.462474	2575.089440
381.847835	2574.923082
382.233134	2574.575242
382.618371	2574.751683
383.003545	2574.418967
383.388657	2574.713874
383.773706	2577.584811
384.158693	2576.117836
384.543618	2575.961560
384.928480	2577.345357
385.313280	2576.816035
385.698017	2577.219328
386.082692	2578.918197
386.467305	2579.404668
386.851856	2579.255954
387.236344	2578.588001
387.620770	2579.104719
388.005133	2577.645305
388.389435	2579.238310
388.773674	2575.578432
389.157851	2580.561613
389.541965	2580.879205
389.926018	2583.389700
390.310008	2582.757035
390.693936	2584.438260
391.077802	2582.386510
391.461606	2583.853486
391.845348	2583.422467
392.229027	2584.397931
392.612645	2582.109247
392.996200	2585.958168
393.379694	2583.190574
393.763125	2586.800041
394.146494	2588.231728
394.529801	2584.513877
394.913047	2584.748291
395.296230	2586.384145
395.679351	2589.381111
396.062410	2586.038826
396.445408	2586.648806
396.828343	2586.782397
397.211217	2587.072263
397.594028	2589.628128
397.976778	2587.767942
398.359466	2587.969588
398.742092	2590.424630
399.124656	2587.543611
399.507158	2592.045361
399.889598	2588.493868
400.271977	2591.311873
400.654294	2591.737851
401.036549	2594.288675
401.418742	2595.246494
401.800874	2592.078129
402.182944	2590.535536
402.564952	2593.078798
402.946898	2595.919488
403.328783	2593.608119
403.710606	2593.913109
404.092367	2594.492841
404.474067	2594.495362
404.855705	2596.262286
405.237282	2593.570310
405.618797	2595.211206
406.000250	2596.411000
406.381642	2599.362596
406.762972	2593.542584
407.144240	2595.634663
407.525447	2598.056937
407.906593	2593.056112
408.287677	2595.760692
408.668700	2599.745724
409.049661	2598.926536
409.430560	2602.210848
409.811399	2603.138420
410.192176	2603.456013
410.572891	2602.604058
410.953545	2602.228492
411.334138	2599.970055
411.714669	2603.566918
412.095139	2605.144799
412.475547	2602.788060
412.855894	2603.544233
413.236180	2603.115735
413.616405	2604.053390
413.996568	2601.875611
414.376670	2603.456013
414.756711	2605.333843
415.136691	2607.052876
415.516609	2605.812752
415.896466	2606.447938
416.276262	2608.048504
416.655997	2607.980448
417.035670	2612.033536
417.415283	2612.207456
417.794834	2608.885336
418.174324	2608.308123
418.553753	2610.609410
418.933121	2611.166458
419.312428	2612.121756
419.691674	2613.039246
420.070859	2610.410285
420.449983	2615.791716
420.829045	2614.342385
421.208047	2615.227107
421.586988	2617.243569
421.965867	2619.116357
422.344686	2617.583847
422.723444	2618.665174
423.102141	2620.674074
423.480777	2621.636934
423.859352	2619.456635
424.237866	2624.051647
424.616319	2624.427213
424.994712	2625.579117
425.373044	2627.111627
425.751314	2627.620784
426.129524	2624.593571
426.507673	2627.837553
426.885762	2628.381998
427.263789	2638.088740
427.641756	2639.379275
428.019662	2640.657208
428.397508	2641.625109
428.775292	2647.351860
429.153016	2652.329999
429.530679	2654.961482
429.908282	2659.748057
430.285824	2665.479849
430.663305	2671.935047
431.040726	2675.189112
431.418086	2682.433250
431.795385	2691.714014
432.172624	2702.008050
432.549802	2707.311344
432.926920	2716.781151
433.303977	2728.315311
433.680974	2739.872157
434.057910	2754.902357
434.434786	2767.011208
434.811601	2778.174843
435.188355	2805.543268
435.565050	2813.916624
435.941683	2830.595282
436.318257	2858.989581
436.694770	2877.644371
437.071222	2906.847775
437.447614	2915.392531
437.823946	2939.136365
438.200218	2964.334573
438.576429	2982.828046
438.952580	3015.028416
439.328670	3043.173178
439.704700	3074.055286
440.080670	3091.434664
440.456580	3135.038124
440.832429	3168.188752
441.208218	3178.172757
441.583947	3215.593242
441.959616	3259.887340
442.335224	3297.227167
442.710773	3339.310719
443.086261	3397.909092
443.461689	3403.784556
443.837057	3461.757826
444.212365	3530.640152
444.587612	3570.145154
444.962800	3595.943259
445.337927	3663.260307
445.712995	3640.048314
446.088002	3795.116727
446.462949	3857.997559
446.837837	3908.850198
447.212664	3974.609530
447.587431	4195.223025
447.962139	4466.076659
448.336786	4722.878077
448.711374	4746.236264
449.085901	4558.841452
449.460369	4614.783136
449.834776	4646.020646
450.209124	4960.334068
450.583412	5001.709338
450.957640	5163.777393
451.331808	5133.134739
451.705917	5067.042692
452.079965	5116.793839
452.453954	5260.300366
452.827883	5336.487324
453.201752	5412.757461
453.575562	5509.293036
453.949311	5719.509152
454.323001	5846.959603
454.696632	5914.621970
455.070202	6239.978039
455.443713	6370.664912
455.817164	6542.139760
456.190556	6788.495907
456.563888	6844.515729
456.937160	7068.610141
457.310373	6951.526822
457.683526	7067.574184
458.056619	7192.877104
458.429653	7343.166503
458.802628	7531.027622
459.175542	7679.638317
459.548398	8086.479597
459.921194	8507.552054
460.293930	8784.941544
460.666607	9394.807734
461.039224	9973.348193
461.411782	10319.224279
461.784280	10270.267113
462.156719	10375.944822
462.529099	10470.080808
462.901419	10218.761645
463.273680	10096.906874
463.645882	10368.493996
464.018024	10432.153687
464.390106	10811.752572
464.762130	11665.908035
465.134094	12862.572094
465.505999	14570.250357
465.877845	16308.840974
466.249631	17386.039769
466.621358	17235.389928
466.993026	16832.276581
467.364634	16461.134232
467.736184	16027.037954
468.107674	15715.734101
468.479105	15759.090545
468.850477	15682.326374
469.221790	15474.391381
469.593043	15079.051494
469.964238	14894.394028
470.335373	15055.007710
470.706449	15756.756490
471.077467	16595.468379
471.448425	18818.556732
471.819324	20505.566263
472.190164	20541.124042
472.560945	19142.753335
472.931667	17893.628509
473.302330	17697.033591
473.672934	17304.153787
474.043479	17776.635931
474.413965	17671.084252
474.784393	17580.724090
475.154761	18277.330893
475.525070	18470.142425
475.895321	18392.581752
476.265513	18957.130489
476.635645	19562.552901
477.005719	19686.272899
477.375734	20093.391443
477.745691	20742.530741
478.115588	21393.532746
478.485427	22574.528898
478.855207	24349.178890
479.224928	26108.128207
479.594591	27490.339495
479.964194	27212.634933
480.333739	27694.531432
480.703226	27961.642010
481.072653	28436.019628
481.442022	28979.322422
481.811333	29422.074361
482.180584	29043.546722
482.549777	28874.622698
482.918912	28685.695375
483.287988	28675.189610
483.657005	28567.296315
484.025964	28246.023580
484.394864	28468.635893
484.763706	28420.853316
485.132489	27929.484489
485.501213	28032.409727
485.869879	28219.542399
486.238487	28166.960644
486.607036	28467.494072
486.975527	28171.787549
487.343959	28531.799030
487.712333	28880.483039
488.080648	28855.564615
488.448905	29303.226639
488.817104	29201.579333
489.185244	30031.133966
489.553326	30990.092498
489.921350	32863.231512
490.289315	35357.158375
490.657222	36248.386484
491.025070	36799.866029
491.392861	36546.721968
491.760593	35777.762005
492.128267	34790.759534
492.495883	33803.973834
492.863440	32928.335493
493.230939	31977.808291
493.598380	31422.691553
493.965763	31281.501437
494.333088	30789.257969
494.700354	30617.989809
495.067563	30556.631405
495.434713	30461.126745
495.801805	30734.556409
496.168839	30585.713821
496.535815	30427.683730
496.902733	30545.787883
497.269593	30398.598793
497.636395	30537.696831
498.003139	30790.309050
498.369825	30551.484387
498.736453	30956.473042
499.103023	30787.211261
499.469535	30876.611083
499.835989	31000.305875
500.202385	30861.767406
500.568723	30922.001632
500.935003	31203.960929
501.301226	31070.186350
501.667390	31786.776287
502.033497	31977.021871
502.399546	31793.072688
502.765537	31382.092621
503.131470	31851.045957
503.497345	32272.415842
503.863163	31242.984501
504.228923	31990.491834
504.594625	32363.592672
504.960269	31850.219208
505.325856	32508.896369
505.691385	32160.010715
506.056856	32476.388489
506.422270	32971.901144
506.787625	32481.709427
507.152924	32922.951541
507.518164	33107.513224
507.883347	32702.297716
508.248472	32819.355829
508.613540	33497.801875
508.978550	33704.002712
509.343503	33539.318298
509.708398	33896.426075
510.073236	34474.071729
510.438016	34575.419086
510.802738	34244.240484
511.167403	34783.470026
511.532010	35009.739696
511.896561	35510.238053
512.261053	36246.740547
512.625488	36023.916506
512.989866	35964.773689
513.354186	36010.809506
513.718449	35962.064069
514.082655	36800.128169
514.446803	36516.480087
514.810894	37100.621268
515.174927	37115.512836
515.538904	37115.056612
515.902822	37744.532890
516.266684	37427.461957
516.630488	37773.030533
516.994235	37785.285578
517.357925	38336.780247
517.721558	38584.124460
518.085133	38958.533477
518.448651	39149.457096
518.812112	39042.652690
519.175516	39175.237557
519.538863	39610.851223
519.902152	39677.210451
520.265385	40217.216331
520.628560	40215.852699
520.991678	40156.364563
521.354739	40380.307740
521.717743	40723.315409
522.080690	40645.608543
522.443580	41318.302633
522.806413	41314.920019
523.169189	41455.439662
523.531908	41671.942096
523.894569	41529.181660
524.257174	41718.892882
524.619722	42053.685992
524.982213	42197.331150
525.344647	42238.305648
525.707025	42350.080632
526.069345	42785.517857
526.431608	42701.927965
526.793815	43084.886778
527.155964	42639.742812
527.518057	42873.301990
527.880093	42739.116557
528.242072	43357.398952
528.603995	43087.767798
528.965860	43013.209133
529.327669	43236.998555
529.689421	43293.958552
530.051117	43252.328703
530.412755	43516.457439
530.774337	43564.436620
531.135862	43508.862940
531.497331	43664.682485
531.858743	43645.737829
532.220098	44036.654104
532.581396	43779.837562
532.942638	43543.490626
533.303824	43784.878716
533.664953	43863.069533
534.026025	43535.097105
534.387040	44087.226959
534.747999	44167.174618
535.108902	44497.145864
535.469748	43814.951720
535.830537	44101.231285
536.191270	44330.936501
536.551947	44080.595322
536.912567	44349.359398
537.273131	44476.262884
537.633638	44093.029328
537.994089	44285.258606
538.354483	44052.669850
538.714821	44692.999732
539.075103	44966.346217
539.435328	44840.503893
539.795497	44608.194921
540.155609	44745.284059
540.515665	45310.556202
540.875665	44605.538233
541.235609	44878.236930
541.595496	45005.337021
541.955328	45595.109172
542.315102	45033.600250
542.674821	44935.738851
543.034483	44830.608108
543.394090	44835.127503
543.753640	44843.810890
544.113134	45883.500980
544.472571	45004.835427
544.831953	46114.642925
545.191278	45383.582356
545.550548	45084.165544
545.909761	45714.672738
546.268918	45838.521285
546.628019	46242.184118
546.987064	45691.165837
547.346053	45024.649682
547.704986	45908.379074
548.063863	45546.918261
548.422684	45758.437515
548.781449	45329.652092
549.140158	45869.481531
549.498811	45616.541637
549.857408	45031.591351
550.215949	45862.648247
550.574434	45702.087497
550.932864	45642.511141
551.291237	46349.359048
551.649555	46091.972856
552.007817	46256.208607
552.366022	45961.200284
552.724173	46032.104113
553.082267	46427.572550
553.440305	46791.145607
553.798288	46055.094295
554.156215	46451.208000
554.514086	46633.440670
554.871902	46225.747435
555.229661	46392.360091
555.587365	46091.556961
555.945014	46217.253091
556.302606	46234.708086
556.660143	46331.467993
557.017625	46552.081488
557.375050	46243.812410
557.732421	46625.543703
558.089735	46699.583129
558.446994	46569.949858
558.804197	47057.862974
559.161345	46917.920544
559.518437	46270.611184
559.875474	46516.377516
560.232455	46723.183291
560.589381	46764.969415
560.946251	46590.172447
561.303065	47234.194974
561.659825	46920.466326
562.016528	46741.409583
562.373177	46322.741756
562.729770	46967.628841
563.086307	46473.240363
563.442789	47011.179369
563.799216	46848.980244
564.155587	46765.050074
564.511904	46723.266470
564.868164	46772.979809
565.224370	47084.326512
565.580520	46821.460585
565.936615	47012.306067
566.292654	46664.161462
566.648638	47028.682255
567.004567	46965.960219
567.360441	47054.336687
567.716260	46762.232069
568.072023	47147.494690
568.427732	47084.414732
568.783385	46622.130842
569.138982	47037.549645
569.494525	47179.067436
569.850013	46793.111657
570.205445	46910.197496
570.560823	46673.081784
570.916145	46535.798562
571.271412	46769.246834
571.626625	46418.783298
571.981782	46513.050355
572.336884	46110.902389
572.691931	46451.429811
573.046923	46123.049049
573.401860	45941.922912
573.756743	45961.875799
574.111570	46106.695546
574.466342	46026.853752
574.821059	46164.081521
575.175722	45675.732345
575.530330	45758.119922
575.884882	45408.589000
576.239380	45316.406461
576.593823	45419.054435
576.948211	45349.899887
577.302544	44901.577472
577.656823	44889.942489
578.011047	45166.321228
578.365216	45018.315472
578.719330	44736.527575
579.073389	44699.412080
579.427394	44770.152071
579.781344	44679.668401
580.135239	44422.451087
580.489080	44486.014996
580.842866	44008.378272
581.196597	44475.055528
581.550273	44477.840765
581.903895	44417.591415
582.257463	44849.424215
582.610975	44282.972443
582.964434	44609.911434
583.317837	44114.865085
583.671186	44060.057661
584.024481	44348.953585
584.377721	43912.082151
584.730906	44147.657791
585.084037	44292.361592
585.437113	44003.498435
585.790135	44116.715189
586.143103	43704.918455
586.496016	43878.160227
586.848874	43975.111698
587.201679	44003.705122
587.554428	43501.417156
587.907124	43762.543884
588.259765	43547.304259
588.612352	43693.495200
588.964884	43167.617154
589.317362	43459.915857
589.669786	43470.048576
590.022155	43364.073440
590.374470	43821.028831
590.726731	43422.739868
591.078937	42749.803803
591.431090	43116.560348
591.783188	42620.684729
592.135232	42418.368102
592.487222	42692.407746
592.839157	42840.804192
593.191038	42476.263233
593.542866	42300.170688
593.894639	41687.874663
594.246358	41990.129645
594.598022	41988.171156
594.949633	41570.017527
595.301190	41576.661768
595.652692	41525.277287
596.004141	42024.782536
596.355535	40941.292381
596.706876	40936.170569
597.058162	40654.662456
597.409395	41157.257932
597.760573	41366.460776
598.111698	40985.624288
598.462768	40906.793245
598.813785	40942.708945
599.164748	40536.258355
599.515657	40819.006592
599.866511	40323.181385
600.217312	41005.965344
600.568060	39970.711469
600.918753	40764.864599
601.269392	40694.205267
601.619978	40432.627355
601.970510	40640.592595
602.320988	40780.260283
602.671412	41038.415251
603.021783	40887.480584
603.372100	40482.370941
603.722363	40601.062387
604.072572	40621.690789
604.422728	40623.848403
604.772830	40392.426674
605.122878	40583.488925
605.472872	40437.794538
605.822813	40677.317401
606.172701	40432.725658
606.522534	40751.782805
606.872314	40964.116205
607.222041	40804.793058
607.571714	41141.516930
607.921333	40628.743363
608.270899	40818.636067
608.620411	41202.537576
608.969870	40979.398463
609.319276	40974.866466
609.668627	41014.048834
610.017926	41410.545666
610.367171	41555.952708
610.716362	41587.717018
611.065500	41504.754749
611.414585	41720.571587
611.763616	41883.499158
612.112594	41794.106898
612.461518	41914.963520
612.810389	42304.153200
613.159207	42079.267327
613.507971	42083.829571
613.856682	42569.300248
614.205340	42402.536358
614.553945	43068.026639
614.902496	42429.425873
615.250994	42856.691388
615.599439	42913.840428
615.947830	43025.270093
616.296169	43043.445973
616.644454	43088.413066
616.992686	43240.068617
617.340864	43662.270293
617.688990	43180.882951
618.037063	43849.975136
618.385082	43673.320502
618.733048	44028.162280
619.080961	43891.340324
619.428821	43939.899238
619.776628	43989.844470
620.124382	43814.326617
620.472083	43931.972024
620.819731	44021.243297
621.167326	43620.501813
621.514868	43609.733908
621.862357	43070.736260
622.209793	43166.651773
622.557176	42727.718508
622.904506	42516.075746
623.251783	42147.990857
623.599007	41832.553258
623.946179	41743.430699
624.293297	41503.408761
624.640363	40972.366053
624.987376	40822.177477
625.334336	40621.642898
625.681243	40221.166075
626.028097	40128.008072
626.374899	39950.798912
626.721647	39913.368344
627.068343	39686.763438
627.414987	39403.695088
627.761577	39153.628651
628.108115	39475.428186
628.454600	38713.775375
628.801032	38963.196544
629.147412	38854.116057
629.493739	38745.685879
629.840014	38320.411620
630.186236	38723.724092
630.532405	38154.746702
630.878521	38416.385107
631.224585	38194.854122
631.570597	37865.586117
631.916556	38020.699900
632.262462	37933.775285
632.608316	37869.871098
632.954117	37723.143274
633.299866	37699.147382
633.645562	37603.451158
633.991206	37094.788653
634.336797	36700.058745
634.682336	36594.978414
635.027823	36361.083999
635.373257	36261.087671
635.718639	35932.341426
636.063968	35826.842679
636.409245	35183.107497
636.754470	35149.072147
637.099642	34919.331643
637.444762	34321.226465
637.789829	34466.265502
638.134845	34057.984973
638.479808	33974.967252
638.824719	33941.814103
639.169577	33432.176135
639.514383	33557.670618
639.859137	33156.558610
640.203839	33316.774041
640.548489	33052.413413
640.893086	33016.807743
641.237632	32744.754314
641.582125	32831.734382
641.926566	32613.389406
642.270955	32644.500887
642.615292	32597.739144
642.959576	32459.603967
643.303809	32470.921357
643.647990	32581.007555
643.992118	32546.218552
644.336195	32372.883518
644.680219	32434.272169
645.024192	32621.770325
645.368112	33160.762932
645.711981	33153.415450
646.055797	33850.458313
646.399562	33640.411077
646.743274	34511.391391
647.086935	34905.150877
647.430544	34888.242847
647.774101	34914.461888
648.117606	35231.910907
648.461059	35381.277775
648.804460	34990.457282
649.147810	34512.422307
649.491108	34181.750341
649.834354	34062.814398
650.177548	33264.129271
650.520690	32757.785697
650.863781	32737.608478
651.206820	32545.598490
651.549807	32137.479278
651.892742	31551.848435
652.235626	31473.937402
652.578458	31337.133090
652.921238	30636.611831
653.263967	30912.685580
653.606644	30599.312334
653.949269	30501.599649
654.291843	30106.350502
654.634365	30470.460441
654.976836	30032.164882
655.319255	30107.807395
655.661622	29984.644445
656.003938	29862.590549
656.346203	29675.422589
656.688416	29904.537990
657.030577	29707.963237
657.372687	29519.822334
657.714746	29666.391362
658.056753	29848.888693
658.398708	29234.177954
658.740612	29289.416398
659.082465	29506.329686
659.424266	29388.404495
659.766016	29388.648991
660.107715	29232.564785
660.449362	29333.667646
660.790958	29309.389449
661.132503	29241.175076
661.473996	29309.979264
661.815438	29394.582429
662.156829	29512.447126
662.498168	29319.176849
662.839456	29287.369689
663.180693	29413.489276
663.521879	29475.147629
663.863013	29421.550081
664.204097	29388.482632
664.545129	29794.439190
664.886110	29745.948331
665.227040	29859.800270
665.567918	29848.873569
665.908746	29902.307279
666.249522	29991.762554
666.590248	30025.931495
666.930922	30133.000562
667.271545	30125.428749
667.612118	30186.207420
667.952639	30000.834111
668.293109	30041.488496
668.633528	29888.653314
668.973896	29859.465033
669.314213	29835.380921
669.654480	29641.079728
669.994695	29624.499373
670.334859	29546.674040
670.674973	29354.946357
671.015035	29549.754185
671.355047	29478.706683
671.695008	29399.210208
672.034918	29300.471648
672.374777	29398.365815
672.714585	29277.816703
673.054342	29415.964483
673.394049	29258.012530
673.733705	29481.701129
674.073310	29201.778459
674.412864	29261.569064
674.752368	28985.797784
675.091820	29216.846468
675.431223	28822.310644
675.770574	28617.138203
676.109875	28467.612539
676.449125	28244.622140
676.788324	28157.732812
677.127473	27689.563375
677.466571	27574.373009
677.805619	27295.947562
678.144616	27224.461480
678.483562	27180.429522
678.822458	26854.143359
679.161303	26808.752810
679.500098	26717.689407
679.838842	26622.509902
680.177535	26704.390843
680.516179	26913.162668
680.854771	26984.547927
681.193314	27668.045210
681.531805	28613.077554
681.870247	29365.142090
682.208638	30153.112245
682.546978	30519.120179
682.885268	30699.989217
683.223508	30291.950663
683.561697	30039.779545
683.899836	29877.661078
684.237925	29467.283429
684.575963	29299.188674
684.913951	28914.911599
685.251889	29050.763133
685.589776	29037.585557
685.927614	29042.931701
686.265401	29221.302847
686.603137	29314.914554
686.940824	29775.875141
687.278460	30107.729257
687.616046	30296.144903
687.953582	30968.198766
688.291068	30892.591541
688.628504	31266.025094
688.965889	31286.809772
689.303224	31042.785158
689.640510	30780.110796
689.977745	30185.877224
690.314930	29454.115935
690.652065	29049.412104
690.989150	28371.439926
691.326185	27543.604327
691.663170	26927.338393
692.000105	26226.199592
692.336990	25608.910304
692.673825	25199.941657
693.010610	24697.991448
693.347345	24195.748852
693.684030	23581.456529
694.020665	23370.748902
694.357251	22708.835319
694.693786	22716.825548
695.030272	22484.423315
695.366707	21995.083552
695.703093	21700.942307
696.039429	21771.420159
696.375716	21536.459540
696.711952	21510.263184
697.048139	21391.039895
697.384276	21229.317159
697.720363	21347.007937
698.056400	21237.135989
698.392388	21072.501987
698.728326	21064.219371
699.064214	20917.662946
699.400053	20933.167015
699.735842	20542.132273
700.071581	20373.833352
700.407270	20127.106679
700.742910	19942.623134
701.078501	19709.154696
701.414042	19502.729529
701.749533	19207.738850
702.084974	18887.214726
702.420366	19113.933059
702.755709	18720.854129
703.091002	18414.351975
703.426246	18482.309249
703.761440	18415.173683
704.096584	18174.783741
704.431679	18111.892827
704.766725	18044.905974
705.101721	17969.709603
705.436668	18089.174867
705.771565	17804.967216
706.106413	18099.642823
706.441212	18185.660031
706.775961	18262.318337
707.110661	18345.484772
707.445311	18699.162044
707.779913	18582.847501
708.114465	18866.835862
708.448967	19173.557306
708.783421	19769.036042
709.117825	20114.390369
709.452180	20323.825105
709.786485	20762.644945
710.120742	21493.614773
710.454949	21593.502716
710.789107	22102.689501
711.123216	22791.953864
711.457275	23028.825080
711.791286	23593.646039
712.125247	23763.197687
712.459159	23534.757801
712.793023	24299.584018
713.126837	23314.640859
713.460602	23582.021139
713.794318	23269.993880
714.127985	23008.559642
714.461602	22129.062298
714.795171	22113.959001
715.128691	21135.130761
715.462162	20637.289093
715.795584	20202.033349
716.128957	19922.589588
716.462281	19553.249452
716.795556	19275.272667
717.128782	18806.773034
717.461960	18210.538125
717.795088	18174.904729
718.128167	17841.692022
718.461198	17389.873567
718.794180	17269.309332
719.127113	16953.864171
719.459997	16761.034995
719.792833	16392.100671
720.125619	16424.578305
720.458357	16098.702997
720.791046	15956.963395
721.123686	15797.312573
721.456278	15577.576239
721.788821	15580.101857
722.121315	15320.794985
722.453761	15411.936526
722.786158	15293.000583
723.118506	15369.684095
723.450805	15263.300626
723.783056	15442.909375
724.115259	15317.036805
724.447412	15306.084898
724.779518	15502.642007
725.111574	15560.338013
725.443582	15816.516849
725.775542	15754.366983
726.107453	16255.334167
726.439315	16159.211967
726.771129	16559.499747
727.102895	16967.119885
727.434612	17236.254486
727.766281	17412.266372
728.097901	17746.540243
728.429473	17840.890478
728.760996	17862.680866
729.092471	17980.893403
729.423897	17867.328809
729.755276	17713.850881
730.086606	17806.517371
730.417887	18340.468824
730.749120	18884.800014
731.080305	19107.994580
731.411442	19513.986425
731.742530	19620.745461
732.073570	19768.657956
732.404562	20086.986657
732.735506	19990.625001
733.066401	19860.694302
733.397249	19424.349669
733.728048	18837.791254
734.058798	17996.152975
734.389501	17242.762615
734.720156	16738.022128
735.050762	16150.495812
735.381320	15748.279790
735.711831	15459.056191
736.042293	15083.326392
736.372707	15096.420789
736.703073	14884.956988
737.033391	15064.192693
737.363661	15054.022165
737.693883	15158.726930
738.024056	15354.890829
738.354182	15540.700198
738.684260	15884.703496
739.014290	16174.196796
739.344272	16383.946605
739.674207	16724.857154
740.004093	16913.313129
740.333931	16985.492370
740.663722	17071.950679
740.993464	17131.920245
741.323159	16993.926220
741.652806	16709.038014
741.982405	16556.129735
742.311956	16208.786673
742.641460	16104.215499
742.970915	15775.822134
743.300323	15438.460557
743.629683	15228.516664
743.958996	14919.176341
744.288260	14620.155259
744.617477	14306.081292
744.946647	14272.585345
745.275768	13954.664978
745.604842	13757.026542
745.933869	13583.787290
746.262847	13538.641236
746.591778	13445.894088
746.920662	13326.315398
747.249498	13316.835508
747.578286	13462.320688
747.907027	13622.916726
748.235720	13880.799471
748.564365	13960.588334
748.892963	13895.648190
749.221514	14008.433925
749.550017	13894.035021
749.878473	13871.737997
750.206881	13657.451150
750.535242	13587.933639
750.863555	13513.165765
751.191821	13401.632757
751.520039	13417.746805
751.848210	13333.685565
752.176334	13373.674518
752.504411	13307.610197
752.832440	13134.275163
753.160421	13250.824119
753.488356	13145.012821
753.816243	13059.650963
754.144082	12882.900547
754.471875	12824.856702
754.799620	12795.081126
755.127318	12761.181887
755.454969	12753.973037
755.782572	12721.437430
756.110129	12732.356570
756.437638	12647.763487
756.765100	12651.914878
757.092515	12666.201508
757.419882	12703.301879
757.747203	12702.465048
758.074477	12787.239612
758.401703	12765.149275
758.728882	12948.977471
759.056014	12991.224861
759.383099	13156.660407
759.710138	13286.518009
760.037129	13418.813009
760.364073	13489.399246
760.690970	13507.560002
761.017820	13508.714427
761.344623	13701.614178
761.671379	14017.051777
761.998088	14553.281833
762.324751	15962.244003
762.651366	18881.087204
762.977935	23148.723883
763.304456	26435.291530
763.630931	28020.137038
763.957359	27219.422847
764.283740	25192.778177
764.610074	23051.714439
764.936362	20451.545259
765.262602	18564.371672
765.588796	16608.270389
765.914943	15287.656960
766.241044	14140.300427
766.567097	13327.379082
766.893104	12584.020618
767.219064	12118.911161
767.544978	11636.573561
767.870845	11247.058727
768.196665	11012.831596
768.522438	10787.502101
768.848165	10581.853271
769.173846	10378.662003
769.499479	10248.489329
769.825066	10082.037991
770.150607	9858.926604
770.476101	9780.221589
770.801548	9659.054936
771.126949	9504.815793
771.452303	9394.139781
771.777611	9194.265592
772.102872	9184.334519
772.428087	9047.963746
772.753256	8894.155622
773.078378	8812.231831
773.403453	8634.523596
773.728482	8517.727623
774.053465	8440.222403
774.378401	8341.504008
774.703291	8223.283909
775.028135	8111.516487
775.352932	8076.084737
775.677683	7971.248902
776.002388	7865.460288
776.327046	7875.207359
776.651658	7776.899818
776.976224	7676.689242
777.300743	7672.810074
777.625216	7591.977692
777.949643	7545.977163
778.274024	7566.172026
778.598359	7480.981567
778.922647	7493.045048
779.246889	7444.115609
779.571086	7447.437729
779.895236	7456.254707
780.219339	7466.064793
780.543397	7465.621171
780.867409	7550.337762
781.191374	7557.019811
781.515294	7521.076384
781.839167	7613.594160
782.162995	7582.341527
782.486776	7535.685648
782.810511	7493.365161
783.134201	7405.775113
783.457844	7400.461737
783.781441	7349.349478
784.104993	7287.073584
784.428498	7266.863598
784.751958	7247.215701
785.075372	7216.593212
785.398739	7163.436766
785.722061	7202.916562
786.045337	7197.472116
786.368568	7341.462593
786.691752	7338.916810
787.014891	7634.862788
787.337983	7938.073068
787.661030	8483.828384
787.984031	9099.055840
788.306987	9536.292758
788.629897	9787.432960
788.952760	9799.115834
789.275579	9612.013409
789.598351	9238.998271
789.921078	8912.581039
790.243759	8504.729008
790.566395	8217.201757
790.888984	7974.122360
791.211529	7753.574399
791.534027	7533.396964
791.856480	7329.681417
792.178888	7247.747543
792.501249	7148.862790
792.823566	6992.118193
793.145836	6990.855384
793.468062	6958.902031
793.790241	6904.888588
794.112375	6959.827082
794.434464	7098.237002
794.756507	7128.015098
795.078505	7260.370592
795.400457	7544.124539
795.722364	7880.067032
796.044226	8167.813573
796.366042	8455.116492
796.687812	8428.010208
797.009538	8520.288529
797.331218	8436.925488
797.652852	8355.016821
797.974442	8218.005821
798.295986	8133.213613
798.617484	7945.264274
798.938938	7815.351219
799.260346	7708.309879
799.581709	7514.167483
799.903026	7435.018847
800.224299	7333.653846
800.545526	7162.849471
800.866708	7069.454534
801.187845	6998.200345
801.508936	6896.815180
801.829983	6857.431165
802.150984	6712.286264
802.471940	6667.145252
802.792851	6651.028683
803.113717	6623.748479
803.434538	6592.558860
803.755314	6531.903697
804.076045	6534.285642
804.396731	6472.047557
804.717372	6503.660632
805.037967	6500.532597
805.358518	6534.598194
805.679024	6614.984433
805.999485	6624.340814
806.319901	6663.497977
806.640272	6679.889289
806.960598	6774.053001
807.280879	6774.985615
807.601115	6849.879517
807.921306	6796.004706
808.241453	6814.087325
808.561554	6832.172464
808.881611	6797.852289
809.201623	6811.602036
809.521590	6753.225474
809.841513	6735.674697
810.161390	6774.403362
810.481223	6648.911398
810.801011	6630.833821
811.120755	6606.464883
811.440453	6530.313213
811.760107	6494.737790
812.079716	6469.884902
812.399281	6407.321662
812.718801	6396.049642
813.038276	6354.119845
813.357707	6292.552233
813.677093	6329.763510
813.996434	6232.781792
814.315731	6272.473317
814.634983	6266.716319
814.954191	6270.592967
815.273354	6364.045877
815.592473	6424.454023
815.911547	6539.377207
816.230577	6615.531398
816.549562	6755.894765
816.868502	6850.318097
817.187399	6942.793023
817.506250	7084.109169
817.825058	7109.710668
818.143821	7344.903181
818.462539	7583.120385
818.781213	7906.102071
819.099843	8381.654278
819.418429	9281.780023
819.736970	10177.940901
820.055466	11259.885943
820.373919	12606.466355
820.692327	14586.185444
821.010691	17872.692597
821.329011	25257.073053
821.647286	36817.353792
821.965517	50686.304031
822.283704	58235.016021
822.601847	61409.642326
822.919945	59210.025586
823.237999	55318.569889
823.556010	49314.669084
823.873976	42713.421796
824.191897	36280.977543
824.509775	31466.358028
824.827609	26856.893309
825.145398	24059.322626
825.463144	22400.712434
825.780845	22301.489924
826.098502	23541.696949
826.416116	26796.734699
826.733685	30489.979789
827.051210	32289.013842
827.368692	31377.416950
827.686129	27886.173416
828.003522	23927.657770
828.320872	20216.294773
828.638177	17345.256835
828.955439	15174.568756
829.272656	13352.751209
829.589830	11887.789381
829.906960	10598.055539
830.224046	9633.808837
830.541088	8863.099593
830.858086	8380.875419
831.175041	7972.794016
831.491952	7822.323135
831.808819	7810.690672
832.125642	8101.993748
832.442421	8793.186351
832.759157	10264.494992
833.075849	12795.880149
833.392497	15904.749644
833.709101	18360.005816
834.025662	18718.472184
834.342179	17399.151811
834.658653	15359.911818
834.975083	13455.658803
835.291469	11819.456540
835.607811	10493.842287
835.924110	9594.220656
836.240366	8735.439934
836.556578	7942.796630
836.872746	7286.521578
837.188871	6776.190451
837.504952	6353.116655
837.820990	6039.826588
838.136984	5802.347912
838.452935	5687.954049
838.768842	5669.216080
839.084706	5948.662362
839.400526	6898.357773
839.716303	8386.647541
840.032037	9618.312331
840.347727	9842.053862
840.663373	9057.151249
840.978977	8025.282509
841.294537	7199.455810
841.610054	6587.525268
841.925527	6164.237223
842.240957	5801.092665
842.556344	5478.584848
842.871687	5201.528073
843.186987	4921.849899
843.502244	4691.196946
843.817458	4526.799878
844.132629	4382.990882
844.447756	4291.698107
844.762840	4214.034091
845.077881	4136.521309
845.392879	4075.815734
845.707833	4029.520298
846.022745	3981.795695
846.337613	3958.397179
846.652438	3914.524017
846.967221	3899.239239
847.281960	3866.403683
847.596656	3849.762834
847.911309	3829.164680
848.225919	3808.218685
848.540485	3787.943165
848.855009	3774.455558
849.169490	3758.822939
849.483928	3746.598141
849.798323	3736.185638
850.112675	3716.333574
850.426984	3723.497054
850.741251	3711.095815
851.055474	3705.096842
851.369654	3708.129096
851.683792	3705.921071
851.997887	3710.372410
852.311938	3714.342318
852.625947	3714.778378
852.939914	3706.586503
853.253837	3715.421125
853.567718	3714.435580
853.881555	3704.252449
854.195350	3716.295766
854.509103	3709.893500
854.822812	3711.531875
855.136479	3704.496945
855.450103	3712.885425
855.763685	3697.078887
856.077224	3706.425186
856.390720	3717.162844
856.704173	3735.129516
857.017584	3747.056886
857.330953	3755.062239
857.644278	3776.056124
857.957561	3784.989048
858.270802	3782.551651
858.584000	3785.334368
858.897155	3785.984676
859.210268	3764.625307
859.523339	3747.487905
859.836367	3747.936568
860.149352	3742.270311
860.462295	3727.978640
860.775195	3721.036971
861.088054	3717.545972
861.400869	3714.523800
861.713642	3712.875343
862.026373	3726.448649
862.339062	3725.707600
862.651708	3743.167636
862.964312	3775.005043
863.276873	3784.487454
863.589392	3832.587623
863.901869	3878.053790
864.214303	3923.015841
864.526696	3953.461889
864.839045	4000.001822
865.151353	4023.924617
865.463619	4033.429713
865.775842	4040.809962
866.088023	4059.268147
866.400162	4049.072413
866.712258	4060.621697
867.024313	4059.754618
867.336325	4059.963826
867.648296	4063.527922
867.960224	4060.077252
868.272110	4070.061257
868.583954	4073.927822
868.895755	4087.876695
869.207515	4079.329419
869.519233	4116.495325
869.830909	4130.776914
870.142542	4153.804905
870.454134	4166.498530
870.765684	4193.612376
871.077191	4230.932038
871.388657	4251.988938
871.700081	4283.118063
872.011463	4324.957119
872.322803	4354.387375
872.634101	4392.029671
872.945357	4427.680711
873.256571	4476.761385
873.567744	4502.854397
873.878874	4526.187378
874.189963	4563.900250
874.501010	4572.651693
874.812015	4566.831681
875.122979	4610.044452
875.433900	4610.200727
875.744780	4619.478971
876.055618	4641.982682
876.366415	4640.840860
876.677169	4661.277698
876.987882	4701.922001
877.298554	4743.438423
877.609183	4813.906192
877.919771	4904.233587
878.230317	5030.574985
878.540822	5209.765319
878.851285	5486.713708
879.161707	5867.325865
879.472087	6503.262381
879.782425	7506.661205
880.092722	9303.933374
880.402977	12118.293620
880.713191	15595.114413
881.023363	19268.376369
881.333494	21719.854196
881.643583	23173.632224
881.953631	23389.852354
882.263637	22740.995360
882.573602	21450.424688
882.883526	20027.957266
883.193408	18474.220718
883.503248	16878.057820
883.813048	15413.448872
884.122806	14064.022728
884.432522	12633.587763
884.742197	11431.053280
885.051831	10358.530156
885.361424	9376.271411
885.670975	8561.250425
885.980485	7881.889409
886.289954	7314.671381
886.599382	6847.744588
886.908768	6476.589636
887.218113	6114.428103
887.527417	5832.420916
887.836680	5568.617335
888.145901	5354.206979
888.455082	5192.322927
888.764221	5039.394483
889.073319	4910.315739
889.382376	4835.999049
889.691392	4774.426396
890.000366	4742.916664
890.309300	4724.897060
890.618193	4726.391762
890.927044	4711.452302
891.235855	4726.943768
891.544625	4750.647273
891.853353	4796.877175
892.162041	4890.443511
892.470687	5051.543664
892.779293	5261.600983
893.087858	5578.954221
893.396381	6062.675618
893.704864	6730.628502
894.013306	7754.469204
894.321707	8867.142599
894.630068	9751.855017
894.938387	10086.920348
895.246665	9970.310898
895.554903	9454.268143
895.863100	8814.081934
896.171256	8282.777086
896.479371	7804.220352
896.787446	7325.323339
897.095480	6913.519043
897.403473	6598.762000
897.711425	6296.035670
898.019336	6042.337082
898.327207	5775.728099
898.635038	5557.980500
898.942827	5315.316998
899.250576	5121.827431
899.558284	4937.240542
899.865952	4819.872398
900.173579	4674.588865
900.481165	4570.667999
900.788711	4479.715501
901.096216	4401.076022
901.403681	4339.891538
901.711105	4311.371210
902.018489	4286.243578
902.325832	4334.951207
902.633135	4424.255247
902.940397	4679.246891
903.247619	5285.606958
903.554800	6461.498942
903.861941	8200.565949
904.169041	9754.121015
904.476101	10588.217728
904.783121	10460.530342
905.090100	9841.668213
905.397039	9063.682064
905.703938	8346.789658
906.010796	7682.594953
906.317614	7158.435941
906.624391	6652.654455
906.931129	6243.083390
907.237826	5861.152972
907.544483	5501.290205
907.851099	5151.640815
908.157675	4803.602074
908.464211	4484.045852
908.770707	4243.779419
909.077163	4041.044376
909.383578	3898.432654
909.689954	3777.064355
909.996289	3702.455278
910.302584	3636.181749
910.608839	3602.738734
910.915054	3569.479722
911.221229	3556.836508
911.527363	3564.972930
911.833458	3573.278231
912.139513	3591.464193
912.445527	3616.004530
912.751502	3687.848534
913.057436	3769.389198
913.363331	3887.662229
913.669186	4056.944175
913.975000	4275.889048
914.280775	4622.803612
914.586510	5114.575731
914.892205	5798.040246
915.197859	6712.266099
915.503475	7826.804721
915.809050	8873.043269
916.114585	9580.478471
916.420081	9936.341083
916.725536	9991.209001
917.030952	9625.926993
917.336328	9267.795862
917.641665	8900.888083
917.946961	8461.644786
918.252218	8058.211326
918.557435	7578.797596
918.862612	7177.206677
919.167750	6830.360169
919.472848	6429.074241
919.777906	6074.431588
920.082925	5730.057766
920.387904	5373.292788
920.692843	5104.208598
920.997743	4862.172720
921.302603	4630.579592
921.607423	4474.195438
921.912204	4312.450017
922.216946	4203.790466
922.521647	4082.023915
922.826310	3983.623113
923.130932	3888.594842
923.435516	3799.454639
923.740059	3735.830237
924.044564	3657.198319
924.349028	3600.946604
924.653454	3541.448386
924.957840	3472.271152
925.262186	3426.631066
925.566493	3370.704505
925.870761	3315.690393
926.174989	3281.995321
926.479178	3250.583891
926.783328	3208.119732
927.087438	3180.955474
927.391509	3145.546409
927.695541	3121.507667
927.999533	3096.014552
928.303486	3072.074113
928.607400	3059.188923
928.911275	3047.014537
929.215110	3029.713297
929.518906	3019.114271
929.822663	3019.668798
930.126381	3012.767458
930.430060	3019.983870
930.733699	3023.696680
931.037299	3036.959956
931.340861	3028.246321
931.644383	3039.994730
931.947866	3039.041952
932.251309	3034.497352
932.554714	3034.262938
932.858080	3025.080477
933.161407	3017.997655
933.464694	3013.886594
933.767943	3008.807632
934.071153	3007.174298
934.374323	2993.215343
934.677455	2993.142246
934.980548	2980.443580
935.283602	2975.319247
935.586617	2970.026035
935.889593	2982.759990
936.192530	2981.537510
936.495428	2994.180724
936.798287	3011.194618
937.101108	3034.051210
937.403890	3078.930082
937.706632	3134.967548
938.009336	3206.400698
938.312002	3274.889814
938.614628	3338.342818
938.917216	3391.320303
939.219765	3427.188113
939.522275	3459.212043
939.824747	3465.470635
940.127179	3467.078763
940.429573	3462.057774
940.731929	3460.484934
941.034246	3451.216773
941.336524	3438.563477
941.638763	3426.817588
941.940964	3409.095412
942.243126	3372.438662
942.545250	3355.707072
942.847335	3319.582164
943.149381	3288.079993
943.451389	3254.122781
943.753359	3222.018193
944.055290	3196.653627
944.357182	3171.115142
944.659036	3156.959582
944.960851	3147.797285
945.262628	3135.068371
945.564367	3136.752117
945.866067	3130.289357
946.167729	3127.519243
946.469352	3123.377935
946.770937	3121.326186
947.072484	3105.791870
947.373992	3111.208590
947.675462	3103.215841
947.976893	3087.941144
948.278286	3078.690627
948.579641	3073.558733
948.880958	3065.933987
949.182236	3070.239133
949.483476	3061.394428
949.784678	3059.642627
950.085841	3061.230591
950.386967	3071.300296
950.688054	3082.317737
950.989103	3100.460850
951.290114	3118.949282
951.591087	3145.319558
951.892021	3169.829647
952.192917	3194.390149
952.493776	3222.169427
952.794596	3233.086046
953.095378	3239.697519
953.396122	3235.347003
953.696828	3233.920357
953.997496	3222.925600
954.298126	3202.521530
954.598718	3185.106864
954.899272	3163.301353
955.199788	3139.217241
955.500266	3108.120883
955.800706	3074.677869
956.101108	3039.967004
956.401472	3013.914321
956.701798	2980.239413
957.002087	2943.746500
957.302337	2914.084351
957.602550	2887.824981
957.902724	2858.919005
958.202861	2834.234995
958.502960	2815.149186
958.803022	2797.038841
959.103045	2777.446397
959.403031	2759.013418
959.702979	2744.759555
960.002889	2734.503328
960.302762	2725.073849
960.602596	2712.019782
960.902393	2703.250694
961.202153	2694.763912
961.501875	2684.573219
961.801559	2683.252437
962.101205	2673.840603
962.400814	2670.919254
962.700385	2663.271824
962.999918	2657.184631
963.299414	2654.149856
963.598873	2651.248672
963.898293	2642.930768
964.197677	2646.121818
964.497022	2645.073258
964.796331	2639.253246
965.095601	2638.940695
965.394835	2636.669655
965.694030	2633.907103
965.993189	2629.281844
966.292309	2633.476084
966.591393	2628.419807
966.890439	2629.675054
967.189447	2628.545836
967.488419	2628.399642
967.787353	2630.879890
968.086249	2633.743265
968.385108	2635.202679
968.683930	2635.190076
968.982714	2637.917341
969.281462	2642.807260
969.580172	2646.177271
969.878844	2653.751605
970.177480	2659.390135
970.476078	2663.985147
970.774639	2673.291117
971.073162	2680.169772
971.371649	2685.611697
971.670098	2691.454394
971.968510	2696.866073
972.266885	2701.052751
972.565223	2704.115252
972.863524	2706.537527
973.161788	2709.012733
973.460014	2710.981304
973.758204	2715.377190
974.056356	2718.452294
974.354471	2719.692418
974.652550	2721.557645
974.950591	2718.338868
975.248595	2718.588405
975.546563	2714.973898
975.844493	2713.136397
976.142386	2706.703885
976.440243	2702.411342
976.738062	2697.634849
977.035845	2692.371884
977.333590	2688.482634
977.631299	2683.940555
977.928971	2677.301355
978.226606	2670.521003
978.524204	2667.637463
978.821765	2663.196207
979.119290	2663.980106
979.416777	2662.750064
979.714228	2666.069664
980.011642	2667.440858
980.309020	2674.939574
980.606360	2684.905936
980.903664	2703.827907
981.200931	2732.547360
981.498162	2774.673762
981.795356	2836.606858
982.092513	2916.151224
982.389633	3010.385513
982.686717	3100.695264
982.983764	3178.553364
983.280775	3231.298957
983.577749	3248.403592
983.874686	3243.392685
984.171587	3215.099209
984.468451	3183.712985
984.765279	3146.128663
985.062070	3103.057044
985.358824	3062.188410
985.655543	3011.315606
985.952224	2965.930098
986.248869	2904.370048
986.545478	2850.270905
986.842050	2795.087915
987.138586	2750.813981
987.435086	2709.393340
987.731549	2680.328568
988.027975	2655.745381
988.324366	2638.751652
988.620719	2622.085597
988.917037	2614.465893
989.213318	2604.333174
989.509563	2596.617688
989.805772	2593.356061
990.101944	2587.657037
990.398080	2584.957499
990.694180	2583.976994
990.990244	2585.469176
991.286271	2580.909452
991.582262	2586.094279
991.878217	2585.494382
992.174136	2590.893457
992.470019	2590.641400
992.765865	2595.816144
993.061676	2599.133223
993.357450	2603.259408
993.653188	2611.123608
993.948890	2624.563324
994.244556	2642.686272
994.540186	2661.424241
994.835780	2688.896009
995.131337	2722.523026
995.426859	2757.140629
995.722345	2803.448668
996.017795	2851.105216
996.313208	2888.649209
996.608586	2917.356060
996.903928	2933.860798
997.199234	2935.511776
997.494504	2934.667382
997.789738	2925.714293
998.084936	2900.800911
998.380099	2874.904503
998.675225	2849.338292
998.970316	2822.839467
999.265371	2787.014507
999.560390	2756.127357
999.855373	2725.197358
1000.150320	2699.253059
1000.445232	2673.633916
1000.740108	2652.080462
1001.034948	2633.433234
1001.329752	2619.743981
1001.624521	2609.865840
1001.919254	2597.459560
1002.213951	2592.320104
1002.508613	2580.554051
1002.803239	2576.382496
1003.097829	2566.227092
1003.392384	2563.209961
1003.686903	2561.843808
1003.981386	2561.460681
1004.275834	2551.479196
1004.570246	2550.952396
1004.864623	2548.595656
1005.158964	2546.304452
1005.453270	2544.361087
1005.747540	2542.760521
1006.041775	2543.579708
1006.335974	2539.627443
1006.630138	2540.549975
1006.924266	2540.776827
1007.218359	2537.323636
1007.512416	2534.619057
1007.806438	2532.862215
1008.100425	2533.910775
1008.394376	2529.615712
1008.688292	2533.956145
1008.982172	2536.343132
1009.276017	2534.500590
1009.569827	2533.053779
1009.863602	2533.021011
1010.157341	2534.263656
1010.451045	2527.193437
1010.744714	2529.817358
1011.038347	2528.791483
1011.331945	2527.780732
1011.625508	2529.093953
1011.919036	2524.808972
1012.212528	2525.469363
1012.505986	2526.543129
1012.799408	2524.559435
1013.092795	2522.328724
1013.386147	2525.018180
1013.679464	2523.520957
1013.972745	2525.207223
1014.265992	2524.826616
1014.559204	2524.025072
1014.852380	2523.488189
1015.145521	2521.781759
1015.438628	2521.910308
1015.731699	2521.312932
1016.024736	2523.389887
1016.317737	2524.861904
1016.610703	2524.307377
1016.903635	2524.622449
1017.196531	2531.508665
1017.489393	2530.429858
1017.782219	2528.337779
1018.075011	2531.932122
1018.367768	2532.781557
1018.660490	2532.481608
1018.953177	2532.481608
1019.245829	2532.481608
