Dividing Wavelength (nm)	Counts (n)	Blue Motor Position (mm): 3.500000	Red Motor Position (mm): 0.000000	
326.493990	2067.016750
326.888308	2067.016750
327.282561	2067.016750
327.676750	2041.453059
328.070874	2044.271064
328.464933	2051.215253
328.858929	2058.923177
329.252859	2065.930381
329.646726	2078.777762
330.040528	2098.183683
330.434265	2112.142638
330.827938	2132.879425
331.221547	2157.349186
331.615091	2173.644715
332.008571	2194.792356
332.401986	2217.507795
332.795338	2239.330950
333.188625	2256.443147
333.581847	2273.920827
333.975006	2291.257355
334.368100	2311.003555
334.761129	2326.401759
335.154095	2343.312310
335.546996	2357.341841
335.939833	2370.295086
336.332606	2384.390152
336.725315	2395.331976
337.117960	2406.304048
337.510540	2414.039698
337.903056	2426.148550
338.295508	2432.364292
338.687896	2440.215890
339.080220	2444.415171
339.472480	2450.247786
339.864676	2454.081583
340.256807	2453.902622
340.648875	2457.474280
341.040879	2459.672223
341.432818	2461.277830
341.824694	2462.918726
342.216506	2460.015021
342.608253	2461.804631
342.999937	2460.682974
343.391557	2460.181379
343.783113	2460.052830
344.174605	2455.591409
344.566033	2457.703652
344.957397	2453.915225
345.348697	2450.550255
345.739934	2451.755091
346.131106	2446.635799
346.522215	2444.006837
346.913260	2442.910386
347.304241	2444.256374
347.695159	2441.559357
348.086012	2441.660180
348.476802	2436.936619
348.867528	2434.468974
349.258191	2433.039807
349.648789	2432.286155
350.039324	2429.876483
350.429796	2428.288520
350.820203	2433.168357
351.210548	2432.102152
351.600828	2434.037956
351.991045	2431.187183
352.381198	2432.097111
352.771288	2430.612492
353.161314	2431.345979
353.551276	2429.294230
353.941175	2431.787080
354.331010	2431.434200
354.720782	2428.817841
355.110490	2428.812800
355.500135	2430.720876
355.889717	2428.439754
356.279235	2432.409663
356.668689	2429.936977
357.058080	2430.123500
357.447408	2433.705239
357.836672	2433.677513
358.225873	2434.683223
358.615010	2435.119283
359.004084	2433.322112
359.393095	2435.578028
359.782043	2432.772626
360.170927	2435.182297
360.559748	2433.269180
360.948505	2434.831937
361.337199	2437.027360
361.725830	2435.167174
362.114398	2437.216403
362.502903	2438.466609
362.891344	2436.825714
363.279722	2438.454006
363.668037	2437.251691
364.056289	2438.398554
364.444478	2444.032043
364.832603	2438.287648
365.220665	2441.115736
365.608665	2441.067845
365.996601	2442.731425
366.384474	2439.394182
366.772284	2441.680345
367.160031	2438.932916
367.547715	2443.182609
367.935336	2440.888884
368.322893	2441.181271
368.710388	2441.950047
369.097820	2438.007864
369.485189	2440.137752
369.872495	2445.700665
370.259738	2444.442897
370.646918	2443.064142
371.034035	2444.463062
371.421090	2445.060438
371.808081	2447.240738
372.195010	2446.169492
372.581875	2443.719492
372.968678	2443.338884
373.355418	2447.321396
373.742096	2446.729060
374.128710	2445.004986
374.515262	2443.500201
374.901751	2447.840635
375.288177	2449.811726
375.674540	2448.783331
376.060841	2447.371808
376.447079	2449.047991
376.833254	2448.841304
377.219367	2447.180244
377.605417	2447.533124
377.991404	2448.327106
378.377329	2445.085644
378.763191	2449.413475
379.148991	2450.099072
379.534727	2450.280553
379.920402	2452.332303
380.306013	2448.611931
380.691563	2451.389607
381.077049	2448.120419
381.462474	2449.592436
381.847835	2451.374484
382.233134	2448.821139
382.618371	2450.451952
383.003545	2450.358691
383.388657	2450.356171
383.773706	2451.520677
384.158693	2452.128136
384.543618	2449.899946
384.928480	2452.165945
385.313280	2451.949175
385.698017	2453.660647
386.082692	2452.589402
386.467305	2451.598815
386.851856	2453.269957
387.236344	2453.070832
387.620770	2450.961109
388.005133	2451.172837
388.389435	2452.682663
388.773674	2448.730398
389.157851	2455.898919
389.541965	2453.229628
389.926018	2455.356995
390.310008	2453.453960
390.693936	2454.336162
391.077802	2455.916563
391.461606	2453.834567
391.845348	2458.270782
392.229027	2458.343879
392.612645	2457.658282
392.996200	2458.890844
393.379694	2455.752726
393.763125	2456.370267
394.146494	2457.567541
394.529801	2454.971347
394.913047	2457.791872
395.296230	2458.099383
395.679351	2457.852366
396.062410	2457.736420
396.445408	2455.667026
396.828343	2456.826492
397.211217	2459.515947
397.594028	2458.164918
397.976778	2457.388580
398.359466	2457.565021
398.742092	2458.928653
399.124656	2458.437140
399.507158	2458.227932
399.889598	2461.683643
400.271977	2460.171297
400.654294	2458.089301
401.036549	2461.043417
401.418742	2459.296657
401.800874	2459.836060
402.182944	2459.102572
402.564952	2462.525516
402.946898	2462.946452
403.328783	2459.926801
403.710606	2461.799590
404.092367	2461.008129
404.474067	2461.620629
404.855705	2464.990640
405.237282	2461.794549
405.618797	2462.104580
406.000250	2462.268417
406.381642	2463.846298
406.762972	2459.281533
407.144240	2459.742799
407.525447	2458.772377
407.906593	2460.166256
408.287677	2461.310598
408.668700	2462.941411
409.049661	2466.326546
409.430560	2464.357975
409.811399	2463.634570
410.192176	2465.368727
410.572891	2468.264870
410.953545	2461.940742
411.334138	2465.310753
411.714669	2466.573563
412.095139	2463.405197
412.475547	2464.234467
412.855894	2464.317646
413.236180	2465.935857
413.616405	2465.083902
413.996568	2467.044910
414.376670	2466.414766
414.756711	2466.177832
415.136691	2467.387709
415.516609	2463.889148
415.896466	2465.656072
416.276262	2466.155147
416.655997	2468.985755
417.035670	2466.697071
417.415283	2468.587503
417.794834	2467.843933
418.174324	2469.104222
418.553753	2469.600775
418.933121	2466.928964
419.312428	2469.263018
419.691674	2466.870991
420.070859	2465.328397
420.449983	2465.711525
420.829045	2466.402163
421.208047	2469.996506
421.586988	2469.711681
421.965867	2466.805456
422.344686	2468.471557
422.723444	2469.429376
423.102141	2466.747482
423.480777	2471.400467
423.859352	2466.132462
424.237866	2467.985086
424.616319	2467.370065
424.994712	2472.968266
425.373044	2469.482308
425.751314	2467.551546
426.129524	2465.666155
426.507673	2464.431072
426.885762	2465.114148
427.263789	2469.789819
427.641756	2469.527679
428.019662	2470.298975
428.397508	2469.457102
428.775292	2470.319140
429.153016	2470.069603
429.530679	2470.966928
429.908282	2470.026753
430.285824	2471.334932
430.663305	2471.690334
431.040726	2470.548512
431.418086	2470.414922
431.795385	2469.343677
432.172624	2470.795529
432.549802	2473.429532
432.926920	2474.105046
433.303977	2474.520942
433.680974	2470.200673
434.057910	2474.863740
434.434786	2471.680251
434.811601	2473.023719
435.188355	2472.194449
435.565050	2473.946250
435.941683	2473.316106
436.318257	2470.747638
436.694770	2474.994810
437.071222	2471.874336
437.447614	2474.180664
437.823946	2473.641260
438.200218	2472.887608
438.576429	2473.487505
438.952580	2472.582618
439.328670	2475.627475
439.704700	2475.476240
440.080670	2473.530355
440.456580	2472.333081
440.832429	2476.118987
441.208218	2475.435911
441.583947	2475.201497
441.959616	2476.176961
442.335224	2475.844244
442.710773	2471.191259
443.086261	2477.550675
443.461689	2475.662763
443.837057	2474.367186
444.212365	2475.685448
444.587612	2471.985241
444.962800	2469.484829
445.337927	2473.300982
445.712995	2470.704788
446.088002	2477.593525
446.462949	2475.226703
446.837837	2472.285190
447.212664	2472.338122
447.587431	2474.896508
447.962139	2474.462968
448.336786	2477.560757
448.711374	2472.532206
449.085901	2474.558750
449.460369	2473.835345
449.834776	2475.952629
450.209124	2475.899697
450.583412	2477.989255
450.957640	2476.938175
451.331808	2476.192084
451.705917	2475.604790
452.079965	2476.103864
452.453954	2475.806436
452.827883	2476.413895
453.201752	2476.877681
453.575562	2477.359111
453.949311	2477.137300
454.323001	2477.371714
454.696632	2477.827938
455.070202	2474.382310
455.443713	2477.916159
455.817164	2476.560088
456.190556	2476.461786
456.563888	2478.347177
456.937160	2478.503453
457.310373	2478.407671
457.683526	2474.137814
458.056619	2480.093937
458.429653	2478.644605
458.802628	2479.385655
459.175542	2475.924903
459.548398	2479.047898
459.921194	2477.490181
460.293930	2476.812146
460.666607	2477.316261
461.039224	2478.450521
461.411782	2476.786940
461.784280	2479.965388
462.156719	2480.406489
462.529099	2481.875985
462.901419	2478.049749
463.273680	2476.383648
463.645882	2475.640078
464.018024	2475.481281
464.390106	2472.219655
464.762130	2481.187867
465.134094	2477.129739
465.505999	2480.968577
465.877845	2477.994297
466.249631	2480.235089
466.621358	2476.426498
466.993026	2478.246354
467.364634	2484.477220
467.736184	2482.002014
468.107674	2479.743577
468.479105	2481.865903
468.850477	2476.504636
469.221790	2481.631489
469.593043	2479.395737
469.964238	2480.008237
470.335373	2479.799030
470.706449	2480.875316
471.077467	2479.673001
471.448425	2478.543782
471.819324	2481.281129
472.190164	2479.131077
472.560945	2478.780717
472.931667	2479.710809
473.302330	2482.511170
473.672934	2479.670480
474.043479	2481.918835
474.413965	2480.716520
474.784393	2481.684421
475.154761	2481.316417
475.525070	2483.743732
475.895321	2482.990080
476.265513	2481.911273
476.635645	2482.294401
477.005719	2483.249699
477.375734	2482.402786
477.745691	2481.936479
478.115588	2481.266005
478.485427	2483.416058
478.855207	2481.576036
479.224928	2483.068218
479.594591	2481.891108
479.964194	2482.801037
480.333739	2481.742394
480.703226	2482.889257
481.072653	2480.320789
481.442022	2482.170893
481.811333	2479.736015
482.180584	2477.313741
482.549777	2478.876498
482.918912	2476.267701
483.287988	2482.841366
483.657005	2481.288691
484.025964	2486.428147
484.394864	2483.090903
484.763706	2482.866572
485.132489	2480.104019
485.501213	2482.059987
485.869879	2483.075780
486.238487	2483.915132
486.607036	2483.534525
486.975527	2481.364308
487.343959	2483.617704
487.712333	2481.732312
488.080648	2479.637713
488.448905	2482.763228
488.817104	2483.065697
489.185244	2483.408496
489.553326	2482.163331
489.921350	2483.834473
490.289315	2480.492188
490.657222	2480.683752
491.025070	2483.877323
491.392861	2483.481593
491.760593	2483.642909
492.128267	2482.599391
492.495883	2479.252064
492.863440	2482.178454
493.230939	2482.483444
493.598380	2484.444453
493.965763	2482.831284
494.333088	2482.995121
494.700354	2482.317086
495.067563	2484.721716
495.434713	2483.877323
495.801805	2483.632827
496.168839	2484.676346
496.535815	2485.664412
496.902733	2486.753301
497.269593	2483.726088
497.636395	2485.288846
498.003139	2484.076449
498.369825	2485.125009
498.736453	2481.318938
499.103023	2485.019144
499.469535	2485.974443
499.835989	2483.695842
500.202385	2480.981180
500.568723	2477.742239
500.935003	2482.165851
501.301226	2477.999338
501.667390	2483.534525
502.033497	2485.855976
502.399546	2485.326655
502.765537	2483.998311
503.131470	2487.799341
503.497345	2484.774648
503.863163	2483.917652
504.228923	2484.477220
504.594625	2483.824391
504.960269	2485.500575
505.325856	2482.538897
505.691385	2482.044864
506.056856	2483.640389
506.422270	2484.358753
506.787625	2484.903198
507.152924	2483.847076
507.518164	2483.239617
507.883347	2486.682725
508.248472	2485.772797
508.613540	2484.956130
508.978550	2480.245172
509.343503	2487.549804
509.708398	2484.124340
510.073236	2485.077118
510.438016	2487.867396
510.802738	2485.596357
511.167403	2486.617190
511.532010	2484.363794
511.896561	2486.155925
512.261053	2484.895636
512.625488	2484.711634
512.989866	2484.462097
513.354186	2485.896305
513.718449	2485.606439
514.082655	2486.347488
514.446803	2483.554689
514.810894	2485.974443
515.174927	2483.847076
515.538904	2484.275574
515.902822	2485.077118
516.266684	2485.893785
516.630488	2484.459576
516.994235	2485.747591
517.357925	2487.136429
517.721558	2487.673312
518.085133	2484.162148
518.448651	2481.018989
518.812112	2482.808598
519.175516	2483.098465
519.538863	2481.301293
519.902152	2486.660040
520.265385	2485.165338
520.628560	2485.944196
520.991678	2486.806233
521.354739	2483.693321
521.717743	2485.780359
522.080690	2486.564258
522.443580	2485.059474
522.806413	2485.419916
523.169189	2488.600884
523.531908	2487.244814
523.894569	2487.123826
524.257174	2487.849752
524.619722	2482.881695
524.982213	2486.518888
525.344647	2486.259268
525.707025	2485.805564
526.069345	2485.992087
526.431608	2486.264309
526.793815	2484.996459
527.155964	2485.344299
527.518057	2485.984525
527.880093	2485.082159
528.242072	2483.902529
528.603995	2486.413023
528.965860	2485.203147
529.327669	2487.159114
529.689421	2484.636017
530.051117	2487.275061
530.412755	2485.349340
530.774337	2487.086018
531.135862	2486.992756
531.497331	2486.092910
531.858743	2485.455204
532.220098	2485.515698
532.581396	2484.751963
532.942638	2488.878148
533.303824	2485.992087
533.664953	2487.123826
534.026025	2487.030565
534.387040	2485.918990
534.747999	2486.410503
535.108902	2486.123157
535.469748	2486.768425
535.830537	2489.009218
536.191270	2485.828250
536.551947	2485.137612
536.912567	2482.491006
537.273131	2482.536376
537.633638	2481.727271
537.994089	2486.513847
538.354483	2487.486789
538.714821	2487.169197
539.075103	2487.340596
539.435328	2484.933445
539.795497	2488.739516
540.155609	2487.214567
540.515665	2487.164155
540.875665	2487.552324
541.235609	2486.178610
541.595496	2488.573158
541.955328	2486.067704
542.315102	2483.894967
542.674821	2484.883033
543.034483	2487.980822
543.394090	2486.067704
543.753640	2487.171717
544.113134	2486.959989
544.472571	2488.195071
544.831953	2484.457056
545.191278	2486.160966
545.550548	2485.679536
545.909761	2485.379587
546.268918	2487.053250
546.628019	2488.326141
546.987064	2488.006028
547.346053	2485.573671
547.704986	2486.304639
548.063863	2486.957468
548.422684	2485.215749
548.781449	2486.158445
549.140158	2484.535194
549.498811	2489.904023
549.857408	2489.409989
550.215949	2484.507467
550.574434	2486.034937
550.932864	2488.512664
551.291237	2486.725575
551.649555	2486.367653
552.007817	2488.084166
552.366022	2486.266830
552.724173	2484.888074
553.082267	2488.069042
553.440305	2486.816316
553.798288	2488.888230
554.156215	2488.101810
554.514086	2485.702221
554.871902	2481.462610
555.229661	2484.474700
555.587365	2482.783393
555.945014	2483.680718
556.302606	2486.649958
556.660143	2488.429485
557.017625	2488.028713
557.375050	2486.539052
557.732421	2488.111892
558.089735	2489.571306
558.446994	2486.213898
558.804197	2488.222798
559.161345	2485.989567
559.518437	2489.437716
559.875474	2486.342447
560.232455	2487.723723
560.589381	2484.943527
560.946251	2489.956955
561.303065	2487.537201
561.659825	2487.776656
562.016528	2489.349496
562.373177	2488.580720
562.729770	2487.426295
563.086307	2488.769763
563.442789	2487.098620
563.799216	2487.068373
564.155587	2488.805051
564.511904	2486.266830
564.868164	2488.462253
565.224370	2487.774135
565.580520	2485.077118
565.936615	2488.510143
566.292654	2487.398569
566.648638	2488.807572
567.004567	2490.085504
567.360441	2489.646924
567.716260	2488.237921
568.072023	2486.196254
568.427732	2485.266161
568.783385	2490.037613
569.138982	2488.202633
569.494525	2486.241624
569.850013	2485.911429
570.205445	2488.268168
570.560823	2485.825729
570.916145	2487.532160
571.271412	2488.293374
571.626625	2488.207674
571.981782	2488.857983
572.336884	2485.530822
572.691931	2481.782724
573.046923	2486.128198
573.401860	2484.507467
573.756743	2487.418734
574.111570	2485.815647
574.466342	2484.754484
574.821059	2486.758342
575.175722	2485.359422
575.530330	2487.698518
575.884882	2488.391676
576.239380	2486.629793
576.593823	2488.686584
576.948211	2486.241624
577.302544	2487.564927
577.656823	2487.690956
578.011047	2488.389156
578.365216	2488.855463
578.719330	2488.240442
579.073389	2487.990905
579.427394	2487.867396
579.781344	2488.817654
580.135239	2489.775473
580.489080	2486.244145
580.842866	2490.151039
581.196597	2493.541215
581.550273	2489.064670
581.903895	2488.318580
582.257463	2488.742037
582.610975	2486.009731
582.964434	2488.200113
583.317837	2489.120123
583.671186	2488.984012
584.024481	2486.307159
584.377721	2485.646768
584.730906	2488.774804
585.084037	2487.993425
585.437113	2484.449494
585.790135	2487.537201
586.143103	2486.634834
586.496016	2487.149032
586.848874	2485.661892
587.201679	2487.335555
587.554428	2489.687253
587.907124	2489.614156
588.259765	2489.775473
588.612352	2485.664412
588.964884	2488.605925
589.317362	2487.398569
589.669786	2486.697849
590.022155	2485.843373
590.374470	2485.883702
590.726731	2487.912767
591.078937	2481.986890
591.431090	2486.876810
591.783188	2487.040647
592.135232	2487.925370
592.487222	2487.363281
592.839157	2485.598877
593.191038	2488.754639
593.542866	2487.080976
593.894639	2490.125833
594.246358	2489.909064
594.598022	2488.258086
594.949633	2487.093579
595.301190	2486.566779
595.652692	2488.434526
596.004141	2485.561068
596.355535	2488.953765
596.706876	2487.975781
597.058162	2488.154742
597.409395	2487.582571
597.760573	2486.922180
598.111698	2487.801861
598.462768	2488.495020
598.813785	2486.564258
599.164748	2491.958293
599.515657	2487.345637
599.866511	2488.918477
600.217312	2488.497541
600.568060	2487.980822
600.918753	2491.189517
601.269392	2487.481748
601.619978	2486.483600
601.970510	2488.817654
602.320988	2486.793631
602.671412	2488.215236
603.021783	2487.446460
603.372100	2488.535349
603.722363	2487.663230
604.072572	2489.873776
604.422728	2488.505102
604.772830	2486.622231
605.122878	2488.348827
605.472872	2486.191213
605.822813	2488.616008
606.172701	2485.450163
606.522534	2488.585761
606.872314	2488.507623
607.222041	2488.051398
607.571714	2484.734319
607.921333	2482.846407
608.270899	2486.649958
608.620411	2482.604432
608.969870	2487.670791
609.319276	2488.434526
609.668627	2486.460914
610.017926	2487.307828
610.367171	2489.047026
610.716362	2487.859835
611.065500	2489.359578
611.414585	2487.358240
611.763616	2490.045175
612.112594	2485.717344
612.461518	2488.744557
612.810389	2486.980153
613.159207	2488.137098
613.507971	2488.512664
613.856682	2487.118785
614.205340	2487.748929
614.553945	2485.135091
614.902496	2486.881851
615.250994	2489.180617
615.599439	2487.688435
615.947830	2486.902015
616.296169	2486.682725
616.644454	2486.690287
616.992686	2487.123826
617.340864	2487.224649
617.688990	2485.314052
618.037063	2486.712972
618.385082	2486.476038
618.733048	2490.324959
619.080961	2486.508805
619.428821	2487.126347
619.776628	2486.591984
620.124382	2489.044506
620.472083	2487.587612
620.819731	2489.044506
621.167326	2489.846049
621.514868	2489.415031
621.862357	2489.856132
622.209793	2489.049547
622.557176	2488.888230
622.904506	2487.602736
623.251783	2487.509474
623.599007	2489.462922
623.946179	2490.105669
624.293297	2490.123313
624.640363	2487.103662
624.987376	2485.871099
625.334336	2484.814978
625.681243	2485.694659
626.028097	2482.397744
626.374899	2487.224649
626.721647	2488.638693
627.068343	2486.690287
627.414987	2488.794969
627.761577	2486.750781
628.108115	2487.801861
628.454600	2491.068529
628.801032	2487.879999
629.147412	2487.927890
629.493739	2486.327324
629.840014	2489.110041
630.186236	2488.326141
630.532405	2489.140288
630.878521	2488.371512
631.224585	2487.733806
631.570597	2486.798672
631.916556	2488.084166
632.262462	2486.624752
632.608316	2486.972592
632.954117	2488.212715
633.299866	2487.045688
633.645562	2488.439567
633.991206	2484.905718
634.336797	2485.702221
634.682336	2488.164824
635.027823	2486.496202
635.373257	2487.953096
635.718639	2486.828919
636.063968	2487.718682
636.409245	2489.861173
636.754470	2488.752119
637.099642	2487.464104
637.444762	2487.753970
637.789829	2489.024341
638.134845	2488.444608
638.479808	2487.257417
638.824719	2488.285812
639.169577	2488.406800
639.514383	2487.370843
639.859137	2490.612305
640.203839	2488.794969
640.548489	2486.405462
640.893086	2487.706079
641.237632	2486.634834
641.582125	2488.580720
641.926566	2486.566779
642.270955	2484.646099
642.615292	2480.996304
642.959576	2487.564927
643.303809	2482.632158
643.647990	2484.696511
643.992118	2488.129536
644.336195	2488.714310
644.680219	2486.234062
645.024192	2486.745740
645.368112	2486.155925
645.711981	2486.420585
646.055797	2487.207005
646.399562	2485.639206
646.743274	2487.015441
647.086935	2486.813795
647.430544	2489.067191
647.774101	2487.451501
648.117606	2489.667088
648.461059	2486.591984
648.804460	2490.312356
649.147810	2487.111223
649.491108	2487.426295
649.834354	2487.393528
650.177548	2488.205154
650.520690	2486.120637
650.863781	2486.622231
651.206820	2486.584423
651.549807	2485.409834
651.892742	2484.383959
652.235626	2488.424444
652.578458	2487.670791
652.921238	2488.069042
653.263967	2488.263127
653.606644	2485.004021
653.949269	2487.569968
654.291843	2489.599033
654.634365	2488.091728
654.976836	2486.770945
655.319255	2486.218939
655.661622	2487.138950
656.003938	2488.767242
656.346203	2485.382108
656.688416	2488.883189
657.030577	2485.417396
657.372687	2490.052737
657.714746	2485.051912
658.056753	2485.253558
658.398708	2487.466625
658.740612	2487.146511
659.082465	2487.088538
659.424266	2483.766418
659.766016	2485.238435
660.107715	2483.864720
660.449362	2483.090903
660.790958	2484.260451
661.132503	2488.207674
661.473996	2486.881851
661.815438	2489.906543
662.156829	2485.992087
662.498168	2486.949906
662.839456	2485.089721
663.180693	2485.545945
663.521879	2485.208188
663.863013	2484.018475
664.204097	2486.256748
664.545129	2487.711121
664.886110	2486.304639
665.227040	2483.877323
665.567918	2489.702376
665.908746	2486.110554
666.249522	2486.768425
666.590248	2489.135247
666.930922	2489.256234
667.271545	2488.724393
667.612118	2489.445277
667.952639	2488.394197
668.293109	2485.651809
668.633528	2486.818836
668.973896	2484.699031
669.314213	2485.510657
669.654480	2489.662047
669.994695	2490.297232
670.334859	2489.420072
670.674973	2485.528301
671.015035	2488.018631
671.355047	2487.428816
671.695008	2487.098620
672.034918	2487.136429
672.374777	2486.304639
672.714585	2485.067035
673.054342	2487.668271
673.394049	2484.802375
673.733705	2487.020482
674.073310	2487.786738
674.412864	2487.864876
674.752368	2485.092241
675.091820	2484.928404
675.431223	2485.979484
675.770574	2488.265648
676.109875	2485.939155
676.449125	2482.223825
676.788324	2482.208701
677.127473	2485.152735
677.466571	2482.493526
677.805619	2486.591984
678.144616	2487.607777
678.483562	2487.542242
678.822458	2487.481748
679.161303	2486.551655
679.500098	2487.088538
679.838842	2485.051912
680.177535	2488.036275
680.516179	2487.151552
680.854771	2485.490492
681.193314	2487.272540
681.531805	2488.018631
681.870247	2486.707931
682.208638	2486.032416
682.546978	2489.689773
682.885268	2483.600060
683.223508	2486.894454
683.561697	2486.435709
683.899836	2485.566110
684.237925	2488.361429
684.575963	2485.399752
684.913951	2489.772953
685.251889	2484.212560
685.589776	2486.750781
685.927614	2484.837663
686.265401	2484.051243
686.603137	2488.104331
686.940824	2487.143991
687.278460	2487.506954
687.616046	2486.138281
687.953582	2486.178610
688.291068	2488.686584
688.628504	2487.706079
688.965889	2485.934114
689.303224	2487.988384
689.640510	2485.903867
689.977745	2486.995277
690.314930	2483.557210
690.652065	2486.781028
690.989150	2487.086017
691.326185	2488.484938
691.663170	2487.159114
692.000105	2486.385297
692.336990	2483.335399
692.673825	2485.969402
693.010610	2484.280615
693.347345	2482.949751
693.684030	2482.833804
694.020665	2481.092086
694.357251	2480.950933
694.693786	2486.118116
695.030272	2486.372694
695.366707	2484.126860
695.703093	2485.031747
696.039429	2482.874133
696.375716	2487.897643
696.711952	2487.489310
697.048139	2486.642396
697.384276	2485.664412
697.720363	2487.335555
698.056400	2484.588126
698.392388	2487.486789
698.728326	2485.634165
699.064214	2485.606439
699.400053	2487.290184
699.735842	2485.901346
700.071581	2485.263640
700.407270	2483.511839
700.742910	2486.087869
701.078501	2489.074753
701.414042	2485.614001
701.749533	2488.593323
702.084974	2486.813795
702.420366	2486.244145
702.755709	2485.939155
703.091002	2483.254741
703.426246	2487.002838
703.761440	2486.670122
704.096584	2487.600215
704.431679	2485.493013
704.766725	2486.347488
705.101721	2483.688280
705.436668	2488.875627
705.771565	2484.247848
706.106413	2485.971923
706.441212	2484.532673
706.775961	2486.387818
707.110661	2483.957982
707.445311	2487.466625
707.779913	2486.566779
708.114465	2485.535863
708.448967	2489.881337
708.783421	2486.791110
709.117825	2480.847590
709.452180	2486.909577
709.786485	2485.026706
710.120742	2485.503095
710.454949	2484.305821
710.789107	2484.444453
711.123216	2480.756849
711.457275	2487.834629
711.791286	2488.673981
712.125247	2487.345637
712.459159	2488.096769
712.793023	2483.801706
713.126837	2485.130050
713.460602	2484.507467
713.794318	2486.087869
714.127985	2484.550317
714.461602	2485.971923
714.795171	2486.029896
715.128691	2486.591984
715.462162	2484.391521
715.795584	2488.671460
716.128957	2484.005873
716.462281	2487.612818
716.795556	2488.406800
717.128782	2486.312200
717.461960	2486.738178
717.795088	2482.826243
718.128167	2487.847232
718.461198	2485.644247
718.794180	2487.885040
719.127113	2485.182982
719.459997	2485.152735
719.792833	2482.541417
720.125619	2487.383446
720.458357	2486.470997
720.791046	2485.273723
721.123686	2484.651140
721.456278	2484.134422
721.788821	2484.313383
722.121315	2484.630976
722.453761	2484.865389
722.786158	2484.711634
723.118506	2487.678353
723.450805	2485.833291
723.783056	2483.685759
724.115259	2487.045688
724.447412	2486.687766
724.779518	2485.936634
725.111574	2487.592653
725.443582	2484.938486
725.775542	2485.903867
726.107453	2485.306490
726.439315	2484.938486
726.771129	2486.007211
727.102895	2481.316417
727.434612	2484.288177
727.766281	2482.226345
728.097901	2485.566110
728.429473	2484.688949
728.760996	2485.220791
729.092471	2485.790441
729.423897	2486.836480
729.755276	2485.666933
730.086606	2484.583085
730.417887	2486.425626
730.749120	2487.380925
731.080305	2484.136942
731.411442	2486.823878
731.742530	2484.827581
732.073570	2483.078300
732.404562	2484.283136
732.735506	2483.584936
733.066401	2483.582416
733.397249	2484.767087
733.728048	2483.887405
734.058798	2484.661223
734.389501	2484.217601
734.720156	2487.592653
735.050762	2485.646768
735.381320	2485.152735
735.711831	2482.165851
736.042293	2484.416727
736.372707	2485.931593
736.703073	2485.424957
737.033391	2485.069556
737.363661	2484.641058
737.693883	2484.096613
738.024056	2484.653661
738.354182	2485.437560
738.684260	2488.575678
739.014290	2486.339927
739.344272	2485.601398
739.674207	2485.616521
740.004093	2487.040647
740.333931	2483.186685
740.663722	2487.431337
740.993464	2483.569813
741.323159	2485.641727
741.652806	2484.673825
741.982405	2485.974443
742.311956	2484.439412
742.641460	2487.519557
742.970915	2484.026037
743.300323	2484.452015
743.629683	2480.144349
743.958996	2483.037971
744.288260	2479.947744
744.617477	2485.636686
744.946647	2485.135091
745.275768	2484.348671
745.604842	2483.741212
745.933869	2485.649289
746.262847	2485.034268
746.591778	2485.659371
746.920662	2484.557879
747.249498	2485.999649
747.578286	2485.414875
747.907027	2484.719196
748.235720	2484.847745
748.564365	2486.292036
748.892963	2482.410347
749.221514	2485.243476
749.550017	2483.945379
749.878473	2482.785913
750.206881	2485.820688
750.535242	2485.614001
750.863555	2485.818167
751.191821	2484.668784
751.520039	2486.410503
751.848210	2484.600729
752.176334	2484.275574
752.504411	2484.159628
752.832440	2485.954278
753.160421	2485.646768
753.488356	2480.595532
753.816243	2486.556696
754.144082	2485.674494
754.471875	2483.864720
754.799620	2484.550317
755.127318	2487.038127
755.454969	2485.619042
755.782572	2484.139463
756.110129	2482.067549
756.437638	2484.686428
756.765100	2482.634679
757.092515	2486.975112
757.419882	2482.569144
757.747203	2484.053763
758.074477	2482.019658
758.401703	2485.734988
758.728882	2484.250368
759.056014	2488.013590
759.383099	2484.774648
759.710138	2484.630976
760.037129	2478.022023
760.364073	2485.046871
760.690970	2479.158803
761.017820	2484.383959
761.344623	2483.279946
761.671379	2484.116778
761.998088	2483.942858
762.324751	2484.726757
762.651366	2484.941007
762.977935	2485.840853
763.304456	2482.924545
763.630931	2483.111068
763.957359	2484.610811
764.283740	2486.017293
764.610074	2482.521253
764.936362	2486.576861
765.262602	2483.811788
765.588796	2482.440594
765.914943	2485.102323
766.241044	2483.146356
766.567097	2486.002169
766.893104	2484.827581
767.219064	2483.695842
767.544978	2484.961171
767.870845	2484.933445
768.196665	2484.820019
768.522438	2483.148876
768.848165	2485.140132
769.173846	2483.037971
769.499479	2484.457056
769.825066	2484.968733
770.150607	2482.498568
770.476101	2485.558548
770.801548	2483.907570
771.126949	2484.305821
771.452303	2483.405975
771.777611	2483.816829
772.102872	2482.485965
772.428087	2483.562251
772.753256	2485.818167
773.078378	2482.397744
773.403453	2482.586788
773.728482	2486.597026
774.053465	2482.695173
774.378401	2482.475882
774.703291	2481.540748
775.028135	2483.993270
775.352932	2485.908908
775.677683	2481.495378
776.002388	2484.915801
776.327046	2481.016468
776.651658	2483.809268
776.976224	2478.034626
777.300743	2483.660553
777.625216	2484.111737
777.949643	2485.467807
778.274024	2484.822539
778.598359	2483.514360
778.922647	2484.119298
779.246889	2485.510657
779.571086	2481.336582
779.895236	2484.169710
780.219339	2481.964205
780.543397	2482.705255
780.867409	2482.528814
781.191374	2485.117447
781.515294	2484.633496
781.839167	2483.796665
782.162995	2483.809268
782.486776	2484.704072
782.810511	2485.460245
783.134201	2485.656850
783.457844	2479.529328
783.781441	2483.731130
784.104993	2482.758187
784.428498	2483.083341
784.751958	2481.996973
785.075372	2482.548979
785.398739	2485.588795
785.722061	2483.532004
786.045337	2481.384473
786.368568	2484.852786
786.691752	2484.204998
787.014891	2481.074442
787.337983	2485.084679
787.661030	2481.016468
787.984031	2482.715337
788.306987	2483.693321
788.629897	2482.468321
788.952760	2485.578713
789.275579	2482.266674
789.598351	2482.208701
789.921078	2482.077631
790.243759	2483.900008
790.566395	2480.966057
790.888984	2481.916314
791.211529	2483.504278
791.534027	2483.741212
791.856480	2483.887405
792.178888	2483.970584
792.501249	2479.572178
792.823566	2482.730461
793.145836	2478.332054
793.468062	2479.173927
793.790241	2483.547128
794.112375	2483.355564
794.434464	2482.823722
794.756507	2484.026037
795.078505	2485.341778
795.400457	2483.867241
795.722364	2481.991932
796.044226	2486.140801
796.366042	2484.517550
796.687812	2485.271202
797.009538	2480.829946
797.331218	2484.109216
797.652852	2481.979329
797.974442	2482.753146
798.295986	2481.071921
798.617484	2483.310193
798.938938	2479.456231
799.260346	2485.240955
799.581709	2484.028558
799.903026	2485.679536
800.224299	2484.580564
800.545526	2481.447487
800.866708	2484.235245
801.187845	2484.530153
801.508936	2484.119298
801.829983	2481.447487
802.150984	2483.998311
802.471940	2482.158290
802.792851	2483.174082
803.113717	2482.725419
803.434538	2481.981849
803.755314	2483.037971
804.076045	2482.947230
804.396731	2481.971767
804.717372	2483.398413
805.037967	2482.982518
805.358518	2485.271202
805.679024	2485.263640
805.999485	2480.333392
806.319901	2481.482775
806.640272	2484.943527
806.960598	2482.095275
807.280879	2483.993270
807.601115	2482.228866
807.921306	2481.606283
808.241453	2481.477734
808.561554	2478.276601
808.881611	2481.840697
809.201623	2476.539924
809.521590	2483.781541
809.841513	2480.608135
810.161390	2482.044864
810.481223	2482.667446
810.801011	2484.169710
811.120755	2482.027220
811.440453	2482.400265
811.760107	2482.987559
812.079716	2483.181644
812.399281	2481.389514
812.718801	2483.983187
813.038276	2482.554020
813.357707	2482.856489
813.677093	2483.032930
813.996434	2484.837663
814.315731	2484.845225
814.634983	2482.685090
814.954191	2483.075780
815.273354	2482.687611
815.592473	2481.744915
815.911547	2485.427478
816.230577	2484.126860
816.549562	2482.969915
816.868502	2480.895481
817.187399	2483.630307
817.506250	2483.080821
817.825058	2481.429843
818.143821	2482.543938
818.462539	2485.440081
818.781213	2482.886736
819.099843	2482.974957
819.418429	2481.903711
819.736970	2481.172744
820.055466	2484.454535
820.373919	2483.196767
820.692327	2482.740543
821.010691	2482.707775
821.329011	2479.146200
821.647286	2483.121150
821.965517	2482.528814
822.283704	2482.022178
822.601847	2480.764411
822.919945	2483.824391
823.237999	2482.604432
823.556010	2483.831953
823.873976	2484.089052
824.191897	2479.181488
824.509775	2478.609317
824.827609	2480.288022
825.145398	2478.642085
825.463144	2480.882878
825.780845	2482.460759
826.098502	2482.523773
826.416116	2482.443115
826.733685	2482.138125
827.051210	2482.458238
827.368692	2483.496716
827.686129	2481.598722
828.003522	2482.498568
828.320872	2482.735502
828.638177	2483.229535
828.955439	2487.348158
829.272656	2480.900522
829.589830	2482.841366
829.906960	2481.069400
830.224046	2483.017806
830.541088	2481.349184
830.858086	2482.100316
831.175041	2483.615183
831.491952	2480.570326
831.808819	2482.531335
832.125642	2482.758187
832.442421	2481.170223
832.759157	2479.980511
833.075849	2480.751808
833.392497	2484.015955
833.709101	2481.129894
834.025662	2482.581747
834.342179	2483.731130
834.658653	2480.540079
834.975083	2484.275574
835.291469	2483.554689
835.607811	2482.483444
835.924110	2480.872795
836.240366	2483.731130
836.556578	2482.460759
836.872746	2483.637868
837.188871	2481.513022
837.504952	2484.648620
837.820990	2481.293732
838.136984	2481.697024
838.452935	2482.987559
838.768842	2482.407827
839.084706	2482.193578
839.400526	2483.801706
839.716303	2481.180306
840.032037	2480.429174
840.347727	2480.668629
840.663373	2481.810450
840.978977	2475.987917
841.294537	2483.194247
841.610054	2481.623927
841.925527	2482.254072
842.240957	2482.133084
842.556344	2483.642909
842.871687	2484.315903
843.186987	2481.301293
843.502244	2481.177785
843.817458	2480.300624
844.132629	2483.398413
844.447756	2483.272385
844.762840	2480.802219
845.077881	2484.625934
845.392879	2481.651654
845.707833	2481.623927
846.022745	2481.137456
846.337613	2484.651140
846.652438	2481.540748
846.967221	2481.134935
847.281960	2483.048053
847.596656	2482.158290
847.911309	2483.716006
848.225919	2480.540079
848.540485	2481.946561
848.855009	2482.803557
849.169490	2481.616366
849.483928	2483.738691
849.798323	2479.960347
850.112675	2483.075780
850.426984	2482.748105
850.741251	2479.362970
851.055474	2480.308186
851.369654	2479.519246
851.683792	2481.510501
851.997887	2480.966057
852.311938	2484.152066
852.625947	2481.941520
852.939914	2479.456231
853.253837	2483.166520
853.567718	2482.705255
853.881555	2481.399596
854.195350	2482.516212
854.509103	2481.964205
854.822812	2481.830615
855.136479	2481.137456
855.450103	2482.304483
855.763685	2479.370532
856.077224	2478.193422
856.390720	2480.416571
856.704173	2477.878350
857.017584	2483.269864
857.330953	2482.422950
857.644278	2478.747949
857.957561	2482.591829
858.270802	2481.092086
858.584000	2481.336582
858.897155	2480.376242
859.210268	2480.555203
859.523339	2480.169554
859.836367	2479.620069
860.149352	2483.174082
860.462295	2479.488999
860.775195	2482.795996
861.088054	2481.155100
861.400869	2480.494709
861.713642	2482.780872
862.026373	2479.877167
862.339062	2480.628299
862.651708	2482.329689
862.964312	2481.941520
863.276873	2483.799185
863.589392	2482.738022
863.901869	2482.032261
864.214303	2478.468165
864.526696	2480.537559
864.839045	2486.476038
865.151353	2481.296252
865.463619	2478.712661
865.775842	2483.889926
866.088023	2478.465644
866.400162	2481.636530
866.712258	2478.054790
867.024313	2482.241469
867.336325	2479.194091
867.648296	2481.608804
867.960224	2482.443115
868.272110	2481.671818
868.583954	2481.472693
868.895755	2480.905563
869.207515	2480.245172
869.519233	2479.312558
869.830909	2483.582416
870.142542	2481.881026
870.454134	2481.719709
870.765684	2481.699545
871.077191	2480.900522
871.388657	2478.873978
871.700081	2478.521097
872.011463	2478.770634
872.322803	2475.952629
872.634101	2482.848928
872.945357	2482.125522
873.256571	2481.442446
873.567744	2482.538897
873.878874	2480.610655
874.189963	2482.105358
874.501010	2479.128556
874.812015	2481.049236
875.122979	2481.192909
875.433900	2481.543269
875.744780	2480.671149
876.055618	2479.799030
876.366415	2481.732312
876.677169	2479.950264
876.987882	2480.466983
877.298554	2479.141159
877.609183	2479.665439
877.919771	2481.066880
878.230317	2478.500933
878.540822	2479.766262
878.851285	2480.174596
879.161707	2480.129225
879.472087	2480.114102
879.782425	2481.465131
880.092722	2482.349853
880.402977	2479.332723
880.713191	2480.240131
881.023363	2479.473875
881.333494	2482.493526
881.643583	2478.800881
881.953631	2481.896150
882.263637	2481.810450
882.573602	2482.072590
882.883526	2479.025213
883.193408	2483.753815
883.503248	2479.552013
883.813048	2480.426653
884.122806	2480.983701
884.432522	2482.458238
884.742197	2481.538228
885.051831	2481.039153
885.361424	2480.509832
885.670975	2482.319607
885.980485	2478.831128
886.289954	2481.810450
886.599382	2480.862713
886.908768	2481.208032
887.218113	2473.593369
887.527417	2478.906745
887.836680	2475.632516
888.145901	2477.676704
888.455082	2479.463793
888.764221	2480.668629
889.073319	2481.283649
889.382376	2478.689976
889.691392	2481.046715
890.000366	2480.698876
890.309300	2478.095120
890.618193	2481.548310
890.927044	2479.609986
891.235855	2479.932620
891.544625	2480.028402
891.853353	2481.240800
892.162041	2477.951447
892.470687	2479.299955
892.779293	2481.170223
893.087858	2480.025882
893.396381	2478.684935
893.704864	2480.119143
894.013306	2480.318268
894.321707	2481.568475
894.630068	2479.995635
894.938387	2478.624441
895.246665	2481.379431
895.554903	2479.667960
895.863100	2480.240131
896.171256	2479.544451
896.479371	2478.049749
896.787446	2481.467652
897.095480	2482.012096
897.403473	2478.994966
897.711425	2480.625779
898.019336	2480.366159
898.327207	2476.055973
898.635038	2480.799699
898.942827	2478.674852
899.250576	2480.356077
899.558284	2480.671149
899.865952	2481.823053
900.173579	2479.259626
900.481165	2479.368011
900.788711	2481.185347
901.096216	2480.661067
901.403681	2479.725933
901.711105	2480.625779
902.018489	2479.055459
902.325832	2481.513022
902.633135	2477.008751
902.940397	2478.221148
903.247619	2476.890284
903.554800	2480.376242
903.861941	2479.751139
904.169041	2480.799699
904.476101	2480.136787
904.783121	2481.586119
905.090100	2478.241313
905.397039	2481.117291
905.703938	2479.252064
906.010796	2480.721561
906.317614	2480.043526
906.624391	2481.364308
906.931129	2478.616879
907.237826	2478.637044
907.544483	2480.840028
907.851099	2479.506643
908.157675	2481.165182
908.464211	2481.966726
908.770707	2479.211735
909.077163	2480.008237
909.383578	2480.482106
909.689954	2480.779534
909.996289	2481.296252
910.302584	2481.770121
910.608839	2480.986221
910.915054	2478.284163
911.221229	2481.732312
911.527363	2480.182157
911.833458	2477.170068
912.139513	2479.927579
912.445527	2480.343474
912.751502	2479.012610
913.057436	2478.735346
913.363331	2479.738536
913.669186	2481.243320
913.975000	2481.109730
914.280775	2477.777527
914.586510	2480.799699
914.892205	2476.897846
915.197859	2480.204843
915.503475	2479.836838
915.809050	2478.727784
916.114585	2478.949595
916.420081	2478.301807
916.725536	2478.289204
917.030952	2481.228197
917.336328	2478.997486
917.641665	2478.112764
917.946961	2477.593525
918.252218	2477.386838
918.557435	2479.037815
918.862612	2478.831128
919.167750	2480.308186
919.472848	2481.273567
919.777906	2479.730974
920.082925	2477.207877
920.387904	2480.386324
920.692843	2480.015799
920.997743	2481.326499
921.302603	2480.172075
921.607423	2479.090748
921.912204	2478.687455
922.216946	2480.403968
922.521647	2478.337095
922.826310	2483.040492
923.130932	2479.635192
923.435516	2478.800881
923.740059	2477.666622
924.044564	2479.960347
924.349028	2479.667960
924.653454	2481.034112
924.957840	2479.710809
925.262186	2479.347846
925.566493	2479.549492
925.870761	2479.983032
926.174989	2479.791468
926.479178	2480.441777
926.783328	2479.854482
927.087438	2480.817343
927.391509	2479.287353
927.695541	2477.737198
927.999533	2478.309369
928.303486	2477.462455
928.607400	2479.897332
928.911275	2479.148721
929.215110	2478.369862
929.518906	2480.784575
929.822663	2481.560913
930.126381	2479.562095
930.430060	2479.627630
930.733699	2479.272229
931.037299	2477.989255
931.340861	2477.868268
931.644383	2477.684266
931.947866	2476.318113
932.251309	2480.129225
932.554714	2480.081334
932.858080	2478.689976
933.161407	2474.021867
933.464694	2479.433546
933.767943	2475.032619
934.071153	2482.193578
934.374323	2476.411374
934.677455	2479.751139
934.980548	2482.405306
935.283602	2481.243320
935.586617	2479.771303
935.889593	2480.953454
936.192530	2478.503453
936.495428	2481.439925
936.798287	2478.435398
937.101108	2477.790130
937.403890	2475.982876
937.706632	2479.526807
938.009336	2480.973618
938.312002	2480.419092
938.614628	2478.384986
938.917216	2477.790130
939.219765	2480.477065
939.522275	2479.604945
939.824747	2481.293732
940.127179	2478.773155
940.429573	2478.511015
940.731929	2477.918679
941.034246	2479.090747
941.336524	2478.997486
941.638763	2479.914976
941.940964	2477.507825
942.243126	2478.619400
942.545250	2480.575367
942.847335	2476.973463
943.149381	2479.592342
943.451389	2477.165027
943.753359	2479.680563
944.055290	2477.235603
944.357182	2477.870788
944.659036	2479.373052
944.960851	2477.510346
945.262628	2480.124184
945.564367	2480.209884
945.866067	2479.604945
946.167729	2478.281642
946.469352	2481.200470
946.770937	2478.296766
947.072484	2478.594194
947.373992	2477.669142
947.675462	2480.318268
947.976893	2477.482619
948.278286	2474.737711
948.579641	2478.155613
948.880958	2473.815180
949.182236	2476.809625
949.483476	2478.851293
949.784678	2479.425984
950.085841	2478.218628
950.386967	2479.289873
950.688054	2479.267188
950.989103	2479.173927
951.290114	2477.959008
951.591087	2477.840541
951.892021	2480.434215
952.192917	2474.727629
952.493776	2478.737867
952.794596	2483.073259
953.095378	2479.791468
953.396122	2478.102681
953.696828	2478.977322
953.997496	2479.715851
954.298126	2479.173927
954.598718	2476.943216
954.899272	2479.156282
955.199788	2480.293063
955.500266	2478.727784
955.800706	2476.577732
956.101108	2478.705099
956.401472	2479.486478
956.701798	2478.763073
957.002087	2479.088227
957.302337	2475.667804
957.602550	2480.562764
957.902724	2476.325675
958.202861	2478.024543
958.502960	2477.540593
958.803022	2479.955305
959.103045	2477.792650
959.403031	2479.413381
959.702979	2476.469347
960.002889	2478.286683
960.302762	2477.860706
960.602596	2477.802733
960.902393	2477.321303
961.202153	2478.344657
961.501875	2477.414564
961.801559	2478.936992
962.101205	2480.217445
962.400814	2477.608648
962.700385	2480.484627
962.999918	2475.768627
963.299414	2475.511528
963.598873	2476.567650
963.898293	2473.283338
964.197677	2475.650160
964.497022	2475.287197
964.796331	2477.003710
965.095601	2480.255254
965.394835	2478.357260
965.694030	2476.330716
965.993189	2475.748462
966.292309	2476.721405
966.591393	2477.797692
966.890439	2478.054790
967.189447	2478.168216
967.488419	2478.621920
967.787353	2477.701910
968.086249	2479.496560
968.385108	2478.944554
968.683930	2476.625623
968.982714	2476.595376
969.281462	2479.128556
969.580172	2479.357929
969.878844	2479.340285
970.177480	2476.774337
970.476078	2480.116622
970.774639	2477.754842
971.073162	2477.167547
971.371649	2476.436580
971.670098	2479.705768
971.968510	2478.745428
972.266885	2480.265336
972.565223	2479.415902
972.863524	2475.103195
973.161788	2477.117136
973.460014	2478.838690
973.758204	2478.402630
974.056356	2478.677373
974.354471	2475.478761
974.652550	2478.904225
974.950591	2479.693165
975.248595	2478.752990
975.546563	2476.781899
975.844493	2479.635192
976.142386	2477.172588
976.440243	2479.972949
976.738062	2478.135449
977.035845	2477.124698
977.333590	2478.536221
977.631299	2478.407671
977.928971	2477.031436
978.226606	2475.478761
978.524204	2476.875160
978.821765	2474.462968
979.119290	2477.895994
979.416777	2477.724595
979.714228	2478.374904
980.011642	2475.990438
980.309020	2478.203504
980.606360	2476.933134
980.903664	2478.904225
981.200931	2478.989924
981.498162	2480.416571
981.795356	2479.060501
982.092513	2477.414564
982.389633	2475.405664
982.686717	2476.217290
982.983764	2477.399440
983.280775	2479.191571
983.577749	2478.899184
983.874686	2478.579070
984.171587	2480.288022
984.468451	2477.790130
984.765279	2477.286014
985.062070	2475.947588
985.358824	2479.247023
985.655543	2475.400623
985.952224	2477.971611
986.248869	2478.710140
986.545478	2475.957670
986.842050	2476.255098
987.138586	2478.775675
987.435086	2481.729792
987.731549	2477.883391
988.027975	2478.765593
988.324366	2476.875160
988.620719	2481.152579
988.917037	2477.873309
989.213318	2480.625779
989.509563	2477.777527
989.805772	2476.527321
990.101944	2476.804584
990.398080	2478.644605
990.694180	2478.858854
990.990244	2476.940695
991.286271	2477.895994
991.582262	2478.246354
991.878217	2477.364152
992.174136	2477.797692
992.470019	2478.354739
992.765865	2476.267701
993.061676	2471.655046
993.357450	2475.491364
993.653188	2474.188225
993.948890	2475.287197
994.244556	2478.241313
994.540186	2473.361476
994.835780	2474.687300
995.131337	2476.015644
995.426859	2478.599235
995.722345	2477.585963
996.017795	2477.810294
996.313208	2477.006230
996.608586	2474.515900
996.903928	2474.339460
997.199234	2476.232413
997.494504	2478.473206
997.789738	2474.321816
998.084936	2478.233751
998.380099	2473.477423
998.675225	2476.454224
998.970316	2476.141673
999.265371	2474.457927
999.560390	2476.182002
999.855373	2476.260140
1000.150320	2477.981694
1000.445232	2475.113277
1000.740108	2476.640747
1001.034948	2476.628144
1001.329752	2478.871457
1001.624521	2473.913483
1001.919254	2477.031436
1002.213951	2477.843062
1002.508613	2475.947588
1002.803239	2478.377424
1003.097829	2476.688638
1003.392384	2474.442804
1003.686903	2477.885912
1003.981386	2477.979173
1004.275834	2476.182002
1004.570246	2478.483288
1004.864623	2474.263843
1005.158964	2478.619400
1005.453270	2475.388020
1005.747540	2474.755355
1006.041775	2477.984214
1006.335974	2475.824080
1006.630138	2475.640078
1006.924266	2477.066724
1007.218359	2476.741570
1007.512416	2476.297948
1007.806438	2472.592700
1008.100425	2474.364666
1008.394376	2473.064048
1008.688292	2477.686786
1008.982172	2476.474389
1009.276017	2476.890284
1009.569827	2478.069914
1009.863602	2473.958853
1010.157341	2477.074286
1010.451045	2476.602938
1010.744714	2477.434728
1011.038347	2474.578915
1011.331945	2480.081334
1011.625508	2475.894656
1011.919036	2478.871457
1012.212528	2475.148565
1012.505986	2476.305510
1012.799408	2478.944554
1013.092795	2478.410192
1013.386147	2476.744090
1013.679464	2476.728967
1013.972745	2477.341467
1014.265992	2477.679224
1014.559204	2475.899697
1014.852380	2474.226034
1015.145521	2475.899697
1015.438628	2478.470686
1015.731699	2476.648308
1016.024736	2477.722074
1016.317737	2477.228041
1016.610703	2476.434059
1016.903635	2476.124028
1017.196531	2477.840541
1017.489393	2477.263329
1017.782219	2475.695530
1018.075011	2478.344657
1018.367768	2475.813998
1018.660490	2475.224183
1018.953177	2475.224183
1019.245829	2475.224183
