Dividing Wavelength (nm)	Counts (n)	Blue Motor Position (mm): 41.500000	Red Motor Position (mm): 0.000000	
326.493990	2067.803170
326.888308	2067.803170
327.282561	2067.803170
327.676750	2041.543799
328.070874	2038.619930
328.464933	2048.026723
328.858929	2054.093752
329.252859	2068.816442
329.646726	2075.243913
330.040528	2096.419280
330.434265	2113.793616
330.827938	2133.726339
331.221547	2152.600419
331.615091	2173.311999
332.008571	2193.358148
332.401986	2214.606611
332.795338	2234.504045
333.188625	2253.874679
333.581847	2271.022164
333.975006	2292.512603
334.368100	2309.934830
334.761129	2326.210195
335.154095	2341.852896
335.546996	2392.324928
335.939833	2498.642863
336.332606	2508.468072
336.725315	2524.211595
337.117960	2532.080836
337.510540	2544.529966
337.903056	2549.704710
338.295508	2557.024465
338.687896	2565.574262
339.080220	2570.464182
339.472480	2574.436611
339.864676	2576.843762
340.256807	2580.382652
340.648875	2584.927252
341.040879	2584.428178
341.432818	2585.731316
341.824694	2587.132757
342.216506	2587.266347
342.608253	2587.462952
342.999937	2583.714854
343.391557	2586.724423
343.783113	2583.664443
344.174605	2582.872982
344.566033	2580.047415
344.957397	2578.635892
345.348697	2578.681262
345.739934	2574.381158
346.131106	2574.434090
346.522215	2572.899059
346.913260	2572.863771
347.304241	2567.915878
347.695159	2567.464695
348.086012	2567.540312
348.476802	2566.040569
348.867528	2560.434806
349.258191	2559.035886
349.648789	2559.144271
350.039324	2553.898950
350.429796	2559.280382
350.820203	2554.609753
351.210548	2557.319373
351.600828	2557.195865
351.991045	2556.976574
352.381198	2552.036244
352.771288	2553.677139
353.161314	2552.555482
353.551276	2552.389124
353.941175	2549.167827
354.331010	2554.145967
354.720782	2557.621842
355.110490	2559.681153
355.500135	2555.058415
355.889717	2555.744012
356.279235	2555.300391
356.668689	2555.708724
357.058080	2553.919115
357.447408	2558.166287
357.836672	2557.826009
358.225873	2555.965823
358.615010	2558.685526
359.004084	2557.939435
359.393095	2561.140568
359.782043	2560.802810
360.170927	2558.791390
360.559748	2559.633262
360.948505	2561.445557
361.337199	2563.910682
361.725830	2561.687533
362.114398	2563.023438
362.502903	2560.853222
362.891344	2565.990157
363.279722	2561.848850
363.668037	2563.242729
364.056289	2565.644838
364.444478	2565.319684
364.832603	2567.807493
365.220665	2567.610888
365.608665	2568.926630
365.996601	2568.944274
366.384474	2567.570559
366.772284	2566.930333
367.160031	2567.999057
367.547715	2569.271949
367.935336	2567.668862
368.322893	2569.531568
368.710388	2568.462843
369.097820	2568.588872
369.485189	2567.931002
369.872495	2572.609192
370.259738	2572.614234
370.646918	2571.542988
371.034035	2573.632547
371.421090	2573.521641
371.808081	2574.078689
372.195010	2577.783937
372.581875	2574.741601
372.968678	2576.707651
373.355418	2576.546334
373.742096	2574.421487
374.128710	2576.430387
374.515262	2576.258988
374.901751	2576.286714
375.288177	2578.494740
375.674540	2577.952816
376.060841	2581.380800
376.447079	2578.230079
376.833254	2581.569843
377.219367	2580.075141
377.605417	2581.360636
377.991404	2580.937179
378.377329	2582.328537
378.763191	2583.568661
379.148991	2582.469689
379.534727	2582.174782
379.920402	2583.959350
380.306013	2581.610173
380.691563	2584.965061
381.077049	2582.855338
381.462474	2584.561768
381.847835	2587.510843
382.233134	2587.460432
382.618371	2587.659557
383.003545	2587.941862
383.388657	2589.212233
383.773706	2589.759198
384.158693	2590.180134
384.543618	2588.594691
384.928480	2587.011769
385.313280	2592.814137
385.698017	2592.085690
386.082692	2593.265320
386.467305	2592.501586
386.851856	2593.592995
387.236344	2594.641555
387.620770	2594.318922
388.005133	2593.736668
388.389435	2594.810434
388.773674	2595.460743
389.157851	2603.002309
389.541965	2603.423245
389.926018	2606.773092
390.310008	2609.563371
390.693936	2612.036057
391.077802	2621.387397
391.461606	2623.817233
391.845348	2630.950466
392.229027	2635.648821
392.612645	2639.885911
392.996200	2651.205822
393.379694	2659.702687
393.763125	2669.525375
394.146494	2681.845955
394.529801	2692.941535
394.913047	2705.148689
395.296230	2715.382231
395.679351	2732.189438
396.062410	2749.231059
396.445408	2756.525608
396.828343	2775.480347
397.211217	2792.211936
397.594028	2804.313226
397.976778	2824.001452
398.359466	2847.319310
398.742092	2863.130889
399.124656	2888.019065
399.507158	2917.325813
399.889598	2936.328443
400.271977	2973.055769
400.654294	2992.040754
401.036549	3028.006866
401.418742	3048.229455
401.800874	3092.619335
402.182944	3124.398769
402.564952	3176.657890
402.946898	3202.425748
403.328783	3223.497771
403.710606	3269.392436
404.092367	3326.009635
404.474067	3377.656256
404.855705	3398.511509
405.237282	3412.954415
405.618797	3487.223214
406.000250	3557.801889
406.381642	3633.381388
406.762972	3662.214267
407.144240	3674.121472
407.525447	3739.790063
407.906593	3780.436887
408.287677	3862.027962
408.668700	3911.605189
409.049661	3969.374292
409.430560	4022.704658
409.811399	4042.904562
410.192176	4106.803707
410.572891	4192.082386
410.953545	4303.234787
411.334138	4256.377262
411.714669	4367.726268
412.095139	4337.491948
412.475547	4447.532775
412.855894	4478.641735
413.236180	4588.720371
413.616405	4557.495464
413.996568	4667.223739
414.376670	4697.281619
414.756711	4719.182912
415.136691	4806.142816
415.516609	4896.155138
415.896466	4948.951142
416.276262	5042.341038
416.655997	5165.955171
417.035670	5273.351913
417.415283	5418.176701
417.794834	5498.789792
418.174324	5482.816896
418.553753	5502.910936
418.933121	5673.934600
419.312428	5698.616090
419.691674	5654.553884
420.070859	5873.927256
420.449983	5777.986536
420.829045	5974.508357
421.208047	5914.654738
421.586988	6084.327373
421.965867	6163.077758
422.344686	6251.260142
422.723444	6422.515700
423.102141	6066.592594
423.480777	6453.554084
423.859352	6282.800121
424.237866	6639.262630
424.616319	6651.046327
424.994712	6811.579351
425.373044	6732.241671
425.751314	7044.273971
426.129524	6773.125429
426.507673	7049.872172
426.885762	7091.640652
427.263789	7137.316027
427.641756	7222.388019
428.019662	7309.446225
428.397508	7347.496854
428.775292	7331.649987
429.153016	7506.593149
429.530679	7444.145856
429.908282	7497.471181
430.285824	7435.838034
430.663305	7722.777991
431.040726	7604.472192
431.418086	7612.376721
431.795385	7744.434788
432.172624	7938.335208
432.549802	7820.916653
432.926920	7956.110317
433.303977	7900.760968
433.680974	7943.320910
434.057910	8143.381621
434.434786	8195.696195
434.811601	8148.185840
435.188355	8487.679825
435.565050	8374.573977
435.941683	8383.980770
436.318257	8721.027275
436.694770	8668.828648
437.071222	8902.682733
437.447614	8678.898352
437.823946	8640.598186
438.200218	8794.623080
438.576429	8672.642281
438.952580	8841.284000
439.328670	8848.482768
439.704700	8924.231146
440.080670	8817.633427
440.456580	9089.238193
440.832429	9059.732320
441.208218	8799.588617
441.583947	8913.579187
441.959616	9027.300057
442.335224	9063.558556
442.710773	9152.640785
443.086261	9321.554727
443.461689	9040.883446
443.837057	9212.978356
444.212365	9420.036188
444.587612	9406.185618
444.962800	9307.484867
445.337927	9433.891799
445.712995	8977.765679
446.088002	9645.779057
446.462949	9700.997336
446.837837	9693.140698
447.212664	9715.959481
447.587431	10545.791377
447.962139	11546.888913
448.336786	12467.370838
448.711374	12240.279460
449.085901	11035.423527
449.460369	10953.945878
449.834776	10741.010060
450.209124	11651.641570
450.583412	11478.162863
450.957640	11786.923454
451.331808	11368.772345
451.705917	10805.919957
452.079965	10680.057468
452.453954	10886.444828
452.827883	10827.828811
453.201752	10793.785899
453.575562	10802.837291
453.949311	11144.677933
454.323001	11205.504496
454.696632	11119.525096
455.070202	11709.148532
455.443713	11769.307142
455.817164	11937.424581
456.190556	12248.269689
456.563888	12113.474277
456.937160	12369.852238
457.310373	11854.439627
457.683526	11863.140659
458.056619	11878.894265
458.429653	11945.419851
458.802628	12087.887900
459.175542	12138.770787
459.548398	12695.667052
459.921194	13262.696037
460.293930	13545.867730
460.666607	14402.455551
461.039224	15192.505182
461.411782	15531.598395
461.784280	15190.473597
462.156719	15120.620848
462.529099	15023.266085
462.901419	14388.741092
463.273680	13989.345596
463.645882	14200.940467
464.018024	14099.686371
464.390106	14465.565756
464.762130	15536.884045
465.134094	17088.652022
465.505999	19396.162057
465.877845	21627.094445
466.249631	22832.837622
466.621358	22340.768074
466.993026	21516.756190
467.364634	20753.412072
467.736184	19954.744588
468.107674	19354.514564
468.479105	19221.425582
468.850477	18945.397203
469.221790	18506.277415
469.593043	17840.214963
469.964238	17451.995706
470.335373	17514.594234
470.706449	18243.519874
471.077467	19111.440208
471.448425	21575.604099
471.819324	23438.111320
472.190164	23332.058046
472.560945	21581.938309
472.931667	20020.556852
473.302330	19687.248362
473.672934	19141.160331
474.043479	19551.381704
474.413965	19353.133288
474.784393	19175.387245
475.154761	19831.503500
475.525070	19964.174067
475.895321	19804.112391
476.265513	20328.089922
476.635645	20904.687016
477.005719	20973.526493
477.375734	21342.654901
477.745691	21970.815437
478.115588	22595.989090
478.485427	23793.497543
478.855207	25603.483502
479.224928	27408.750941
479.594591	28807.625763
479.964194	28431.865717
480.333739	28877.072698
480.703226	29079.797659
481.072653	29527.474806
481.442022	30044.319104
481.811333	30447.906319
482.180584	30000.642547
482.549777	29764.623286
482.918912	29546.472394
483.287988	29480.481170
483.657005	29345.516878
484.025964	28954.267887
484.394864	29150.272990
484.763706	29080.616847
485.132489	28538.564259
485.501213	28600.540204
485.869879	28771.175700
486.238487	28696.886736
486.607036	28971.289343
486.975527	28652.196907
487.343959	29004.245886
487.712333	29348.317239
488.080648	29310.213678
488.448905	29745.081253
488.817104	29619.939650
489.185244	30423.862536
489.553326	31388.570503
489.921350	33270.844088
490.289315	35800.253113
490.657222	36685.572989
491.025070	37243.651405
491.392861	36965.198232
491.760593	36179.675557
492.128267	35158.453734
492.495883	34160.433822
492.863440	33259.055350
493.230939	32294.649852
493.598380	31721.112737
493.965763	31585.172983
494.333088	31076.611300
494.700354	30883.462011
495.067563	30826.431438
495.434713	30727.526520
495.801805	31000.888128
496.168839	30833.279845
496.535815	30697.403105
496.902733	30797.623764
497.269593	30625.959873
497.636395	30782.956527
498.003139	31038.389272
498.369825	30793.011108
498.736453	31190.148167
499.103023	31027.676820
499.469535	31093.499166
499.835989	31213.239173
500.202385	31075.794633
500.568723	31122.891613
500.935003	31415.863310
501.301226	31288.208692
501.667390	31994.658348
502.033497	32189.403162
502.399546	31992.508296
502.765537	31591.905444
503.131470	32047.005689
503.497345	32475.239106
503.863163	31436.380806
504.228923	32184.921576
504.594625	32570.721080
504.960269	32049.745557
505.325856	32706.287789
505.691385	32357.341641
506.056856	32684.346167
506.422270	33173.138965
506.787625	32684.741898
507.152924	33120.597539
507.518164	33306.474963
507.883347	32889.105234
508.248472	33013.931765
508.613540	33692.503840
508.978550	33890.406937
509.343503	33726.554313
509.708398	34094.225828
510.073236	34671.145557
510.438016	34773.990136
510.802738	34458.847445
511.167403	34980.803473
511.532010	35219.925564
511.896561	35707.828598
512.261053	36462.504452
512.625488	36240.071101
512.989866	36157.164284
513.354186	36208.702521
513.718449	36162.986817
514.082655	37021.608743
514.446803	36723.681592
514.810894	37330.623912
515.174927	37321.249887
515.538904	37335.241609
515.902822	37946.650392
516.266684	37632.284038
516.630488	37977.812284
516.994235	37989.124633
517.357925	38560.990605
517.721558	38794.620359
518.085133	39188.573930
518.448651	39351.751038
518.812112	39255.893498
519.175516	39391.848376
519.538863	39844.060041
519.902152	39904.926932
520.265385	40438.286050
520.628560	40457.565943
520.991678	40383.818904
521.354739	40599.330751
521.717743	40963.881792
522.080690	40875.775025
522.443580	41538.774976
522.806413	41537.025696
523.169189	41690.806094
523.531908	41910.522264
523.894569	41758.818821
524.257174	41952.789818
524.619722	42287.058647
524.982213	42439.127574
525.344647	42481.879079
525.707025	42593.147427
526.069345	43037.043708
526.431608	42936.752473
526.793815	43327.807379
527.155964	42876.303997
527.518057	43120.633600
527.880093	42973.290756
528.242072	43599.845685
528.603995	43340.632075
528.965860	43260.820527
529.327669	43490.109848
529.689421	43540.660018
530.051117	43507.718598
530.412755	43759.267134
530.774337	43816.827029
531.135862	43754.651958
531.497331	43918.086166
531.858743	43900.038835
532.220098	44304.634281
532.581396	44024.091549
532.942638	43790.723934
533.303824	44042.600145
533.664953	44088.716620
534.026025	43771.471768
534.387040	44336.822048
534.747999	44411.791568
535.108902	44747.144245
535.469748	44056.644800
535.830537	44331.818703
536.191270	44572.566567
536.551947	44326.742261
536.912567	44601.404487
537.273131	44725.968878
537.633638	44345.679355
537.994089	44526.835739
538.354483	44295.655986
538.714821	44950.025481
539.075103	45206.524430
539.435328	45087.830463
539.795497	44854.818250
540.155609	44986.165513
540.515665	45542.519855
540.875665	44855.665164
541.235609	45119.425895
541.595496	45270.269821
541.955328	45842.796183
542.315102	45273.670079
542.674821	45176.428742
543.034483	45075.766982
543.394090	45089.017655
543.753640	45084.198312
544.113134	46146.170301
544.472571	45257.818171
544.831953	46357.871037
545.191278	45634.248690
545.550548	45328.575806
545.909761	45969.591285
546.268918	46084.539675
546.628019	46492.613517
546.987064	45941.764116
547.346053	45258.574344
547.704986	46152.186918
548.063863	45777.069620
548.422684	45990.655746
548.781449	45570.861222
549.140158	46094.256499
549.498811	45862.126488
549.857408	45263.711279
550.215949	46111.711494
550.574434	45944.062882
550.932864	45890.674542
551.291237	46600.088397
551.649555	46350.735283
552.007817	46520.302055
552.366022	46227.963023
552.724173	46276.279962
553.082267	46678.601847
553.440305	47045.096252
553.798288	46310.474108
554.156215	46677.959100
554.514086	46874.997639
554.871902	46480.860067
555.229661	46662.646595
555.587365	46343.798656
555.945014	46459.934237
556.302606	46480.623133
556.660143	46571.298367
557.017625	46806.838719
557.375050	46483.476426
557.732421	46887.915596
558.089735	46968.236300
558.446994	46805.442319
558.804197	47302.724420
559.161345	47152.855957
559.518437	46515.349121
559.875474	46758.756193
560.232455	46977.950604
560.589381	47029.365332
560.946251	46845.383381
561.303065	47484.707553
561.659825	47167.687032
562.016528	46985.144330
562.373177	46564.094558
562.729770	47213.919453
563.086307	46721.350832
563.442789	47271.557486
563.799216	47098.083820
564.155587	47019.736728
564.511904	46960.558623
564.868164	47014.660286
565.224370	47326.800970
565.580520	47064.391269
565.936615	47245.688805
566.292654	46904.964778
566.648638	47259.327647
567.004567	47198.909418
567.360441	47297.809295
567.716260	46985.421594
568.072023	47397.193122
568.427732	47305.547466
568.783385	46846.807507
569.138982	47259.320085
569.494525	47411.565452
569.850013	47010.967641
570.205445	47141.500758
570.560823	46900.667195
570.916145	46774.446785
571.271412	47016.031480
571.626625	46645.766292
571.981782	46722.936275
572.336884	46341.169694
572.691931	46663.175916
573.046923	46319.333936
573.401860	46148.153995
573.756743	46166.355081
574.111570	46313.995354
574.466342	46244.762668
574.821059	46382.318112
575.175722	45890.891312
575.530330	45963.683053
575.884882	45627.669984
576.239380	45524.008738
576.593823	45608.178363
576.948211	45562.797896
577.302544	45115.667714
577.656823	45083.492550
578.011047	45355.682090
578.365216	45210.809411
578.719330	44910.545685
579.073389	44875.519748
579.427394	44960.644672
579.781344	44855.314803
580.135239	44625.077746
580.489080	44698.038365
580.842866	44184.682546
581.196597	44670.022153
581.550273	44669.442420
581.903895	44606.478408
582.257463	45010.673083
582.610975	44452.340088
582.964434	44792.849866
583.317837	44293.241273
583.671186	44260.894709
584.024481	44536.197162
584.377721	44096.306077
584.730906	44320.229090
585.084037	44469.089322
585.437113	44172.956822
585.790135	44295.479545
586.143103	43859.389491
586.496016	44035.905493
586.848874	44131.594154
587.201679	44163.469370
587.554428	43662.461857
587.907124	43935.654587
588.259765	43728.352258
588.612352	43849.188716
588.964884	43327.056248
589.317362	43629.278462
589.669786	43621.590702
590.022155	43511.464176
590.374470	43976.077079
590.726731	43565.162547
591.078937	42904.186619
591.431090	43257.281637
591.783188	42772.010086
592.135232	42561.829258
592.487222	42838.555837
592.839157	42985.263496
593.191038	42626.681182
593.542866	42454.291364
593.894639	41828.714419
594.246358	42127.896818
594.598022	42140.968529
594.949633	41705.775800
595.301190	41722.020918
595.652692	41665.585201
596.004141	42174.766945
596.355535	41077.804307
596.706876	41075.568555
597.058162	40788.726901
597.409395	41284.700822
597.760573	41523.265866
598.111698	41133.191464
598.462768	41034.863758
598.813785	41070.693759
599.164748	40693.396161
599.515657	40953.943157
599.866511	40459.350512
600.217312	41146.137147
600.568060	40107.543508
600.918753	40913.135016
601.269392	40833.212563
601.619978	40563.702396
601.970510	40768.358119
602.320988	40912.104100
602.671412	41171.748729
603.021783	41031.012317
603.372100	40606.879879
603.722363	40718.778371
604.072572	40752.004616
604.422728	40755.465368
604.772830	40537.218695
605.122878	40709.961393
605.472872	40564.861862
605.822813	40817.176653
606.172701	40562.074104
606.522534	40894.875957
606.872314	41087.662283
607.222041	40935.323655
607.571714	41264.306834
607.921333	40756.987797
608.270899	40955.785698
608.620411	41335.954233
608.969870	41096.907759
609.319276	41106.848915
609.668627	41144.234112
610.017926	41534.709286
610.367171	41697.538555
610.716362	41713.723179
611.065500	41622.833696
611.414585	41868.736139
611.763616	42025.170705
612.112594	41921.159098
612.461518	42039.303580
612.810389	42418.536981
613.159207	42212.825136
613.507971	42181.070908
613.856682	42685.168649
614.205340	42532.250288
614.553945	43220.052716
614.902496	42570.631113
615.250994	42976.668329
615.599439	43042.646950
615.947830	43147.709638
616.296169	43151.533353
616.644454	43203.389182
616.992686	43362.694685
617.340864	43801.577538
617.688990	43289.570227
618.037063	43965.644411
618.385082	43784.291422
618.733048	44142.404909
619.080961	44015.589643
619.428821	44059.488010
619.776628	44110.338129
620.124382	43927.167804
620.472083	44050.005600
620.819731	44159.005428
621.167326	43728.879059
621.514868	43722.249942
621.862357	43199.061351
622.209793	43256.074281
622.557176	42850.203423
622.904506	42609.974798
623.251783	42254.767536
623.599007	41932.123608
623.946179	41861.527289
624.293297	41609.497323
624.640363	41071.974212
624.987376	40925.238827
625.334336	40719.700902
625.681243	40297.615173
626.028097	40211.968490
626.374899	40030.943176
626.721647	39996.204584
627.068343	39796.310232
627.414987	39504.195531
627.761577	39248.961912
628.108115	39567.870345
628.454600	38824.748815
628.801032	39070.394160
629.147412	38956.464083
629.493739	38834.899179
629.840014	38406.015453
630.186236	38820.526849
630.532405	38247.251875
630.878521	38522.539204
631.224585	38282.562637
631.570597	37950.524518
631.916556	38121.550704
632.262462	38028.611991
632.608316	37960.770663
632.954117	37831.921292
633.299866	37791.400497
633.645562	37717.542552
633.991206	37192.171142
634.336797	36785.692825
634.682336	36674.777358
635.027823	36446.808820
635.373257	36338.943251
635.718639	35994.070355
636.063968	35898.384213
636.409245	35257.366214
636.754470	35210.302002
637.099642	34970.769056
637.444762	34413.260290
637.789829	34535.626738
638.134845	34153.111546
638.479808	34071.679267
638.824719	34029.923390
639.169577	33509.250336
639.514383	33633.998729
639.859137	33241.754110
640.203839	33408.702002
640.548489	33125.618528
640.893086	33100.316977
641.237632	32819.496981
641.582125	32918.555654
641.926566	32682.518749
642.270955	32721.633062
642.615292	32683.390869
642.959576	32537.726728
643.303809	32528.261962
643.647990	32651.510612
643.992118	32619.458956
644.336195	32445.960084
644.680219	32503.991327
645.024192	32695.184648
645.368112	33226.751636
645.711981	33237.660693
646.055797	33938.330666
646.399562	33734.473966
646.743274	34580.540898
647.086935	34976.465560
647.430544	34980.748020
647.774101	34997.467007
648.117606	35316.740924
648.461059	35451.483404
648.804460	35080.714101
649.147810	34571.257614
649.491108	34258.811939
649.834354	34149.229858
650.177548	33346.683207
650.520690	32825.478310
650.863781	32810.231341
651.206820	32618.977525
651.549807	32207.316902
651.892742	31624.478859
652.235626	31551.402293
652.578458	31407.242937
652.921238	30704.596832
653.263967	30974.785034
653.606644	30680.303511
653.949269	30583.427658
654.291843	30198.369204
654.634365	30553.566383
654.976836	30101.793299
655.319255	30181.879589
655.661622	30044.437571
656.003938	29926.232596
656.346203	29734.996424
656.688416	29999.001651
657.030577	29777.223650
657.372687	29598.469375
657.714746	29736.246631
658.056753	29918.469219
658.398708	29296.158941
658.740612	29364.514467
659.082465	29571.922659
659.424266	29469.453646
659.766016	29456.636512
660.107715	29300.055753
660.449362	29403.696835
660.790958	29379.945438
661.132503	29294.785227
661.473996	29390.441121
661.815438	29471.873399
662.156829	29586.423538
662.498168	29383.375944
662.839456	29365.981442
663.180693	29489.986265
663.521879	29545.161694
663.863013	29498.498253
664.204097	29474.401538
664.545129	29871.909122
664.886110	29813.119186
665.227040	29930.041187
665.567918	29927.104715
665.908746	29987.825413
666.249522	30066.321220
666.590248	30107.870410
666.930922	30200.589832
667.271545	30228.840458
667.612118	30272.448959
667.952639	30084.713870
668.293109	30130.180036
668.633528	29959.705857
668.973896	29924.851319
669.314213	29920.581462
669.654480	29726.814632
669.994695	29703.020386
670.334859	29623.773447
670.674973	29431.077862
671.015035	29621.981317
671.355047	29555.569156
671.695008	29476.107969
672.034918	29382.118176
672.374777	29481.290275
672.714585	29354.709422
673.054342	29487.009464
673.394049	29342.650982
673.733705	29561.989066
674.073310	29286.437076
674.412864	29335.656381
674.752368	29068.681915
675.091820	29300.451483
675.431223	28897.093641
675.770574	28699.989567
676.109875	28542.398056
676.449125	28327.193719
676.788324	28241.337828
677.127473	27762.692873
677.466571	27665.872472
677.805619	27378.153658
678.144616	27316.548237
678.483562	27255.227642
678.822458	26927.769411
679.161303	26895.838743
679.500098	26809.602245
679.838842	26731.093835
680.177535	26764.768743
680.516179	26990.821643
680.854771	27075.833141
681.193314	27756.404034
681.531805	28691.197794
681.870247	29447.509503
682.208638	30254.943553
682.546978	30612.547883
682.885268	30798.019495
683.223508	30384.120599
683.561697	30129.605345
683.899836	29975.222529
684.237925	29559.241637
684.575963	29395.749456
684.913951	29012.498255
685.251889	29127.739032
685.589776	29128.550658
685.927614	29131.025864
686.265401	29307.123451
686.603137	29403.003676
686.940824	29874.071777
687.278460	30189.131289
687.616046	30394.119728
687.953582	31054.868804
688.291068	30993.770019
688.628504	31357.322911
688.965889	31371.841434
689.303224	31136.086833
689.640510	30862.838651
689.977745	30272.809402
690.314930	29530.287770
690.652065	29120.368865
690.989150	28439.805534
691.326185	27622.397562
691.663170	27006.459302
692.000105	26293.645190
692.336990	25672.650653
692.673825	25266.560505
693.010610	24769.096923
693.347345	24257.397122
693.684030	23636.306804
694.020665	23450.704122
694.357251	22774.738323
694.693786	22787.111836
695.030272	22543.787942
695.366707	22042.896376
695.703093	21766.129468
696.039429	21836.907268
696.375716	21577.040828
696.711952	21581.658525
697.048139	21450.802774
697.384276	21283.106271
697.720363	21400.645814
698.056400	21298.028086
698.392388	21144.787092
698.728326	21117.897577
699.064214	20985.741208
699.400053	20987.961837
699.735842	20612.552151
700.071581	20424.325548
700.407270	20194.769046
700.742910	20017.161635
701.078501	19760.970196
701.414042	19565.106246
701.749533	19259.672817
702.084974	18957.458164
702.420366	19175.190640
702.755709	18773.224156
703.091002	18472.902456
703.426246	18537.724133
703.761440	18467.967167
704.096584	18225.772492
704.431679	18159.120876
704.766725	18119.257952
705.101721	18032.524900
705.436668	18148.438671
705.771565	17860.263632
706.106413	18166.493564
706.441212	18232.696517
706.775961	18327.694540
707.110661	18411.594464
707.445311	18769.614689
707.779913	18650.109096
708.114465	18952.172514
708.448967	19236.780937
708.783421	19839.745787
709.117825	20185.223622
709.452180	20393.203985
709.786485	20844.886329
710.120742	21572.440775
710.454949	21674.168739
710.789107	22186.544054
711.123216	22875.490824
711.457275	23116.258852
711.791286	23682.960162
712.125247	23848.667930
712.459159	23615.552373
712.793023	24381.641400
713.126837	23404.081011
713.460602	23658.876050
713.794318	23354.455892
714.127985	23091.554678
714.461602	22192.167462
714.795171	22177.588445
715.128691	21207.244467
715.462162	20696.295798
715.795584	20268.868967
716.128957	20001.090436
716.462281	19627.535895
716.795556	19343.776907
717.128782	18876.827429
717.461960	18272.834184
717.795088	18240.606087
718.128167	17913.911592
718.461198	17456.893187
718.794180	17335.885330
719.127113	17015.729211
719.459997	16827.132084
719.792833	16444.100173
720.125619	16496.780231
720.458357	16159.300187
720.791046	16018.972108
721.123686	15868.806217
721.456278	15643.144006
721.788821	15636.252749
722.121315	15370.110073
722.453761	15478.084026
722.786158	15354.598442
723.118506	15431.624752
723.450805	15327.020810
723.783056	15493.114227
724.115259	15377.444952
724.447412	15367.811307
724.779518	15572.852677
725.111574	15625.565503
725.443582	15876.332660
725.775542	15827.297356
726.107453	16330.737226
726.439315	16232.117133
726.771129	16629.556662
727.102895	17041.181997
727.434612	17313.815158
727.766281	17492.677817
728.097901	17812.173545
728.429473	17926.874919
728.760996	17949.111448
729.092471	18061.960198
729.423897	17944.546683
729.755276	17791.615720
730.086606	17878.457157
730.417887	18426.942257
730.749120	18977.045567
731.080305	19193.059010
731.411442	19616.357136
731.742530	19713.938751
732.073570	19851.486634
732.404562	20171.269708
732.735506	20081.275029
733.066401	19949.073290
733.397249	19513.893164
733.728048	18922.001208
734.058798	18077.754133
734.389501	17323.375707
734.720156	16807.416131
735.050762	16228.900877
735.381320	15818.190512
735.711831	15523.245203
736.042293	15154.956147
736.372707	15160.783721
736.703073	14955.472648
737.033391	15140.435103
737.363661	15120.719151
737.693883	15239.440844
738.024056	15423.211067
738.354182	15617.655932
738.684260	15965.097297
739.014290	16245.972745
739.344272	16463.649768
739.674207	16816.893500
740.004093	17001.475348
740.333931	17068.777273
740.663722	17166.479875
740.993464	17214.441413
741.323159	17079.235146
741.652806	16788.337884
741.982405	16631.263092
742.311956	16282.090092
742.641460	16178.577559
742.970915	15859.356574
743.300323	15512.691548
743.629683	15299.644824
743.958996	14985.684283
744.288260	14684.314024
744.617477	14369.534296
744.946647	14327.513758
745.275768	14023.887582
745.604842	13825.177900
745.933869	13646.375735
746.262847	13610.429788
746.591778	13521.466025
746.920662	13394.686047
747.249498	13399.089495
747.578286	13529.360472
747.907027	13691.448692
748.235720	13960.111945
748.564365	14033.238922
748.892963	13977.128360
749.221514	14081.286160
749.550017	13974.373369
749.878473	13943.062762
750.206881	13725.897417
750.535242	13660.208661
750.863555	13581.496085
751.191821	13478.830467
751.520039	13486.034275
751.848210	13408.458479
752.176334	13448.021455
752.504411	13381.092576
752.832440	13207.079507
753.160421	13320.152587
753.488356	13211.399776
753.816243	13127.378864
754.144082	12950.467132
754.471875	12895.458061
754.799620	12861.717618
755.127318	12833.850120
755.454969	12820.594406
755.782572	12793.268832
756.110129	12804.407261
756.437638	12723.569838
756.765100	12715.060371
757.092515	12739.124319
757.419882	12775.153445
757.747203	12777.469855
758.074477	12852.134385
758.401703	12837.782220
758.728882	13026.228112
759.056014	13066.590111
759.383099	13243.799271
759.710138	13362.611706
760.037129	13492.754133
760.364073	13571.234817
760.690970	13580.457608
761.017820	13592.372375
761.344623	13784.866314
761.671379	14102.131331
761.998088	14645.996214
762.324751	16058.036009
762.651366	18985.214757
762.977935	23305.460918
763.304456	26600.906037
763.630931	28200.202013
763.957359	27407.130210
764.283740	25358.178435
764.610074	23214.495818
764.936362	20589.776218
765.262602	18692.091826
765.588796	16701.143567
765.914943	15365.736872
766.241044	14224.462491
766.567097	13404.995207
766.893104	12659.453923
767.219064	12188.839527
767.544978	11699.724095
767.870845	11300.515122
768.196665	11077.144116
768.522438	10851.534837
768.848165	10638.326797
769.173846	10432.922463
769.499479	10299.412544
769.825066	10137.296598
770.150607	9914.691848
770.476101	9830.857459
770.801548	9714.308503
771.126949	9553.596518
771.452303	9445.935116
771.777611	9250.189633
772.102872	9240.692099
772.428087	9104.175132
772.753256	8948.078324
773.078378	8857.118264
773.403453	8681.015637
773.728482	8568.086229
774.053465	8489.696287
774.378401	8381.558496
774.703291	8267.794777
775.028135	8150.477045
775.352932	8119.781459
775.677683	8014.048298
776.002388	7903.841113
776.327046	7916.212105
776.651658	7815.134450
776.976224	7718.525777
777.300743	7717.477217
777.625216	7630.497149
777.949643	7586.376970
778.274024	7603.978159
778.598359	7514.374170
778.922647	7533.727160
779.246889	7484.701938
779.571086	7485.458112
779.895236	7495.807600
780.219339	7500.372365
780.543397	7509.025506
780.867409	7588.136333
781.191374	7596.245029
781.515294	7565.569608
781.839167	7656.907754
782.162995	7630.083774
782.486776	7575.941782
782.810511	7533.984258
783.134201	7450.399407
783.457844	7442.338602
783.781441	7390.795325
784.104993	7329.981365
784.428498	7301.534134
784.751958	7293.037269
785.075372	7257.648369
785.398739	7204.587704
785.722061	7242.328303
786.045337	7238.320585
786.368568	7380.261834
786.691752	7382.779890
787.014891	7681.690066
787.337983	7985.890933
787.661030	8542.255357
787.984031	9156.025920
788.306987	9599.234084
788.629897	9858.901398
788.952760	9859.060194
789.275579	9677.974386
789.598351	9306.547212
789.921078	8976.923806
790.243759	8562.614057
790.566395	8267.615816
790.888984	8019.306222
791.211529	7804.704302
791.534027	7572.821308
791.856480	7373.695731
792.178888	7293.327136
792.501249	7192.199069
792.823566	7035.353649
793.145836	7034.708382
793.468062	6999.022053
793.790241	6946.054650
794.112375	7006.573702
794.434464	7142.896584
794.756507	7171.454721
795.078505	7310.988818
795.400457	7596.144206
795.722364	7930.523941
796.044226	8219.152683
796.366042	8510.675049
796.687812	8483.651943
797.009538	8581.460410
797.331218	8492.423551
797.652852	8414.694000
797.974442	8268.208152
798.295986	8186.972478
798.617484	8007.683841
798.938938	7860.151953
799.260346	7755.737054
799.581709	7563.616161
799.903026	7484.036506
800.224299	7377.983232
800.545526	7208.124074
800.866708	7118.709128
801.187845	7040.661984
801.508936	6938.271108
801.829983	6899.292907
802.150984	6749.283292
802.471940	6708.270985
802.792851	6691.141144
803.113717	6664.344891
803.434538	6630.125538
803.755314	6569.891312
804.076045	6571.622948
804.396731	6511.978536
804.717372	6537.675818
805.037967	6533.743718
805.358518	6571.317958
805.679024	6659.210476
805.999485	6662.530075
806.319901	6704.195212
806.640272	6726.096505
806.960598	6814.167983
807.280879	6815.176214
807.601115	6892.033645
807.921306	6842.020358
808.241453	6857.791608
808.561554	6877.716768
808.881611	6849.572007
809.201623	6852.379929
809.521590	6798.734491
809.841513	6782.859897
810.161390	6819.365413
810.481223	6688.287851
810.801011	6677.225039
811.120755	6655.129662
811.440453	6574.337609
811.760107	6541.509616
812.079716	6510.433423
812.399281	6448.633918
812.718801	6435.796619
813.038276	6395.540485
813.357707	6330.224776
813.677093	6366.291711
813.996434	6275.490448
814.315731	6317.503424
814.634983	6306.057484
814.954191	6308.600746
815.273354	6404.390231
815.592473	6458.438962
815.911547	6579.895482
816.230577	6657.395660
816.549562	6804.804040
816.868502	6897.611682
817.187399	6990.704150
817.506250	7132.864688
817.825058	7156.016187
818.143821	7398.946870
818.462539	7642.434601
818.781213	7966.910989
819.099843	8446.977549
819.418429	9358.259368
819.736970	10258.077603
820.055466	11359.050480
820.373919	12728.835324
820.692327	14733.888731
821.010691	18042.239204
821.329011	25473.446938
821.647286	37123.704711
821.965517	51091.000300
822.283704	58528.973263
822.601847	61695.206047
822.919945	59528.505522
823.237999	55692.837753
823.556010	49748.271329
823.873976	43082.368722
824.191897	36603.639116
824.509775	31753.786976
824.827609	27099.594620
825.145398	24290.013388
825.463144	22621.900621
825.780845	22525.196167
826.098502	23757.899435
826.416116	27046.029839
826.733685	30781.141712
827.051210	32647.646567
827.368692	31705.913658
827.686129	28185.189456
828.003522	24164.811291
828.320872	20411.026985
828.638177	17522.834000
828.955439	15308.149251
829.272656	13471.813180
829.589830	11982.036272
829.906960	10691.016937
830.224046	9717.280263
830.541088	8935.057023
830.858086	8441.948998
831.175041	8042.538379
831.491952	7884.546097
831.808819	7865.992130
832.125642	8165.658479
832.442421	8865.642856
832.759157	10352.291728
833.075849	12921.520827
833.392497	16060.347378
833.709101	18560.457216
834.025662	18920.478780
834.342179	17579.700736
834.658653	15508.903120
834.975083	13580.928955
835.291469	11932.733788
835.607811	10593.871382
835.924110	9680.094192
836.240366	8806.961304
836.556578	8005.861464
836.872746	7349.810744
837.188871	6833.084913
837.504952	6397.924951
837.820990	6076.337144
838.136984	5846.599161
838.452935	5726.745728
838.768842	5700.803950
839.084706	5987.403629
839.400526	6950.543797
839.716303	8451.305380
840.032037	9694.418630
840.347727	9930.357233
840.663373	9134.109504
840.978977	8093.043179
841.294537	7255.082422
841.610054	6637.644419
841.925527	6201.632503
842.240957	5839.483572
842.556344	5513.245301
842.871687	5235.606273
843.186987	4951.416267
843.502244	4723.341864
843.817458	4547.912230
844.132629	4405.935694
844.447756	4314.405984
844.762840	4231.955392
845.077881	4160.799506
845.392879	4095.594702
845.707833	4048.124676
846.022745	4003.744878
846.337613	3973.969303
846.652438	3936.069909
846.967221	3915.799429
847.281960	3881.842217
847.596656	3865.244218
847.911309	3846.503728
848.225919	3820.866940
848.540485	3805.536792
848.855009	3791.935758
849.169490	3772.459261
849.483928	3759.924432
849.798323	3753.007968
850.112675	3733.602047
850.426984	3737.728231
850.741251	3725.790779
851.055474	3719.743915
851.369654	3723.761714
851.683792	3720.646281
851.997887	3725.760532
852.311938	3727.731623
852.625947	3731.512488
852.939914	3724.764904
853.253837	3730.431161
853.567718	3730.106007
853.881555	3718.710478
854.195350	3734.103642
854.509103	3730.698342
854.822812	3726.083166
855.136479	3716.961198
855.450103	3729.107858
855.763685	3712.303172
856.077224	3718.972618
856.390720	3732.666913
856.704173	3750.487392
857.017584	3760.267230
857.330953	3770.899023
857.644278	3793.261582
857.957561	3801.982778
858.270802	3800.528405
858.584000	3808.009478
858.897155	3800.866162
859.210268	3785.016775
859.523339	3762.366871
859.836367	3759.931993
860.149352	3755.248761
860.462295	3751.611569
860.775195	3738.534816
861.088054	3735.341245
861.400869	3727.905543
861.713642	3725.304307
862.026373	3736.147829
862.339062	3742.373654
862.651708	3759.432919
862.964312	3788.608597
863.276873	3798.922798
863.589392	3851.252495
863.901869	3895.876789
864.214303	3938.814817
864.526696	3975.469047
864.839045	4020.970501
865.151353	4042.584448
865.463619	4055.928382
865.775842	4063.848035
866.088023	4082.114656
866.400162	4072.188624
866.712258	4077.814552
867.024313	4082.452413
867.336325	4079.894028
867.648296	4085.953495
867.960224	4082.462496
868.272110	4094.034464
868.583954	4096.363478
868.895755	4110.687916
869.207515	4105.545939
869.519233	4138.696567
869.830909	4154.109895
870.142542	4177.964635
870.454134	4191.295966
870.765684	4220.229669
871.077191	4259.613683
871.388657	4278.913741
871.700081	4308.318791
872.011463	4350.104915
872.322803	4383.789905
872.634101	4410.029111
872.945357	4450.761634
873.256571	4501.228625
873.567744	4535.579048
873.878874	4555.584867
874.189963	4590.457048
874.501010	4598.815281
874.812015	4597.239921
875.122979	4640.513185
875.433900	4640.361951
875.744780	4651.417201
876.055618	4679.468702
876.366415	4672.900078
876.677169	4688.371379
876.987882	4728.882092
877.298554	4774.517137
877.609183	4848.072613
877.919771	4945.288744
878.230317	5067.294749
878.540822	5252.030353
878.851285	5532.184916
879.161707	5920.956180
879.472087	6562.453089
879.782425	7583.523677
880.092722	9405.426924
880.402977	12248.491500
880.713191	15763.393169
881.023363	19473.342122
881.333494	21933.999891
881.643583	23411.909923
881.953631	23641.037927
882.263637	22988.344615
882.573602	21688.062159
882.883526	20251.930690
883.193408	18684.081432
883.503248	17077.662306
883.813048	15590.584936
884.122806	14214.881778
884.432522	12784.000670
884.742197	11548.663400
885.051831	10474.915274
885.361424	9471.929826
885.670975	8647.968353
885.980485	7959.535781
886.289954	7382.482462
886.599382	6910.103661
886.908768	6531.893615
887.218113	6169.933727
887.527417	5879.772474
887.836680	5612.624087
888.145901	5400.744391
888.455082	5237.726079
888.764221	5084.263273
889.073319	4947.663127
889.382376	4873.480028
889.691392	4808.434020
890.000366	4781.075678
890.309300	4757.536010
890.618193	4762.940127
890.927044	4744.723918
891.235855	4761.142956
891.544625	4780.143065
891.853353	4831.109130
892.162041	4928.380714
892.470687	5087.073717
892.779293	5299.765038
893.087858	5618.703719
893.396381	6117.614112
893.704864	6798.663914
894.013306	7827.621388
894.321707	8964.451992
894.630068	9846.820273
894.938387	10195.229538
895.246665	10089.939999
895.554903	9556.462414
895.863100	8910.650277
896.171256	8379.020275
896.479371	7890.083804
896.787446	7401.142293
897.095480	6976.616645
897.403473	6667.573750
897.711425	6354.429876
898.019336	6100.333037
898.327207	5834.976781
898.635038	5609.735506
898.942827	5364.314493
899.250576	5171.644113
899.558284	4974.131706
899.865952	4852.415567
900.173579	4710.144123
900.481165	4601.471969
900.788711	4505.536291
901.096216	4437.563893
901.403681	4368.555538
901.711105	4338.235518
902.018489	4316.563598
902.325832	4367.441443
902.633135	4454.920586
902.940397	4717.363055
903.247619	5328.509698
903.554800	6521.377768
903.861941	8284.047457
904.169041	9859.745791
904.476101	10705.003618
904.783121	10580.716491
905.090100	9953.607035
905.397039	9159.186723
905.703938	8436.391126
906.010796	7765.360617
906.317614	7230.340439
906.624391	6714.353137
906.931129	6298.813346
907.237826	5911.340179
907.544483	5549.803749
907.851099	5187.816135
908.157675	4842.154298
908.464211	4516.248743
908.770707	4273.600364
909.077163	4070.086463
909.383578	3918.239347
909.689954	3796.233342
909.996289	3723.207188
910.302584	3657.188237
910.608839	3622.878144
910.915054	3589.689707
911.221229	3573.671441
911.527363	3581.205445
911.833458	3590.395469
912.139513	3610.209724
912.445527	3638.901451
912.751502	3703.355124
913.057436	3795.459525
913.363331	3907.075712
913.669186	4085.900563
913.975000	4298.785969
914.280775	4660.645033
914.586510	5159.583153
914.892205	5843.536660
915.197859	6778.499299
915.503475	7912.133811
915.809050	8966.115572
916.114585	9688.142394
916.420081	10058.049660
916.725536	10107.384912
917.030952	9745.735056
917.336328	9376.909117
917.641665	9003.387343
917.946961	8558.674395
918.252218	8150.852611
918.557435	7665.427304
918.862612	7252.879438
919.167750	6898.244347
919.472848	6491.753427
919.777906	6133.377800
920.082925	5783.887207
920.387904	5426.572743
920.692843	5149.657121
920.997743	4901.662599
921.302603	4667.561496
921.607423	4507.492259
921.912204	4341.960931
922.216946	4227.002459
922.521647	4111.023153
922.826310	4007.505579
923.130932	3918.546858
923.435516	3820.461128
923.740059	3754.033843
924.044564	3676.085002
924.349028	3618.479737
924.653454	3555.243503
924.957840	3488.017196
925.262186	3444.764096
925.566493	3384.363511
925.870761	3333.238649
926.174989	3294.598205
926.479178	3260.051178
926.783328	3219.790003
927.087438	3193.727237
927.391509	3157.995539
927.695541	3130.518730
927.999533	3104.362703
928.303486	3081.559044
928.607400	3068.643608
928.911275	3056.217163
929.215110	3037.665717
929.518906	3029.662885
929.822663	3024.558717
930.126381	3021.440763
930.430060	3030.552649
930.733699	3031.293699
931.037299	3041.582694
931.340861	3040.977755
931.644383	3048.131153
931.947866	3047.879095
932.251309	3043.440359
932.554714	3042.301058
932.858080	3034.809903
933.161407	3029.478883
933.464694	3024.457894
933.767943	3015.983714
934.071153	3014.078158
934.374323	3001.077023
934.677455	2998.604337
934.980548	2989.855414
935.283602	2985.406596
935.586617	2979.097592
935.889593	2985.991370
936.192530	2988.827019
936.495428	3000.454440
936.798287	3019.789786
937.101108	3046.487736
937.403890	3093.241918
937.706632	3145.284269
938.009336	3220.072307
938.312002	3293.224491
938.614628	3355.059284
938.917216	3412.974580
939.219765	3442.969445
939.522275	3478.388592
939.824747	3482.920589
940.127179	3485.617607
940.429573	3481.226762
940.731929	3480.170640
941.034246	3469.523723
941.336524	3456.136939
941.638763	3443.788633
941.940964	3428.072836
942.243126	3389.588667
942.545250	3369.640821
942.847335	3334.670337
943.149381	3298.691622
943.451389	3269.468053
943.753359	3235.044534
944.055290	3209.153168
944.357182	3187.803882
944.659036	3170.807631
944.960851	3160.748009
945.262628	3146.796616
945.564367	3146.620175
945.866067	3140.656490
946.167729	3136.709267
946.469352	3136.535347
946.770937	3131.287506
947.072484	3117.636061
947.373992	3119.176134
947.675462	3114.039198
947.976893	3098.383895
948.278286	3094.018255
948.579641	3083.000814
948.880958	3078.244485
949.182236	3082.179106
949.483476	3073.566294
949.784678	3071.156623
950.085841	3071.348187
950.386967	3081.080134
950.688054	3093.415838
950.989103	3114.684466
951.290114	3130.251549
951.591087	3154.255003
951.892021	3181.278108
952.192917	3212.228272
952.493776	3234.527816
952.794596	3243.760689
953.095378	3252.625558
953.396122	3247.528952
953.696828	3247.196236
953.997496	3232.914647
954.298126	3214.620299
954.598718	3194.906867
954.899272	3172.526665
955.199788	3149.728047
955.500266	3119.894498
955.800706	3085.667584
956.101108	3046.754918
956.401472	3020.603932
956.701798	2989.043788
957.002087	2949.022068
957.302337	2921.144487
957.602550	2893.589540
957.902724	2866.299254
958.202861	2839.991992
958.502960	2822.400886
958.803022	2800.519758
959.103045	2781.353291
959.403031	2762.897627
959.702979	2750.077972
960.002889	2738.894173
960.302762	2725.930846
960.602596	2715.034392
960.902393	2707.129862
961.202153	2696.460260
961.501875	2689.793334
961.801559	2686.095648
962.101205	2679.771520
962.400814	2674.332115
962.700385	2666.949346
962.999918	2660.040444
963.299414	2652.055257
963.598873	2653.320586
963.898293	2642.797177
964.197677	2647.805564
964.497022	2643.124852
964.796331	2642.759369
965.095601	2639.127217
965.394835	2636.858698
965.694030	2636.452885
965.993189	2633.082874
966.292309	2634.451547
966.591393	2632.881228
966.890439	2631.557925
967.189447	2629.382667
967.488419	2633.987761
967.787353	2631.033645
968.086249	2634.330560
968.385108	2634.338121
968.683930	2635.588327
968.982714	2639.396919
969.281462	2643.167702
969.580172	2649.131387
969.878844	2654.258241
970.177480	2664.912719
970.476078	2670.468071
970.774639	2674.150634
971.073162	2681.593897
971.371649	2689.876513
971.670098	2695.048737
971.968510	2698.690971
972.266885	2702.698688
972.565223	2707.608772
972.863524	2710.172199
973.161788	2713.610266
973.460014	2716.584546
973.758204	2722.326421
974.056356	2721.156873
974.354471	2723.453118
974.652550	2723.601832
974.950591	2723.677450
975.248595	2722.800289
975.546563	2719.248796
975.844493	2716.700493
976.142386	2712.874257
976.440243	2703.782536
976.738062	2702.388657
977.035845	2698.033100
977.333590	2692.651668
977.631299	2683.875020
977.928971	2678.838907
978.226606	2672.449244
978.524204	2667.428255
978.821765	2663.339879
979.119290	2667.725683
979.416777	2663.823830
979.714228	2670.866322
980.011642	2670.291631
980.309020	2676.797240
980.606360	2688.754857
980.903664	2705.700695
981.200931	2739.952815
981.498162	2778.361366
981.795356	2842.542816
982.092513	2925.338727
982.389633	3017.337264
982.686717	3113.361163
982.983764	3188.121474
983.280775	3246.130032
983.577749	3263.471601
983.874686	3256.524891
984.171587	3227.530694
984.468451	3194.833771
984.765279	3157.045281
985.062070	3112.380658
985.358824	3074.516552
985.655543	3022.756505
985.952224	2970.318422
986.248869	2911.039494
986.545478	2852.693180
986.842050	2800.534881
987.138586	2752.654002
987.435086	2714.656305
987.731549	2682.513908
988.027975	2659.889210
988.324366	2639.941364
988.620719	2624.371760
988.917037	2610.596807
989.213318	2605.986672
989.509563	2597.956114
989.805772	2594.626432
990.101944	2588.965216
990.398080	2583.384659
990.694180	2584.213929
990.990244	2583.553537
991.286271	2582.363825
991.582262	2585.491861
991.878217	2584.967581
992.174136	2590.863211
992.470019	2591.326997
992.765865	2596.887389
993.061676	2599.153388
993.357450	2607.509101
993.653188	2613.674432
993.948890	2627.202368
994.244556	2644.430511
994.540186	2663.052534
994.835780	2692.329035
995.131337	2726.636607
995.426859	2763.807555
995.722345	2807.652991
996.017795	2856.963037
996.313208	2892.916546
996.608586	2922.797986
996.903928	2943.849844
997.199234	2941.238526
997.494504	2942.866819
997.789738	2931.549429
998.084936	2908.662590
998.380099	2882.700648
998.675225	2859.922194
998.970316	2829.566886
999.265371	2791.949796
999.560390	2758.652975
999.855373	2731.135837
1000.150320	2702.381095
1000.445232	2672.734070
1000.740108	2657.822337
1001.034948	2637.224182
1001.329752	2621.087448
1001.624521	2611.196705
1001.919254	2596.731114
1002.213951	2592.748602
1002.508613	2581.229566
1002.803239	2577.284863
1003.097829	2571.069120
1003.392384	2564.366906
1003.686903	2559.865156
1003.981386	2559.459343
1004.275834	2554.312325
1004.570246	2552.028682
1004.864623	2548.394010
1005.158964	2547.645399
1005.453270	2546.170861
1005.747540	2546.206149
1006.041775	2540.446631
1006.335974	2540.295396
1006.630138	2538.737680
1006.924266	2539.574511
1007.218359	2537.167360
1007.512416	2534.188038
1007.806438	2534.782895
1008.100425	2533.149561
1008.394376	2530.994467
1008.688292	2533.217616
1008.982172	2531.932122
1009.276017	2533.872966
1009.569827	2531.664941
1009.863602	2535.977648
1010.157341	2532.975641
1010.451045	2533.144520
1010.744714	2533.172246
1011.038347	2532.562266
1011.331945	2528.773839
1011.625508	2528.907430
1011.919036	2525.471883
1012.212528	2528.834333
1012.505986	2523.636903
1012.799408	2527.647141
1013.092795	2525.171935
1013.386147	2523.445340
1013.679464	2525.449198
1013.972745	2522.091790
1014.265992	2523.634383
1014.559204	2522.406862
1014.852380	2522.011131
1015.145521	2523.730165
1015.438628	2524.597243
1015.731699	2524.156142
1016.024736	2521.423837
1016.317737	2522.298477
1016.610703	2522.139681
1016.903635	2528.604961
1017.196531	2525.489528
1017.489393	2530.911288
1017.782219	2529.535053
1018.075011	2530.926412
1018.367768	2532.632843
1018.660490	2535.418080
1018.953177	2535.418080
1019.245829	2535.418080
