Dividing Wavelength (nm)	Counts (n)	Blue Motor Position (mm): 31.000000	Red Motor Position (mm): 0.000000	
326.493990	2063.193035
326.888308	2063.193035
327.282561	2063.193035
327.676750	2044.311393
328.070874	2042.922555
328.464933	2046.658050
328.858929	2058.066181
329.252859	2067.011709
329.646726	2078.160220
330.040528	2098.781060
330.434265	2115.230345
330.827938	2134.898407
331.221547	2155.126037
331.615091	2176.866013
332.008571	2200.680423
332.401986	2215.698021
332.795338	2237.072513
333.188625	2256.322159
333.581847	2275.241609
333.975006	2292.058899
334.368100	2310.063380
334.761129	2325.743889
335.154095	2342.689727
335.546996	2393.708725
335.939833	2494.993067
336.332606	2508.122752
336.725315	2518.086593
337.117960	2528.851977
337.510540	2539.619882
337.903056	2550.599515
338.295508	2556.283416
338.687896	2560.268448
339.080220	2565.544015
339.472480	2571.628688
339.864676	2578.343505
340.256807	2581.093454
340.648875	2582.794844
341.040879	2583.014134
341.432818	2583.707293
341.824694	2583.598908
342.216506	2584.506316
342.608253	2585.469176
342.999937	2585.413723
343.391557	2581.322827
343.783113	2580.932138
344.174605	2577.690676
344.566033	2577.993145
344.957397	2576.576581
345.348697	2573.375448
345.739934	2571.076682
346.131106	2570.645663
346.522215	2570.794377
346.913260	2566.373285
347.304241	2566.471588
347.695159	2565.536454
348.086012	2567.757082
348.476802	2559.880279
348.867528	2559.870197
349.258191	2556.979095
349.648789	2554.763508
350.039324	2550.922149
350.429796	2555.857438
350.820203	2555.764177
351.210548	2553.679660
351.600828	2554.075390
351.991045	2551.582540
352.381198	2548.575492
352.771288	2553.954403
353.161314	2552.464742
353.551276	2550.909546
353.941175	2549.800492
354.331010	2549.099772
354.720782	2554.849208
355.110490	2554.680329
355.500135	2553.445246
355.889717	2552.094217
356.279235	2553.107489
356.668689	2554.304763
357.058080	2555.151677
357.447408	2554.009855
357.836672	2555.451625
358.225873	2553.515822
358.615010	2555.033210
359.004084	2555.691080
359.393095	2555.494475
359.782043	2556.298539
360.170927	2556.371636
360.559748	2558.740978
360.948505	2558.367933
361.337199	2561.501010
361.725830	2559.040927
362.114398	2560.114693
362.502903	2559.333314
362.891344	2560.883469
363.279722	2558.947666
363.668037	2560.800290
364.056289	2563.230126
364.444478	2562.884807
364.832603	2564.082081
365.220665	2565.818758
365.608665	2565.717935
365.996601	2565.322205
366.384474	2563.661144
366.772284	2562.642831
367.160031	2564.797925
367.547715	2565.612071
367.935336	2564.563511
368.322893	2562.932698
368.710388	2562.988150
369.097820	2564.515620
369.485189	2563.646021
369.872495	2566.585014
370.259738	2568.460323
370.646918	2566.610219
371.034035	2566.789180
371.421090	2567.653738
371.808081	2568.525858
372.195010	2571.225396
372.581875	2572.074830
372.968678	2570.559963
373.355418	2570.660787
373.742096	2568.742628
374.128710	2566.839592
374.515262	2570.186918
374.901751	2574.345870
375.288177	2574.522310
375.674540	2572.203380
376.060841	2576.034657
376.447079	2573.982907
376.833254	2573.645150
377.219367	2575.694379
377.605417	2571.656414
377.991404	2572.654563
378.377329	2573.597259
378.763191	2574.741601
379.148991	2577.305027
379.534727	2578.724112
379.920402	2576.705130
380.306013	2573.892166
380.691563	2575.520459
381.077049	2576.059862
381.462474	2573.541806
381.847835	2576.816035
382.233134	2577.158834
382.618371	2574.300500
383.003545	2578.671180
383.388657	2579.071952
383.773706	2576.659760
384.158693	2579.205542
384.543618	2578.751838
384.928480	2578.363670
385.313280	2579.563464
385.698017	2579.626479
386.082692	2582.172261
386.467305	2580.090265
386.851856	2581.181675
387.236344	2580.758218
387.620770	2579.203022
388.005133	2577.184040
388.389435	2577.821746
388.773674	2577.415933
389.157851	2583.084710
389.541965	2582.870461
389.926018	2584.672674
390.310008	2582.467169
390.693936	2581.821901
391.077802	2585.262489
391.461606	2586.137129
391.845348	2585.832139
392.229027	2586.646285
392.612645	2583.888774
392.996200	2584.682756
393.379694	2584.947417
393.763125	2589.343303
394.146494	2586.230390
394.529801	2586.951275
394.913047	2587.042016
395.296230	2587.263827
395.679351	2587.662078
396.062410	2589.948241
396.445408	2591.425299
396.828343	2590.313725
397.211217	2591.831112
397.594028	2591.841194
397.976778	2591.684919
398.359466	2592.491503
398.742092	2591.135433
399.124656	2589.030751
399.507158	2588.299784
399.889598	2592.247007
400.271977	2594.260948
400.654294	2594.119796
401.036549	2592.383118
401.418742	2594.213057
401.800874	2596.365630
402.182944	2596.864704
402.564952	2597.353696
402.946898	2594.538212
403.328783	2598.077102
403.710606	2593.381267
404.092367	2597.152050
404.474067	2595.738006
404.855705	2594.714652
405.237282	2595.443099
405.618797	2599.165991
406.000250	2599.917123
406.381642	2598.356886
406.762972	2597.550301
407.144240	2597.096597
407.525447	2598.394694
407.906593	2599.281937
408.287677	2600.527102
408.668700	2603.667741
409.049661	2603.082967
409.430560	2602.379727
409.811399	2600.824531
410.192176	2608.537496
410.572891	2603.786208
410.953545	2605.454830
411.334138	2603.229161
411.714669	2606.505911
412.095139	2607.188987
412.475547	2606.737804
412.855894	2606.417691
413.236180	2610.493464
413.616405	2610.657301
413.996568	2611.312651
414.376670	2608.419029
414.756711	2611.403392
415.136691	2611.209307
415.516609	2610.765686
415.896466	2615.953033
416.276262	2613.674432
416.655997	2614.405399
417.035670	2613.117384
417.415283	2619.207098
417.794834	2612.877929
418.174324	2615.718620
418.553753	2617.377159
418.933121	2616.439505
419.312428	2619.617952
419.691674	2617.089813
420.070859	2625.072481
420.449983	2622.393107
420.829045	2623.199692
421.208047	2625.934518
421.586988	2629.428037
421.965867	2631.212606
422.344686	2635.217803
422.723444	2636.707464
423.102141	2638.434059
423.480777	2641.713329
423.859352	2645.589977
424.237866	2649.869916
424.616319	2656.451143
424.994712	2661.426762
425.373044	2667.549243
425.751314	2673.084430
426.129524	2672.068637
426.507673	2686.350226
426.885762	2693.397759
427.263789	2710.888042
427.641756	2718.404403
428.019662	2729.875548
428.397508	2742.546489
428.775292	2758.128695
429.153016	2776.914555
429.530679	2787.077521
429.908282	2807.753814
430.285824	2818.642706
430.663305	2848.854341
431.040726	2861.348841
431.418086	2885.327089
431.795385	2912.927406
432.172624	2944.704320
432.549802	2962.255097
432.926920	2992.799448
433.303977	3015.948426
433.680974	3046.656615
434.057910	3089.125816
434.434786	3124.098820
434.811601	3149.685197
435.188355	3212.744990
435.565050	3231.679564
435.941683	3265.646859
436.318257	3340.641584
436.694770	3371.407746
437.071222	3433.867642
437.447614	3446.339457
437.823946	3480.077379
438.200218	3539.005947
438.576429	3565.424113
438.952580	3629.260244
439.328670	3676.642049
439.704700	3733.569279
440.080670	3761.744288
440.456580	3854.314996
440.832429	3898.762850
441.208218	3898.722520
441.583947	3969.275989
441.959616	4043.265004
442.335224	4104.018470
442.710773	4177.621836
443.086261	4275.621867
443.461689	4265.032923
443.837057	4362.516236
444.212365	4472.783915
444.587612	4529.973284
444.962800	4564.238007
445.337927	4664.345240
445.712995	4590.762038
446.088002	4857.355897
446.462949	4949.868632
446.837837	5011.413559
447.212664	5095.411785
447.587431	5459.199091
447.962139	5901.162089
448.336786	6321.009546
448.711374	6328.399878
449.085901	5957.580163
449.460369	6016.864132
449.834776	6022.568198
450.209124	6498.775754
450.583412	6516.427355
450.957640	6740.456232
451.331808	6653.551780
451.705917	6489.018601
452.079965	6525.244333
452.453954	6711.633434
452.827883	6778.539628
453.201752	6854.451843
453.575562	6943.178672
453.949311	7214.216308
454.323001	7351.459201
454.696632	7404.953405
455.070202	7839.495826
455.443713	7965.953170
455.817164	8160.279568
456.190556	8452.815205
456.563888	8472.644584
456.937160	8729.287206
457.310373	8518.377932
457.683526	8623.828788
458.056619	8735.628977
458.429653	8881.976194
458.802628	9071.213548
459.175542	9204.610040
459.548398	9670.972224
459.921194	10157.320062
460.293930	10462.445980
460.666607	11170.166007
461.039224	11831.504898
461.411782	12190.422449
461.784280	12066.520970
462.156719	12147.733958
462.529099	12187.790967
462.901419	11818.264307
463.273680	11617.424738
463.645882	11874.132895
464.018024	11884.358875
464.390106	12289.695371
464.762130	13261.622271
465.134094	14594.062247
465.505999	16544.025925
465.877845	18542.750163
466.249631	19697.310505
466.621358	19430.386450
466.993026	18873.573364
467.364634	18360.590590
467.736184	17764.784178
468.107674	17346.801948
468.479105	17313.396742
468.850477	17152.899007
469.221790	16853.966146
469.593043	16352.898138
469.964238	16094.420537
470.335373	16214.803291
470.706449	16930.548834
471.077467	17806.489644
471.448425	20150.414454
471.819324	21922.876585
472.190164	21885.332592
472.560945	20344.365287
472.931667	18929.867929
473.302330	18676.580195
473.672934	18207.861272
474.043479	18663.989913
474.413965	18509.652468
474.784393	18382.333086
475.154761	19059.838957
475.525070	19215.247648
475.895321	19100.574001
476.265513	19637.640888
476.635645	20226.571165
477.005719	20316.651543
477.375734	20710.075793
477.745691	21339.156340
478.115588	21984.862613
478.485427	23169.364888
478.855207	24963.561953
479.224928	26746.650836
479.594591	28120.234189
479.964194	27793.028016
480.333739	28225.254027
480.703226	28471.844587
481.072653	28935.451780
481.442022	29473.879779
481.811333	29883.569311
482.180584	29465.607245
482.549777	29271.111968
482.918912	29046.672237
483.287988	29009.216464
483.657005	28880.180570
484.025964	28518.722277
484.394864	28711.589262
484.763706	28646.389498
485.132489	28137.951324
485.501213	28231.736950
485.869879	28392.481702
486.238487	28346.581997
486.607036	28608.051523
486.975527	28306.358630
487.343959	28650.429983
487.712333	29014.025725
488.080648	28974.538367
488.448905	29403.041485
488.817104	29294.185329
489.185244	30120.967327
489.553326	31068.759703
489.921350	32956.518063
490.289315	35443.830933
490.657222	36348.914653
491.025070	36878.802937
491.392861	36615.659747
491.760593	35850.251277
492.128267	34845.554356
492.495883	33851.839589
492.863440	32985.870182
493.230939	32026.785621
493.598380	31468.813070
493.965763	31329.147902
494.333088	30825.665183
494.700354	30634.096295
495.067563	30601.895925
495.434713	30499.865492
495.801805	30780.882092
496.168839	30613.833377
496.535815	30470.571347
496.902733	30582.943707
497.269593	30418.886917
497.636395	30556.586034
498.003139	30827.684165
498.369825	30602.163106
498.736453	30990.795738
499.103023	30827.885811
499.469535	30914.868400
499.835989	31031.606399
500.202385	30889.337476
500.568723	30943.119026
500.935003	31237.955950
501.301226	31090.245101
501.667390	31810.414257
502.033497	32004.009688
502.399546	31808.869143
502.765537	31412.077404
503.131470	31874.026057
503.497345	32287.723306
503.863163	31257.324063
504.228923	32003.392147
504.594625	32386.051012
504.960269	31867.591024
505.325856	32524.223998
505.691385	32183.812523
506.056856	32499.151819
506.422270	32966.771770
506.787625	32492.253000
507.152924	32945.866105
507.518164	33121.552838
507.883347	32696.795297
508.248472	32811.262257
508.613540	33490.955988
508.978550	33701.726631
509.343503	33538.491549
509.708398	33893.603028
510.073236	34467.180472
510.438016	34570.733334
510.802738	34238.034824
511.167403	34786.449348
511.532010	35010.994943
511.896561	35500.198595
512.261053	36215.452626
512.625488	36021.474067
512.989866	35933.042146
513.354186	35976.965720
513.718449	35944.175534
514.082655	36782.436240
514.446803	36475.581205
514.810894	37060.402942
515.174927	37079.428257
515.538904	37069.713954
515.902822	37695.275776
516.266684	37377.645275
516.630488	37723.682678
516.994235	37726.097390
517.357925	38283.835528
517.721558	38523.055922
518.085133	38897.104497
518.448651	39093.023900
518.812112	38963.854415
519.175516	39108.986713
519.538863	39539.002177
519.902152	39600.123647
520.265385	40132.955965
520.628560	40147.008181
520.991678	40076.825237
521.354739	40292.541252
521.717743	40661.747797
522.080690	40569.451832
522.443580	41222.871070
522.806413	41235.121074
523.169189	41365.694521
523.531908	41587.974117
523.894569	41439.640686
524.257174	41633.500777
524.619722	41952.724283
524.982213	42091.804677
525.344647	42137.540545
525.707025	42246.091711
526.069345	42683.936087
526.431608	42599.592542
526.793815	42977.913494
527.155964	42528.224927
527.518057	42775.206177
527.880093	42618.267496
528.242072	43236.076023
528.603995	42979.715706
528.965860	42894.310998
529.327669	43126.756082
529.689421	43165.502390
530.051117	43118.707880
530.412755	43393.082760
530.774337	43439.116056
531.135862	43374.327147
531.497331	43532.705077
531.858743	43514.100699
532.220098	43908.863375
532.581396	43644.094413
532.942638	43420.940176
533.303824	43663.485211
533.664953	43729.637753
534.026025	43398.312957
534.387040	43975.648581
534.747999	44023.259758
535.108902	44366.665679
535.469748	43687.440774
535.830537	43945.946102
536.191270	44184.712792
536.551947	43940.859578
536.912567	44215.284870
537.273131	44351.706055
537.633638	43963.080984
537.994089	44153.278678
538.354483	43914.965691
538.714821	44557.548969
539.075103	44818.199308
539.435328	44696.279002
539.795497	44467.980268
540.155609	44601.212923
540.515665	45167.301733
540.875665	44469.394312
541.235609	44739.403553
541.595496	44878.090737
541.955328	45447.305061
542.315102	44880.581067
542.674821	44796.121575
543.034483	44718.923866
543.394090	44721.063835
543.753640	44701.930136
544.113134	45755.702689
544.472571	44868.038676
544.831953	45974.582027
545.191278	45243.715543
545.550548	44955.285925
545.909761	45575.781388
546.268918	45716.086782
546.628019	46119.212731
546.987064	45555.291618
547.346053	44894.494651
547.704986	45773.744979
548.063863	45418.552840
548.422684	45621.129087
548.781449	45203.247680
549.140158	45730.219656
549.498811	45489.184447
549.857408	44913.467034
550.215949	45737.884731
550.574434	45572.030769
550.932864	45524.906063
551.291237	46233.409989
551.649555	45980.301216
552.007817	46142.598644
552.366022	45868.143105
552.724173	45928.578978
553.082267	46309.604509
553.440305	46680.177208
553.798288	45959.629965
554.156215	46339.949735
554.514086	46524.173661
554.871902	46134.656306
555.229661	46308.301371
555.587365	45999.805441
555.945014	46118.408667
556.302606	46138.543036
556.660143	46227.784062
557.017625	46465.204764
557.375050	46153.696744
557.732421	46544.509675
558.089735	46616.656149
558.446994	46481.742269
558.804197	46955.598127
559.161345	46819.081161
559.518437	46185.592124
559.875474	46425.533403
560.232455	46653.655697
560.589381	46700.805609
560.946251	46524.418157
561.303065	47154.363262
561.659825	46843.301384
562.016528	46681.873556
562.373177	46256.569050
562.729770	46893.516318
563.086307	46414.337001
563.442789	46936.885364
563.799216	46799.002245
564.155587	46708.032103
564.511904	46665.701534
564.868164	46727.589260
565.224370	47029.483799
565.580520	46747.703463
565.936615	46952.520503
566.292654	46612.940818
566.648638	46969.955334
567.004567	46914.240501
567.360441	47007.063267
567.716260	46716.118114
568.072023	47100.861496
568.427732	47027.157306
568.783385	46570.247286
569.138982	46991.196235
569.494525	47136.636044
569.850013	46746.428052
570.205445	46851.359669
570.560823	46637.130795
570.916145	46505.186155
571.271412	46725.545072
571.626625	46375.008439
571.981782	46466.732233
572.336884	46076.373006
572.691931	46404.557162
573.046923	46063.127374
573.401860	45903.065698
573.756743	45925.788699
574.111570	46064.806078
574.466342	45981.601834
574.821059	46145.378840
575.175722	45631.082845
575.530330	45700.827209
575.884882	45379.093209
576.239380	45278.781809
576.593823	45374.896448
576.948211	45322.725547
577.302544	44865.679416
577.656823	44856.955699
578.011047	45125.732378
578.365216	44973.073637
578.719330	44689.851531
579.073389	44657.063867
579.427394	44725.779835
579.781344	44633.317512
580.135239	44394.747426
580.489080	44466.185617
580.842866	43952.464314
581.196597	44435.530361
581.550273	44448.579388
581.903895	44370.370927
582.257463	44821.634855
582.610975	44238.673303
582.964434	44569.942646
583.317837	44067.818517
583.671186	44025.969378
584.024481	44312.795909
584.377721	43877.119229
584.730906	44102.194145
585.084037	44247.200415
585.437113	43962.886900
585.790135	44076.456534
586.143103	43659.595961
586.496016	43842.002551
586.848874	43939.304382
587.201679	43965.556191
587.554428	43469.826766
587.907124	43722.391094
588.259765	43492.459026
588.612352	43658.197041
588.964884	43124.258190
589.317362	43405.562136
589.669786	43422.049230
590.022155	43307.899863
590.374470	43767.824493
590.726731	43359.939694
591.078937	42700.788664
591.431090	43045.971591
591.783188	42564.939650
592.135232	42384.184038
592.487222	42635.646874
592.839157	42777.366312
593.191038	42432.921913
593.542866	42253.103956
593.894639	41627.264870
594.246358	41918.426793
594.598022	41926.875767
594.949633	41521.531709
595.301190	41521.067923
595.652692	41469.834677
596.004141	41952.749489
596.355535	40865.455783
596.706876	40883.303988
597.058162	40589.059400
597.409395	41086.482653
597.760573	41308.517754
598.111698	40930.534559
598.462768	40841.096928
598.813785	40865.332275
599.164748	40486.061065
599.515657	40746.058575
599.866511	40252.136403
600.217312	40949.257404
600.568060	39896.994677
600.918753	40710.387370
601.269392	40613.914809
601.619978	40350.819511
601.970510	40577.880642
602.320988	40706.223377
602.671412	40956.375513
603.021783	40817.174132
603.372100	40413.090363
603.722363	40511.087874
604.072572	40554.368700
604.422728	40540.371936
604.772830	40322.876395
605.122878	40519.315037
605.472872	40351.374037
605.822813	40600.432243
606.172701	40348.087205
606.522534	40678.635663
606.872314	40890.492674
607.222041	40722.554195
607.571714	41047.645604
607.921333	40529.742663
608.270899	40752.901941
608.620411	41123.545216
608.969870	40884.715512
609.319276	40894.807902
609.668627	40924.591038
610.017926	41307.123875
610.367171	41469.108751
610.716362	41509.158197
611.065500	41410.165059
611.414585	41638.783907
611.763616	41816.613129
612.112594	41704.228166
612.461518	41817.707060
612.810389	42208.187275
613.159207	42003.463497
613.507971	41975.706903
613.856682	42480.160045
614.205340	42319.115345
614.553945	42996.149868
614.902496	42351.590458
615.250994	42759.195473
615.599439	42825.937829
615.947830	42941.481075
616.296169	42949.002477
616.644454	42996.490146
616.992686	43149.012776
617.340864	43566.876539
617.688990	43084.801079
618.037063	43758.826033
618.385082	43574.080348
618.733048	43940.012664
619.080961	43804.123321
619.428821	43877.366245
619.776628	43906.526800
620.124382	43710.713261
620.472083	43854.164335
620.819731	43945.953664
621.167326	43527.263152
621.514868	43528.233574
621.862357	42975.201353
622.209793	43074.655757
622.557176	42657.311233
622.904506	42425.455964
623.251783	42060.370562
623.599007	41758.392843
623.946179	41664.150993
624.293297	41418.044383
624.640363	40875.250745
624.987376	40720.676365
625.334336	40540.308922
625.681243	40136.830092
626.028097	40025.465962
626.374899	39844.791008
626.721647	39832.059574
627.068343	39609.031366
627.414987	39316.455400
627.761577	39068.022297
628.108115	39382.242458
628.454600	38646.791043
628.801032	38886.167713
629.147412	38775.945405
629.493739	38669.836678
629.840014	38232.375430
630.186236	38645.336671
630.532405	38090.250179
630.878521	38362.238073
631.224585	38106.626368
631.570597	37794.699932
631.916556	37959.417114
632.262462	37857.742082
632.608316	37807.985893
632.954117	37673.208125
633.299866	37624.296329
633.645562	37543.237096
633.991206	37036.218007
634.336797	36635.801678
634.682336	36539.215690
635.027823	36294.112270
635.373257	36188.200148
635.718639	35867.610490
636.063968	35749.057675
636.409245	35121.980986
636.754470	35069.495013
637.099642	34834.662943
637.444762	34260.508288
637.789829	34397.826798
638.134845	34018.406874
638.479808	33919.179323
638.824719	33881.965525
639.169577	33376.741086
639.514383	33487.525483
639.859137	33106.202524
640.203839	33269.379633
640.548489	32992.428723
640.893086	32971.767554
641.237632	32679.776361
641.582125	32770.282717
641.926566	32565.511048
642.270955	32578.572677
642.615292	32539.667572
642.959576	32414.173089
643.303809	32413.366504
643.647990	32536.040462
643.992118	32493.972033
644.336195	32311.320947
644.680219	32378.106153
645.024192	32578.572677
645.368112	33095.764815
645.711981	33130.082470
646.055797	33794.395641
646.399562	33600.843060
646.743274	34474.033921
647.086935	34870.109817
647.430544	34853.776478
647.774101	34880.000560
648.117606	35188.967838
648.461059	35337.704562
648.804460	34950.531344
649.147810	34454.373421
649.491108	34156.095909
649.834354	34030.745098
650.177548	33240.272011
650.520690	32725.000553
650.863781	32713.516804
651.206820	32512.606659
651.549807	32092.229881
651.892742	31522.458508
652.235626	31446.218618
652.578458	31276.039347
652.921238	30587.836147
653.263967	30874.392976
653.606644	30575.518087
653.949269	30481.220784
654.291843	30083.660268
654.634365	30444.644693
654.976836	30003.435346
655.319255	30097.641909
655.661622	29955.660331
656.003938	29817.031121
656.346203	29644.550563
656.688416	29895.703368
657.030577	29679.009370
657.372687	29491.095319
657.714746	29643.870007
658.056753	29817.651183
658.398708	29203.525218
658.740612	29265.768345
659.082465	29476.090325
659.424266	29361.273005
659.766016	29372.204747
660.107715	29210.867659
660.449362	29300.680856
660.790958	29285.083526
661.132503	29204.828357
661.473996	29277.045406
661.815438	29367.682832
662.156829	29475.717279
662.498168	29296.307655
662.839456	29271.290929
663.180693	29379.262362
663.521879	29447.610326
663.863013	29401.670291
664.204097	29378.218843
664.545129	29788.167995
664.886110	29714.473887
665.227040	29829.160137
665.567918	29827.095785
665.908746	29882.319104
666.249522	29965.218359
666.590248	30006.906181
666.930922	30100.492681
667.271545	30106.347981
667.612118	30158.216413
667.952639	29971.774379
668.293109	30014.732572
668.633528	29866.532731
668.973896	29826.493367
669.314213	29817.694033
669.654480	29607.707290
669.994695	29597.975342
670.334859	29522.887356
670.674973	29336.291567
671.015035	29521.906851
671.355047	29444.038668
671.695008	29370.447905
672.034918	29286.127045
672.374777	29372.187103
672.714585	29237.910929
673.054342	29380.923422
673.394049	29242.528626
673.733705	29450.337590
674.073310	29170.866103
674.412864	29219.538444
674.752368	28965.494537
675.091820	29187.927888
675.431223	28788.902918
675.770574	28578.338962
676.109875	28437.368136
676.449125	28224.427277
676.788324	28124.420867
677.127473	27642.872208
677.466571	27552.998517
677.805619	27259.031192
678.144616	27195.225308
678.483562	27140.803532
678.822458	26824.690418
679.161303	26768.065658
679.500098	26690.293257
679.838842	26599.577693
680.177535	26659.960634
680.516179	26880.276701
680.854771	26937.733252
681.193314	27632.099262
681.531805	28579.049765
681.870247	29331.663787
682.208638	30123.611413
682.546978	30477.780197
682.885268	30673.475268
683.223508	30257.156619
683.561697	29995.613996
683.899836	29832.381434
684.237925	29425.509908
684.575963	29247.902496
684.913951	28870.418375
685.251889	29000.936369
685.589776	29004.936524
685.927614	28995.527211
686.265401	29175.511527
686.603137	29263.562840
686.940824	29754.893859
687.278460	30064.629913
687.616046	30248.130433
687.953582	30912.993091
688.291068	30853.772136
688.628504	31230.822717
688.965889	31242.031723
689.303224	31002.624806
689.640510	30730.210934
689.977745	30134.646498
690.314930	29405.088193
690.652065	28990.279370
690.989150	28320.093254
691.326185	27486.319175
691.663170	26884.491106
692.000105	26172.473495
692.336990	25571.192391
692.673825	25143.977288
693.010610	24639.075483
693.347345	24139.350943
693.684030	23522.129710
694.020665	23329.038395
694.357251	22669.627745
694.693786	22667.457528
695.030272	22429.978853
695.366707	21934.125920
695.703093	21658.248775
696.039429	21711.125438
696.375716	21490.143939
696.711952	21472.278089
697.048139	21331.002273
697.384276	21171.686688
697.720363	21287.613062
698.056400	21184.675221
698.392388	21023.512053
698.728326	21013.999396
699.064214	20866.533043
699.400053	20885.079448
699.735842	20496.870273
700.071581	20319.550207
700.407270	20085.706203
700.742910	19913.971736
701.078501	19660.976389
701.414042	19456.844946
701.749533	19162.892745
702.084974	18845.758798
702.420366	19074.909487
702.755709	18679.614970
703.091002	18370.009986
703.426246	18429.500642
703.761440	18363.630406
704.096584	18132.175909
704.431679	18066.749294
704.766725	18013.708794
705.101721	17921.995082
705.436668	18033.949026
705.771565	17750.527795
706.106413	18055.875525
706.441212	18128.896638
706.775961	18215.339824
707.110661	18300.182443
707.445311	18637.869175
707.779913	18539.788486
708.114465	18819.070929
708.448967	19123.302043
708.783421	19727.791842
709.117825	20063.164684
709.452180	20267.296127
709.786485	20712.359435
710.120742	21438.250301
710.454949	21539.106145
710.789107	22051.741080
711.123216	22739.082242
711.457275	22976.109734
711.791286	23540.413975
712.125247	23714.147260
712.459159	23480.167146
712.793023	24237.799637
713.126837	23266.328961
713.460602	23527.657336
713.794318	23211.198903
714.127985	22943.226288
714.461602	22066.100807
714.795171	22044.509545
715.128691	21086.712999
715.462162	20560.237577
715.795584	20141.980604
716.128957	19867.948522
716.462281	19503.838582
716.795556	19218.703359
717.128782	18755.970807
717.461960	18152.176687
717.795088	18114.027755
718.128167	17785.329401
718.461198	17344.682143
718.794180	17220.846199
719.127113	16892.286477
719.459997	16713.587655
719.792833	16340.302816
720.125619	16377.133486
720.458357	16054.575257
720.791046	15903.093625
721.123686	15759.771100
721.456278	15535.863211
721.788821	15524.419792
722.121315	15268.495535
722.453761	15364.496748
722.786158	15248.759417
723.118506	15327.313197
723.450805	15221.058277
723.783056	15396.324073
724.115259	15275.124652
724.447412	15259.320635
724.779518	15469.750999
725.111574	15513.820766
725.443582	15765.626401
725.775542	15713.233689
726.107453	16215.587190
726.439315	16116.455420
726.771129	16513.143816
727.102895	16912.370433
727.434612	17190.483329
727.766281	17362.295935
728.097901	17695.710288
728.429473	17797.599569
728.760996	17808.397721
729.092471	17933.866999
729.423897	17818.033887
729.755276	17660.888518
730.086606	17753.118948
730.417887	18284.065874
730.749120	18828.631477
731.080305	19043.498057
731.411442	19461.981882
731.742530	19566.865608
732.073570	19703.836279
732.404562	20025.421565
732.735506	19935.986455
733.066401	19804.510642
733.397249	19364.536378
733.728048	18772.979660
734.058798	17937.554603
734.389501	17198.405503
734.720156	16672.703897
735.050762	16090.531287
735.381320	15694.588981
735.711831	15409.839406
736.042293	15032.383012
736.372707	15050.125353
736.703073	14839.344628
737.033391	15016.644530
737.363661	14996.779863
737.693883	15116.764366
738.024056	15300.693384
738.354182	15500.933056
738.684260	15843.605489
739.014290	16125.060670
739.344272	16331.758060
739.674207	16675.143816
740.004093	16865.066766
740.333931	16938.944876
740.663722	17033.448867
740.993464	17086.252432
741.323159	16953.763348
741.652806	16660.436249
741.982405	16510.156933
742.311956	16150.712581
742.641460	16060.133129
742.970915	15729.443519
743.300323	15391.403907
743.629683	15185.011506
743.958996	14876.921389
744.288260	14578.704372
744.617477	14257.356020
744.946647	14219.542325
745.275768	13910.257454
745.604842	13710.554665
745.933869	13540.713151
746.262847	13496.986182
746.591778	13408.962595
746.920662	13283.339562
747.249498	13283.672278
747.578286	13421.290737
747.907027	13586.141508
748.235720	13851.215460
748.564365	13917.317590
748.892963	13856.717879
749.221514	13977.851765
749.550017	13859.160318
749.878473	13838.136186
750.206881	13616.882465
750.535242	13556.413824
750.863555	13472.289569
751.191821	13364.867622
751.520039	13379.328172
751.848210	13294.800625
752.176334	13342.167306
752.504411	13269.587294
752.832440	13097.631016
753.160421	13215.246176
753.488356	13107.057973
753.816243	13018.966330
754.144082	12851.511803
754.471875	12795.393678
754.799620	12756.304571
755.127318	12732.165006
755.454969	12717.923746
755.782572	12680.551152
756.110129	12699.037063
756.437638	12613.034979
756.765100	12615.142181
757.092515	12632.758493
757.419882	12670.705779
757.747203	12672.891119
758.074477	12758.787339
758.401703	12727.534706
758.728882	12916.923294
759.056014	12962.540695
759.383099	13131.883135
759.710138	13253.148091
760.037129	13385.266651
760.364073	13454.637969
760.690970	13480.224346
761.017820	13477.527328
761.344623	13676.262216
761.671379	13991.510772
761.998088	14527.221588
762.324751	15927.250834
762.651366	18844.017079
762.977935	23116.568883
763.304456	26398.735603
763.630931	27957.465414
763.957359	27184.149893
764.283740	25147.934593
764.610074	23001.302901
764.936362	20418.122409
765.262602	18521.975568
765.588796	16560.039150
765.914943	15249.490385
766.241044	14108.052166
766.567097	13294.896407
766.893104	12554.786967
767.219064	12084.709453
767.544978	11608.895106
767.870845	11221.817669
768.196665	10993.508853
768.522438	10766.215829
768.848165	10559.208408
769.173846	10355.316420
769.499479	10223.346574
769.825066	10057.744670
770.150607	9840.072688
770.476101	9757.924566
770.801548	9640.193459
771.126949	9484.557916
771.452303	9369.075164
771.777611	9175.542747
772.102872	9166.302312
772.428087	9034.259369
772.753256	8886.823263
773.078378	8798.938308
773.403453	8619.163200
773.728482	8500.517124
774.053465	8423.541225
774.378401	8327.376174
774.703291	8206.602731
775.028135	8089.728620
775.352932	8059.083446
775.677683	7958.212478
776.002388	7848.950510
776.327046	7851.897064
776.651658	7763.833148
776.976224	7661.545615
777.300743	7660.640728
777.625216	7574.038746
777.949643	7527.680296
778.274024	7549.029582
778.598359	7465.585883
778.922647	7479.970816
779.246889	7426.539626
779.571086	7438.194774
779.895236	7440.301976
780.219339	7449.670960
780.543397	7451.311856
780.867409	7535.665483
781.191374	7548.253244
781.515294	7507.578695
781.839167	7604.590659
782.162995	7571.876091
782.486776	7522.760129
782.810511	7476.663819
783.134201	7395.203814
783.457844	7389.529995
783.781441	7335.521593
784.104993	7276.512367
784.428498	7254.941270
784.751958	7236.611634
785.075372	7206.321861
785.398739	7149.082080
785.722061	7188.909716
786.045337	7186.739499
786.368568	7327.266704
786.691752	7330.077147
787.014891	7620.077084
787.337983	7927.388343
787.661030	8478.056263
787.984031	9093.566024
788.306987	9519.919090
788.629897	9781.297876
788.952760	9772.828737
789.275579	9600.267520
789.598351	9231.151715
789.921078	8898.647290
790.243759	8491.536308
790.566395	8204.858492
790.888984	7945.493647
791.211529	7748.008966
791.534027	7515.967175
791.856480	7316.082904
792.178888	7238.817139
792.501249	7147.201730
792.823566	6984.289281
793.145836	6980.105124
793.468062	6948.222346
793.790241	6892.023563
794.112375	6953.243335
794.434464	7088.409273
794.756507	7120.213913
795.078505	7255.969665
795.400457	7532.723970
795.722364	7874.108388
796.044226	8160.551791
796.366042	8446.123074
796.687812	8421.696163
797.009538	8512.139504
797.331218	8431.037421
797.652852	8351.417437
797.974442	8205.972587
798.295986	8126.372768
798.617484	7943.872916
798.938938	7804.081720
799.260346	7701.990793
799.581709	7510.053901
799.903026	7425.211282
800.224299	7329.731828
800.545526	7158.952659
800.866708	7062.618730
801.187845	6992.546691
801.508936	6892.298306
801.829983	6855.780188
802.150984	6704.598504
802.471940	6664.347411
802.792851	6646.100955
803.113717	6615.720441
803.434538	6586.764054
803.755314	6526.708788
804.076045	6524.021853
804.396731	6465.620086
804.717372	6499.645353
805.037967	6493.250650
805.358518	6533.968049
805.679024	6613.235153
805.999485	6618.838395
806.319901	6661.988151
806.640272	6683.710483
806.960598	6768.865654
807.280879	6771.645850
807.601115	6848.629311
807.921306	6796.339943
808.241453	6813.021121
808.561554	6834.748494
808.881611	6796.211393
809.201623	6805.282949
809.521590	6754.415187
809.841513	6731.692186
810.161390	6771.255161
810.481223	6641.347147
810.801011	6630.924561
811.120755	6604.708041
811.440453	6531.434870
811.760107	6495.902297
812.079716	6464.301824
812.399281	6407.684625
812.718801	6397.519138
813.038276	6350.263362
813.357707	6289.832530
813.677093	6328.820814
813.996434	6234.730198
814.315731	6272.387618
814.634983	6264.871257
814.954191	6265.942502
815.273354	6363.541761
815.592473	6418.631491
815.911547	6532.571650
816.230577	6613.283043
816.549562	6751.367809
816.868502	6850.602923
817.187399	6942.989628
817.506250	7081.177738
817.825058	7107.442149
818.143821	7342.251534
818.462539	7586.457629
818.781213	7907.150631
819.099843	8382.329792
819.418429	9284.948388
819.736970	10169.847329
820.055466	11257.962742
820.373919	12619.686781
820.692327	14612.901039
821.010691	17899.816525
821.329011	25327.566028
821.647286	36992.458271
821.965517	50978.837148
822.283704	58481.639349
822.601847	61641.389210
822.919945	59429.519945
823.237999	55534.447220
823.556010	49521.018635
823.873976	42860.787325
824.191897	36385.400004
824.509775	31545.350388
824.827609	26913.190394
825.145398	24104.123360
825.463144	22455.416515
825.780845	22350.036235
826.098502	23590.525565
826.416116	26861.546294
826.733685	30579.790465
827.051210	32411.178643
827.368692	31467.845168
827.686129	27949.071892
828.003522	23979.218691
828.320872	20252.762480
828.638177	17367.521091
828.955439	15190.808833
829.272656	13370.428015
829.589830	11893.243909
829.906960	10607.999215
830.224046	9645.116146
830.541088	8869.663176
830.858086	8382.271819
831.175041	7983.067887
831.491952	7827.361768
831.808819	7813.947258
832.125642	8103.672452
832.442421	8803.505593
832.759157	10275.003277
833.075849	12828.592197
833.392497	15943.556446
833.709101	18420.250125
834.025662	18775.333878
834.342179	17441.600847
834.658653	15384.041301
834.975083	13468.042397
835.291469	11837.720641
835.607811	10514.200986
835.924110	9597.540256
836.240366	8745.217252
836.556578	7950.204605
836.872746	7294.864687
837.188871	6780.866121
837.504952	6357.840216
837.820990	6036.411206
838.136984	5807.746988
838.452935	5693.380851
838.768842	5671.782028
839.084706	5949.448782
839.400526	6914.744043
839.716303	8404.904079
840.032037	9631.016038
840.347727	9855.473413
840.663373	9067.102487
840.978977	8031.808283
841.294537	7206.818415
841.610054	6595.298727
841.925527	6163.602038
842.240957	5805.254138
842.556344	5478.962934
842.871687	5207.779104
843.186987	4923.823511
843.502244	4696.853121
843.817458	4529.242317
844.132629	4389.468765
844.447756	4298.929642
844.762840	4214.928895
845.077881	4140.919716
845.392879	4080.526693
845.707833	4030.954506
846.022745	3986.428515
846.337613	3961.013538
846.652438	3916.472423
846.967221	3901.532964
847.281960	3868.397459
847.596656	3855.577805
847.911309	3833.321111
848.225919	3809.814211
848.540485	3793.745533
848.855009	3779.312709
849.169490	3757.759256
849.483928	3745.045466
849.798323	3739.674117
850.112675	3719.887588
850.426984	3725.155593
850.741251	3709.031463
851.055474	3703.365206
851.369654	3715.310220
851.683792	3706.838561
851.997887	3715.668142
852.311938	3714.780899
852.625947	3719.451528
852.939914	3710.904252
853.253837	3715.378276
853.567718	3715.080847
853.881555	3708.965928
854.195350	3720.190057
854.509103	3713.830641
854.822812	3716.152093
855.136479	3707.093139
855.450103	3715.791650
855.763685	3701.363868
856.077224	3705.797563
856.390720	3722.566961
856.704173	3738.292840
857.017584	3749.779109
857.330953	3761.535080
857.644278	3780.757000
857.957561	3788.777476
858.270802	3788.961478
858.584000	3793.901808
858.897155	3786.513998
859.210268	3773.041514
859.523339	3749.751383
859.836367	3749.413626
860.149352	3745.287441
860.462295	3737.234198
860.775195	3726.609966
861.088054	3714.768296
861.400869	3714.216290
861.713642	3715.196794
862.026373	3725.886561
862.339062	3728.215574
862.651708	3746.330960
862.964312	3778.622071
863.276873	3788.563227
863.589392	3836.870083
863.901869	3880.536558
864.214303	3925.954833
864.526696	3960.988332
864.839045	4005.736134
865.151353	4031.473745
865.463619	4037.664282
865.775842	4049.725243
866.088023	4064.082449
866.400162	4055.527611
866.712258	4064.069846
867.024313	4068.793407
867.336325	4063.613622
867.648296	4073.078388
867.960224	4069.703335
868.272110	4078.495108
868.583954	4082.502825
868.895755	4091.655040
869.207515	4085.910645
869.519233	4124.067138
869.830909	4135.949138
870.142542	4159.960154
870.454134	4174.226619
870.765684	4205.065878
871.077191	4236.676433
871.388657	4258.343312
871.700081	4292.277839
872.011463	4331.281247
872.322803	4359.700752
872.634101	4391.601173
872.945357	4432.048871
873.256571	4487.678004
873.567744	4513.231613
873.878874	4537.131723
874.189963	4572.956683
874.501010	4582.020677
874.812015	4580.954473
875.122979	4624.809991
875.433900	4622.055001
875.744780	4632.671671
876.055618	4656.085310
876.366415	4652.884177
876.677169	4671.654913
876.987882	4710.827199
877.298554	4757.659518
877.609183	4825.778110
877.919771	4913.421090
878.230317	5044.586872
878.540822	5228.951950
878.851285	5504.261965
879.161707	5888.536520
879.472087	6522.423807
879.782425	7544.348871
880.092722	9357.367084
880.402977	12204.247813
880.713191	15741.340642
881.023363	19475.688779
881.333494	21965.595322
881.643583	23441.284726
881.953631	23658.351770
882.263637	22987.492660
882.573602	21666.697749
882.883526	20221.771987
883.193408	18642.149114
883.503248	17024.158020
883.813048	15541.413522
884.122806	14172.599100
884.432522	12736.979308
884.742197	11509.705363
885.051831	10429.930538
885.361424	9426.718238
885.670975	8612.823949
885.980485	7921.497755
886.289954	7339.231882
886.599382	6876.675770
886.908768	6501.261043
887.218113	6138.174458
887.527417	5854.700295
887.836680	5590.664821
888.145901	5375.689857
888.455082	5210.798755
888.764221	5059.465838
889.073319	4929.739305
889.382376	4850.028580
889.691392	4786.378972
890.000366	4755.436370
890.309300	4735.533894
890.618193	4741.784925
890.927044	4727.152976
891.235855	4743.887086
891.544625	4762.680508
891.853353	4812.043486
892.162041	4904.369698
892.470687	5062.697217
892.779293	5281.722749
893.087858	5599.728816
893.396381	6093.877839
893.704864	6767.812053
894.013306	7804.227913
894.321707	8934.575593
894.630068	9815.607969
894.938387	10156.251337
895.246665	10047.160768
895.554903	9519.062094
895.863100	8865.262248
896.171256	8342.534924
896.479371	7849.305911
896.787446	7365.145934
897.095480	6943.110616
897.403473	6632.353728
897.711425	6328.646894
898.019336	6071.575775
898.327207	5805.901926
898.635038	5584.870015
898.942827	5341.901523
899.250576	5148.512779
899.558284	4954.662770
899.865952	4834.388401
900.173579	4691.138973
900.481165	4586.318261
900.788711	4491.100947
901.096216	4420.176954
901.403681	4353.968960
901.711105	4322.318075
902.018489	4299.935352
902.325832	4353.086758
902.633135	4438.004994
902.940397	4699.287998
903.247619	5311.828520
903.554800	6505.654409
903.861941	8270.138913
904.169041	9845.265077
904.476101	10687.641884
904.783121	10552.491070
905.090100	9925.810112
905.397039	9135.120255
905.703938	8405.400633
906.010796	7739.272646
906.317614	7208.494599
906.624391	6687.140988
906.931129	6277.774090
907.237826	5892.793774
907.544483	5531.648033
907.851099	5172.949772
908.157675	4829.276671
908.464211	4498.887009
908.770707	4264.306997
909.077163	4054.317734
909.383578	3906.639652
909.689954	3787.290335
909.996289	3714.186043
910.302584	3647.547030
910.608839	3615.409674
910.915054	3582.412802
911.221229	3567.279258
911.527363	3576.249991
911.833458	3582.911876
912.139513	3604.235957
912.445527	3628.095738
912.751502	3696.085780
913.057436	3782.339922
913.363331	3896.864855
913.669186	4072.765836
913.975000	4288.912869
914.280775	4645.629957
914.586510	5143.489269
914.892205	5833.960988
915.197859	6758.927019
915.503475	7900.909682
915.809050	8962.276734
916.114585	9675.887349
916.420081	10033.799189
916.725536	10089.229197
917.030952	9721.378721
917.336328	9360.951344
917.641665	8975.197211
917.946961	8528.409828
918.252218	8131.240002
918.557435	7644.844273
918.862612	7233.395378
919.167750	6879.856738
919.472848	6471.762732
919.777906	6115.837105
920.082925	5766.873313
920.387904	5402.286984
920.692843	5133.797651
920.997743	4886.639960
921.302603	4651.616327
921.607423	4492.424250
921.912204	4330.572965
922.216946	4218.477868
922.521647	4096.731482
922.826310	3997.330010
923.130932	3908.207451
923.435516	3811.800425
923.740059	3746.802308
924.044564	3667.172242
924.349028	3611.061679
924.653454	3549.320147
924.957840	3482.653408
925.262186	3442.833334
925.566493	3378.901421
925.870761	3321.855724
926.174989	3290.618214
926.479178	3251.463572
926.783328	3213.803632
927.087438	3186.709951
927.391509	3154.640651
927.695541	3125.704428
927.999533	3097.116044
928.303486	3079.224989
928.607400	3064.343503
928.911275	3053.086607
929.215110	3033.753782
929.518906	3024.180631
929.822663	3023.051412
930.126381	3021.571833
930.430060	3025.889582
930.733699	3027.608615
931.037299	3039.770399
931.340861	3036.428114
931.644383	3046.049156
931.947866	3043.299207
932.251309	3038.522713
932.554714	3038.837785
932.858080	3032.720345
933.161407	3026.096269
933.464694	3019.232738
933.767943	3012.407016
934.071153	3008.941223
934.374323	3000.247753
934.677455	2993.127123
934.980548	2988.033037
935.283602	2979.982314
935.586617	2975.994762
935.889593	2985.643530
936.192530	2985.225114
936.495428	2997.928822
936.798287	3015.514887
937.101108	3044.231820
937.403890	3088.780497
937.706632	3142.982983
938.009336	3216.132646
938.312002	3288.662247
938.614628	3350.083665
938.917216	3404.208013
939.219765	3437.363682
939.522275	3468.603713
939.824747	3478.169302
940.127179	3476.057058
940.429573	3471.517499
940.731929	3471.963642
941.034246	3457.712300
941.336524	3447.869447
941.638763	3436.960390
941.940964	3422.429264
942.243126	3386.347205
942.545250	3368.166284
942.847335	3329.031807
943.149381	3296.425623
943.451389	3265.994698
943.753359	3232.881879
944.055290	3202.191335
944.357182	3179.443128
944.659036	3166.431910
944.960851	3156.342040
945.262628	3141.546254
945.564367	3143.582880
945.866067	3139.149185
946.167729	3134.793628
946.469352	3133.487969
946.770937	3128.799696
947.072484	3112.196656
947.373992	3113.633385
947.675462	3109.655915
947.976893	3093.947679
948.278286	3086.519539
948.579641	3078.063003
948.880958	3072.270718
949.182236	3078.070565
949.483476	3067.925243
949.784678	3070.176118
950.085841	3064.550191
950.386967	3075.880184
950.688054	3091.573296
950.989103	3108.667848
951.290114	3126.006897
951.591087	3151.129487
951.892021	3178.162675
952.192917	3208.475133
952.493776	3233.968248
952.794596	3244.206831
953.095378	3249.384096
953.396122	3245.565422
953.696828	3242.225658
953.997496	3232.844071
954.298126	3213.879250
954.598718	3194.503575
954.899272	3170.641273
955.199788	3147.262922
955.500266	3116.879888
955.800706	3084.157758
956.101108	3050.810526
956.401472	3019.089065
956.701798	2990.029334
957.002087	2945.687345
957.302337	2921.305804
957.602550	2893.644993
957.902724	2865.066692
958.202861	2842.595748
958.502960	2821.611946
958.803022	2798.611681
959.103045	2783.944444
959.403031	2762.955600
959.702979	2750.483785
960.002889	2739.133627
960.302762	2729.144581
960.602596	2713.738815
960.902393	2704.626929
961.202153	2698.290199
961.501875	2688.331400
961.801559	2683.701100
962.101205	2677.109791
962.400814	2675.196673
962.700385	2666.820796
962.999918	2661.817451
963.299414	2655.573982
963.598873	2651.712458
963.898293	2644.992600
964.197677	2647.394710
964.497022	2645.131232
964.796331	2640.256436
965.095601	2639.280973
965.394835	2636.026908
965.694030	2637.776188
965.993189	2634.897689
966.292309	2634.295272
966.591393	2630.317801
966.890439	2631.986423
967.189447	2633.665127
967.488419	2631.905765
967.787353	2633.289561
968.086249	2630.025414
968.385108	2634.219654
968.683930	2636.929274
968.982714	2640.805922
969.281462	2644.430511
969.580172	2647.273722
969.878844	2654.275885
970.177480	2660.665547
970.476078	2669.207782
970.774639	2676.255316
971.073162	2682.304700
971.371649	2688.737212
971.670098	2691.162007
971.968510	2700.425128
972.266885	2704.977290
972.565223	2708.932075
972.863524	2710.015923
973.161788	2713.338043
973.460014	2714.850389
973.758204	2719.117726
974.056356	2718.437170
974.354471	2722.810371
974.652550	2722.636452
974.950591	2723.120402
975.248595	2721.063612
975.546563	2720.718292
975.844493	2716.826522
976.142386	2712.044987
976.440243	2706.444265
976.738062	2703.049048
977.035845	2695.933460
977.333590	2690.756195
977.631299	2684.986594
977.928971	2678.511232
978.226606	2674.427897
978.524204	2670.281548
978.821765	2664.902637
979.119290	2668.640653
979.416777	2667.468584
979.714228	2668.134017
980.011642	2669.900941
980.309020	2676.764472
980.606360	2688.464990
980.903664	2706.802187
981.200931	2739.105901
981.498162	2777.161572
981.795356	2844.685307
982.092513	2924.824529
982.389633	3018.826925
982.686717	3115.579270
982.983764	3192.454346
983.280775	3249.870568
983.577749	3263.784152
983.874686	3259.584871
984.171587	3230.290726
984.468451	3197.155222
984.765279	3156.876403
985.062070	3114.606328
985.358824	3073.815831
985.655543	3021.375228
985.952224	2974.684062
986.248869	2912.380441
986.545478	2855.601925
986.842050	2799.776188
987.138586	2754.410844
987.435086	2713.592622
987.731549	2684.210256
988.027975	2656.519198
988.324366	2639.364152
988.620719	2628.823099
988.917037	2615.711058
989.213318	2604.882659
989.509563	2597.222626
989.805772	2593.524940
990.101944	2589.706266
990.398080	2588.655185
990.694180	2584.402972
990.990244	2586.333734
991.286271	2584.675194
991.582262	2585.668302
991.878217	2587.455391
992.174136	2590.860690
992.470019	2595.226329
992.765865	2596.559714
993.061676	2599.057606
993.357450	2604.497011
993.653188	2612.643516
993.948890	2629.138171
994.244556	2642.993782
994.540186	2668.305416
994.835780	2691.736699
995.131337	2723.765670
995.426859	2764.583893
995.722345	2808.593166
996.017795	2858.467821
996.313208	2895.966444
996.608586	2926.987184
996.903928	2943.214659
997.199234	2947.766821
997.494504	2944.588373
997.789738	2932.739141
998.084936	2915.329516
998.380099	2882.821636
998.675225	2857.326000
998.970316	2832.553770
999.265371	2792.819395
999.560390	2757.329672
999.855373	2728.136350
1000.150320	2701.360262
1000.445232	2676.877898
1000.740108	2656.332676
1001.034948	2636.430200
1001.329752	2623.474435
1001.624521	2611.103443
1001.919254	2599.014756
1002.213951	2592.980495
1002.508613	2584.047571
1002.803239	2577.405850
1003.097829	2570.370920
1003.392384	2565.221382
1003.686903	2558.312480
1003.981386	2560.076884
1004.275834	2554.271995
1004.570246	2552.731923
1004.864623	2550.957437
1005.158964	2545.946530
1005.453270	2546.619524
1005.747540	2543.194060
1006.041775	2543.196580
1006.335974	2538.094933
1006.630138	2543.234389
1006.924266	2541.306148
1007.218359	2537.149716
1007.512416	2534.682072
1007.806438	2533.777184
1008.100425	2534.566125
1008.394376	2532.171577
1008.688292	2536.406146
1008.982172	2536.552340
1009.276017	2534.225847
1009.569827	2534.767771
1009.863602	2533.998995
1010.157341	2531.211237
1010.451045	2532.605116
1010.744714	2527.972296
1011.038347	2533.976310
1011.331945	2529.731658
1011.625508	2530.525640
1011.919036	2528.327697
1012.212528	2527.120341
1012.505986	2526.870804
1012.799408	2525.552542
1013.092795	2524.619928
1013.386147	2526.071781
1013.679464	2528.448685
1013.972745	2522.797551
1014.265992	2523.498272
1014.559204	2523.064733
1014.852380	2522.961389
1015.145521	2522.081707
1015.438628	2523.369722
1015.731699	2521.743950
1016.024736	2523.122706
1016.317737	2525.766791
1016.610703	2528.884745
1016.903635	2530.729807
1017.196531	2529.219981
1017.489393	2528.816689
1017.782219	2531.112935
1018.075011	2530.535723
1018.367768	2532.385826
1018.660490	2534.863553
1018.953177	2534.863553
1019.245829	2534.863553
