Dividing Wavelength (nm)	Counts (n)	Blue Motor Position (mm): 7.500000	Red Motor Position (mm): 0.000000	
326.493990	2068.317368
326.888308	2068.317368
327.282561	2068.317368
327.676750	2040.371731
328.070874	2044.984387
328.464933	2050.693494
328.858929	2057.007539
329.252859	2069.073541
329.646726	2079.743143
330.040528	2097.850967
330.434265	2116.866200
330.827938	2137.610548
331.221547	2156.761891
331.615091	2175.152020
332.008571	2196.617253
332.401986	2217.122147
332.795338	2236.031515
333.188625	2256.801069
333.581847	2275.511311
333.975006	2293.949331
334.368100	2309.861733
334.761129	2329.018118
335.154095	2345.114522
335.546996	2364.953983
335.939833	2396.239384
336.332606	2407.627351
336.725315	2420.124371
337.117960	2430.579724
337.510540	2436.959304
337.903056	2448.959771
338.295508	2456.259362
338.687896	2464.085753
339.080220	2468.831999
339.472480	2472.358287
339.864676	2475.942547
340.256807	2480.353557
340.648875	2477.762403
341.040879	2482.241469
341.432818	2482.866572
341.824694	2485.835811
342.216506	2486.481079
342.608253	2485.435040
342.999937	2482.317086
343.391557	2483.191726
343.783113	2481.712147
344.174605	2478.067393
344.566033	2476.444142
344.957397	2477.583443
345.348697	2475.559419
345.739934	2475.433390
346.131106	2473.827783
346.522215	2468.718573
346.913260	2470.588842
347.304241	2468.244705
347.695159	2465.280507
348.086012	2460.660289
348.476802	2461.096349
348.867528	2456.818930
349.258191	2456.952520
349.648789	2454.933538
350.039324	2452.559155
350.429796	2454.661316
350.820203	2454.648713
351.210548	2454.439505
351.600828	2454.895730
351.991045	2452.024793
352.381198	2451.238373
352.771288	2455.974537
353.161314	2451.646706
353.551276	2452.985132
353.941175	2448.087651
354.331010	2451.752570
354.720782	2452.808692
355.110490	2452.596963
355.500135	2452.344906
355.889717	2453.017900
356.279235	2452.536470
356.668689	2452.906994
357.058080	2455.036882
357.447408	2457.136522
357.836672	2456.163580
358.225873	2455.679629
358.615010	2455.898919
359.004084	2456.203909
359.393095	2458.270782
359.782043	2456.599640
360.170927	2456.914712
360.559748	2455.735082
360.948505	2459.437809
361.337199	2459.946966
361.725830	2460.320011
362.114398	2460.161215
362.502903	2458.270782
362.891344	2463.168263
363.279722	2459.851184
363.668037	2463.140537
364.056289	2460.614919
364.444478	2463.942080
364.832603	2464.453757
365.220665	2461.285392
365.608665	2464.335290
365.996601	2464.431072
366.384474	2463.052317
366.772284	2464.481484
367.160031	2465.409056
367.547715	2465.477112
367.935336	2464.811679
368.322893	2462.835547
368.710388	2461.439147
369.097820	2463.470732
369.485189	2461.706328
369.872495	2464.718418
370.259738	2466.059365
370.646918	2469.346197
371.034035	2466.427369
371.421090	2466.147585
371.808081	2467.012143
372.195010	2467.317133
372.581875	2466.261011
372.968678	2467.299489
373.355418	2468.262349
373.742096	2469.867957
374.128710	2469.399129
374.515262	2468.690847
374.901751	2469.189921
375.288177	2472.443986
375.674540	2467.659931
376.060841	2469.772175
376.447079	2470.394757
376.833254	2468.216979
377.219367	2471.309727
377.605417	2471.420632
377.991404	2469.963738
378.377329	2472.007926
378.763191	2471.518934
379.148991	2469.648666
379.534727	2470.326702
379.920402	2471.342494
380.306013	2471.965077
380.691563	2472.834676
381.077049	2472.723770
381.462474	2475.650160
381.847835	2471.735704
382.233134	2473.434573
382.618371	2470.198152
383.003545	2472.247381
383.388657	2470.944243
383.773706	2473.795015
384.158693	2471.574387
384.543618	2470.672021
384.928480	2473.469861
385.313280	2474.120170
385.698017	2475.125880
386.082692	2473.943729
386.467305	2476.398771
386.851856	2473.908441
387.236344	2477.986735
387.620770	2472.693523
388.005133	2472.295272
388.389435	2474.324337
388.773674	2470.278811
389.157851	2477.759883
389.541965	2478.382465
389.926018	2474.712505
390.310008	2477.323823
390.693936	2477.596045
391.077802	2477.366673
391.461606	2478.828607
391.845348	2476.098823
392.229027	2477.195274
392.612645	2478.974801
392.996200	2480.393886
393.379694	2479.100830
393.763125	2480.298104
394.146494	2478.440439
394.529801	2479.037815
394.913047	2481.709627
395.296230	2477.038998
395.679351	2480.000676
396.062410	2482.319607
396.445408	2477.631333
396.828343	2482.271716
397.211217	2481.296252
397.594028	2479.920017
397.976778	2481.381952
398.359466	2480.663588
398.742092	2482.206181
399.124656	2480.585450
399.507158	2479.216776
399.889598	2484.343630
400.271977	2481.129894
400.654294	2482.042343
401.036549	2480.918166
401.418742	2485.833291
401.800874	2481.124853
402.182944	2481.450008
402.564952	2480.633341
402.946898	2483.325317
403.328783	2487.204485
403.710606	2481.921355
404.092367	2484.774648
404.474067	2484.552838
404.855705	2483.491675
405.237282	2483.532004
405.618797	2483.529483
406.000250	2483.282467
406.381642	2483.809267
406.762972	2483.854638
407.144240	2479.695686
407.525447	2483.801706
407.906593	2480.257775
408.287677	2485.067035
408.668700	2485.087200
409.049661	2486.077787
409.430560	2482.332209
409.811399	2483.348002
410.192176	2485.409834
410.572891	2486.163486
410.953545	2486.995277
411.334138	2488.603405
411.714669	2488.371512
412.095139	2487.186841
412.475547	2486.929742
412.855894	2487.300267
413.236180	2489.036944
413.616405	2485.185503
413.996568	2488.016110
414.376670	2487.877479
414.756711	2484.673825
415.136691	2490.932418
415.516609	2487.005359
415.896466	2491.305463
416.276262	2489.863693
416.655997	2489.651965
417.035670	2488.696666
417.415283	2488.295894
417.794834	2487.368322
418.174324	2487.522077
418.553753	2490.927377
418.933121	2487.214567
419.312428	2488.920997
419.691674	2490.826554
420.070859	2490.723210
420.449983	2489.306646
420.829045	2487.965699
421.208047	2488.794969
421.586988	2491.156749
421.965867	2488.031234
422.344686	2491.489465
422.723444	2488.787407
423.102141	2489.813282
423.480777	2489.843529
423.859352	2489.483086
424.237866	2489.127685
424.616319	2489.231028
424.994712	2490.607263
425.373044	2491.774291
425.751314	2488.006028
426.129524	2487.149032
426.507673	2488.852942
426.885762	2486.604587
427.263789	2488.830257
427.641756	2491.779332
428.019662	2489.876296
428.397508	2493.379898
428.775292	2492.827892
429.153016	2492.742192
429.530679	2490.282109
429.908282	2493.919302
430.285824	2492.981647
430.663305	2491.335710
431.040726	2491.670947
431.418086	2491.461739
431.795385	2492.485093
432.172624	2492.311173
432.549802	2493.153046
432.926920	2494.451143
433.303977	2494.191524
433.680974	2492.376708
434.057910	2490.788745
434.434786	2494.373005
434.811601	2494.647748
435.188355	2492.719507
435.565050	2493.780670
435.941683	2491.965854
436.318257	2493.304281
436.694770	2494.274703
437.071222	2491.484424
437.447614	2491.234887
437.823946	2494.541884
438.200218	2491.239928
438.576429	2491.129023
438.952580	2496.505413
439.328670	2495.083808
439.704700	2495.161946
440.080670	2492.563231
440.456580	2493.097593
440.832429	2492.727069
441.208218	2494.725886
441.583947	2492.285968
441.959616	2495.366113
442.335224	2495.484580
442.710773	2493.445433
443.086261	2494.607419
443.461689	2491.237408
443.837057	2494.264621
444.212365	2494.836792
444.587612	2493.132882
444.962800	2490.783704
445.337927	2492.812768
445.712995	2491.134064
446.088002	2495.960969
446.462949	2495.640856
446.837837	2492.890906
447.212664	2495.207316
447.587431	2493.886534
447.962139	2495.542553
448.336786	2496.339055
448.711374	2492.341420
449.085901	2495.794611
449.460369	2493.531133
449.834776	2496.575990
450.209124	2495.918119
450.583412	2497.153202
450.957640	2497.397698
451.331808	2495.005670
451.705917	2496.351658
452.079965	2497.415342
452.453954	2495.928201
452.827883	2496.026504
453.201752	2494.884683
453.575562	2496.013901
453.949311	2499.386433
454.323001	2496.969200
454.696632	2497.105311
455.070202	2495.655979
455.443713	2495.126658
455.817164	2499.545229
456.190556	2498.007677
456.563888	2497.334683
456.937160	2497.027173
457.310373	2498.854591
457.683526	2497.432986
458.056619	2495.724035
458.429653	2499.386433
458.802628	2497.692605
459.175542	2497.286792
459.548398	2497.745537
459.921194	2498.668068
460.293930	2497.143119
460.666607	2498.385764
461.039224	2498.867194
461.411782	2498.168994
461.784280	2495.829899
462.156719	2496.507934
462.529099	2495.872749
462.901419	2497.057420
463.273680	2496.838130
463.645882	2494.531802
464.018024	2495.482059
464.390106	2493.286637
464.762130	2499.378871
465.134094	2495.661020
465.505999	2496.510455
465.877845	2499.275528
466.249631	2497.032214
466.621358	2496.422234
466.993026	2500.500528
467.364634	2504.833400
467.736184	2499.023470
468.107674	2498.509272
468.479105	2498.221926
468.850477	2498.925167
469.221790	2498.927688
469.593043	2499.154540
469.964238	2500.563542
470.335373	2497.821155
470.706449	2498.887359
471.077467	2499.492297
471.448425	2498.670589
471.819324	2499.525065
472.190164	2500.187976
472.560945	2498.085815
472.931667	2495.877790
473.302330	2500.772750
473.672934	2498.398367
474.043479	2499.013388
474.413965	2498.698315
474.784393	2502.012874
475.154761	2501.259222
475.525070	2498.423573
475.895321	2497.443068
476.265513	2499.842657
476.635645	2501.498676
477.005719	2500.772750
477.375734	2498.703357
477.745691	2498.753768
478.115588	2500.598830
478.485427	2499.754437
478.855207	2500.860970
479.224928	2501.297030
479.594591	2500.913902
479.964194	2502.305261
480.333739	2498.380723
480.703226	2502.378358
481.072653	2500.041783
481.442022	2500.442555
481.811333	2499.827534
482.180584	2496.661689
482.549777	2499.330980
482.918912	2497.165805
483.287988	2503.363903
483.657005	2501.095384
484.025964	2502.643018
484.394864	2501.591938
484.763706	2502.247288
485.132489	2499.663696
485.501213	2502.882473
485.869879	2501.796104
486.238487	2502.547236
486.607036	2501.816269
486.975527	2503.038749
487.343959	2498.398367
487.712333	2502.549757
488.080648	2503.419356
488.448905	2504.987155
488.817104	2503.384068
489.185244	2503.351300
489.553326	2501.899448
489.921350	2506.552433
490.289315	2502.779129
490.657222	2503.747031
491.025070	2503.810045
491.392861	2505.410612
491.760593	2501.445744
492.128267	2504.916579
492.495883	2505.476147
492.863440	2504.089829
493.230939	2503.401712
493.598380	2503.668893
493.965763	2502.108656
494.333088	2504.319202
494.700354	2502.965652
495.067563	2500.006495
495.434713	2506.955725
495.801805	2503.510097
496.168839	2502.522031
496.535815	2502.953049
496.902733	2503.610920
497.269593	2502.527072
497.636395	2503.706702
498.003139	2506.812052
498.369825	2504.074706
498.736453	2502.093532
499.103023	2504.702330
499.469535	2507.192660
499.835989	2504.034377
500.202385	2503.096722
500.568723	2499.635970
500.935003	2501.135713
501.301226	2497.329642
501.667390	2503.187463
502.033497	2507.091837
502.399546	2505.019922
502.765537	2504.190652
503.131470	2504.767865
503.497345	2502.000271
503.863163	2504.394819
504.228923	2504.798112
504.594625	2503.527741
504.960269	2504.984634
505.325856	2505.009840
505.691385	2504.447751
506.056856	2504.036897
506.422270	2506.557474
506.787625	2502.922802
507.152924	2505.435818
507.518164	2504.316681
507.883347	2503.527741
508.248472	2504.679644
508.613540	2503.482370
508.978550	2504.803153
509.343503	2503.462206
509.708398	2502.406084
510.073236	2503.202586
510.438016	2504.261229
510.802738	2505.226610
511.167403	2504.752741
511.532010	2504.838441
511.896561	2505.274501
512.261053	2502.867350
512.625488	2503.205107
512.989866	2505.236692
513.354186	2506.139058
513.718449	2502.859788
514.082655	2506.759120
514.446803	2503.920951
514.810894	2505.334994
515.174927	2505.183760
515.538904	2507.623678
515.902822	2506.708709
516.266684	2505.468585
516.630488	2505.319871
516.994235	2505.902124
517.357925	2505.269459
517.721558	2507.679131
518.085133	2502.658142
518.448651	2503.560508
518.812112	2500.520693
519.175516	2506.701147
519.538863	2501.276866
519.902152	2502.486743
520.265385	2504.863647
520.628560	2503.895745
520.991678	2505.682834
521.354739	2505.977742
521.717743	2505.022443
522.080690	2505.488750
522.443580	2505.957577
522.806413	2506.149141
523.169189	2507.331291
523.531908	2508.334481
523.894569	2507.578308
524.257174	2507.810201
524.619722	2508.533607
524.982213	2509.153668
525.344647	2505.904645
525.707025	2509.284738
526.069345	2504.901455
526.431608	2510.797085
526.793815	2508.130314
527.155964	2508.175685
527.518057	2507.464882
527.880093	2508.276508
528.242072	2510.391272
528.603995	2510.376148
528.965860	2507.842968
529.327669	2511.286077
529.689421	2511.177692
530.051117	2510.784482
530.412755	2508.150479
530.774337	2511.777589
531.135862	2509.383041
531.497331	2509.937568
531.858743	2510.416477
532.220098	2512.556447
532.581396	2513.199194
532.942638	2512.281704
533.303824	2511.321365
533.664953	2515.833197
534.026025	2513.909997
534.387040	2511.480161
534.747999	2513.569719
535.108902	2512.392610
535.469748	2515.117353
535.830537	2513.418485
536.191270	2515.966788
536.551947	2513.541993
536.912567	2510.106447
537.273131	2511.954029
537.633638	2511.875892
537.994089	2515.003927
538.354483	2518.479803
538.714821	2518.026099
539.075103	2517.063239
539.435328	2519.097344
539.795497	2520.728158
540.155609	2520.221522
540.515665	2517.627848
540.875665	2521.600277
541.235609	2516.357477
541.595496	2521.875020
541.955328	2519.891326
542.315102	2523.730165
542.674821	2518.298322
543.034483	2520.960051
543.394090	2519.914011
543.753640	2519.614063
544.113134	2522.830319
544.472571	2522.122037
544.831953	2522.139681
545.191278	2523.309228
545.550548	2524.138498
545.909761	2523.901564
546.268918	2523.896523
546.628019	2524.065402
546.987064	2524.314939
547.346053	2527.243849
547.704986	2528.158818
548.063863	2527.304343
548.422684	2526.986750
548.781449	2526.333921
549.140158	2526.220495
549.498811	2528.408356
549.857408	2527.624456
550.215949	2526.860721
550.574434	2529.668644
550.932864	2531.929602
551.291237	2529.333407
551.649555	2531.647297
552.007817	2529.156967
552.366022	2531.370033
552.724173	2531.193593
553.082267	2533.547812
553.440305	2533.033614
553.798288	2530.838192
554.156215	2532.763912
554.514086	2531.221319
554.871902	2527.931967
555.229661	2529.282996
555.587365	2529.061185
555.945014	2534.924047
556.302606	2535.413039
556.660143	2534.636701
557.017625	2534.056968
557.375050	2534.324150
557.732421	2535.307175
558.089735	2535.428162
558.446994	2535.221475
558.804197	2536.239788
559.161345	2536.237267
559.518437	2536.504449
559.875474	2532.277441
560.232455	2535.458409
560.589381	2537.212731
560.946251	2536.804397
561.303065	2536.058307
561.659825	2538.324305
562.016528	2536.917823
562.373177	2538.480581
562.729770	2537.870601
563.086307	2538.339429
563.442789	2537.724408
563.799216	2540.852444
564.155587	2540.751621
564.511904	2539.703061
564.868164	2539.264480
565.224370	2536.058307
565.580520	2541.628782
565.936615	2542.949564
566.292654	2541.205325
566.648638	2540.166847
567.004567	2543.062990
567.360441	2542.004348
567.716260	2543.862013
568.072023	2541.858154
568.427732	2540.078627
568.783385	2541.563247
569.138982	2544.431663
569.494525	2544.313196
569.850013	2544.116591
570.205445	2540.340767
570.560823	2544.169523
570.916145	2542.364790
571.271412	2545.056766
571.626625	2544.797147
571.981782	2542.175747
572.336884	2542.155582
572.691931	2538.175591
573.046923	2540.953267
573.401860	2538.241126
573.756743	2543.781354
574.111570	2543.488967
574.466342	2543.594832
574.821059	2543.451159
575.175722	2546.506098
575.530330	2540.630633
575.884882	2543.816642
576.239380	2546.216232
576.593823	2543.478885
576.948211	2548.114226
577.302544	2545.213042
577.656823	2542.165664
578.011047	2545.497867
578.365216	2545.099616
578.719330	2544.267826
579.073389	2544.161961
579.427394	2544.363607
579.781344	2545.684390
580.135239	2541.943854
580.489080	2546.506098
580.842866	2545.472661
581.196597	2550.034906
581.550273	2546.871582
581.903895	2545.737322
582.257463	2546.427960
582.610975	2542.226158
582.964434	2548.396531
583.317837	2546.649771
583.671186	2546.425439
584.024481	2545.195398
584.377721	2546.286808
584.730906	2545.976777
585.084037	2547.521890
585.437113	2543.743546
585.790135	2546.322096
586.143103	2545.260933
586.496016	2546.553989
586.848874	2548.434339
587.201679	2546.594318
587.554428	2544.265305
587.907124	2546.972405
588.259765	2543.100798
588.612352	2546.367466
588.964884	2546.700182
589.317362	2547.443752
589.669786	2547.413506
590.022155	2545.886036
590.374470	2543.990562
590.726731	2542.558874
591.078937	2538.523431
591.431090	2545.611293
591.783188	2546.513660
592.135232	2545.298742
592.487222	2544.804708
592.839157	2543.279759
593.191038	2545.155069
593.542866	2541.681714
593.894639	2543.315048
594.246358	2544.212373
594.598022	2545.515511
594.949633	2543.511652
595.301190	2544.255223
595.652692	2544.270346
596.004141	2545.878474
596.355535	2542.722712
596.706876	2543.015099
597.058162	2543.052907
597.409395	2543.965356
597.760573	2543.521735
598.111698	2543.141128
598.462768	2540.025695
598.813785	2545.457538
599.164748	2541.893442
599.515657	2544.247661
599.866511	2544.340922
600.217312	2545.152548
600.568060	2540.955787
600.918753	2547.615152
601.269392	2546.884184
601.619978	2541.774975
601.970510	2544.517363
602.320988	2543.315047
602.671412	2545.071890
603.021783	2541.137269
603.372100	2544.991231
603.722363	2542.488298
604.072572	2545.192877
604.422728	2544.487116
604.772830	2543.864533
605.122878	2542.634492
605.472872	2544.131714
605.822813	2544.968546
606.172701	2543.405788
606.522534	2545.696993
606.872314	2545.144986
607.222041	2546.243958
607.571714	2541.394368
607.921333	2539.685417
608.270899	2545.747404
608.620411	2541.848072
608.969870	2545.815460
609.319276	2544.555171
609.668627	2546.238917
610.017926	2544.174564
610.367171	2547.007693
610.716362	2544.408978
611.065500	2545.654143
611.414585	2550.634803
611.763616	2548.517518
612.112594	2550.662529
612.461518	2547.184133
612.810389	2547.216901
613.159207	2551.108671
613.507971	2550.218908
613.856682	2550.954916
614.205340	2551.133877
614.553945	2552.033723
614.902496	2550.430636
615.250994	2547.408464
615.599439	2551.363250
615.947830	2554.970195
616.296169	2553.742674
616.644454	2556.439692
616.992686	2555.302911
617.340864	2553.858621
617.688990	2555.756615
618.037063	2558.272151
618.385082	2561.450598
618.733048	2560.041596
619.080961	2562.249621
619.428821	2563.028480
619.776628	2563.429251
620.124382	2563.353634
620.472083	2565.654921
620.819731	2563.419169
621.167326	2561.435475
621.514868	2565.586865
621.862357	2563.351113
622.209793	2565.397822
622.557176	2563.401525
622.904506	2566.204407
623.251783	2565.458316
623.599007	2563.162070
623.946179	2567.285734
624.293297	2568.235992
624.640363	2566.995868
624.987376	2567.555436
625.334336	2565.319684
625.681243	2565.544015
626.028097	2563.956052
626.374899	2568.498132
626.721647	2570.781774
627.068343	2571.512742
627.414987	2570.197000
627.761577	2574.880232
628.108115	2574.391240
628.454600	2577.617579
628.801032	2579.283680
629.147412	2576.909297
629.493739	2578.285532
629.840014	2580.995152
630.186236	2585.111254
630.532405	2585.209557
630.878521	2590.170052
631.224585	2588.161152
631.570597	2591.639548
631.916556	2596.809252
632.262462	2596.484097
632.608316	2596.680702
632.954117	2599.922164
633.299866	2603.549274
633.645562	2601.890735
633.991206	2604.282762
634.336797	2602.193204
634.682336	2606.347115
635.027823	2604.411312
635.373257	2607.909872
635.718639	2608.373658
636.063968	2610.153186
636.409245	2608.290479
636.754470	2610.609410
637.099642	2609.828031
637.444762	2609.757455
637.789829	2612.996397
638.134845	2613.906325
638.479808	2614.861623
638.824719	2617.099896
639.169577	2619.159207
639.514383	2621.349588
639.859137	2623.754219
640.203839	2625.513582
640.548489	2628.732358
640.893086	2632.780405
641.237632	2633.163532
641.582125	2637.400622
641.926566	2636.311733
642.270955	2637.753503
642.615292	2640.281642
642.959576	2643.192908
643.303809	2645.773979
643.647990	2653.073570
643.992118	2652.708086
644.336195	2655.904177
644.680219	2662.694612
645.024192	2666.699808
645.368112	2672.418997
645.711981	2674.614420
646.055797	2684.976512
646.399562	2692.480269
646.743274	2701.277083
647.086935	2714.646223
647.430544	2719.586553
647.774101	2722.593602
648.117606	2728.955538
648.461059	2733.734552
648.804460	2737.918709
649.147810	2735.987947
649.491108	2739.138669
649.834354	2741.397106
650.177548	2737.626322
650.520690	2738.616909
650.863781	2741.480285
651.206820	2745.122518
651.549807	2748.837849
651.892742	2746.781058
652.235626	2752.351533
652.578458	2756.142481
652.921238	2755.242635
653.263967	2761.128182
653.606644	2764.409973
653.949269	2770.252670
654.291843	2773.657970
654.634365	2779.896397
654.976836	2782.611059
655.319255	2787.921914
655.661622	2790.195475
656.003938	2796.723769
656.346203	2797.916002
656.688416	2808.315902
657.030577	2807.806746
657.372687	2811.582570
657.714746	2817.591625
658.056753	2826.995898
658.398708	2823.048674
658.740612	2829.740806
659.082465	2840.778412
659.424266	2845.068434
659.766016	2849.083713
660.107715	2855.042357
660.449362	2864.970910
660.790958	2872.711602
661.132503	2881.044629
661.473996	2889.400341
661.815438	2896.301681
662.156829	2901.557084
662.498168	2909.731315
662.839456	2912.539237
663.180693	2921.726740
663.521879	2931.867021
663.863013	2937.366920
664.204097	2944.444700
664.545129	2956.835856
664.886110	2965.690643
665.227040	2975.974597
665.567918	2984.673108
665.908746	2996.610560
666.249522	3009.291583
666.590248	3020.911442
666.930922	3029.093235
667.271545	3042.810215
667.612118	3049.174671
667.952639	3058.483162
668.293109	3064.346024
668.633528	3068.242836
668.973896	3078.572160
669.314213	3082.834456
669.654480	3090.121443
669.994695	3094.033379
670.334859	3105.910337
670.674973	3107.639453
671.015035	3118.785444
671.355047	3126.654685
671.695008	3134.213896
672.034918	3147.091523
672.374777	3155.956392
672.714585	3165.201868
673.054342	3180.887418
673.394049	3189.328831
673.733705	3203.491952
674.073310	3210.436142
674.412864	3219.651371
674.752368	3221.125908
675.091820	3236.065368
675.431223	3232.801221
675.770574	3236.990420
676.109875	3239.332036
676.449125	3239.984865
676.788324	3245.043663
677.127473	3240.544433
677.466571	3244.239599
677.805619	3251.098089
678.144616	3254.725199
678.483562	3263.305243
678.822458	3263.224584
679.161303	3270.778753
679.500098	3277.601955
679.838842	3286.325672
680.177535	3300.382929
680.516179	3319.398162
680.854771	3333.473063
681.193314	3370.840616
681.531805	3419.754932
681.870247	3461.104996
682.208638	3511.914786
682.546978	3536.868497
682.885268	3551.939027
683.223508	3552.924572
683.561697	3553.050601
683.899836	3561.292888
684.237925	3560.554359
684.575963	3569.225143
684.913951	3567.059968
685.251889	3591.640634
685.589776	3604.198148
685.927614	3621.040643
686.265401	3646.737925
686.603137	3669.801204
686.940824	3712.618244
687.278460	3746.230137
687.616046	3782.551651
687.953582	3830.757684
688.291068	3847.799305
688.628504	3887.533679
688.965889	3903.075557
689.303224	3901.308632
689.640510	3900.091194
689.977745	3881.282649
690.314930	3851.943133
690.652065	3838.873942
690.989150	3813.683296
691.326185	3778.422946
691.663170	3753.534769
692.000105	3725.561406
692.336990	3702.278837
692.673825	3688.609749
693.010610	3666.106038
693.347345	3649.714726
693.684030	3624.627424
694.020665	3625.378556
694.357251	3600.089608
694.693786	3610.504632
695.030272	3606.723766
695.366707	3593.021910
695.703093	3587.048143
696.039429	3601.118003
696.375716	3598.110955
696.711952	3608.435238
697.048139	3613.736011
697.384276	3614.678707
697.720363	3637.346255
698.056400	3641.091832
698.392388	3641.606030
698.728326	3653.016682
699.064214	3653.271260
699.400053	3658.544307
699.735842	3647.942761
700.071581	3643.564518
700.407270	3634.823158
700.742910	3631.934577
701.078501	3625.653299
701.414042	3618.217597
701.749533	3606.365844
702.084974	3596.674226
702.420366	3615.568471
702.755709	3600.311418
703.091002	3584.724171
703.426246	3598.269751
703.761440	3600.182869
704.096584	3596.507868
704.431679	3599.333435
704.766725	3602.511882
705.101721	3604.757716
705.436668	3620.907052
705.771565	3613.627626
706.106413	3642.982265
706.441212	3658.360305
706.775961	3673.997964
707.110661	3687.586394
707.445311	3724.074266
707.779913	3725.868917
708.114465	3757.068618
708.448967	3793.533804
708.783421	3851.975901
709.117825	3888.851941
709.452180	3923.104061
709.786485	3969.381853
710.120742	4045.551167
710.454949	4070.189807
710.789107	4126.927993
711.123216	4202.973799
711.457275	4241.029469
711.791286	4307.101352
712.125247	4338.432123
712.459159	4336.342565
712.793023	4408.587341
713.126837	4340.433462
713.460602	4368.333728
713.794318	4350.861088
714.127985	4334.890713
714.461602	4267.230867
714.795171	4272.329994
715.128691	4189.216490
715.462162	4155.977642
715.795584	4123.752066
716.128957	4102.710290
716.462281	4079.304213
716.795556	4058.534659
717.128782	4029.331255
717.461960	3981.941888
717.795088	3982.783761
718.128167	3962.719968
718.461198	3933.882048
718.794180	3932.009259
719.127113	3906.468253
719.459997	3894.989546
719.792833	3871.021380
720.125619	3881.499418
720.458357	3858.257178
720.791046	3853.468082
721.123686	3846.964994
721.456278	3835.372861
721.788821	3841.598686
722.121315	3826.296263
722.453761	3841.197914
722.786158	3840.275383
723.118506	3852.802650
723.450805	3853.785675
723.783056	3878.202504
724.115259	3877.363152
724.447412	3884.713154
724.779518	3917.039553
725.111574	3925.891819
725.443582	3961.870534
725.775542	3972.850167
726.107453	4030.311759
726.439315	4034.004404
726.771129	4090.871140
727.102895	4139.266217
727.434612	4187.424360
727.766281	4214.628947
728.097901	4262.189713
728.429473	4280.718474
728.760996	4294.566523
729.092471	4320.714988
729.423897	4316.094771
729.755276	4308.409532
730.086606	4326.441739
730.417887	4395.765166
730.749120	4467.641938
731.080305	4505.821116
731.411442	4565.526022
731.742530	4587.621399
732.073570	4618.453096
732.404562	4665.408924
732.735506	4664.980426
733.066401	4658.832738
733.397249	4616.287921
733.728048	4555.564702
734.058798	4463.147749
734.389501	4377.057444
734.720156	4321.531655
735.050762	4254.433898
735.381320	4215.609451
735.711831	4182.920089
736.042293	4144.887104
736.372707	4157.527797
736.703073	4138.431906
737.033391	4169.195548
737.363661	4181.223741
737.693883	4204.851629
738.024056	4236.094180
738.354182	4275.135396
738.684260	4331.172862
739.014290	4375.146847
739.344272	4419.330040
739.674207	4477.000840
740.004093	4514.446531
740.333931	4529.179303
740.663722	4554.163261
740.993464	4572.187907
741.323159	4561.692224
741.652806	4530.482441
741.982405	4516.301675
742.311956	4481.273218
742.641460	4474.891117
742.970915	4432.066515
743.300323	4389.829208
743.629683	4368.505127
743.958996	4333.148994
744.288260	4292.038385
744.617477	4256.984721
744.946647	4257.609824
745.275768	4219.912076
745.604842	4199.245866
745.933869	4179.640818
746.262847	4181.619471
746.591778	4177.006816
746.920662	4162.785721
747.249498	4173.765354
747.578286	4202.378943
747.907027	4233.649220
748.235720	4280.428607
748.564365	4301.795538
748.892963	4295.302532
749.221514	4324.548786
749.550017	4315.265501
749.878473	4317.826407
750.206881	4291.219197
750.535242	4288.496974
750.863555	4281.247795
751.191821	4279.032208
751.520039	4287.080410
751.848210	4280.075727
752.176334	4291.708189
752.504411	4287.009834
752.832440	4269.572483
753.160421	4293.069301
753.488356	4285.812560
753.816243	4281.635964
754.144082	4257.967746
754.471875	4256.115122
754.799620	4253.604628
755.127318	4261.428498
755.454969	4265.615177
755.782572	4265.249693
756.110129	4274.495169
756.437638	4270.457205
756.765100	4274.056589
757.092515	4288.343219
757.419882	4296.230104
757.747203	4303.340652
758.074477	4322.436542
758.401703	4329.673119
758.728882	4364.328531
759.056014	4376.883524
759.383099	4413.033639
759.710138	4441.523720
760.037129	4468.289726
760.364073	4491.365608
760.690970	4500.018748
761.017820	4512.689688
761.344623	4556.920772
761.671379	4622.163385
761.998088	4728.060384
762.324751	4989.711392
762.651366	5511.470815
762.977935	6280.198885
763.304456	6876.209463
763.630931	7182.956113
763.957359	7069.573002
764.283740	6723.366720
764.610074	6347.828485
764.936362	5882.431682
765.262602	5545.244025
765.588796	5199.430953
765.914943	4957.107729
766.241044	4751.153909
766.567097	4605.462043
766.893104	4473.509841
767.219064	4391.384403
767.544978	4300.363850
767.870845	4232.318356
768.196665	4194.403838
768.522438	4151.506139
768.848165	4118.952888
769.173846	4083.246395
769.499479	4062.764187
769.825066	4038.123027
770.150607	3997.647603
770.476101	3985.836179
770.801548	3965.779949
771.126949	3940.750620
771.452303	3922.083227
771.777611	3888.882188
772.102872	3888.514184
772.428087	3866.323025
772.753256	3840.691278
773.078378	3825.293073
773.403453	3799.500010
773.728482	3776.378758
774.053465	3762.797889
774.378401	3744.556474
774.703291	3723.035788
775.028135	3704.086091
775.352932	3702.407387
775.677683	3682.751928
776.002388	3662.514216
776.327046	3660.412055
776.651658	3647.685662
776.976224	3630.397025
777.300743	3636.466574
777.625216	3620.143318
777.949643	3616.203656
778.274024	3621.632979
778.598359	3605.405504
778.922647	3616.100312
779.246889	3606.935495
779.571086	3608.352059
779.895236	3612.770630
780.219339	3618.968729
780.543397	3624.546766
780.867409	3640.426400
781.191374	3645.525527
781.515294	3644.602996
781.839167	3667.452026
782.162995	3667.694001
782.486776	3660.180162
782.810511	3651.942916
783.134201	3635.798621
783.457844	3638.208292
783.781441	3631.803507
784.104993	3620.324799
784.428498	3618.051239
784.751958	3617.358080
785.075372	3611.283490
785.398739	3603.041203
785.722061	3615.981845
786.045337	3621.945530
786.368568	3656.532887
786.691752	3658.861900
787.014891	3731.232704
787.337983	3800.258703
787.661030	3930.670833
787.984031	4073.978234
788.306987	4181.264070
788.629897	4251.872991
788.952760	4262.976133
789.275579	4234.274323
789.598351	4151.985048
789.921078	4074.404211
790.243759	3980.984069
790.566395	3914.050149
790.888984	3857.329606
791.211529	3808.856391
791.534027	3758.066766
791.856480	3712.353583
792.178888	3696.030327
792.501249	3674.166843
792.823566	3638.311636
793.145836	3635.251656
793.468062	3633.794762
793.790241	3625.466776
794.112375	3644.653408
794.434464	3678.532482
794.756507	3688.980273
795.078505	3722.763566
795.400457	3788.986683
795.722364	3874.792163
796.044226	3948.483750
796.366042	4025.867982
796.687812	4019.380017
797.009538	4051.436714
797.331218	4034.160680
797.652852	4022.061911
797.974442	3992.873630
798.295986	3979.600272
798.617484	3932.654527
798.938938	3905.979261
799.260346	3880.125704
799.581709	3832.335565
799.903026	3817.491888
800.224299	3788.923669
800.545526	3752.219028
800.866708	3725.069894
801.187845	3713.560940
801.508936	3685.857279
801.829983	3681.161444
802.150984	3639.261894
802.471940	3629.971047
802.792851	3626.888382
803.113717	3623.306642
803.434538	3612.745424
803.755314	3602.416100
804.076045	3603.520113
804.396731	3591.202053
804.717372	3598.920060
805.037967	3599.323352
805.358518	3610.025722
805.679024	3631.780821
805.999485	3636.627891
806.319901	3648.456958
806.640272	3655.552382
806.960598	3678.776978
807.280879	3684.571784
807.601115	3708.204714
807.921306	3696.332796
808.241453	3699.186089
808.561554	3706.054662
808.881611	3704.537274
809.201623	3708.219837
809.521590	3699.813713
809.841513	3698.679453
810.161390	3713.097153
810.481223	3679.487781
810.801011	3682.530117
811.120755	3677.436031
811.440453	3658.025068
811.760107	3652.116836
812.079716	3648.280518
812.399281	3634.757623
812.718801	3633.998929
813.038276	3625.053402
813.357707	3609.498921
813.677093	3623.815798
813.996434	3596.606170
814.315731	3612.939509
814.634983	3613.128552
814.954191	3615.891104
815.273354	3649.397133
815.592473	3665.642252
815.911547	3701.595761
816.230577	3729.768249
816.549562	3772.839868
816.868502	3806.121565
817.187399	3835.292202
817.506250	3883.069738
817.825058	3897.857962
818.143821	3972.812358
818.462539	4046.400602
818.781213	4145.698730
819.099843	4287.448414
819.418429	4556.525042
819.736970	4818.985155
820.055466	5150.579652
820.373919	5554.613009
820.692327	6155.773126
821.010691	7076.807057
821.329011	8976.074372
821.647286	11741.245559
821.965517	15178.699982
822.283704	17620.445862
822.601847	19331.594958
822.919945	18594.789995
823.237999	17309.799879
823.556010	15614.729543
823.873976	13867.934447
824.191897	12123.422994
824.509775	10860.137566
824.827609	9629.947314
825.145398	8896.449347
825.463144	8464.119993
825.780845	8447.897560
826.098502	8769.140047
826.416116	9650.331219
826.733685	10664.586167
827.051210	11194.502177
827.368692	11001.552014
827.686129	10089.859341
828.003522	8991.384356
828.320872	7931.333046
828.638177	7105.440811
828.955439	6453.773374
829.272656	5908.774232
829.589830	5473.841122
829.906960	5086.194035
830.224046	4789.464158
830.541088	4552.068662
830.858086	4406.747320
831.175041	4288.083599
831.491952	4245.793360
831.808819	4247.434255
832.125642	4349.331098
832.442421	4574.320315
832.759157	5043.104773
833.075849	5813.055323
833.392497	6727.729839
833.709101	7454.558359
834.025662	7602.818694
834.342179	7245.892398
834.658653	6654.696122
834.975083	6074.658440
835.291469	5565.907715
835.607811	5145.278879
835.924110	4855.382286
836.240366	4575.550356
836.556578	4317.541582
836.872746	4111.736476
837.188871	3943.228347
837.504952	3807.344045
837.820990	3700.282540
838.136984	3625.045840
838.452935	3589.956888
838.768842	3582.185950
839.084706	3675.512831
839.400526	3983.217300
839.716303	4455.391934
840.032037	4861.693810
840.347727	4950.710505
840.663373	4712.079926
840.978977	4379.913258
841.294537	4110.292186
841.610054	3905.495311
841.925527	3760.610028
842.240957	3638.115031
842.556344	3528.117054
842.871687	3438.583641
843.186987	3340.170236
843.502244	3261.278699
843.817458	3204.560677
844.132629	3155.288439
844.447756	3126.329531
844.762840	3099.155191
845.077881	3068.943556
845.392879	3050.167779
845.707833	3032.755633
846.022745	3017.997655
846.337613	3009.523476
846.652438	2995.138543
846.967221	2990.127636
847.281960	2980.415853
847.596656	2973.965697
847.911309	2966.913123
848.225919	2958.882565
848.540485	2952.800413
848.855009	2950.413426
849.169490	2944.600976
849.483928	2940.462189
849.798323	2937.377003
850.112675	2930.979778
850.426984	2935.327773
850.741251	2928.494489
851.055474	2928.116403
851.369654	2931.872063
851.683792	2929.762340
851.997887	2932.963472
852.311938	2934.581683
852.625947	2936.817434
852.939914	2931.814089
853.253837	2935.562187
853.567718	2935.231992
853.881555	2934.765685
854.195350	2938.065120
854.509103	2936.779626
854.822812	2939.552260
855.136479	2933.207968
855.450103	2940.915893
855.763685	2932.429110
856.077224	2934.495983
856.390720	2942.977724
856.704173	2947.754218
857.017584	2952.790330
857.330953	2956.861062
857.644278	2966.018318
857.957561	2967.964203
858.270802	2969.539564
858.584000	2976.808908
858.897155	2972.171046
859.210268	2967.734831
859.523339	2962.033286
859.836367	2961.229222
860.149352	2957.723099
860.462295	2956.417441
860.775195	2950.988118
861.088054	2955.787296
861.400869	2952.694548
861.713642	2950.806636
862.026373	2957.637400
862.339062	2957.002214
862.651708	2966.497228
862.964312	2977.993579
863.276873	2984.332830
863.589392	3001.225737
863.901869	3014.725947
864.214303	3032.496014
864.526696	3043.803322
864.839045	3064.673699
865.151353	3073.520924
865.463619	3081.070052
865.775842	3086.297728
866.088023	3092.420210
866.400162	3091.134715
866.712258	3096.894234
867.024313	3096.513627
867.336325	3098.494800
867.648296	3100.478494
867.960224	3103.964452
868.272110	3108.413270
868.583954	3109.025770
868.895755	3114.651698
869.207515	3114.755042
869.519233	3133.724904
869.830909	3131.428658
870.142542	3144.482726
870.454134	3149.647388
870.765684	3164.173473
871.077191	3175.538754
871.388657	3185.268181
871.700081	3196.015921
872.011463	3211.341029
872.322803	3225.831826
872.634101	3236.478742
872.945357	3249.265629
873.256571	3267.063423
873.567744	3279.043725
873.878874	3285.289715
874.189963	3306.770071
874.501010	3311.130669
874.812015	3314.941782
875.122979	3332.618588
875.433900	3331.570028
875.744780	3339.618230
876.055618	3350.794468
876.366415	3353.645240
876.677169	3359.999615
876.987882	3382.513408
877.298554	3404.681882
877.609183	3435.211109
877.919771	3477.193839
878.230317	3532.659134
878.540822	3608.031946
878.851285	3722.085531
879.161707	3883.289028
879.472087	4138.068943
879.782425	4532.259448
880.092722	5183.263973
880.402977	6093.562767
880.713191	7048.490896
881.023363	7972.809139
881.333494	8573.142507
881.643583	9029.190489
881.953631	9240.588755
882.263637	9229.609122
882.573602	8970.481212
882.883526	8616.468703
883.193408	8177.280860
883.503248	7691.485028
883.813048	7224.427165
884.122806	6770.057887
884.432522	6298.021885
884.742197	5889.426283
885.051831	5524.557650
885.361424	5181.423952
885.670975	4896.828132
885.980485	4646.479391
886.289954	4439.880303
886.599382	4260.057305
886.908768	4118.841983
887.218113	3978.327381
887.527417	3871.817882
887.836680	3762.734875
888.145901	3682.283101
888.455082	3621.433853
888.764221	3557.063360
889.073319	3507.874301
889.382376	3478.234837
889.691392	3449.888429
890.000366	3441.966256
890.309300	3429.749019
890.618193	3433.174483
890.927044	3422.852721
891.235855	3431.652055
891.544625	3443.705454
891.853353	3462.927373
892.162041	3500.625122
892.470687	3564.761202
892.779293	3650.390241
893.087858	3778.037297
893.396381	3971.584837
893.704864	4227.163776
894.013306	4611.884473
894.321707	5030.239748
894.630068	5371.656933
894.938387	5523.730901
895.246665	5505.237428
895.554903	5328.915511
895.863100	5086.322585
896.171256	4884.363879
896.479371	4694.584602
896.787446	4502.889685
897.095480	4338.961445
897.403473	4216.418556
897.711425	4092.874999
898.019336	3987.555213
898.327207	3883.004203
898.635038	3792.820481
898.942827	3697.605688
899.250576	3618.966208
899.558284	3539.497459
899.865952	3491.722444
900.173579	3431.520985
900.481165	3386.057339
900.788711	3347.926051
901.096216	3315.115701
901.403681	3289.433543
901.711105	3281.642440
902.018489	3270.841768
902.325832	3292.420427
902.633135	3330.178669
902.940397	3441.015998
903.247619	3682.131866
903.554800	4126.950678
903.861941	4754.660032
904.169041	5328.350901
904.476101	5655.073123
904.783121	5650.783101
905.090100	5452.070899
905.397039	5169.572199
905.703938	4898.179161
906.010796	4642.587620
906.317614	4427.232048
906.624391	4225.684197
906.931129	4060.649423
907.237826	3903.902306
907.544483	3759.322014
907.851099	3614.986217
908.157675	3476.732573
908.464211	3346.058304
908.770707	3250.961977
909.077163	3166.134482
909.383578	3102.925974
909.689954	3049.706513
909.996289	3021.541587
910.302584	2992.320538
910.608839	2978.994248
910.915054	2964.037145
911.221229	2955.701597
911.527363	2963.031434
911.833458	2966.961014
912.139513	2976.975266
912.445527	2989.137050
912.751502	3018.829446
913.057436	3059.279664
913.363331	3107.815893
913.669186	3184.640557
913.975000	3275.754372
914.280775	3431.498300
914.586510	3636.884990
914.892205	3910.773399
915.197859	4265.088376
915.503475	4684.328374
915.809050	5070.768104
916.114585	5339.587633
916.420081	5494.053628
916.725536	5536.031316
917.030952	5416.288789
917.336328	5289.763389
917.641665	5159.494933
917.946961	4984.098067
918.252218	4833.733051
918.557435	4644.929236
918.862612	4486.566429
919.167750	4344.499152
919.472848	4180.991848
919.777906	4039.297616
920.082925	3897.099269
920.387904	3751.840941
920.692843	3644.267759
920.997743	3541.652552
921.302603	3442.112449
921.607423	3374.145092
921.912204	3309.572953
922.216946	3256.905498
922.521647	3205.578990
922.826310	3160.695077
923.130932	3121.366515
923.435516	3078.204156
923.740059	3047.876574
924.044564	3015.504805
924.349028	2990.929180
924.653454	2962.290385
924.957840	2930.969696
925.262186	2911.387334
925.566493	2884.326420
925.870761	2860.189375
926.174989	2841.431242
926.479178	2830.948162
926.783328	2809.094761
927.087438	2795.236629
927.391509	2780.892025
927.695541	2767.790067
927.999533	2755.156935
928.303486	2747.380955
928.607400	2740.532548
928.911275	2735.743452
929.215110	2726.533263
929.518906	2723.339692
929.822663	2724.302553
930.126381	2720.912377
930.430060	2723.601832
930.733699	2726.334138
931.037299	2728.461505
931.340861	2724.816751
931.644383	2731.660117
931.947866	2732.559963
932.251309	2729.661299
932.554714	2728.789180
932.858080	2727.002091
933.161407	2722.054198
933.464694	2719.770556
933.767943	2715.142776
934.071153	2715.656974
934.374323	2714.855431
934.677455	2712.113043
934.980548	2709.143803
935.283602	2705.703216
935.586617	2702.819676
935.889593	2708.271684
936.192530	2709.284956
936.495428	2715.762838
936.798287	2723.508571
937.101108	2737.649008
937.403890	2759.048706
937.706632	2782.890843
938.009336	2815.358394
938.312002	2850.482634
938.614628	2878.503887
938.917216	2905.806777
939.219765	2921.507450
939.522275	2935.632763
939.824747	2941.402364
940.127179	2938.700305
940.429573	2938.914554
940.731929	2938.750717
941.034246	2931.778801
941.336524	2928.199582
941.638763	2922.336720
941.940964	2919.284301
942.243126	2899.785118
942.545250	2890.446381
942.847335	2876.232848
943.149381	2856.773994
943.451389	2844.428208
943.753359	2827.555466
944.055290	2814.065338
944.357182	2805.782722
944.659036	2798.515899
944.960851	2793.668830
945.262628	2784.337654
945.564367	2786.477624
945.866067	2779.404885
946.167729	2778.343722
946.469352	2778.810029
946.770937	2780.108126
947.072484	2772.619492
947.373992	2776.768362
947.675462	2772.241405
947.976893	2762.751433
948.278286	2758.952924
948.579641	2756.742378
948.880958	2756.606267
949.182236	2756.235742
949.483476	2752.696852
949.784678	2753.236255
950.085841	2754.030237
950.386967	2758.549632
950.688054	2766.393667
950.989103	2773.834410
951.290114	2782.996707
951.591087	2794.835857
951.892021	2806.097795
952.192917	2818.746050
952.493776	2827.454643
952.794596	2832.962103
953.095378	2835.235664
953.396122	2833.846826
953.696828	2830.837257
953.997496	2827.366423
954.298126	2815.698672
954.598718	2809.336736
954.899272	2798.561270
955.199788	2784.398148
955.500266	2773.093360
955.800706	2757.304467
956.101108	2739.738566
956.401472	2725.305742
956.701798	2711.498022
957.002087	2691.814837
957.302337	2681.772858
957.602550	2669.545540
957.902724	2656.665392
958.202861	2643.450007
958.502960	2632.954325
958.803022	2623.504682
959.103045	2613.205604
959.403031	2604.234871
959.702979	2597.414190
960.002889	2593.845053
960.302762	2589.486976
960.602596	2581.484144
960.902393	2576.160685
961.202153	2572.964594
961.501875	2569.118193
961.801559	2562.443706
962.101205	2560.404559
962.400814	2556.268292
962.700385	2557.286605
962.999918	2553.745195
963.299414	2546.773279
963.598873	2548.880481
963.898293	2542.241282
964.197677	2546.196067
964.497022	2544.353525
964.796331	2541.956457
965.095601	2539.957639
965.394835	2540.827238
965.694030	2541.469985
965.993189	2539.093081
966.292309	2539.423277
966.591393	2540.129038
966.890439	2540.260108
967.189447	2537.832793
967.488419	2538.140303
967.787353	2538.611651
968.086249	2539.002340
968.385108	2542.727753
968.683930	2540.849923
968.982714	2545.434853
969.281462	2545.213042
969.580172	2548.585574
969.878844	2550.281922
970.177480	2555.247459
970.476078	2557.654610
970.774639	2561.493448
971.073162	2564.959242
971.371649	2568.314129
971.670098	2571.752196
971.968510	2575.432239
972.266885	2573.763617
972.565223	2577.161354
972.863524	2581.032961
973.161788	2583.903898
973.460014	2585.091089
973.758204	2585.232242
974.056356	2586.013621
974.354471	2588.511512
974.652550	2587.568817
974.950591	2587.609146
975.248595	2584.957499
975.546563	2585.199474
975.844493	2582.431881
976.142386	2583.815678
976.440243	2579.187898
976.738062	2576.475758
977.035845	2573.317475
977.333590	2572.042063
977.631299	2571.520303
977.928971	2563.378840
978.226606	2560.548232
978.524204	2561.569066
978.821765	2557.548745
979.119290	2561.929508
979.416777	2557.241235
979.714228	2559.048489
980.011642	2561.097718
980.309020	2563.310784
980.606360	2572.241188
980.903664	2582.636047
981.200931	2596.776484
981.498162	2617.445215
981.795356	2646.575522
982.092513	2680.285718
982.389633	2719.924311
982.686717	2759.328490
982.983764	2785.678601
983.280775	2813.626758
983.577749	2814.478713
983.874686	2818.093220
984.171587	2806.395223
984.468451	2793.673871
984.765279	2778.240378
985.062070	2758.700866
985.358824	2738.080026
985.655543	2719.274002
985.952224	2697.458409
986.248869	2669.202741
986.545478	2645.980666
986.842050	2621.722634
987.138586	2599.647421
987.435086	2581.612693
987.731549	2566.322874
988.027975	2553.989691
988.324366	2545.785213
988.620719	2535.995292
988.917037	2531.916999
989.213318	2526.603622
989.509563	2523.740247
989.805772	2520.700431
990.101944	2521.176820
990.398080	2518.908301
990.694180	2518.562982
990.990244	2518.328568
991.286271	2519.495596
991.582262	2518.459638
991.878217	2518.928466
992.174136	2521.801923
992.470019	2522.641276
992.765865	2522.986595
993.061676	2524.503982
993.357450	2526.346524
993.653188	2529.265352
993.948890	2542.074924
994.244556	2549.233362
994.540186	2558.874569
994.835780	2573.090623
995.131337	2590.190217
995.426859	2608.814759
995.722345	2625.700104
996.017795	2647.624082
996.313208	2666.170487
996.608586	2680.101716
996.903928	2686.065401
997.199234	2689.591688
997.494504	2689.178313
997.789738	2683.892664
998.084936	2675.156344
998.380099	2660.594971
998.675225	2648.251706
998.970316	2638.008081
999.265371	2622.136008
999.560390	2603.624892
999.855373	2591.410176
1000.150320	2575.744790
1000.445232	2563.711556
1000.740108	2555.350802
1001.034948	2547.836963
1001.329752	2538.440252
1001.624521	2530.676875
1001.919254	2524.698066
1002.213951	2521.600277
1002.508613	2519.261182
1002.803239	2515.029133
1003.097829	2513.783968
1003.392384	2510.925634
1003.686903	2506.123935
1003.981386	2504.281393
1004.275834	2507.807680
1004.570246	2505.360200
1004.864623	2501.607061
1005.158964	2500.689571
1005.453270	2500.014057
1005.747540	2500.417349
1006.041775	2499.875425
1006.335974	2496.901144
1006.630138	2497.581700
1006.924266	2499.507421
1007.218359	2497.553973
1007.512416	2496.581031
1007.806438	2492.931235
1008.100425	2494.768736
1008.394376	2491.837305
1008.688292	2495.872749
1008.982172	2498.690754
1009.276017	2493.722697
1009.569827	2496.623881
1009.863602	2494.925012
1010.157341	2493.639518
1010.451045	2493.052223
1010.744714	2495.106493
1011.038347	2494.017604
1011.331945	2494.194044
1011.625508	2493.016935
1011.919036	2493.463077
1012.212528	2492.860659
1012.505986	2491.436533
1012.799408	2492.248159
1013.092795	2490.382932
1013.386147	2490.864362
1013.679464	2491.587768
1013.972745	2488.784886
1014.265992	2489.031903
1014.559204	2489.082314
1014.852380	2493.521050
1015.145521	2488.134577
1015.438628	2488.545432
1015.731699	2491.605412
1016.024736	2490.889568
1016.317737	2492.744713
1016.610703	2493.412666
1016.903635	2494.385608
1017.196531	2494.141112
1017.489393	2493.702532
1017.782219	2493.604229
1018.075011	2495.877790
1018.367768	2493.626915
1018.660490	2495.857625
1018.953177	2495.857625
1019.245829	2495.857625
