Dividing Wavelength (nm)	Counts (n)	Blue Motor Position (mm): 14.000000	Red Motor Position (mm): 0.000000	
326.493990	2069.388613
326.888308	2069.388613
327.282561	2069.388613
327.676750	2043.582946
328.070874	2044.379448
328.464933	2049.430685
328.858929	2057.882179
329.252859	2068.458520
329.646726	2080.464028
330.040528	2100.172419
330.434265	2115.971395
330.827938	2137.260188
331.221547	2156.310708
331.615091	2177.591939
332.008571	2198.588345
332.401986	2219.025182
332.795338	2237.498491
333.188625	2256.115472
333.581847	2275.468461
333.975006	2293.586368
334.368100	2314.078659
334.761129	2329.040803
335.154095	2344.736436
335.546996	2382.988711
335.939833	2455.946810
336.332606	2468.905096
336.725315	2482.034781
337.117960	2492.991729
337.510540	2500.873573
337.903056	2510.734070
338.295508	2517.663136
338.687896	2525.245032
339.080220	2529.051103
339.472480	2534.916485
339.864676	2537.132072
340.256807	2540.870088
340.648875	2540.421425
341.040879	2543.284801
341.432818	2546.707744
341.824694	2546.450645
342.216506	2544.938299
342.608253	2544.592980
342.999937	2542.112732
343.391557	2546.901828
343.783113	2541.792619
344.174605	2538.561239
344.566033	2537.953780
344.957397	2538.457896
345.348697	2534.361958
345.739934	2533.086546
346.131106	2530.923891
346.522215	2531.208717
346.913260	2528.310053
347.304241	2526.875845
347.695159	2524.945083
348.086012	2523.382325
348.476802	2520.682787
348.867528	2516.591891
349.258191	2514.557785
349.648789	2514.429236
350.039324	2513.554596
350.429796	2516.286901
350.820203	2514.668691
351.210548	2517.842097
351.600828	2512.574091
351.991045	2511.636437
352.381198	2512.916890
352.771288	2511.918741
353.161314	2508.039573
353.551276	2510.850017
353.941175	2508.644512
354.331010	2509.640140
354.720782	2513.300018
355.110490	2515.487878
355.500135	2510.839934
355.889717	2516.251613
356.279235	2512.654750
356.668689	2512.004441
357.058080	2513.526869
357.447408	2512.541324
357.836672	2513.093330
358.225873	2513.184071
358.615010	2513.007631
359.004084	2515.389576
359.393095	2517.332941
359.782043	2517.267406
360.170927	2514.872858
360.559748	2516.264216
360.948505	2515.974350
361.337199	2516.932169
361.725830	2516.990142
362.114398	2518.651202
362.502903	2518.487365
362.891344	2518.235307
363.279722	2519.805627
363.668037	2522.006090
364.056289	2520.455935
364.444478	2520.866789
364.832603	2519.538445
365.220665	2522.240504
365.608665	2520.599608
365.996601	2522.016173
366.384474	2519.301511
366.772284	2524.624970
367.160031	2522.253107
367.547715	2522.742099
367.935336	2521.479290
368.322893	2519.785462
368.710388	2522.197654
369.097820	2522.235463
369.485189	2519.626666
369.872495	2525.766791
370.259738	2523.193282
370.646918	2526.933818
371.034035	2526.351565
371.421090	2526.137316
371.808081	2523.294105
372.195010	2526.278468
372.581875	2525.318128
372.968678	2527.183355
373.355418	2524.864424
373.742096	2524.519105
374.128710	2526.444826
374.515262	2528.589837
374.901751	2529.056144
375.288177	2528.312574
375.674540	2525.981040
376.060841	2530.248377
376.447079	2525.527336
376.833254	2531.291896
377.219367	2528.037831
377.605417	2528.103366
377.991404	2527.475742
378.377329	2529.434230
378.763191	2528.254600
379.148991	2531.498583
379.534727	2530.518078
379.920402	2527.810979
380.306013	2531.470857
380.691563	2532.244674
381.077049	2529.633356
381.462474	2530.087060
381.847835	2531.806093
382.233134	2533.308357
382.618371	2530.339118
383.003545	2531.788449
383.388657	2531.783408
383.773706	2531.559077
384.158693	2531.281813
384.543618	2533.721732
384.928480	2532.027904
385.313280	2533.046217
385.698017	2534.150230
386.082692	2533.683923
386.467305	2534.848430
386.851856	2535.231557
387.236344	2535.307175
387.620770	2531.491021
388.005133	2536.295241
388.389435	2534.893800
388.773674	2529.618233
389.157851	2534.901362
389.541965	2534.493028
389.926018	2534.709798
390.310008	2536.365817
390.693936	2535.140817
391.077802	2539.249357
391.461606	2537.507638
391.845348	2537.442103
392.229027	2536.890097
392.612645	2535.223996
392.996200	2538.021836
393.379694	2538.291538
393.763125	2539.939995
394.146494	2537.610982
394.529801	2537.305992
394.913047	2538.994779
395.296230	2538.767927
395.679351	2537.616023
396.062410	2538.069727
396.445408	2539.561908
396.828343	2539.950077
397.211217	2539.130890
397.594028	2539.524100
397.976778	2537.860519
398.359466	2537.943698
398.742092	2537.956301
399.124656	2539.972762
399.507158	2541.459903
399.889598	2542.352187
400.271977	2538.979655
400.654294	2541.200283
401.036549	2541.961498
401.418742	2542.536189
401.800874	2542.047197
402.182944	2542.841179
402.564952	2539.398071
402.946898	2542.886549
403.328783	2543.940151
403.710606	2543.889739
404.092367	2543.078113
404.474067	2541.969059
404.855705	2543.546941
405.237282	2543.126004
405.618797	2542.301776
406.000250	2542.785726
406.381642	2544.600542
406.762972	2541.172557
407.144240	2539.758513
407.525447	2542.253885
407.906593	2535.833975
408.287677	2543.614996
408.668700	2543.897301
409.049661	2543.219266
409.430560	2543.244471
409.811399	2540.920499
410.192176	2546.175902
410.572891	2546.269164
410.953545	2545.079451
411.334138	2546.667415
411.714669	2543.705737
412.095139	2549.437529
412.475547	2546.402754
412.855894	2545.989380
413.236180	2545.202960
413.616405	2549.581202
413.996568	2545.444935
414.376670	2546.120450
414.756711	2545.865871
415.136691	2547.325285
415.516609	2546.299411
415.896466	2546.919473
416.276262	2547.002652
416.655997	2548.620862
417.035670	2545.767569
417.415283	2548.898125
417.794834	2549.061963
418.174324	2546.168341
418.553753	2547.418547
418.933121	2548.136911
419.312428	2547.279915
419.691674	2546.637168
420.070859	2549.465255
420.449983	2549.782848
420.829045	2547.811757
421.208047	2546.795964
421.586988	2545.394523
421.965867	2549.591284
422.344686	2549.084648
422.723444	2549.331665
423.102141	2551.448949
423.480777	2545.727240
423.859352	2548.749411
424.237866	2547.698331
424.616319	2549.064483
424.994712	2551.149001
425.373044	2548.971222
425.751314	2548.394010
426.129524	2545.291180
426.507673	2546.682538
426.885762	2542.589121
427.263789	2550.251675
427.641756	2547.100954
428.019662	2545.671787
428.397508	2549.984494
428.775292	2548.704041
429.153016	2548.711603
429.530679	2548.699000
429.908282	2550.861655
430.285824	2551.131357
430.663305	2548.646068
431.040726	2552.104299
431.418086	2550.160934
431.795385	2551.625390
432.172624	2548.663712
432.549802	2550.264278
432.926920	2551.564896
433.303977	2550.768393
433.680974	2550.947354
434.057910	2550.299566
434.434786	2550.067673
434.811601	2550.874258
435.188355	2551.683363
435.565050	2548.157076
435.941683	2549.961809
436.318257	2550.483568
436.694770	2549.830739
437.071222	2547.915100
437.447614	2551.479196
437.823946	2552.134546
438.200218	2551.080945
438.576429	2552.769732
438.952580	2549.450132
439.328670	2553.351985
439.704700	2550.518856
440.080670	2552.613456
440.456580	2553.195709
440.832429	2551.965667
441.208218	2551.176727
441.583947	2552.923487
441.959616	2549.399720
442.335224	2552.815102
442.710773	2551.574978
443.086261	2551.643034
443.461689	2550.367622
443.837057	2555.804506
444.212365	2551.978270
444.587612	2551.302756
444.962800	2549.644216
445.337927	2550.591953
445.712995	2547.756304
446.088002	2551.937941
446.462949	2551.872406
446.837837	2549.976932
447.212664	2552.142108
447.587431	2551.930379
447.962139	2551.663198
448.336786	2552.943651
448.711374	2552.799978
449.085901	2553.808209
449.460369	2554.433312
449.834776	2553.414999
450.209124	2552.840308
450.583412	2551.317879
450.957640	2551.138918
451.331808	2553.127653
451.705917	2551.658157
452.079965	2550.536500
452.453954	2554.682849
452.827883	2552.787376
453.201752	2551.327962
453.575562	2554.508930
453.949311	2554.632438
454.323001	2553.430123
454.696632	2552.396686
455.070202	2555.035730
455.443713	2554.229146
455.817164	2551.970709
456.190556	2552.908363
456.563888	2555.502037
456.937160	2554.118240
457.310373	2553.362067
457.683526	2553.286450
458.056619	2555.063457
458.429653	2554.624876
458.802628	2552.880637
459.175542	2551.663198
459.548398	2555.108827
459.921194	2552.933569
460.293930	2557.016904
460.666607	2554.829043
461.039224	2557.458005
461.411782	2555.623025
461.784280	2554.753426
462.156719	2554.887016
462.529099	2557.594116
462.901419	2554.080432
463.273680	2555.491955
463.645882	2549.692107
464.018024	2552.726882
464.390106	2550.223949
464.762130	2556.694270
465.134094	2555.461708
465.505999	2555.128992
465.877845	2557.299208
466.249631	2555.771739
466.621358	2558.065464
466.993026	2556.583364
467.364634	2560.112172
467.736184	2557.967161
468.107674	2557.460525
468.479105	2555.144115
468.850477	2556.931204
469.221790	2559.658468
469.593043	2555.993549
469.964238	2556.661502
470.335373	2557.210988
470.706449	2559.328273
471.077467	2557.163097
471.448425	2559.605536
471.819324	2559.542522
472.190164	2558.004970
472.560945	2558.446071
472.931667	2555.547407
473.302330	2559.608057
473.672934	2555.144115
474.043479	2558.874569
474.413965	2558.872048
474.784393	2559.623180
475.154761	2559.787018
475.525070	2560.185269
475.895321	2558.226781
476.265513	2556.696790
476.635645	2557.410114
477.005719	2559.325752
477.375734	2559.247614
477.745691	2560.424724
478.115588	2561.826164
478.485427	2559.744168
478.855207	2562.042934
479.224928	2562.325239
479.594591	2564.258521
479.964194	2561.745506
480.333739	2562.877245
480.703226	2561.773232
481.072653	2564.296330
481.442022	2562.892368
481.811333	2562.161401
482.180584	2558.829198
482.549777	2561.284240
482.918912	2558.705690
483.287988	2565.785991
483.657005	2563.973696
484.025964	2564.903789
484.394864	2564.681978
484.763706	2564.099725
485.132489	2562.423541
485.501213	2565.019735
485.869879	2562.927657
486.238487	2566.945456
486.607036	2565.536454
486.975527	2565.024777
487.343959	2563.638459
487.712333	2563.797256
488.080648	2563.966134
488.448905	2567.144582
488.817104	2563.260373
489.185244	2566.012843
489.553326	2566.758933
489.921350	2567.570559
490.289315	2570.678431
490.657222	2572.899059
491.025070	2574.842424
491.392861	2572.808318
491.760593	2570.214644
492.128267	2572.281518
492.495883	2568.261197
492.863440	2567.706670
493.230939	2569.360169
493.598380	2571.633729
493.965763	2568.228430
494.333088	2569.697926
494.700354	2568.929150
495.067563	2569.718091
495.434713	2572.011816
495.801805	2571.608523
496.168839	2570.575087
496.535815	2571.011147
496.902733	2573.309913
497.269593	2574.159347
497.636395	2573.234296
498.003139	2574.829821
498.369825	2576.032136
498.736453	2575.162537
499.103023	2576.223700
499.469535	2576.833679
499.835989	2575.205387
500.202385	2575.026426
500.568723	2573.574573
500.935003	2575.079358
501.301226	2572.457958
501.667390	2579.397106
502.033497	2579.444997
502.399546	2578.812332
502.765537	2581.194278
503.131470	2582.247879
503.497345	2582.900708
503.863163	2582.600759
504.228923	2580.869123
504.594625	2586.391707
504.960269	2582.641089
505.325856	2586.016141
505.691385	2586.137129
506.056856	2587.515884
506.422270	2587.939341
506.787625	2588.725761
507.152924	2586.502613
507.518164	2592.176431
507.883347	2590.590988
508.248472	2594.150043
508.613540	2592.793972
508.978550	2596.204313
509.343503	2594.366812
509.708398	2596.295054
510.073236	2598.165322
510.438016	2600.461567
510.802738	2598.883686
511.167403	2600.605240
511.532010	2605.041456
511.896561	2604.542382
512.261053	2606.828545
512.625488	2608.734101
512.989866	2608.565222
513.354186	2610.445573
513.718449	2610.095212
514.082655	2612.653598
514.446803	2610.226282
514.810894	2615.307766
515.174927	2617.770369
515.538904	2616.290791
515.902822	2620.069135
516.266684	2621.268930
516.630488	2623.862604
516.994235	2621.165586
517.357925	2624.263375
517.721558	2626.766308
518.085133	2629.228912
518.448651	2629.632204
518.812112	2627.048613
519.175516	2629.793521
519.538863	2628.051802
519.902152	2632.609006
520.265385	2636.909110
520.628560	2640.921868
520.991678	2641.478916
521.354739	2641.516724
521.717743	2641.630150
522.080690	2645.486633
522.443580	2645.337919
522.806413	2647.926552
523.169189	2650.800009
523.531908	2652.085503
523.894569	2652.405617
524.257174	2655.170690
524.619722	2657.519867
524.982213	2660.536998
525.344647	2660.524395
525.707025	2660.267296
526.069345	2667.367761
526.431608	2671.257012
526.793815	2667.692916
527.155964	2670.188287
527.518057	2672.187104
527.880093	2673.530572
528.242072	2675.357990
528.603995	2677.407219
528.965860	2678.266736
529.327669	2678.596932
529.689421	2682.960050
530.051117	2685.200843
530.412755	2687.197140
530.774337	2687.484486
531.135862	2690.196627
531.497331	2693.017152
531.858743	2695.245342
532.220098	2697.526464
532.581396	2696.770291
532.942638	2694.894982
533.303824	2703.137268
533.664953	2703.843030
534.026025	2704.760520
534.387040	2708.541385
534.747999	2710.688917
535.108902	2714.961295
535.469748	2711.593804
535.830537	2716.995400
536.191270	2723.269116
536.551947	2718.490102
536.912567	2719.826008
537.273131	2725.552759
537.633638	2721.827346
537.994089	2730.992164
538.354483	2730.737586
538.714821	2740.615727
539.075103	2743.385841
539.435328	2745.505646
539.795497	2746.579412
540.155609	2748.623600
540.515665	2753.263982
540.875665	2753.127871
541.235609	2756.558376
541.595496	2760.137595
541.955328	2764.911568
542.315102	2764.563728
542.674821	2769.045314
543.034483	2771.386930
543.394090	2775.752569
543.753640	2776.939761
544.113134	2785.665998
544.472571	2786.573406
544.831953	2796.587658
545.191278	2796.232257
545.550548	2798.057154
545.909761	2805.618885
546.268918	2810.188691
546.628019	2817.621872
546.987064	2817.770586
547.346053	2817.936944
547.704986	2827.386587
548.063863	2834.187104
548.422684	2838.144410
548.781449	2841.038032
549.140158	2850.691842
549.498811	2856.290043
549.857408	2855.024713
550.215949	2866.057278
550.574434	2873.321581
550.932864	2880.598487
551.291237	2894.900240
551.649555	2900.624470
552.007817	2908.284504
552.366022	2910.840369
552.724173	2924.446443
553.082267	2934.874070
553.440305	2945.047118
553.798288	2949.077521
554.156215	2959.124540
554.514086	2970.273052
554.871902	2978.487612
555.229661	2990.901453
555.587365	2998.538802
555.945014	3016.049249
556.302606	3029.040303
556.660143	3042.638815
557.017625	3056.759087
557.375050	3067.307702
557.732421	3084.608942
558.089735	3099.558483
558.446994	3114.417284
558.804197	3135.380923
559.161345	3151.797440
559.518437	3155.449756
559.875474	3176.365503
560.232455	3199.776622
560.589381	3217.055177
560.946251	3232.491190
561.303065	3262.092845
561.659825	3280.616565
562.016528	3295.666930
562.373177	3310.440031
562.729770	3341.291893
563.086307	3356.493492
563.442789	3390.256620
563.799216	3413.783685
564.155587	3434.036521
564.511904	3461.014255
564.868164	3489.151456
565.224370	3519.461393
565.580520	3543.626164
565.936615	3576.980958
566.292654	3599.575410
566.648638	3640.607882
567.004567	3670.774146
567.360441	3704.842264
567.716260	3733.095411
568.072023	3776.325826
568.427732	3809.294972
568.783385	3831.203826
569.138982	3879.457751
569.494525	3925.140687
569.850013	3947.581383
570.205445	3989.012106
570.560823	4023.455790
570.916145	4057.745718
571.271412	4109.956949
571.626625	4138.580620
571.981782	4186.748845
572.336884	4208.642577
572.691931	4263.926390
573.046923	4299.123726
573.401860	4335.883820
573.756743	4382.927868
574.111570	4437.798307
574.466342	4479.181139
574.821059	4534.117113
575.175722	4559.610228
575.530330	4610.011684
575.884882	4645.398063
576.239380	4691.443963
576.593823	4745.931274
576.948211	4796.768790
577.302544	4827.958409
577.656823	4875.710739
578.011047	4941.928815
578.365216	4995.544007
578.719330	5035.810223
579.073389	5090.211835
579.427394	5149.397502
579.781344	5202.838773
580.135239	5243.183128
580.489080	5310.248118
580.842866	5340.111913
581.196597	5434.784782
581.550273	5492.982383
581.903895	5553.282145
582.257463	5655.451210
582.610975	5681.113203
582.964434	5765.484475
583.317837	5795.010513
583.671186	5865.435432
584.024481	5953.544719
584.377721	5983.385829
584.730906	6070.749025
585.084037	6151.568804
585.437113	6197.594538
585.790135	6274.240242
586.143103	6313.780532
586.496016	6396.974694
586.848874	6477.920501
587.201679	6564.320837
587.554428	6585.692808
587.907124	6682.046903
588.259765	6742.939000
588.612352	6838.559606
588.964884	6863.533482
589.317362	6973.007179
589.669786	7047.528036
590.022155	7113.189065
590.374470	7245.665547
590.726731	7278.301977
591.078937	7280.192409
591.431090	7401.722026
591.783188	7431.840399
592.135232	7489.624625
592.487222	7602.319619
592.839157	7703.011626
593.191038	7738.735763
593.542866	7800.847820
593.894639	7804.706823
594.246358	7923.844412
594.598022	8013.612238
594.949633	8041.744397
595.301190	8117.379349
595.652692	8198.277265
596.004141	8353.867438
596.355535	8289.539794
596.706876	8366.561063
597.058162	8410.807270
597.409395	8570.014471
597.760573	8689.888068
598.111698	8722.101041
598.462768	8791.989077
598.813785	8888.300322
599.164748	8916.326616
599.515657	9046.627840
599.866511	9062.898164
600.217312	9264.249411
600.568060	9183.845528
600.918753	9411.403212
601.269392	9494.516716
601.619978	9539.637563
601.970510	9674.072533
602.320988	9796.285226
602.671412	9937.745044
603.021783	10008.464871
603.372100	10025.546821
603.722363	10139.786928
604.072572	10246.351880
604.422728	10342.315284
604.772830	10400.107072
605.122878	10534.468945
605.472872	10603.575603
605.822813	10751.432645
606.172701	10803.190172
606.522534	10978.481173
606.872314	11128.755449
607.222041	11189.239213
607.571714	11374.892306
607.921333	11372.810309
608.270899	11515.222906
608.620411	11709.067874
608.969870	11764.145000
609.319276	11880.661189
609.668627	11995.672593
610.017926	12184.993126
610.367171	12349.473373
610.716362	12469.982156
611.065500	12565.060838
611.414585	12746.852407
611.763616	12914.332141
612.112594	13006.930576
612.461518	13161.545285
612.810389	13381.667267
613.159207	13446.181434
613.507971	13549.756981
613.856682	13810.646774
614.205340	13890.843970
614.553945	14197.464591
614.902496	14136.910251
615.250994	14375.802970
615.599439	14516.398231
615.947830	14680.271019
616.296169	14804.036387
616.644454	14949.178768
616.992686	15128.386746
617.340864	15397.105452
617.688990	15371.302306
618.037063	15706.042483
618.385082	15781.793381
618.733048	16037.331990
619.080961	16131.450332
619.428821	16261.267606
619.776628	16414.115390
620.124382	16482.352449
620.472083	16639.447405
620.819731	16809.172973
621.167326	16782.487625
621.514868	16893.145993
621.862357	16828.901529
622.209793	16993.114595
622.557176	16949.533820
622.904506	16974.875700
623.251783	16971.735061
623.599007	16977.426524
623.946179	17064.706541
624.293297	17087.124552
624.640363	16991.261971
624.987376	17050.213224
625.334336	17093.930110
625.681243	17054.460396
626.028097	17136.416954
626.374899	17187.751024
626.721647	17294.822611
627.068343	17316.408832
627.414987	17307.080177
627.761577	17331.076069
628.108115	17580.678719
628.454600	17375.907050
628.801032	17600.568592
629.147412	17665.138211
629.493739	17749.945542
629.840014	17662.899939
630.186236	17965.691803
630.532405	17840.892999
630.878521	18073.751457
631.224585	18089.137058
631.570597	18046.289771
631.916556	18238.332527
632.262462	18312.598805
632.608316	18393.174088
632.954117	18448.077294
633.299866	18526.938584
633.645562	18611.531667
633.991206	18479.387901
634.336797	18395.084685
634.682336	18454.799673
635.027823	18455.714642
635.373257	18506.174072
635.718639	18454.749261
636.063968	18498.478750
636.409245	18294.138100
636.754470	18370.312455
637.099642	18351.700515
637.444762	18182.960493
637.789829	18335.377259
638.134845	18243.411489
638.479808	18294.949726
638.824719	18384.893993
639.169577	18224.829796
639.514383	18367.628041
639.859137	18272.980377
640.203839	18445.544114
640.548489	18397.396054
640.893086	18491.421135
641.237632	18441.236448
641.582125	18579.177541
641.926566	18548.691163
642.270955	18660.771137
642.615292	18726.227999
642.959576	18751.537112
643.303809	18846.580506
643.647990	18996.978290
643.992118	19069.646522
644.336195	19073.676925
644.680219	19204.164672
645.024192	19397.150123
645.368112	19792.658889
645.711981	19889.035668
646.055797	20368.706498
646.399562	20341.506953
646.743274	20936.234557
647.086935	21264.595154
647.430544	21338.977379
647.774101	21460.653189
648.117606	21738.665262
648.461059	21929.006628
648.804460	21792.406482
649.147810	21581.509811
649.491108	21498.093838
649.834354	21519.342302
650.177548	21125.126592
650.520690	20911.482492
650.863781	20981.395734
651.206820	20962.851849
651.549807	20797.000408
651.892742	20504.684061
652.235626	20540.509021
652.578458	20529.811693
652.921238	20183.164310
653.263967	20434.917013
653.606644	20324.097328
653.949269	20340.786068
654.291843	20167.836682
654.634365	20480.569702
654.976836	20256.734909
655.319255	20391.782380
655.661622	20383.159486
656.003938	20377.964577
656.346203	20327.590847
656.688416	20577.750545
657.030577	20503.673310
657.372687	20462.971034
657.714746	20632.079060
658.056753	20839.633446
658.398708	20493.510344
658.740612	20609.603076
659.082465	20814.654529
659.424266	20817.470013
659.766016	20894.357692
660.107715	20845.350115
660.449362	20985.380766
660.790958	21036.089732
661.132503	21045.299920
661.473996	21173.526710
661.815438	21306.139303
662.156829	21456.708486
662.498168	21382.356508
662.839456	21436.037234
663.180693	21594.740319
663.521879	21702.459695
663.863013	21741.324470
664.204097	21779.823762
664.545129	22148.276656
664.886110	22169.830109
665.227040	22310.412766
665.567918	22364.456456
665.908746	22465.987815
666.249522	22595.946241
666.590248	22688.867309
666.930922	22817.346156
667.271545	22894.218711
667.612118	22992.178412
667.952639	22920.382299
668.293109	23005.739116
668.633528	22979.285661
668.973896	23006.535618
669.314213	23057.405902
669.654480	22972.094455
669.994695	23025.893649
670.334859	23028.845245
670.674973	22947.055044
671.015035	23159.348115
671.355047	23151.998113
671.695008	23152.424090
672.034918	23135.974805
672.374777	23265.618159
672.714585	23226.892015
673.054342	23370.547255
673.394049	23316.274193
673.733705	23541.591085
674.073310	23363.925700
674.412864	23476.240087
674.752368	23313.181445
675.091820	23551.660790
675.431223	23300.616369
675.770574	23194.414381
676.109875	23117.100725
676.449125	22996.549093
676.788324	22990.192198
677.127473	22661.188854
677.466571	22623.433132
677.805619	22461.423050
678.144616	22446.407973
678.483562	22453.258902
678.822458	22237.424420
679.161303	22241.235532
679.500098	22227.478224
679.838842	22192.916073
680.177535	22288.604735
680.516179	22499.186334
680.854771	22599.157456
681.193314	23199.132901
681.531805	24011.139277
681.870247	24656.550643
682.208638	25363.033066
682.546978	25699.280548
682.885268	25887.610494
683.223508	25603.181033
683.561697	25431.000423
683.899836	25338.699417
684.237925	25022.997157
684.575963	24924.573669
684.913951	24636.814525
685.251889	24783.272648
685.589776	24809.930269
685.927614	24839.453787
686.265401	25028.431521
686.603137	25131.520596
686.940824	25549.946448
687.278460	25854.036410
687.616046	26018.662850
687.953582	26612.341895
688.291068	26591.416065
688.628504	26921.248679
688.965889	26977.094581
689.303224	26820.292011
689.640510	26630.525337
689.977745	26156.339282
690.314930	25591.926657
690.652065	25279.675067
690.989150	24758.291210
691.326185	24095.359314
691.663170	23600.507050
692.000105	23021.555736
692.336990	22536.291747
692.673825	22200.578627
693.010610	21794.251544
693.347345	21386.989328
693.684030	20888.250334
694.020665	20732.153526
694.357251	20176.540234
694.693786	20202.141734
695.030272	20031.675117
695.366707	19619.507858
695.703093	19384.486745
696.039429	19468.182501
696.375716	19273.006668
696.711952	19294.408887
697.048139	19182.840591
697.384276	19055.284275
697.720363	19167.023971
698.056400	19107.084651
698.392388	18985.857504
698.728326	18989.572835
699.064214	18871.322489
699.400053	18913.680784
699.735842	18592.949973
700.071581	18450.139126
700.407270	18255.374147
700.742910	18117.760730
701.078501	17911.910253
701.414042	17745.504286
701.749533	17496.446080
702.084974	17232.450935
702.420366	17458.660111
702.755709	17111.158253
703.091002	16857.436980
703.426246	16919.380158
703.761440	16881.647121
704.096584	16687.169488
704.431679	16648.806308
704.766725	16615.204497
705.101721	16548.928447
705.436668	16659.317113
705.771565	16437.256807
706.106413	16718.026391
706.441212	16791.717978
706.775961	16873.036831
707.110661	16950.093388
707.445311	17297.015513
707.779913	17189.843103
708.114465	17474.610322
708.448967	17768.963295
708.783421	18346.480400
709.117825	18667.334719
709.452180	18867.660091
709.786485	19283.298184
710.120742	19953.035637
710.454949	20047.698424
710.789107	20506.640029
711.123216	21147.814304
711.457275	21353.231241
711.791286	21851.955112
712.125247	22017.751100
712.459159	21824.029640
712.793023	22541.690822
713.126837	21651.372642
713.460602	21913.298393
713.794318	21646.538175
714.127985	21430.113879
714.461602	20639.368569
714.795171	20654.981022
715.128691	19772.998389
715.462162	19324.653290
715.795584	18941.429815
716.128957	18709.753508
716.462281	18389.975476
716.795556	18126.791957
717.128782	17702.505764
717.461960	17148.387174
717.795088	17141.596740
718.128167	16840.085328
718.461198	16428.384376
718.794180	16322.116853
719.127113	16039.708894
719.459997	15864.294384
719.792833	15527.867941
720.125619	15571.131123
720.458357	15255.355767
720.791046	15140.394774
721.123686	15007.827552
721.456278	14806.940091
721.788821	14804.830368
722.121315	14575.142796
722.453761	14666.226364
722.786158	14556.697214
723.118506	14641.711233
723.450805	14542.372776
723.783056	14713.577922
724.115259	14604.033649
724.447412	14592.602833
724.779518	14788.232369
725.111574	14836.506459
725.443582	15088.193626
725.775542	15049.442277
726.107453	15513.571229
726.439315	15428.771459
726.771129	15803.583768
727.102895	16185.219279
727.434612	16445.002540
727.766281	16611.738703
728.097901	16910.369095
728.429473	17016.898758
728.760996	17050.901341
729.092471	17171.833581
729.423897	17072.858087
729.755276	16930.125377
730.086606	17028.526180
730.417887	17543.381743
730.749120	18068.052432
731.080305	18293.903686
731.411442	18683.433644
731.742530	18814.402821
732.073570	18950.549263
732.404562	19257.842878
732.735506	19169.965484
733.066401	19061.719308
733.397249	18660.272063
733.728048	18095.556968
734.058798	17300.665308
734.389501	16610.707787
734.720156	16117.471213
735.050762	15570.120372
735.381320	15193.916705
735.711831	14917.477472
736.042293	14554.892481
736.372707	14587.561679
736.703073	14386.230597
737.033391	14564.180807
737.363661	14554.136308
737.693883	14653.981401
738.024056	14830.270551
738.354182	15021.441188
738.684260	15367.891965
739.014290	15612.264418
739.344272	15831.214333
739.674207	16162.665157
740.004093	16345.608630
740.333931	16402.949234
740.663722	16502.885068
740.993464	16564.523256
741.323159	16435.167249
741.652806	16168.545663
741.982405	16019.478744
742.311956	15708.338728
742.641460	15610.583193
742.970915	15296.481500
743.300323	14981.633716
743.629683	14780.118632
743.958996	14494.527185
744.288260	14203.075396
744.617477	13911.152259
744.946647	13871.027195
745.275768	13569.372110
745.604842	13376.248027
745.933869	13208.042367
746.262847	13169.948888
746.591778	13081.872369
746.920662	12964.975573
747.249498	12960.158750
747.578286	13102.596552
747.907027	13265.057817
748.235720	13508.485054
748.564365	13598.129372
748.892963	13539.147872
749.221514	13648.107372
749.550017	13544.214232
749.878473	13517.644831
750.206881	13314.967761
750.535242	13253.921908
750.863555	13172.882840
751.191821	13066.779154
751.520039	13086.696753
751.848210	13004.420081
752.176334	13051.360785
752.504411	12980.477121
752.832440	12810.456646
753.160421	12936.616562
753.488356	12824.274448
753.816243	12744.840987
754.144082	12580.771594
754.471875	12517.898323
754.799620	12482.930360
755.127318	12465.510652
755.454969	12454.588993
755.782572	12428.190991
756.110129	12442.371756
756.437638	12353.108045
756.765100	12360.032070
757.092515	12374.981612
757.419882	12414.945359
757.747203	12415.986357
758.074477	12500.108091
758.401703	12479.494813
758.728882	12654.178356
759.056014	12698.850541
759.383099	12861.372299
759.710138	12989.341990
760.037129	13126.463895
760.364073	13184.606043
760.690970	13211.596381
761.017820	13222.669275
761.344623	13411.445363
761.671379	13729.552253
761.998088	14258.195372
762.324751	15632.265196
762.651366	18481.961410
762.977935	22664.934431
763.304456	25853.219743
763.630931	27396.551349
763.957359	26648.660888
764.283740	24655.461753
764.610074	22561.227814
764.936362	20020.637510
765.262602	18174.579575
765.588796	16263.581495
765.914943	14975.138189
766.241044	13869.005692
766.567097	13066.514493
766.893104	12341.165552
767.219064	11889.195862
767.544978	11414.412432
767.870845	11032.545028
768.196665	10815.689713
768.522438	10587.247306
768.848165	10390.178519
769.173846	10191.587305
769.499479	10073.037010
769.825066	9904.352441
770.150607	9692.268578
770.476101	9609.260939
770.801548	9495.996294
771.126949	9345.921144
771.452303	9238.090863
771.777611	9042.484012
772.102872	9034.508907
772.428087	8899.325325
772.753256	8753.172193
773.078378	8674.878032
773.403453	8502.969645
773.728482	8388.190134
774.053465	8304.973287
774.378401	8215.228145
774.703291	8093.396060
775.028135	7986.455542
775.352932	7947.250489
775.677683	7848.746343
776.002388	7746.446208
776.327046	7755.500120
776.651658	7654.646796
776.976224	7555.121817
777.300743	7555.018473
777.625216	7472.078889
777.949643	7428.359483
778.274024	7446.681556
778.598359	7365.080399
778.922647	7382.326186
779.246889	7328.148906
779.571086	7336.376069
779.895236	7341.744898
780.219339	7347.350661
780.543397	7352.381732
780.867409	7429.675224
781.191374	7443.727440
781.515294	7418.458656
781.839167	7499.848085
782.162995	7479.607852
782.486776	7427.328567
782.810511	7388.292392
783.134201	7299.515152
783.457844	7298.078423
783.781441	7242.207315
784.104993	7182.356216
784.428498	7161.080026
784.751958	7149.760115
785.075372	7115.918849
785.398739	7066.182826
785.722061	7101.599452
786.045337	7096.586024
786.368568	7238.376038
786.691752	7241.022644
787.014891	7524.587548
787.337983	7827.510482
787.661030	8364.942853
787.984031	8979.189805
788.306987	9403.037417
788.629897	9653.499584
788.952760	9658.054267
789.275579	9477.442327
789.598351	9114.393551
789.921078	8787.467162
790.243759	8389.253817
790.566395	8107.223945
790.888984	7858.506017
791.211529	7647.846280
791.534027	7427.731859
791.856480	7225.624439
792.178888	7151.385887
792.501249	7056.488687
792.823566	6905.949751
793.145836	6899.882722
793.468062	6868.448607
793.790241	6808.481562
794.112375	6867.747887
794.434464	7005.283167
794.756507	7032.213010
795.078505	7171.689134
795.400457	7442.643592
795.722364	7780.242103
796.044226	8059.375833
796.366042	8340.954522
796.687812	8314.642220
797.009538	8407.026405
797.331218	8318.886871
797.652852	8254.297088
797.974442	8110.619162
798.295986	8030.179990
798.617484	7846.167793
798.938938	7709.804581
799.260346	7609.215918
799.581709	7417.158039
799.903026	7341.210535
800.224299	7234.852272
800.545526	7079.428457
800.866708	6980.311811
801.187845	6914.333189
801.508936	6814.830895
801.829983	6774.156345
802.150984	6627.307533
802.471940	6587.704229
802.792851	6571.902732
803.113717	6541.512136
803.434538	6504.658781
803.755314	6445.581499
804.076045	6452.245904
804.396731	6393.244240
804.717372	6425.457213
805.037967	6422.004022
805.358518	6460.233613
805.679024	6537.723709
805.999485	6548.814247
806.319901	6582.665596
806.640272	6609.832374
806.960598	6696.154572
807.280879	6689.280958
807.601115	6768.719461
807.921306	6713.347427
808.241453	6725.753706
808.561554	6749.779846
808.881611	6720.914199
809.201623	6729.559777
809.521590	6676.012641
809.841513	6658.766854
810.161390	6695.035435
810.481223	6570.970119
810.801011	6551.533950
811.120755	6532.344798
811.440453	6456.719928
811.760107	6424.496873
812.079716	6393.856740
812.399281	6333.803995
812.718801	6326.955587
813.038276	6278.913391
813.357707	6221.713939
813.677093	6254.247025
813.996434	6164.259909
814.315731	6200.901535
814.634983	6191.671183
814.954191	6198.610331
815.273354	6296.033150
815.592473	6349.807138
815.911547	6459.124559
816.230577	6541.098762
816.549562	6676.751170
816.868502	6778.547190
817.187399	6864.622371
817.506250	7003.644792
817.825058	7024.563059
818.143821	7259.773216
818.462539	7498.023187
818.781213	7816.863565
819.099843	8288.773539
819.418429	9171.025873
819.736970	10046.989368
820.055466	11120.981990
820.373919	12456.338273
820.692327	14423.406586
821.010691	17669.675249
821.329011	24960.176818
821.647286	36358.137444
821.965517	50052.507485
822.283704	57655.837855
822.601847	60928.262545
822.919945	58675.005408
823.237999	54678.875192
823.556010	48632.343870
823.873976	42101.892025
824.191897	35763.298934
824.509775	31023.472498
824.827609	26490.035941
825.145398	23742.624738
825.463144	22112.670986
825.780845	22016.606758
826.098502	23221.596283
826.416116	26461.434954
826.733685	30108.649268
827.051210	31878.127036
827.368692	30939.963264
827.686129	27509.500921
828.003522	23600.723819
828.320872	19952.067736
828.638177	17117.399202
828.955439	14981.923582
829.272656	13187.005632
829.589830	11733.225083
829.906960	10468.291198
830.224046	9515.132514
830.541088	8756.453984
830.858086	8281.630224
831.175041	7885.017445
831.491952	7731.042962
831.808819	7721.048875
832.125642	8016.410079
832.442421	8698.745375
832.759157	10151.205142
833.075849	12661.543482
833.392497	15729.556945
833.709101	18138.805026
834.025662	18497.664604
834.342179	17185.825303
834.658653	15174.800649
834.975083	13290.326601
835.291469	11671.279385
835.607811	10374.684533
835.924110	9480.898038
836.240366	8634.876477
836.556578	7839.962132
836.872746	7210.518622
837.188871	6702.503905
837.504952	6280.481190
837.820990	5968.408561
838.136984	5741.458336
838.452935	5627.712261
838.768842	5610.345486
839.084706	5888.319750
839.400526	6833.069789
839.716303	8296.496586
840.032037	9512.110342
840.347727	9728.600174
840.663373	8949.053787
840.978977	7935.363448
841.294537	7118.956145
841.610054	6521.753334
841.925527	6090.049083
842.240957	5739.532615
842.556344	5422.431435
842.871687	5147.633098
843.186987	4869.472311
843.502244	4641.022342
843.817458	4475.793483
844.132629	4339.730221
844.447756	4248.749997
844.762840	4170.813758
845.077881	4093.921038
845.392879	4037.969272
845.707833	3986.105881
846.022745	3943.591310
846.337613	3916.026281
846.652438	3875.429869
846.967221	3859.973691
847.281960	3824.781396
847.596656	3808.924447
847.911309	3789.838638
848.225919	3769.074126
848.540485	3751.984614
848.855009	3740.173191
849.169490	3717.525807
849.483928	3706.268911
849.798323	3702.175494
850.112675	3681.632792
850.426984	3686.797454
850.741251	3672.208355
851.055474	3666.282478
851.369654	3672.319260
851.683792	3668.230884
851.997887	3674.398736
852.311938	3675.318747
852.625947	3680.143131
852.939914	3670.083508
853.253837	3678.194725
853.567718	3675.931247
853.881555	3666.300122
854.195350	3677.854447
854.509103	3677.110877
854.822812	3678.628264
855.136479	3666.922705
855.450103	3673.811442
855.763685	3661.440450
856.077224	3664.240811
856.390720	3681.037936
856.704173	3697.078887
857.017584	3710.914334
857.330953	3720.111919
857.644278	3738.703694
857.957561	3746.550250
858.270802	3747.709716
858.584000	3754.081734
858.897155	3745.395826
859.210268	3730.665575
859.523339	3708.303016
859.836367	3707.783777
860.149352	3702.341852
860.462295	3693.882796
860.775195	3684.889377
861.088054	3679.727236
861.400869	3678.071217
861.713642	3674.877646
862.026373	3686.205118
862.339062	3685.116229
862.651708	3705.704301
862.964312	3737.219075
863.276873	3746.220055
863.589392	3795.986326
863.901869	3837.691791
864.214303	3881.325498
864.526696	3912.933533
864.839045	3959.846511
865.151353	3982.745952
865.463619	3995.358919
865.775842	4000.432840
866.088023	4019.800953
866.400162	4010.338708
866.712258	4016.055376
867.024313	4021.129297
867.336325	4017.902959
867.648296	4021.341026
867.960224	4021.913197
868.272110	4032.103889
868.583954	4029.938714
868.895755	4045.036970
869.207515	4042.211403
869.519233	4078.031322
869.830909	4085.676231
870.142542	4110.496352
870.454134	4123.759628
870.765684	4152.607631
871.077191	4186.731201
871.388657	4204.501269
871.700081	4238.680292
872.011463	4279.785860
872.322803	4312.709636
872.634101	4342.107125
872.945357	4379.212538
873.256571	4430.647430
873.567744	4458.189774
873.878874	4473.840036
874.189963	4511.436962
874.501010	4525.320299
874.812015	4520.914331
875.122979	4563.040733
875.433900	4559.358170
875.744780	4571.041044
876.055618	4595.016772
876.366415	4594.764714
876.677169	4608.958083
876.987882	4649.922499
877.298554	4693.410013
877.609183	4757.397378
877.919771	4855.031926
878.230317	4978.212520
878.540822	5156.404705
878.851285	5425.133493
879.161707	5809.612215
879.472087	6431.607421
879.782425	7431.230420
880.092722	9214.820897
880.402977	11987.803352
880.713191	15405.388067
881.023363	19006.395165
881.333494	21396.272613
881.643583	22820.209531
881.953631	23042.915105
882.263637	22406.144278
882.573602	21131.964917
882.883526	19734.206710
883.193408	18200.256692
883.503248	16625.828728
883.813048	15199.963569
884.122806	13871.027195
884.432522	12457.641411
884.742197	11275.407655
885.051831	10225.327748
885.361424	9259.354450
885.670975	8456.225546
885.980485	7782.152701
886.289954	7225.493369
886.599382	6765.505725
886.908768	6397.022585
887.218113	6047.330345
887.527417	5760.108084
887.836680	5503.639382
888.145901	5294.933092
888.455082	5140.454495
888.764221	4988.481350
889.073319	4856.211556
889.382376	4785.403509
889.691392	4723.109971
890.000366	4691.527142
890.309300	4675.166077
890.618193	4679.897200
890.927044	4656.087830
891.235855	4675.876880
891.544625	4698.826732
891.853353	4746.395060
892.162041	4840.977189
892.470687	4993.386393
892.779293	5198.785686
893.087858	5512.111041
893.396381	5990.471171
893.704864	6654.854919
894.013306	7654.372053
894.321707	8767.544522
894.630068	9632.258683
894.938387	9971.296443
895.246665	9855.244041
895.554903	9336.844547
895.863100	8705.825676
896.171256	8185.419803
896.479371	7711.417750
896.787446	7238.315544
897.095480	6829.586352
897.403473	6521.599578
897.711425	6219.896603
898.019336	5972.864941
898.327207	5712.600250
898.635038	5496.334750
898.942827	5255.042442
899.250576	5069.651489
899.558284	4881.583683
899.865952	4763.804685
900.173579	4623.247233
900.481165	4516.135317
900.788711	4428.777162
901.096216	4358.952140
901.403681	4290.256337
901.711105	4264.392697
902.018489	4245.563987
902.325832	4291.405720
902.633135	4375.943349
902.940397	4630.725785
903.247619	5226.096137
903.554800	6390.877418
903.861941	8109.053883
904.169041	9635.333787
904.476101	10454.697727
904.783121	10321.018930
905.090100	9707.931443
905.397039	8943.470709
905.703938	8238.578770
906.010796	7588.423679
906.317614	7065.290541
906.624391	6567.431229
906.931129	6160.824362
907.237826	5786.468278
907.544483	5434.552889
907.851099	5085.447944
908.157675	4748.414042
908.464211	4434.352678
908.770707	4195.361657
909.077163	3999.313704
909.383578	3853.402547
909.689954	3736.294023
909.996289	3662.216788
910.302584	3598.244545
910.608839	3566.165163
910.915054	3530.851880
911.221229	3518.387627
911.527363	3526.491282
911.833458	3533.380019
912.139513	3556.367680
912.445527	3578.780650
912.751502	3643.478819
913.057436	3730.647931
913.363331	3841.344107
913.669186	4009.290148
913.975000	4225.356522
914.280775	4576.087239
914.586510	5063.191250
914.892205	5728.429473
915.197859	6634.420602
915.503475	7732.494815
915.809050	8764.424048
916.114585	9460.120923
916.420081	9806.102873
916.725536	9855.304535
917.030952	9500.311522
917.336328	9141.547726
917.641665	8774.952498
917.946961	8343.850665
918.252218	7954.159390
918.557435	7480.343861
918.862612	7085.835764
919.167750	6740.252065
919.472848	6345.063412
919.777906	5996.656667
920.082925	5658.140665
920.387904	5306.066481
920.692843	5049.804466
920.997743	4809.653979
921.302603	4579.442127
921.607423	4419.667797
921.912204	4262.774487
922.216946	4153.424298
922.521647	4038.453223
922.826310	3938.373716
923.130932	3851.043287
923.435516	3758.134822
923.740059	3689.224769
924.044564	3616.266670
924.349028	3562.409503
924.653454	3507.861698
924.957840	3436.776388
925.262186	3393.114954
925.566493	3337.274093
925.870761	3279.878036
926.174989	3251.093047
926.479178	3214.433777
926.783328	3175.324505
927.087438	3149.975063
927.391509	3116.559775
927.695541	3089.148501
927.999533	3061.953996
928.303486	3038.714277
928.607400	3027.016280
928.911275	3015.779548
929.215110	3001.329080
929.518906	2991.100579
929.822663	2990.243583
930.126381	2982.744867
930.430060	2994.127792
930.733699	2993.346413
931.037299	3000.003257
931.340861	3001.334121
931.644383	3009.982221
931.947866	3007.917868
932.251309	3001.664317
932.554714	3001.964266
932.858080	3000.018380
933.161407	2991.468583
933.464694	2984.983139
933.767943	2978.855616
934.071153	2974.633650
934.374323	2964.664768
934.677455	2961.423306
934.980548	2949.982408
935.283602	2947.729012
935.586617	2943.950667
935.889593	2952.457614
936.192530	2951.230093
936.495428	2966.358596
936.798287	2981.023313
937.101108	3004.636077
937.403890	3048.161399
937.706632	3104.708022
938.009336	3173.812159
938.312002	3243.589290
938.614628	3307.072540
938.917216	3360.304604
939.219765	3394.408010
939.522275	3423.886157
939.824747	3426.671395
940.127179	3430.260696
940.429573	3425.151487
940.731929	3424.997732
941.034246	3414.108839
941.336524	3403.116603
941.638763	3390.196126
941.940964	3379.975187
942.243126	3337.621933
942.545250	3320.739108
942.847335	3289.516722
943.149381	3251.609766
943.451389	3221.168758
943.753359	3189.381763
944.055290	3165.768998
944.357182	3140.875780
944.659036	3127.793986
944.960851	3117.391565
945.262628	3101.910182
945.564367	3102.366406
945.866067	3099.561004
946.167729	3092.677308
946.469352	3093.433482
946.770937	3089.561875
947.072484	3075.557550
947.373992	3077.800863
947.675462	3070.249215
947.976893	3058.457956
948.278286	3050.576112
948.579641	3044.559495
948.880958	3036.907023
949.182236	3040.879453
949.483476	3033.761343
949.784678	3027.288502
950.085841	3033.834440
950.386967	3042.036397
950.688054	3053.235321
950.989103	3072.202662
951.290114	3086.078438
951.591087	3113.676235
951.892021	3139.043321
952.192917	3166.817558
952.493776	3191.872093
952.794596	3199.965665
953.095378	3207.792057
953.396122	3206.257025
953.696828	3201.611602
953.997496	3191.826722
954.298126	3172.312416
954.598718	3155.182575
954.899272	3129.006384
955.199788	3106.737087
955.500266	3079.681214
955.800706	3046.225596
956.101108	3012.729650
956.401472	2984.433653
956.701798	2954.068263
957.002087	2914.343971
957.302337	2889.075187
957.602550	2863.103162
957.902724	2836.634584
958.202861	2813.793116
958.502960	2791.004580
958.803022	2771.283586
959.103045	2749.644433
959.403031	2737.573390
959.702979	2722.500340
960.002889	2713.141438
960.302762	2700.800694
960.602596	2689.269054
960.902393	2683.262519
961.202153	2675.002589
961.501875	2666.072185
961.801559	2658.744868
962.101205	2654.076759
962.400814	2650.174906
962.700385	2642.335912
962.999918	2636.321815
963.299414	2631.588172
963.598873	2629.216309
963.898293	2620.845473
964.197677	2623.771863
964.497022	2620.648868
964.796331	2619.718775
965.095601	2615.718620
965.394835	2615.882457
965.694030	2613.525718
965.993189	2612.572940
966.292309	2610.269132
966.591393	2609.089502
966.890439	2609.207969
967.189447	2608.499687
967.488419	2608.817280
967.787353	2610.846344
968.086249	2608.245109
968.385108	2615.660646
968.683930	2612.588063
968.982714	2618.105606
969.281462	2620.144753
969.580172	2625.715228
969.878844	2631.648666
970.177480	2640.281642
970.476078	2644.241468
970.774639	2651.896460
971.073162	2658.737306
971.371649	2665.981444
971.670098	2670.331960
971.968510	2676.124246
972.266885	2682.995338
972.565223	2683.204546
972.863524	2687.481965
973.161788	2691.068746
973.460014	2691.797193
973.758204	2697.390353
974.056356	2697.007225
974.354471	2698.685930
974.652550	2699.716846
974.950591	2699.217771
975.248595	2697.534026
975.546563	2696.215764
975.844493	2693.556556
976.142386	2687.912984
976.440243	2682.355112
976.738062	2680.026099
977.035845	2673.530572
977.333590	2667.887000
977.631299	2662.434992
977.928971	2655.677326
978.226606	2650.981491
978.524204	2647.916469
978.821765	2642.890439
979.119290	2644.571664
979.416777	2644.972435
979.714228	2646.315903
980.011642	2647.626603
980.309020	2653.595329
980.606360	2668.852381
980.903664	2684.870647
981.200931	2713.000286
981.498162	2754.216760
981.795356	2814.312355
982.092513	2893.534088
982.389633	2987.307111
982.686717	3074.314906
982.983764	3150.703510
983.280775	3203.491952
983.577749	3220.420147
983.874686	3214.315310
984.171587	3187.559386
984.468451	3156.001762
984.765279	3114.538272
985.062070	3076.812797
985.358824	3037.988351
985.655543	2988.569920
985.952224	2939.048145
986.248869	2881.193343
986.545478	2825.496155
986.842050	2775.021602
987.138586	2729.706670
987.435086	2694.758871
987.731549	2664.214520
988.027975	2636.515900
988.324366	2619.076028
988.620719	2608.817280
988.917037	2598.142637
989.213318	2588.466142
989.509563	2579.049267
989.805772	2578.928279
990.101944	2571.918554
990.398080	2570.063410
990.694180	2568.097360
990.990244	2568.178018
991.286271	2566.111145
991.582262	2570.537278
991.878217	2571.311095
992.174136	2574.446693
992.470019	2574.628175
992.765865	2578.706468
993.061676	2581.436253
993.357450	2590.711976
993.653188	2593.431678
993.948890	2613.445059
994.244556	2625.874024
994.540186	2645.804226
994.835780	2673.122238
995.131337	2706.635829
995.426859	2741.112280
995.722345	2786.991822
996.017795	2831.091835
996.313208	2868.035931
996.608586	2895.752195
996.903928	2910.527817
997.199234	2916.894794
997.494504	2912.345153
997.789738	2905.484143
998.084936	2880.706872
998.380099	2856.456401
998.675225	2831.467401
998.970316	2806.342291
999.265371	2770.542537
999.560390	2739.184039
999.855373	2708.725387
1000.150320	2682.755883
1000.445232	2658.969199
1000.740108	2637.758544
1001.034948	2619.686008
1001.329752	2604.592793
1001.624521	2593.126689
1001.919254	2581.705955
1002.213951	2574.910479
1002.508613	2565.806155
1002.803239	2562.410938
1003.097829	2553.790565
1003.392384	2552.963816
1003.686903	2549.245965
1003.981386	2546.869061
1004.275834	2542.468134
1004.570246	2537.971424
1004.864623	2535.657535
1005.158964	2534.034283
1005.453270	2532.244674
1005.747540	2530.686957
1006.041775	2530.175280
1006.335974	2526.016328
1006.630138	2526.701925
1006.924266	2526.197810
1007.218359	2525.146729
1007.512416	2522.779907
1007.806438	2522.051461
1008.100425	2520.710514
1008.394376	2516.760770
1008.688292	2521.640607
1008.982172	2522.086749
1009.276017	2525.131606
1009.569827	2520.796213
1009.863602	2524.138498
1010.157341	2521.804444
1010.451045	2521.680936
1010.744714	2520.692870
1011.038347	2521.915349
1011.331945	2513.872188
1011.625508	2515.944103
1011.919036	2514.068793
1012.212528	2515.918897
1012.505986	2513.703310
1012.799408	2516.753208
1013.092795	2510.779441
1013.386147	2513.237003
1013.679464	2512.266581
1013.972745	2511.553258
1014.265992	2512.211128
1014.559204	2514.416633
1014.852380	2513.388238
1015.145521	2512.730367
1015.438628	2511.336488
1015.731699	2514.323372
1016.024736	2515.225738
1016.317737	2513.841942
1016.610703	2513.302538
1016.903635	2518.089114
1017.196531	2520.130781
1017.489393	2520.869310
1017.782219	2520.587005
1018.075011	2521.524660
1018.367768	2522.540453
1018.660490	2523.369722
1018.953177	2523.369722
1019.245829	2523.369722
