Dividing Wavelength (nm)	Counts (n)	Blue Motor Position (mm): 28.500000	Red Motor Position (mm): 0.000000	
326.493990	2069.212172
326.888308	2069.212172
327.282561	2069.212172
327.676750	2040.162523
328.070874	2042.909952
328.464933	2047.958668
328.858929	2057.161294
329.252859	2066.615978
329.646726	2080.761456
330.040528	2098.639908
330.434265	2115.255551
330.827938	2135.886473
331.221547	2154.725265
331.615091	2175.177226
332.008571	2196.297140
332.401986	2215.882023
332.795338	2237.158213
333.188625	2255.172776
333.581847	2275.768410
333.975006	2295.139044
334.368100	2311.106898
334.761129	2325.915288
335.154095	2343.098061
335.546996	2395.334497
335.939833	2496.757471
336.332606	2505.128307
336.725315	2519.291429
337.117960	2529.605630
337.510540	2538.820859
337.903056	2547.746222
338.295508	2556.651420
338.687896	2561.697615
339.080220	2567.870508
339.472480	2571.548030
339.864676	2576.581622
340.256807	2578.320820
340.648875	2578.991293
341.040879	2582.852817
341.432818	2583.762745
341.824694	2585.088569
342.216506	2585.756522
342.608253	2586.437077
342.999937	2580.715368
343.391557	2582.469689
343.783113	2579.087075
344.174605	2580.904411
344.566033	2580.841397
344.957397	2573.950139
345.348697	2572.803277
345.739934	2571.432083
346.131106	2571.232958
346.522215	2569.498801
346.913260	2566.481670
347.304241	2569.697926
347.695159	2562.549570
348.086012	2564.127451
348.476802	2558.912378
348.867528	2556.343910
349.258191	2555.101265
349.648789	2553.067160
350.039324	2552.298384
350.429796	2556.144784
350.820203	2555.058415
351.210548	2552.585729
351.600828	2553.135215
351.991045	2552.189999
352.381198	2549.573640
352.771288	2548.714123
353.161314	2550.823846
353.551276	2548.202446
353.941175	2545.500388
354.331010	2551.244783
354.720782	2553.147818
355.110490	2557.374826
355.500135	2551.398538
355.889717	2549.505584
356.279235	2553.321738
356.668689	2551.151521
357.058080	2553.498178
357.447408	2551.978270
357.836672	2550.856614
358.225873	2550.907025
358.615010	2552.530277
359.004084	2554.564382
359.393095	2555.426420
359.782043	2551.494320
360.170927	2556.505227
360.559748	2556.611091
360.948505	2558.458674
361.337199	2559.908005
361.725830	2557.664692
362.114398	2558.088149
362.502903	2556.885834
362.891344	2560.374312
363.279722	2558.355330
363.668037	2561.196020
364.056289	2559.875238
364.444478	2558.539332
364.832603	2559.146791
365.220665	2560.281051
365.608665	2564.722307
365.996601	2562.189128
366.384474	2561.730382
366.772284	2560.936401
367.160031	2563.913202
367.547715	2564.034190
367.935336	2560.500341
368.322893	2564.210630
368.710388	2561.279199
369.097820	2561.208623
369.485189	2559.401369
369.872495	2563.895558
370.259738	2565.589386
370.646918	2569.211455
371.034035	2566.801783
371.421090	2567.643656
371.808081	2567.444530
372.195010	2569.158523
372.581875	2569.561815
372.968678	2569.307237
373.355418	2568.883780
373.742096	2566.801783
374.128710	2568.959397
374.515262	2572.251271
374.901751	2569.443348
375.288177	2572.450396
375.674540	2569.960066
376.060841	2571.532906
376.447079	2571.227916
376.833254	2569.551733
377.219367	2571.878225
377.605417	2570.144068
377.991404	2572.621795
378.377329	2573.463668
378.763191	2573.216652
379.148991	2572.223544
379.534727	2571.898390
379.920402	2573.199008
380.306013	2572.402505
380.691563	2573.929975
381.077049	2571.963925
381.462474	2572.054666
381.847835	2575.427197
382.233134	2575.376786
382.618371	2575.964080
383.003545	2574.764286
383.388657	2577.320151
383.773706	2573.975345
384.158693	2576.632033
384.543618	2576.843762
384.928480	2577.211766
385.313280	2579.447518
385.698017	2578.895511
386.082692	2572.904100
386.467305	2577.995665
386.851856	2579.535738
387.236344	2578.255285
387.620770	2574.728998
388.005133	2574.706312
388.389435	2577.942733
388.773674	2575.845613
389.157851	2579.936510
389.541965	2578.751838
389.926018	2580.002045
390.310008	2582.099165
390.693936	2578.968608
391.077802	2583.326686
391.461606	2586.583271
391.845348	2587.183168
392.229027	2585.292736
392.612645	2584.148394
392.996200	2581.506829
393.379694	2584.665112
393.763125	2584.264340
394.146494	2584.624783
394.529801	2586.926069
394.913047	2586.555545
395.296230	2587.387335
395.679351	2586.300966
396.062410	2588.975298
396.445408	2588.909763
396.828343	2586.278281
397.211217	2586.079156
397.594028	2584.990266
397.976778	2589.043354
398.359466	2589.678539
398.742092	2589.731472
399.124656	2587.190730
399.507158	2587.213415
399.889598	2591.357244
400.271977	2590.898499
400.654294	2586.495051
401.036549	2590.951431
401.418742	2591.667275
401.800874	2589.376070
402.182944	2589.459249
402.564952	2590.979157
402.946898	2594.039137
403.328783	2595.163315
403.710606	2593.043510
404.092367	2594.843202
404.474067	2595.392687
404.855705	2593.623242
405.237282	2591.916812
405.618797	2594.921339
406.000250	2594.931422
406.381642	2593.484611
406.762972	2595.352358
407.144240	2592.224322
407.525447	2594.054261
407.906593	2590.285998
408.287677	2596.378233
408.668700	2596.862184
409.049661	2599.599530
409.430560	2598.344283
409.811399	2599.685230
410.192176	2600.360744
410.572891	2597.963676
410.953545	2599.483584
411.334138	2601.079109
411.714669	2600.547267
412.095139	2600.673296
412.475547	2597.643562
412.855894	2602.089860
413.236180	2601.699171
413.616405	2603.531630
413.996568	2599.927205
414.376670	2603.597165
414.756711	2603.881990
415.136691	2603.450972
415.516609	2604.129007
415.896466	2605.172526
416.276262	2603.997937
416.655997	2605.328802
417.035670	2604.426435
417.415283	2608.638319
417.794834	2607.904831
418.174324	2604.018102
418.553753	2605.132197
418.933121	2606.485746
419.312428	2611.161417
419.691674	2607.877105
420.070859	2607.236878
420.449983	2607.723350
420.829045	2608.819801
421.208047	2612.870368
421.586988	2609.843155
421.965867	2611.569750
422.344686	2613.651747
422.723444	2614.637292
423.102141	2611.542024
423.480777	2616.222735
423.859352	2613.245934
424.237866	2616.167282
424.616319	2617.596449
424.994712	2621.914198
425.373044	2617.064608
425.751314	2619.547376
426.129524	2614.649895
426.507673	2615.481685
426.885762	2616.018568
427.263789	2620.767335
427.641756	2623.386215
428.019662	2623.388735
428.397508	2622.967799
428.775292	2625.221195
429.153016	2627.479632
429.530679	2625.445526
429.908282	2629.070116
430.285824	2628.399642
430.663305	2632.364510
431.040726	2631.774695
431.418086	2633.808800
431.795385	2636.604120
432.172624	2637.456075
432.549802	2638.280304
432.926920	2639.288534
433.303977	2641.420942
433.680974	2647.382107
434.057910	2649.650626
434.434786	2651.384783
434.811601	2654.802685
435.188355	2662.777791
435.565050	2662.624036
435.941683	2668.454130
436.318257	2673.565860
436.694770	2679.355625
437.071222	2687.912984
437.447614	2690.894826
437.823946	2696.046886
438.200218	2703.855633
438.576429	2711.377034
438.952580	2719.276522
439.328670	2727.498644
439.704700	2738.914337
440.080670	2749.651995
440.456580	2763.636156
440.832429	2778.830193
441.208218	2783.082407
441.583947	2801.522947
441.959616	2822.423571
442.335224	2835.626353
442.710773	2856.582430
443.086261	2880.086810
443.461689	2894.161711
443.837057	2921.320928
444.212365	2950.436112
444.587612	2972.637353
444.962800	2994.717607
445.337927	3028.155580
445.712995	3028.510982
446.088002	3103.329267
446.462949	3137.283958
446.837837	3176.274763
447.212664	3212.808005
447.587431	3327.509378
447.962139	3463.875110
448.336786	3597.707662
448.711374	3625.509626
449.085901	3552.259140
449.460369	3593.730192
449.834776	3629.950882
450.209124	3805.050320
450.583412	3850.760983
450.957640	3947.702371
451.331808	3957.787199
451.705917	3943.278759
452.079965	3989.125532
452.453954	4083.178340
452.827883	4154.455214
453.201752	4214.845716
453.575562	4293.046615
453.949311	4433.263789
454.323001	4533.580230
454.696632	4603.281744
455.070202	4818.886852
455.443713	4931.407927
455.817164	5062.278801
456.190556	5244.239249
456.563888	5311.619312
456.937160	5476.586030
457.310373	5437.754022
457.683526	5538.932500
458.056619	5653.754862
458.429653	5782.044665
458.802628	5939.968892
459.175542	6072.102575
459.548398	6383.340893
459.921194	6714.602674
460.293930	6948.963396
460.666607	7409.223262
461.039224	7876.059314
461.411782	8158.787387
461.784280	8161.678488
462.156719	8284.105430
462.529099	8395.570383
462.901419	8260.210361
463.273680	8217.519350
463.645882	8456.727141
464.018024	8549.116367
464.390106	8878.873364
464.762130	9579.994520
465.134094	10532.886023
465.505999	11889.949515
465.877845	13310.564313
466.249631	14188.400597
466.621358	14146.737981
466.993026	13909.161003
467.364634	13687.319987
467.736184	13415.455601
468.107674	13227.181108
468.479105	13312.600939
468.850477	13320.061847
469.221790	13207.636554
469.593043	12930.637753
469.964238	12829.910458
470.335373	13033.126932
470.706449	13659.323939
471.077467	14415.706224
471.448425	16292.447142
471.819324	17800.992266
472.190164	17888.173981
472.560945	16756.109788
472.931667	15752.181643
473.302330	15647.292876
473.672934	15377.883532
474.043479	15819.337374
474.413965	15782.882270
474.784393	15763.783859
475.154761	16409.540543
475.525070	16622.005013
475.895321	16607.826768
476.265513	17147.724262
476.635645	17747.397239
477.005719	17916.200275
477.375734	18337.585284
477.745691	18970.739084
478.115588	19622.509865
478.485427	20741.857747
478.855207	22374.503476
479.224928	24052.000350
479.594591	25377.564192
479.964194	25191.913619
480.333739	25705.750869
480.703226	26018.924990
481.072653	26515.602152
481.442022	27091.778311
481.811333	27550.636737
482.180584	27266.524867
482.549777	27167.037696
482.918912	27059.572899
483.287988	27098.359537
483.657005	27062.141367
484.025964	26812.236248
484.394864	27077.915138
484.763706	27081.138955
485.132489	26686.101537
485.501213	26829.653434
485.869879	27052.994193
486.238487	27057.067446
486.607036	27376.122073
486.975527	27152.025140
487.343959	27539.702474
487.712333	27934.240818
488.080648	27947.506614
488.448905	28428.775490
488.817104	28351.262708
489.185244	29202.040599
489.553326	30185.226916
489.921350	32051.305794
490.289315	34501.921584
490.657222	35427.943737
491.025070	36000.593608
491.392861	35784.108817
491.760593	35080.567907
492.128267	34148.405629
492.495883	33234.837647
492.863440	32403.047262
493.230939	31509.454852
493.598380	30986.757774
493.965763	30876.225435
494.333088	30417.442626
494.700354	30245.130947
495.067563	30238.965616
495.434713	30131.647012
495.801805	30455.760437
496.168839	30304.036829
496.535815	30175.696614
496.902733	30318.348665
497.269593	30163.933082
497.636395	30323.188173
498.003139	30602.856265
498.369825	30377.927542
498.736453	30784.872166
499.103023	30644.405455
499.469535	30734.836193
499.835989	30856.927898
500.202385	30737.071945
500.568723	30784.667999
500.935003	31086.302919
501.301226	30971.914097
501.667390	31682.494978
502.033497	31896.436506
502.399546	31693.252801
502.765537	31308.068318
503.131470	31777.465276
503.497345	32203.014277
503.863163	31181.714317
504.228923	31915.373601
504.594625	32314.280105
504.960269	31806.913176
505.325856	32461.174287
505.691385	32125.304891
506.056856	32440.001440
506.422270	32921.192178
506.787625	32443.676442
507.152924	32901.448499
507.518164	33075.645570
507.883347	32664.421007
508.248472	32783.440128
508.613540	33467.716269
508.978550	33674.244781
509.343503	33514.508259
509.708398	33873.385481
510.073236	34449.682627
510.438016	34561.445008
510.802738	34241.210751
511.167403	34768.591060
511.532010	34992.307386
511.896561	35510.772415
512.261053	36234.213280
512.625488	36021.557246
512.989866	35952.132996
513.354186	35998.632599
513.718449	35965.116487
514.082655	36810.661660
514.446803	36509.596391
514.810894	37110.582588
515.174927	37121.519371
515.538904	37121.048023
515.902822	37748.313755
516.266684	37438.718853
516.630488	37777.111347
516.994235	37793.253121
517.357925	38353.526960
517.721558	38602.824620
518.085133	38968.298192
518.448651	39155.781224
518.812112	39037.427534
519.175516	39190.136687
519.538863	39634.549687
519.902152	39693.579078
520.265385	40227.079348
520.628560	40229.100851
520.991678	40192.481909
521.354739	40398.705431
521.717743	40767.145722
522.080690	40681.153719
522.443580	41352.133817
522.806413	41331.815446
523.169189	41479.324649
523.531908	41706.383259
523.894569	41553.621174
524.257174	41750.921853
524.619722	42080.862852
524.982213	42235.172571
525.344647	42272.741770
525.707025	42390.798032
526.069345	42829.867408
526.431608	42732.953746
526.793815	43108.423926
527.155964	42681.632279
527.518057	42922.717900
527.880093	42772.380610
528.242072	43383.875093
528.603995	43142.222342
528.965860	43066.804160
529.327669	43288.040237
529.689421	43326.577338
530.051117	43291.339673
530.412755	43556.058223
530.774337	43608.521511
531.135862	43548.602356
531.497331	43703.408629
531.858743	43698.158267
532.220098	44094.337507
532.581396	43804.473681
532.942638	43591.011063
533.303824	43843.872819
533.664953	43902.093105
534.026025	43583.517388
534.387040	44136.274866
534.747999	44212.126587
535.108902	44543.297627
535.469748	43855.684243
535.830537	44143.796267
536.191270	44373.839241
536.551947	44135.516172
536.912567	44410.538841
537.273131	44532.496955
537.633638	44161.798228
537.994089	44328.587323
538.354483	44102.282365
538.714821	44737.203089
539.075103	45012.455131
539.435328	44901.126289
539.795497	44661.774825
540.155609	44791.448425
540.515665	45353.834507
540.875665	44654.452549
541.235609	44923.793837
541.595496	45072.223051
541.955328	45646.067675
542.315102	45086.360967
542.674821	44990.324465
543.034483	44905.509572
543.394090	44916.504329
543.753640	44896.296864
544.113134	45948.443645
544.472571	45056.076235
544.831953	46165.485482
545.191278	45444.587879
545.550548	45137.576569
545.909761	45754.185302
546.268918	45901.437406
546.628019	46292.005841
546.987064	45750.467451
547.346053	45068.991671
547.704986	45964.381252
548.063863	45604.604185
548.422684	45808.191183
548.781449	45382.904321
549.140158	45897.820378
549.498811	45676.491039
549.857408	45086.018168
550.215949	45930.013186
550.574434	45757.010868
550.932864	45695.420571
551.291237	46393.340595
551.649555	46160.308217
552.007817	46319.694378
552.366022	46021.643719
552.724173	46087.521517
553.082267	46490.244175
553.440305	46859.087758
553.798288	46108.643952
554.156215	46502.042995
554.514086	46690.304886
554.871902	46301.216029
555.229661	46467.374980
555.587365	46156.754204
555.945014	46291.622713
556.302606	46306.627708
556.660143	46386.242650
557.017625	46631.184754
557.375050	46303.809703
557.732421	46711.697022
558.089735	46765.463448
558.446994	46636.987122
558.804197	47104.710417
559.161345	46966.045919
559.518437	46335.105186
559.875474	46578.066116
560.232455	46788.332643
560.589381	46827.230186
560.946251	46656.143507
561.303065	47294.101526
561.659825	46975.004049
562.016528	46809.117320
562.373177	46396.561892
562.729770	47034.131743
563.086307	46531.468210
563.442789	47068.613235
563.799216	46911.878721
564.155587	46818.526634
564.511904	46796.244734
564.868164	46839.931373
565.224370	47138.811302
565.580520	46874.874131
565.936615	47083.093949
566.292654	46708.798359
566.648638	47088.329188
567.004567	47026.343160
567.360441	47117.691388
567.716260	46813.127558
568.072023	47226.378665
568.427732	47143.628125
568.783385	46691.025771
569.138982	47084.533199
569.494525	47243.810975
569.850013	46857.625823
570.205445	46965.745970
570.560823	46740.822288
570.916145	46593.381141
571.271412	46821.304310
571.626625	46470.742471
571.981782	46564.245793
572.336884	46180.140117
572.691931	46502.395876
573.046923	46161.104720
573.401860	45996.690008
573.756743	46022.213369
574.111570	46142.339024
574.466342	46072.725731
574.821059	46222.730305
575.175722	45711.862295
575.530330	45799.517878
575.884882	45465.745602
576.239380	45361.234921
576.593823	45463.993801
576.948211	45407.928609
577.302544	44960.518643
577.656823	44942.068020
578.011047	45211.989041
578.365216	45068.875724
578.719330	44782.265964
579.073389	44749.821098
579.427394	44809.031970
579.781344	44733.059261
580.135239	44479.779089
580.489080	44547.325509
580.842866	44048.175661
581.196597	44528.368250
581.550273	44520.393145
581.903895	44459.465759
582.257463	44892.503395
582.610975	44331.690153
582.964434	44653.857693
583.317837	44147.498995
583.671186	44108.503149
584.024481	44399.130710
584.377721	43973.954753
584.730906	44203.912027
585.084037	44337.744579
585.437113	44031.842323
585.790135	44161.243701
586.143103	43747.427984
586.496016	43928.632259
586.848874	44022.032237
587.201679	44044.815732
587.554428	43549.212336
587.907124	43817.787369
588.259765	43593.035086
588.612352	43736.917179
588.964884	43222.815268
589.317362	43501.293648
589.669786	43499.977907
590.022155	43397.924788
590.374470	43871.042118
590.726731	43451.993684
591.078937	42789.255873
591.431090	43135.096671
591.783188	42666.881863
592.135232	42478.438491
592.487222	42719.100655
592.839157	42881.718196
593.191038	42528.106460
593.542866	42331.617406
593.894639	41723.218193
594.246358	42029.579194
594.598022	42028.452496
594.949633	41603.558844
595.301190	41605.149328
595.652692	41562.279356
596.004141	42057.774367
596.355535	40972.358492
596.706876	40987.771820
597.058162	40690.255522
597.409395	41175.161590
597.760573	41423.493870
598.111698	41032.980887
598.462768	40959.649743
598.813785	40975.415952
599.164748	40593.798085
599.515657	40858.700637
599.866511	40380.640456
600.217312	41038.934490
600.568060	40011.665803
600.918753	40822.666469
601.269392	40736.349313
601.619978	40470.925001
601.970510	40687.109843
602.320988	40825.431542
602.671412	41081.595254
603.021783	40945.416045
603.372100	40539.167101
603.722363	40636.244600
604.072572	40678.436537
604.422728	40660.048929
604.772830	40438.346544
605.122878	40622.507456
605.472872	40468.749743
605.822813	40724.353887
606.172701	40475.577986
606.522534	40788.837807
606.872314	40997.957471
607.222041	40844.688750
607.571714	41181.326922
607.921333	40659.045739
608.270899	40865.226411
608.620411	41245.316808
608.969870	41008.516168
609.319276	41038.253934
609.668627	41057.974928
610.017926	41446.451285
610.367171	41601.920469
610.716362	41634.226704
611.065500	41532.178626
611.414585	41776.430092
611.763616	41944.315638
612.112594	41837.503671
612.461518	41953.795528
612.810389	42342.508819
613.159207	42141.170176
613.507971	42096.949174
613.856682	42608.200312
614.205340	42442.759725
614.553945	43132.495435
614.902496	42468.371307
615.250994	42891.966862
615.599439	42957.995895
615.947830	43064.525558
616.296169	43087.006584
616.644454	43126.625012
616.992686	43276.874082
617.340864	43721.476124
617.688990	43205.929923
618.037063	43888.991146
618.385082	43712.185278
618.733048	44069.945884
619.080961	43942.780258
619.428821	43989.912526
619.776628	44027.443916
620.124382	43854.774314
620.472083	43977.531452
620.819731	44080.819653
621.167326	43667.140048
621.514868	43648.883509
621.862357	43108.229841
622.209793	43204.878843
622.557176	42777.797330
622.904506	42535.244733
623.251783	42180.418079
623.599007	41873.459701
623.946179	41807.087869
624.293297	41544.887375
624.640363	40985.609165
624.987376	40855.814577
625.334336	40653.581128
625.681243	40251.168502
626.028097	40154.524542
626.374899	39984.655301
626.721647	39955.283018
627.068343	39728.431095
627.414987	39439.048700
627.761577	39201.930467
628.108115	39506.096046
628.454600	38764.391080
628.801032	39001.685754
629.147412	38897.613653
629.493739	38783.592835
629.840014	38362.517858
630.186236	38762.601471
630.532405	38203.484577
630.878521	38465.085174
631.224585	38227.104903
631.570597	37902.189935
631.916556	38075.242664
632.262462	37968.839030
632.608316	37910.558251
632.954117	37767.790253
633.299866	37724.940445
633.645562	37641.605131
633.991206	37142.606518
634.336797	36731.056800
634.682336	36628.766747
635.027823	36401.549341
635.373257	36294.490356
635.718639	35949.264579
636.063968	35852.020722
636.409245	35226.968056
636.754470	35167.981515
637.099642	34946.498421
637.444762	34369.886203
637.789829	34509.536247
638.134845	34104.734113
638.479808	34021.129097
638.824719	33981.172912
639.169577	33457.422233
639.514383	33594.183696
639.859137	33202.019735
640.203839	33355.837942
640.548489	33081.324430
640.893086	33049.121539
641.237632	32772.629374
641.582125	32865.464743
641.926566	32645.171361
642.270955	32684.194933
642.615292	32617.195478
642.959576	32483.428460
643.303809	32498.675430
643.647990	32609.401854
643.992118	32567.787129
644.336195	32400.443506
644.680219	32471.095277
645.024192	32665.109124
645.368112	33183.173382
645.711981	33197.800289
646.055797	33879.840678
646.399562	33685.917572
646.743274	34546.263573
647.086935	34949.649142
647.430544	34919.591262
647.774101	34970.514478
648.117606	35268.040857
648.461059	35414.786325
648.804460	35026.287283
649.147810	34532.778486
649.491108	34217.398861
649.834354	34122.836897
650.177548	33304.829027
650.520690	32799.191214
650.863781	32770.383540
651.206820	32588.528956
651.549807	32180.361853
651.892742	31587.688518
652.235626	31516.237724
652.578458	31374.606507
652.921238	30667.788847
653.263967	30937.694744
653.606644	30626.733690
653.949269	30549.644365
654.291843	30159.101136
654.634365	30525.613185
654.976836	30067.067311
655.319255	30153.291206
655.661622	30020.214827
656.003938	29900.936086
656.346203	29708.147239
656.688416	29950.180597
657.030577	29747.276675
657.372687	29558.059486
657.714746	29700.154490
658.056753	29871.992301
658.398708	29264.934034
658.740612	29346.716673
659.082465	29532.281546
659.424266	29431.748335
659.766016	29436.660940
660.107715	29279.311405
660.449362	29364.363232
660.790958	29345.307670
661.132503	29265.821277
661.473996	29359.478354
661.815438	29424.647870
662.156829	29550.643949
662.498168	29358.195380
662.839456	29332.067080
663.180693	29446.854153
663.521879	29510.975109
663.863013	29461.763365
664.204097	29434.710013
664.545129	29849.100421
664.886110	29780.180286
665.227040	29883.954959
665.567918	29888.413859
665.908746	29941.734144
666.249522	30033.190757
666.590248	30059.082123
666.930922	30158.997792
667.271545	30159.998461
667.612118	30233.362373
667.952639	30038.733505
668.293109	30086.294271
668.633528	29931.437587
668.973896	29899.345602
669.314213	29871.959533
669.654480	29677.255048
669.994695	29662.766772
670.334859	29589.929661
670.674973	29409.922660
671.015035	29589.423025
671.355047	29511.648103
671.695008	29441.200499
672.034918	29338.360960
672.374777	29443.390880
672.714585	29315.446396
673.054342	29445.372054
673.394049	29299.382759
673.733705	29513.755306
674.073310	29227.626975
674.412864	29295.848910
674.752368	29023.987045
675.091820	29264.450083
675.431223	28868.351502
675.770574	28657.217897
676.109875	28496.911725
676.449125	28288.994376
676.788324	28186.734570
677.127473	27702.650210
677.466571	27608.017670
677.805619	27341.804418
678.144616	27262.665864
678.483562	27203.926340
678.822458	26894.931335
679.161303	26838.107449
679.500098	26763.064833
679.838842	26677.987800
680.177535	26736.699598
680.516179	26943.669211
680.854771	27027.891768
681.193314	27710.486684
681.531805	28656.265119
681.870247	29402.050898
682.208638	30207.138291
682.546978	30566.786809
682.885268	30755.734296
683.223508	30337.689052
683.561697	30069.910521
683.899836	29927.618913
684.237925	29508.633493
684.575963	29338.449181
684.913951	28952.085068
685.251889	29098.984291
685.589776	29090.928527
685.927614	29087.626571
686.265401	29271.984088
686.603137	29364.481699
686.940824	29833.762711
687.278460	30158.725570
687.616046	30349.439982
687.953582	31014.655520
688.291068	30944.974171
688.628504	31323.746306
688.965889	31350.048526
689.303224	31094.978744
689.640510	30830.698775
689.977745	30224.716794
690.314930	29503.894809
690.652065	29106.730023
690.989150	28425.423122
691.326185	27579.719153
691.663170	26971.193911
692.000105	26258.110096
692.336990	25664.574725
692.673825	25231.761420
693.010610	24737.803960
693.347345	24230.043822
693.684030	23603.279684
694.020665	23419.280090
694.357251	22746.643973
694.693786	22755.821394
695.030272	22518.640146
695.366707	22023.397192
695.703093	21745.561560
696.039429	21811.235192
696.375716	21562.572717
696.711952	21558.988456
697.048139	21430.875093
697.384276	21255.289184
697.720363	21372.985003
698.056400	21280.252978
698.392388	21104.140268
698.728326	21091.343299
699.064214	20957.213319
699.400053	20966.899896
699.735842	20576.669218
700.071581	20403.377034
700.407270	20169.666621
700.742910	19983.466562
701.078501	19745.501416
701.414042	19538.408295
701.749533	19241.655733
702.084974	18926.523123
702.420366	19157.324791
702.755709	18748.824971
703.091002	18455.167677
703.426246	18515.043982
703.761440	18445.342468
704.096584	18215.261686
704.431679	18143.818454
704.766725	18100.595601
705.101721	18004.652361
705.436668	18120.732490
705.771565	17832.834714
706.106413	18148.484042
706.441212	18216.801759
706.775961	18300.295869
707.110661	18364.447072
707.445311	18743.715762
707.779913	18620.515003
708.114465	18901.650070
708.448967	19216.323935
708.783421	19810.217228
709.117825	20145.096037
709.452180	20374.178671
709.786485	20808.529527
710.120742	21535.151360
710.454949	21642.023822
710.789107	22155.752687
711.123216	22843.771884
711.457275	23074.618922
711.791286	23647.447754
712.125247	23807.320386
712.459159	23596.179219
712.793023	24346.265103
713.126837	23367.673798
713.460602	23633.002327
713.794318	23319.087157
714.127985	23050.882649
714.461602	22175.924864
714.795171	22156.534066
715.128691	21177.559633
715.462162	20667.256232
715.795584	20236.739173
716.128957	19963.458223
716.462281	19599.764178
716.795556	19317.114244
717.128782	18852.637452
717.461960	18248.792921
717.795088	18218.372078
718.128167	17883.750368
718.461198	17429.035771
718.794180	17306.356771
719.127113	16988.837176
719.459997	16794.586394
719.792833	16430.262206
720.125619	16472.048330
720.458357	16131.619211
720.791046	15997.312790
721.123686	15834.448233
721.456278	15613.118894
721.788821	15612.788698
722.121315	15354.011148
722.453761	15441.986844
722.786158	15329.047354
723.118506	15410.774540
723.450805	15295.637107
723.783056	15468.788139
724.115259	15360.599936
724.447412	15336.165463
724.779518	15550.560695
725.111574	15600.750423
725.443582	15845.332084
725.775542	15796.944569
726.107453	16299.482072
726.439315	16201.867690
726.771129	16598.044409
727.102895	16998.238928
727.434612	17276.452647
727.766281	17456.472250
728.097901	17784.061551
728.429473	17879.414976
728.760996	17916.177590
729.092471	18037.213173
729.423897	17911.572496
729.755276	17763.271832
730.086606	17842.211260
730.417887	18386.736534
730.749120	18936.207180
731.080305	19144.900867
731.411442	19553.693073
731.742530	19684.301808
732.073570	19819.079577
732.404562	20137.493977
732.735506	20042.291787
733.066401	19902.548481
733.397249	19479.298246
733.728048	18883.259941
734.058798	18040.106796
734.389501	17292.778423
734.720156	16763.759739
735.050762	16183.853127
735.381320	15789.763445
735.711831	15495.513816
736.042293	15118.170847
736.372707	15132.344052
736.703073	14918.589046
737.033391	15102.059320
737.363661	15085.526856
737.693883	15197.783270
738.024056	15393.722837
738.354182	15589.682570
738.684260	15932.758295
739.014290	16209.041252
739.344272	16432.311435
739.674207	16763.313597
740.004093	16952.818131
740.333931	17033.461469
740.663722	17118.288965
740.993464	17172.141091
741.323159	17039.687294
741.652806	16757.727998
741.982405	16591.508553
742.311956	16238.867238
742.641460	16149.769885
742.970915	15822.288970
743.300323	15481.446476
743.629683	15276.513490
743.958996	14960.536487
744.288260	14658.485672
744.617477	14342.551520
744.946647	14304.989882
745.275768	13986.376356
745.604842	13792.859063
745.933869	13608.519190
746.262847	13581.551538
746.591778	13487.017300
746.920662	13365.157488
747.249498	13364.749155
747.578286	13489.963855
747.907027	13655.464936
748.235720	13919.177776
748.564365	13993.007994
748.892963	13933.862657
749.221514	14046.824832
749.550017	13935.400209
749.878473	13906.663111
750.206881	13690.100183
750.535242	13620.353299
750.863555	13541.151731
751.191821	13436.073920
751.520039	13453.596971
751.848210	13366.874001
752.176334	13411.299170
752.504411	13344.546731
752.832440	13172.897963
753.160421	13288.894913
753.488356	13180.983974
753.816243	13096.302672
754.144082	12918.445723
754.471875	12860.716949
754.799620	12835.042353
755.127318	12802.617651
755.454969	12787.645424
755.782572	12751.747368
756.110129	12764.347732
756.437638	12676.707272
756.765100	12684.674816
757.092515	12699.878936
757.419882	12738.721026
757.747203	12733.107702
758.074477	12819.102224
758.401703	12803.378866
758.728882	12990.614881
759.056014	13024.289789
759.383099	13200.137838
759.710138	13320.931446
760.037129	13451.157053
760.364073	13518.358154
760.690970	13546.117267
761.017820	13544.627607
761.344623	13746.167896
761.671379	14059.160536
761.998088	14595.972844
762.324751	16002.676578
762.651366	18928.559750
762.977935	23230.937541
763.304456	26515.216504
763.630931	28103.840357
763.957359	27311.529768
764.283740	25277.613235
764.610074	23121.834369
764.936362	20507.859988
765.262602	18622.813769
765.588796	16646.202552
765.914943	15327.224977
766.241044	14176.765614
766.567097	13367.572201
766.893104	12620.987399
767.219064	12150.771253
767.544978	11663.447952
767.870845	11275.999991
768.196665	11041.571214
768.522438	10814.857922
768.848165	10607.696746
769.173846	10404.918853
769.499479	10282.398650
769.825066	10100.680177
770.150607	9884.979287
770.476101	9801.848139
770.801548	9684.749697
771.126949	9524.004945
771.452303	9418.473430
771.777611	9219.715858
772.102872	9213.946257
772.428087	9072.325122
772.753256	8927.628883
773.078378	8843.260133
773.403453	8654.322727
773.728482	8546.555461
774.053465	8458.899878
774.378401	8363.496042
774.703291	8243.176302
775.028135	8130.163715
775.352932	8095.926719
775.677683	7989.560893
776.002388	7883.323617
776.327046	7892.062457
776.651658	7788.106303
776.976224	7696.039711
777.300743	7698.184722
777.625216	7607.552337
777.949643	7562.910399
778.274024	7574.920948
778.598359	7495.202662
778.922647	7514.316197
779.246889	7460.557332
779.571086	7467.317519
779.895236	7468.855071
780.219339	7479.570044
780.543397	7482.186403
780.867409	7560.730100
781.191374	7572.360042
781.515294	7541.543469
781.839167	7631.104608
782.162995	7606.649971
782.486776	7549.551342
782.810511	7509.665732
783.134201	7421.062412
783.457844	7420.891013
783.781441	7359.449430
784.104993	7297.786036
784.428498	7282.677698
784.751958	7266.162878
785.075372	7235.318578
785.398739	7175.510329
785.722061	7213.354271
786.045337	7217.669499
786.368568	7355.718976
786.691752	7358.146292
787.014891	7652.416086
787.337983	7953.214174
787.661030	8509.077003
787.984031	9123.722206
788.306987	9564.074556
788.629897	9819.575357
788.952760	9813.740221
789.275579	9637.375454
789.598351	9270.588662
789.921078	8933.128782
790.243759	8529.090384
790.566395	8236.574911
790.888984	7984.784400
791.211529	7776.685569
791.534027	7545.790641
791.856480	7344.346133
792.178888	7267.153465
792.501249	7172.646954
792.823566	7008.819536
793.145836	7006.856007
793.468062	6973.032385
793.790241	6913.216574
794.112375	6976.122612
794.434464	7114.809796
794.756507	7145.744836
795.078505	7279.708458
795.400457	7561.377888
795.722364	7898.852892
796.044226	8189.344341
796.366042	8478.310841
796.687812	8448.232797
797.009538	8544.874236
797.331218	8461.271741
797.652852	8386.345071
797.974442	8236.153975
798.295986	8153.211871
798.617484	7968.405691
798.938938	7833.620361
799.260346	7721.966365
799.581709	7535.317644
799.903026	7453.948379
800.224299	7349.858635
800.545526	7182.872934
800.866708	7086.438182
801.187845	7015.574682
801.508936	6914.986019
801.829983	6879.435802
802.150984	6724.821093
802.471940	6681.694022
802.792851	6670.036353
803.113717	6638.801364
803.434538	6603.183092
803.755314	6544.148660
804.076045	6541.605398
804.396731	6488.569938
804.717372	6511.998701
805.037967	6511.154308
805.358518	6554.901441
805.679024	6630.319623
805.999485	6636.036291
806.319901	6678.576068
806.640272	6699.443924
806.960598	6787.553211
807.280879	6788.574045
807.601115	6863.210848
807.921306	6811.057591
808.241453	6823.983110
808.561554	6848.977150
808.881611	6812.078425
809.201623	6824.109138
809.521590	6770.468741
809.841513	6754.536174
810.161390	6793.179139
810.481223	6662.565363
810.801011	6645.969885
811.120755	6630.793491
811.440453	6549.504886
811.760107	6512.870821
812.079716	6486.944166
812.399281	6421.245329
812.718801	6417.051089
813.038276	6366.132914
813.357707	6305.197967
813.677093	6347.689853
813.996434	6248.096818
814.315731	6288.400843
814.634983	6277.224605
814.954191	6285.928157
815.273354	6381.878958
815.592473	6435.126146
815.911547	6551.168466
816.230577	6627.115970
816.549562	6770.866992
816.868502	6872.289966
817.187399	6959.370858
817.506250	7100.533248
817.825058	7126.800180
818.143821	7367.187601
818.462539	7602.889270
818.781213	7926.732993
819.099843	8405.998010
819.418429	9310.156678
819.736970	10197.924035
820.055466	11286.009202
820.373919	12649.661482
820.692327	14641.744000
821.010691	17928.200742
821.329011	25332.029970
821.647286	36900.368993
821.965517	50773.783174
822.283704	58277.492783
822.601847	61450.256382
822.919945	59261.117680
823.237999	55385.937348
823.556010	49397.021373
823.873976	42801.841113
824.191897	36344.508685
824.509775	31526.609898
824.827609	26916.724243
825.145398	24121.691781
825.463144	22481.459116
825.780845	22360.846990
826.098502	23603.282205
826.416116	26876.982307
826.733685	30570.701265
827.051210	32379.119425
827.368692	31460.532974
827.686129	27963.136712
828.003522	23987.934846
828.320872	20272.012126
828.638177	17395.822128
828.955439	15213.158789
829.272656	13390.096077
829.589830	11915.495562
829.906960	10627.430343
830.224046	9662.243466
830.541088	8886.301504
830.858086	8397.271772
831.175041	8001.659662
831.491952	7845.063780
831.808819	7830.663724
832.125642	8119.065615
832.442421	8818.465217
832.759157	10288.163210
833.075849	12837.996469
833.392497	15951.017354
833.709101	18418.906657
834.025662	18777.294887
834.342179	17438.840815
834.658653	15393.342230
834.975083	13485.850273
835.291469	11852.753361
835.607811	10520.063848
835.924110	9619.053380
836.240366	8755.919622
836.556578	7952.417672
836.872746	7307.074362
837.188871	6793.862215
837.504952	6367.189036
837.820990	6045.001332
838.136984	5813.249408
838.452935	5699.515936
838.768842	5680.016752
839.084706	5957.991017
839.400526	6914.486945
839.716303	8410.764421
840.032037	9632.699784
840.347727	9866.934477
840.663373	9075.279238
840.978977	8049.469966
841.294537	7217.941721
841.610054	6601.567402
841.925527	6171.972874
842.240957	5813.771167
842.556344	5489.992979
842.871687	5210.713056
843.186987	4929.106640
843.502244	4696.711968
843.817458	4530.348850
844.132629	4395.553438
844.447756	4303.711176
844.762840	4220.862333
845.077881	4144.768637
845.392879	4084.617589
845.707833	4032.741595
846.022745	3994.761542
846.337613	3963.655102
846.652438	3922.834359
846.967221	3903.985485
847.281960	3872.266545
847.596656	3853.775593
847.911309	3836.630628
848.225919	3808.750527
848.540485	3796.777787
848.855009	3780.971249
849.169490	3762.387035
849.483928	3748.924634
849.798323	3740.977255
850.112675	3724.275912
850.426984	3731.391501
850.741251	3715.259808
851.055474	3708.245043
851.369654	3713.876012
851.683792	3704.501986
851.997887	3716.542782
852.311938	3718.017320
852.625947	3724.157445
852.939914	3709.626319
853.253837	3720.991600
853.567718	3717.160323
853.881555	3709.679251
854.195350	3722.319944
854.509103	3715.118656
854.822812	3717.119994
855.136479	3708.386195
855.450103	3716.694017
855.763685	3705.313612
856.077224	3706.689847
856.390720	3722.859348
856.704173	3742.313161
857.017584	3750.532762
857.330953	3762.258486
857.644278	3783.322947
857.957561	3789.889050
858.270802	3787.537352
858.584000	3794.153866
858.897155	3789.974750
859.210268	3773.860701
859.523339	3750.184922
859.836367	3749.741301
860.149352	3743.586052
860.462295	3736.351996
860.775195	3728.923856
861.088054	3720.878174
861.400869	3721.974625
861.713642	3718.370200
862.026373	3724.127198
862.339062	3727.663568
862.651708	3745.330291
862.964312	3781.931589
863.276873	3787.186992
863.589392	3837.646421
863.901869	3882.852968
864.214303	3925.201181
864.526696	3957.144452
864.839045	4003.593644
865.151353	4030.606667
865.463619	4043.023029
865.775842	4044.694171
866.088023	4068.427923
866.400162	4058.854772
866.712258	4062.091193
867.024313	4070.265424
867.336325	4065.539342
867.648296	4071.419848
867.960224	4070.315836
868.272110	4076.186259
868.583954	4080.483843
868.895755	4095.531687
869.207515	4085.661108
869.519233	4122.388434
869.830909	4141.748986
870.142542	4159.060308
870.454134	4172.585724
870.765684	4204.249211
871.077191	4238.095518
871.388657	4257.045215
871.700081	4288.938075
872.011463	4333.905167
872.322803	4365.445146
872.634101	4393.320207
872.945357	4427.708438
873.256571	4482.707426
873.567744	4511.525182
873.878874	4533.502092
874.189963	4571.676230
874.501010	4580.107559
874.812015	4574.106066
875.122979	4619.420998
875.433900	4615.947643
875.744780	4628.711844
876.055618	4651.606244
876.366415	4649.746059
876.677169	4667.241383
876.987882	4708.382240
877.298554	4752.036111
877.609183	4816.888035
877.919771	4913.718518
878.230317	5042.550246
878.540822	5221.160847
878.851285	5497.330378
879.161707	5880.511003
879.472087	6518.020359
879.782425	7518.737289
880.092722	9333.756840
880.402977	12144.437043
880.713191	15620.065604
881.023363	19275.197050
881.333494	21728.232594
881.643583	23173.783459
881.953631	23395.702613
882.263637	22754.369541
882.573602	21472.870425
882.883526	20042.904287
883.193408	18490.002050
883.503248	16906.023621
883.813048	15434.462922
884.122806	14081.303804
884.432522	12655.191628
884.742197	11449.801332
885.051831	10378.896417
885.361424	9395.518536
885.670975	8576.885563
885.980485	7889.627580
886.289954	7326.865932
886.599382	6855.681885
886.908768	6486.069526
887.218113	6124.608713
887.527417	5841.701680
887.836680	5579.002112
888.145901	5361.713257
888.455082	5204.283064
888.764221	5053.305548
889.073319	4920.403088
889.382376	4843.533054
889.691392	4780.765647
890.000366	4751.786574
890.309300	4731.067432
890.618193	4735.735540
890.927044	4717.136203
891.235855	4735.942228
891.544625	4757.505763
891.853353	4805.421931
892.162041	4899.867948
892.470687	5060.504315
892.779293	5270.906953
893.087858	5583.990333
893.396381	6071.532925
893.704864	6746.601398
894.013306	7764.226357
894.321707	8883.498622
894.630068	9772.904354
894.938387	10107.768040
895.246665	9991.682870
895.554903	9474.304209
895.863100	8825.631217
896.171256	8306.168040
896.479371	7819.278278
896.787446	7339.783889
897.095480	6925.211999
897.403473	6613.678774
897.711425	6307.927752
898.019336	6053.604061
898.327207	5790.876767
898.635038	5568.297222
898.942827	5325.416950
899.250576	5137.384432
899.558284	4945.568528
899.865952	4823.978418
900.173579	4683.564639
900.481165	4574.733689
900.788711	4484.572653
901.096216	4409.139347
901.403681	4344.005119
901.711105	4317.521417
902.018489	4290.392448
902.325832	4346.157692
902.633135	4432.605918
902.940397	4687.562274
903.247619	5289.954953
903.554800	6466.875333
903.861941	8216.886685
904.169041	9770.822358
904.476101	10601.856569
904.783121	10472.677002
905.090100	9850.288587
905.397039	9075.349814
905.703938	8358.452367
906.010796	7694.537447
906.317614	7170.915317
906.624391	6659.515465
906.931129	6252.699391
907.237826	5869.024734
907.544483	5513.605743
907.851099	5157.614582
908.157675	4811.766223
908.464211	4490.425432
908.770707	4249.856530
909.077163	4047.512176
909.383578	3898.535998
909.689954	3778.004530
909.996289	3708.381154
910.302584	3643.935043
910.608839	3607.936164
910.915054	3575.783684
911.221229	3560.274575
911.527363	3564.761202
911.833458	3574.316709
912.139513	3597.044751
912.445527	3617.637864
912.751502	3691.619317
913.057436	3778.347328
913.363331	3892.337899
913.669186	4059.210174
913.975000	4279.165798
914.280775	4633.889109
914.586510	5123.198625
914.892205	5804.452594
915.197859	6725.647842
915.503475	7842.253337
915.809050	8884.988283
916.114585	9592.723434
916.420081	9944.497670
916.725536	9998.662347
917.030952	9634.428899
917.336328	9277.472357
917.641665	8909.079958
917.946961	8465.138306
918.252218	8073.133142
918.557435	7585.343534
918.862612	7188.997936
919.167750	6838.879719
919.472848	6439.025478
919.777906	6086.192600
920.082925	5736.361729
920.387904	5376.314960
920.692843	5117.083705
920.997743	4868.910222
921.302603	4638.605109
921.607423	4478.893793
921.912204	4323.976615
922.216946	4208.771126
922.521647	4089.310903
922.826310	3989.453207
923.130932	3898.372160
923.435516	3803.900937
923.740059	3734.915267
924.044564	3659.640758
924.349028	3605.980196
924.653454	3542.847306
924.957840	3475.958756
925.262186	3433.121551
925.566493	3372.610061
925.870761	3320.318172
926.174989	3285.027575
926.479178	3249.898294
926.783328	3207.794577
927.087438	3184.829601
927.391509	3148.606390
927.695541	3121.260651
927.999533	3096.929522
928.303486	3076.157447
928.607400	3059.884603
928.911275	3047.004455
929.215110	3027.648944
929.518906	3022.481762
929.822663	3020.987060
930.126381	3016.243334
930.430060	3023.053933
930.733699	3021.710465
931.037299	3035.500542
931.340861	3035.797970
931.644383	3041.557488
931.947866	3040.261911
932.251309	3034.283103
932.554714	3034.830068
932.858080	3029.960313
933.161407	3022.529653
933.464694	3018.340454
933.767943	3009.094978
934.071153	3004.991478
934.374323	2996.141733
934.677455	2991.685353
934.980548	2982.631441
935.283602	2977.930565
935.586617	2974.031232
935.889593	2982.439877
936.192530	2985.943479
936.495428	2992.922956
936.798287	3013.669825
937.101108	3039.611603
937.403890	3083.348653
937.706632	3131.947897
938.009336	3211.698951
938.312002	3278.635392
938.614628	3342.514373
938.917216	3399.015625
939.219765	3430.159873
939.522275	3460.432002
939.824747	3467.802169
940.127179	3468.253352
940.429573	3467.315698
940.731929	3463.393680
941.034246	3453.631486
941.336524	3440.111111
941.638763	3427.795572
941.940964	3416.715116
942.243126	3376.650546
942.545250	3357.095910
942.847335	3322.874037
943.149381	3289.506640
943.451389	3257.638986
943.753359	3224.165724
944.055290	3198.977599
944.357182	3176.468847
944.659036	3160.594254
944.960851	3150.552275
945.262628	3133.765233
945.564367	3136.547950
945.866067	3132.893113
946.167729	3128.318266
946.469352	3125.056640
946.770937	3123.047740
947.072484	3109.224896
947.373992	3113.086420
947.675462	3105.076026
947.976893	3089.907194
948.278286	3079.562747
948.579641	3070.894483
948.880958	3064.570355
949.182236	3070.287024
949.483476	3062.838719
949.784678	3059.312432
950.085841	3066.211251
950.386967	3073.336922
950.688054	3086.864858
950.989103	3103.094853
951.290114	3121.137142
951.591087	3147.948519
951.892021	3173.481963
952.192917	3199.333000
952.493776	3226.197309
952.794596	3234.532857
953.095378	3242.906214
953.396122	3240.781367
953.696828	3237.542426
953.997496	3226.824933
954.298126	3204.202755
954.598718	3186.709951
954.899272	3162.703977
955.199788	3140.313692
955.500266	3110.820421
955.800706	3078.410843
956.101108	3041.252498
956.401472	3012.946419
956.701798	2983.604383
957.002087	2943.673404
957.302337	2917.968560
957.602550	2892.243552
957.902724	2862.654500
958.202861	2836.561487
958.502960	2818.249496
958.803022	2795.019859
959.103045	2777.610234
959.403031	2764.309150
959.702979	2747.033116
960.002889	2734.992320
960.302762	2723.669888
960.602596	2711.671942
960.902393	2704.629450
961.202153	2695.623429
961.501875	2689.422809
961.801559	2683.539783
962.101205	2676.257836
962.400814	2673.273473
962.700385	2663.541526
962.999918	2658.765032
963.299414	2653.867551
963.598873	2650.837818
963.898293	2643.694503
964.197677	2644.624596
964.497022	2644.158289
964.796331	2641.073103
965.095601	2636.614202
965.394835	2635.376599
965.694030	2634.940539
965.993189	2633.599592
966.292309	2631.462143
966.591393	2629.692698
966.890439	2632.669499
967.189447	2628.908799
967.488419	2631.875518
967.787353	2629.685136
968.086249	2633.909623
968.385108	2637.574542
968.683930	2635.517751
968.982714	2637.529172
969.281462	2643.606283
969.580172	2647.074597
969.878844	2651.745226
970.177480	2661.215033
970.476078	2665.436999
970.774639	2674.153154
971.073162	2681.364525
971.371649	2686.335103
971.670098	2690.483972
971.968510	2698.020497
972.266885	2702.035776
972.565223	2705.451158
972.863524	2707.485264
973.161788	2709.665563
973.460014	2714.714278
973.758204	2717.769217
974.056356	2719.037068
974.354471	2722.601163
974.652550	2723.619477
974.950591	2718.757284
975.248595	2718.916080
975.546563	2712.660008
975.844493	2711.936602
976.142386	2706.950901
976.440243	2704.775643
976.738062	2697.092925
977.035845	2694.353058
977.333590	2689.153108
977.631299	2682.120698
977.928971	2675.383196
978.226606	2670.165602
978.524204	2668.917916
978.821765	2665.507576
979.119290	2664.824499
979.416777	2665.356341
979.714228	2666.828358
980.011642	2670.987310
980.309020	2675.602486
980.606360	2685.190761
980.903664	2703.916127
981.200931	2735.831672
981.498162	2773.973042
981.795356	2838.582990
982.092513	2917.456883
982.389633	3010.894670
982.686717	3100.770881
982.983764	3180.015299
983.280775	3237.824731
983.577749	3249.215218
983.874686	3241.638363
984.171587	3215.303376
984.468451	3184.925383
984.765279	3144.543220
985.062070	3103.793053
985.358824	3063.443657
985.655543	3010.030112
985.952224	2963.520426
986.248869	2906.084040
986.545478	2851.596729
986.842050	2794.707307
987.138586	2749.639392
987.435086	2712.841490
987.731549	2684.149762
988.027975	2657.361071
988.324366	2639.071765
988.620719	2624.664147
988.917037	2614.924638
989.213318	2604.615478
989.509563	2598.351845
989.805772	2594.301278
990.101944	2588.498909
990.398080	2583.888774
990.694180	2585.630493
990.990244	2585.955647
991.286271	2585.408682
991.582262	2584.307190
991.878217	2586.116964
992.174136	2586.812643
992.470019	2593.953438
992.765865	2594.465115
993.061676	2598.170363
993.357450	2605.530448
993.653188	2610.760645
993.948890	2626.680609
994.244556	2643.984369
994.540186	2664.048162
994.835780	2689.926925
995.131337	2725.383880
995.426859	2759.976278
995.722345	2804.872794
996.017795	2849.061028
996.313208	2891.005949
996.608586	2921.000814
996.903928	2934.506065
997.199234	2935.443720
997.494504	2937.397167
997.789738	2926.472987
998.084936	2903.056827
998.380099	2879.890205
998.675225	2852.267202
998.970316	2824.364416
999.265371	2786.744805
999.560390	2754.773807
999.855373	2727.629714
1000.150320	2699.444623
1000.445232	2675.917558
1000.740108	2654.207829
1001.034948	2637.110756
1001.329752	2620.169958
1001.624521	2610.763165
1001.919254	2599.052565
1002.213951	2589.255082
1002.508613	2579.565985
1002.803239	2576.518607
1003.097829	2569.410580
1003.392384	2564.064437
1003.686903	2562.947821
1003.981386	2559.330793
1004.275834	2554.919784
1004.570246	2553.825853
1004.864623	2546.828732
1005.158964	2548.338557
1005.453270	2543.872095
1005.747540	2546.407795
1006.041775	2539.776157
1006.335974	2544.194729
1006.630138	2538.359593
1006.924266	2539.095602
1007.218359	2536.086033
1007.512416	2535.241640
1007.806438	2533.666279
1008.100425	2535.312216
1008.394376	2531.110414
1008.688292	2533.837678
1008.982172	2531.256607
1009.276017	2533.699047
1009.569827	2529.033459
1009.863602	2534.742565
1010.157341	2536.214582
1010.451045	2530.066895
1010.744714	2531.370033
1011.038347	2531.085208
1011.331945	2529.126720
1011.625508	2530.772657
1011.919036	2527.284178
1012.212528	2526.744775
1012.505986	2525.363499
1012.799408	2527.311905
1013.092795	2524.990453
1013.386147	2523.979702
1013.679464	2524.884589
1013.972745	2520.055164
1014.265992	2523.465504
1014.559204	2523.009280
1014.852380	2523.533560
1015.145521	2524.115813
1015.438628	2522.348889
1015.731699	2523.861235
1016.024736	2526.712007
1016.317737	2525.716379
1016.610703	2527.382481
1016.903635	2530.074457
1017.196531	2531.778367
1017.489393	2531.483459
1017.782219	2529.371216
1018.075011	2531.075126
1018.367768	2533.205013
1018.660490	2532.753830
1018.953177	2532.753830
1019.245829	2532.753830
