Dividing Wavelength (nm)	Counts (n)	Blue Motor Position (mm): 29.000000	Red Motor Position (mm): 0.000000	
326.493990	2068.672769
326.888308	2068.672769
327.282561	2068.672769
327.676750	2043.330888
328.070874	2043.628317
328.464933	2048.818184
328.858929	2057.128527
329.252859	2070.169992
329.646726	2079.990159
330.040528	2098.478591
330.434265	2115.079111
330.827938	2138.472585
331.221547	2158.962355
331.615091	2177.289470
332.008571	2198.555577
332.401986	2215.771118
332.795338	2237.702657
333.188625	2259.051944
333.581847	2276.953081
333.975006	2294.110648
334.368100	2310.880047
334.761129	2327.523416
335.154095	2344.925479
335.546996	2397.280382
335.939833	2500.097236
336.332606	2507.590911
336.725315	2519.664474
337.117960	2532.088398
337.510540	2539.561908
337.903056	2551.655637
338.295508	2554.219063
338.687896	2564.135013
339.080220	2567.129458
339.472480	2573.811508
339.864676	2578.061200
340.256807	2576.954667
340.648875	2581.622776
341.040879	2580.995152
341.432818	2587.059660
341.824694	2587.404979
342.216506	2585.025554
342.608253	2585.645616
342.999937	2584.120667
343.391557	2582.101685
343.783113	2582.406675
344.174605	2579.351736
344.566033	2575.959039
344.957397	2577.100861
345.348697	2575.959039
345.739934	2574.456775
346.131106	2568.488049
346.522215	2570.156671
346.913260	2567.701629
347.304241	2565.259190
347.695159	2565.354972
348.086012	2567.008471
348.476802	2560.560835
348.867528	2558.960268
349.258191	2551.804351
349.648789	2556.464897
350.039324	2551.562375
350.429796	2557.054712
350.820203	2556.245607
351.210548	2555.791903
351.600828	2555.691080
351.991045	2552.598332
352.381198	2551.653116
352.771288	2552.789896
353.161314	2551.113713
353.551276	2552.610935
353.941175	2550.027344
354.331010	2550.108002
354.720782	2555.655792
355.110490	2556.227963
355.500135	2551.655637
355.889717	2555.630586
356.279235	2552.273178
356.668689	2556.018755
357.058080	2553.480534
357.447408	2554.239228
357.836672	2552.547921
358.225873	2552.550441
358.615010	2556.159907
359.004084	2554.995401
359.393095	2555.877603
359.782043	2556.414486
360.170927	2556.316183
360.559748	2558.075546
360.948505	2558.012532
361.337199	2561.609395
361.725830	2558.665361
362.114398	2560.422203
362.502903	2557.790721
362.891344	2560.323901
363.279722	2559.832388
363.668037	2561.485887
364.056289	2563.572924
364.444478	2559.923129
364.832603	2563.852708
365.220665	2565.244067
365.608665	2562.834395
365.996601	2564.717266
366.384474	2563.031000
366.772284	2563.983778
367.160031	2564.369427
367.547715	2566.882442
367.935336	2562.191648
368.322893	2563.595609
368.710388	2562.181566
369.097820	2561.939590
369.485189	2560.296174
369.872495	2565.075188
370.259738	2565.896896
370.646918	2567.711712
371.034035	2570.244891
371.421090	2565.801114
371.808081	2570.559963
372.195010	2568.689695
372.581875	2569.947463
372.968678	2569.904613
373.355418	2569.821434
373.742096	2570.471743
374.128710	2571.026270
374.515262	2570.527196
374.901751	2572.515931
375.288177	2572.994841
375.674540	2569.692885
376.060841	2572.319326
376.447079	2574.761765
376.833254	2572.049624
377.219367	2570.527196
377.605417	2572.964594
377.991404	2570.542319
378.377329	2572.823442
378.763191	2572.909141
379.148991	2572.883935
379.534727	2576.813515
379.920402	2577.239492
380.306013	2574.925603
380.691563	2576.511046
381.077049	2571.142217
381.462474	2575.419636
381.847835	2575.175140
382.233134	2576.322002
382.618371	2577.695717
383.003545	2575.616241
383.388657	2576.208576
383.773706	2577.821746
384.158693	2576.894173
384.543618	2578.293093
384.928480	2578.698906
385.313280	2579.490368
385.698017	2577.610017
386.082692	2580.533886
386.467305	2580.869123
386.851856	2583.941706
387.236344	2579.195460
387.620770	2579.001376
388.005133	2576.939544
388.389435	2577.970460
388.773674	2581.307703
389.157851	2581.842066
389.541965	2584.360122
389.926018	2583.374577
390.310008	2582.688980
390.693936	2585.736357
391.077802	2583.624114
391.461606	2584.586974
391.845348	2585.569999
392.229027	2585.612849
392.612645	2585.585122
392.996200	2586.406831
393.379694	2584.508836
393.763125	2587.503282
394.146494	2585.806933
394.529801	2588.481265
394.913047	2586.578230
395.296230	2587.251224
395.679351	2588.196440
396.062410	2586.699217
396.445408	2585.446491
396.828343	2588.471183
397.211217	2589.804568
397.594028	2589.129054
397.976778	2588.282140
398.359466	2592.373036
398.742092	2588.289702
399.124656	2591.258941
399.507158	2588.357757
399.889598	2591.034610
400.271977	2590.356575
400.654294	2590.853128
401.036549	2592.816658
401.418742	2593.527460
401.800874	2593.638366
402.182944	2589.920515
402.564952	2593.446802
402.946898	2591.697522
403.328783	2595.400249
403.710606	2594.548294
404.092367	2595.763212
404.474067	2596.582400
404.855705	2593.477049
405.237282	2596.398397
405.618797	2596.249683
406.000250	2597.139447
406.381642	2599.292020
406.762972	2595.390167
407.144240	2596.211875
407.525447	2594.875969
407.906593	2592.894796
408.287677	2597.522575
408.668700	2599.949890
409.049661	2600.751434
409.430560	2599.221444
409.811399	2600.398553
410.192176	2603.294696
410.572891	2600.002822
410.953545	2601.361413
411.334138	2601.568101
411.714669	2605.661518
412.095139	2604.398709
412.475547	2603.461054
412.855894	2600.587596
413.236180	2604.469285
413.616405	2605.212855
413.996568	2602.047010
414.376670	2603.239243
414.756711	2602.541043
415.136691	2606.596652
415.516609	2605.822835
415.896466	2606.135386
416.276262	2606.533637
416.655997	2607.793926
417.035670	2605.895931
417.415283	2608.335850
417.794834	2607.244440
418.174324	2606.458020
418.553753	2610.039760
418.933121	2610.153186
419.312428	2611.932713
419.691674	2609.949019
420.070859	2611.864657
420.449983	2611.113526
420.829045	2612.701489
421.208047	2610.911879
421.586988	2611.635285
421.965867	2612.676283
422.344686	2614.496140
422.723444	2617.956892
423.102141	2616.570575
423.480777	2617.178034
423.859352	2615.862292
424.237866	2620.931173
424.616319	2621.488220
424.994712	2621.485700
425.373044	2621.518467
425.751314	2622.093159
426.129524	2619.433950
426.507673	2621.372274
426.885762	2622.433437
427.263789	2627.484673
427.641756	2628.487862
428.019662	2627.363685
428.397508	2628.818058
428.775292	2628.450054
429.153016	2631.073974
429.530679	2633.579428
429.908282	2635.154788
430.285824	2634.259983
430.663305	2636.427680
431.040726	2639.996817
431.418086	2642.787095
431.795385	2644.977477
432.172624	2646.754483
432.549802	2650.210194
432.926920	2650.926038
433.303977	2657.073725
433.680974	2661.867862
434.057910	2665.711742
434.434786	2670.238698
434.811601	2675.118535
435.188355	2682.697910
435.565050	2686.561955
435.941683	2693.536391
436.318257	2703.883359
436.694770	2712.123125
437.071222	2722.507902
437.447614	2726.351782
437.823946	2739.466344
438.200218	2749.289032
438.576429	2756.760022
438.952580	2773.123607
439.328670	2784.952675
439.704700	2801.976651
440.080670	2813.795637
440.456580	2836.816066
440.832429	2856.421113
441.208218	2864.393698
441.583947	2884.250803
441.959616	2910.119484
442.335224	2932.897937
442.710773	2960.863738
443.086261	2995.703153
443.461689	3006.687827
443.837057	3043.274001
444.212365	3085.274374
444.587612	3113.983745
444.962800	3135.716159
445.337927	3180.408509
445.712995	3178.996986
446.088002	3269.168105
446.462949	3317.575784
446.837837	3356.460725
447.212664	3402.776326
447.587431	3542.885114
447.962139	3716.275601
448.336786	3884.057804
448.711374	3912.283224
449.085901	3817.605314
449.460369	3857.329606
449.834776	3896.930390
450.209124	4113.334522
450.583412	4159.375380
450.957640	4274.563225
451.331808	4277.222433
451.705917	4246.983072
452.079965	4297.686998
452.453954	4415.486160
452.827883	4484.403774
453.201752	4557.548396
453.575562	4637.884224
453.949311	4808.638187
454.323001	4913.040483
454.696632	4987.342049
455.070202	5242.653807
455.443713	5355.875601
455.817164	5506.285988
456.190556	5711.438264
456.563888	5777.784890
456.937160	5962.679290
457.310373	5906.440178
457.683526	6013.728534
458.056619	6135.878213
458.429653	6274.356188
458.802628	6444.626200
459.175542	6583.308343
459.548398	6921.418531
459.921194	7282.594519
460.293930	7543.380969
460.666607	8062.070330
461.039224	8561.313439
461.411782	8869.355665
461.784280	8859.880817
462.156719	8978.907500
462.529099	9087.335158
462.901419	8918.799302
463.273680	8854.864869
463.645882	9105.644628
464.018024	9198.490079
464.390106	9537.376606
464.762130	10297.822060
465.134094	11327.601242
465.505999	12817.859580
465.877845	14334.170601
466.249631	15292.158711
466.621358	15220.556682
466.993026	14932.880717
467.364634	14672.638712
467.736184	14337.535572
468.107674	14109.531745
468.479105	14196.600033
468.850477	14169.266897
469.221790	14036.235888
469.593043	13732.803797
469.964238	13597.204321
470.335373	13775.557823
470.706449	14427.313480
471.077467	15221.212032
471.448425	17213.297071
471.819324	18821.011773
472.190164	18897.544051
472.560945	17657.090009
472.931667	16549.286369
473.302330	16423.927996
473.672934	16104.311281
474.043479	16564.054429
474.413965	16502.648134
474.784393	16464.416023
475.154761	17117.633615
475.525070	17340.054364
475.895321	17304.806616
476.265513	17858.300103
476.635645	18475.634762
477.005719	18620.005846
477.375734	19041.650474
477.745691	19668.066772
478.115588	20338.401602
478.485427	21479.998617
478.855207	23178.882586
479.224928	24894.987137
479.594591	26243.117705
479.964194	26027.920929
480.333739	26536.437241
480.703226	26832.700812
481.072653	27327.893354
481.442022	27895.539880
481.811333	28352.162554
482.180584	28029.684984
482.549777	27901.140602
482.918912	27773.566642
483.287988	27796.196382
483.657005	27730.187513
484.025964	27441.752855
484.394864	27689.565895
484.763706	27678.127517
485.132489	27239.831958
485.501213	27375.476805
485.869879	27583.941119
486.238487	27564.603253
486.607036	27884.227531
486.975527	27622.871430
487.343959	28013.265946
487.712333	28389.620848
488.080648	28377.607778
488.448905	28853.381796
488.817104	28762.540203
489.185244	29604.513719
489.553326	30578.431874
489.921350	32438.647891
490.289315	34921.169143
490.657222	35828.755797
491.025070	36404.367346
491.392861	36169.010996
491.760593	35446.573321
492.128267	34481.935929
492.495883	33518.994886
492.863440	32679.481454
493.230939	31741.184091
493.598380	31220.823588
493.965763	31099.803129
494.333088	30612.810023
494.700354	30442.250144
495.067563	30417.790466
495.434713	30322.449644
495.801805	30602.573960
496.168839	30453.751537
496.535815	30319.094756
496.902733	30451.805652
497.269593	30288.835230
497.636395	30434.365780
498.003139	30706.895598
498.369825	30481.298922
498.736453	30885.796066
499.103023	30729.401829
499.469535	30813.841156
499.835989	30942.075507
500.202385	30806.907049
500.568723	30847.145539
500.935003	31146.680818
501.301226	31035.271318
501.667390	31735.787536
502.033497	31927.701743
502.399546	31747.057036
502.765537	31342.575016
503.131470	31815.170586
503.497345	32232.689030
503.863163	31209.360005
504.228923	31959.022431
504.594625	32338.404546
504.960269	31826.974447
505.325856	32468.166367
505.691385	32135.147744
506.056856	32455.455098
506.422270	32926.767694
506.787625	32454.938379
507.152924	32896.556059
507.518164	33081.248813
507.883347	32664.519309
508.248472	32790.550676
508.613540	33467.013028
508.978550	33657.747605
509.343503	33511.569267
509.708398	33871.081674
510.073236	34452.868636
510.438016	34558.022064
510.802738	34233.540635
511.167403	34762.226604
511.532010	34990.974001
511.896561	35487.482284
512.261053	36229.933340
512.625488	36001.856417
512.989866	35923.542092
513.354186	35987.166494
513.718449	35944.523374
514.082655	36802.948695
514.446803	36492.557291
514.810894	37082.979750
515.174927	37107.842721
515.538904	37093.757737
515.902822	37718.296205
516.266684	37409.661643
516.630488	37738.637260
516.994235	37743.829649
517.357925	38316.214859
517.721558	38563.833816
518.085133	38947.858833
518.448651	39122.897777
518.812112	39001.073253
519.175516	39166.869242
519.538863	39592.781207
519.902152	39648.952263
520.265385	40187.871774
520.628560	40203.706038
520.991678	40147.144292
521.354739	40342.121000
521.717743	40709.938708
522.080690	40631.763014
522.443580	41282.820472
522.806413	41290.712398
523.169189	41432.265478
523.531908	41646.854794
523.894569	41505.952023
524.257174	41694.773482
524.619722	42032.107333
524.982213	42185.368492
525.344647	42215.335631
525.707025	42329.288393
526.069345	42767.268880
526.431608	42684.011704
526.793815	43058.193869
527.155964	42602.738222
527.518057	42857.276162
527.880093	42708.408368
528.242072	43310.480934
528.603995	43077.831684
528.965860	43002.600024
529.327669	43227.687543
529.689421	43262.325312
530.051117	43222.664034
530.412755	43502.259029
530.774337	43538.643557
531.135862	43472.433042
531.497331	43649.649764
531.858743	43623.143378
532.220098	44019.793965
532.581396	43761.049182
532.942638	43537.784040
533.303824	43772.593424
533.664953	43838.967777
534.026025	43511.973332
534.387040	44088.550262
534.747999	44140.338036
535.108902	44470.021936
535.469748	43797.171570
535.830537	44072.065689
536.191270	44308.198377
536.551947	44065.829782
536.912567	44332.723590
537.273131	44455.160614
537.633638	44081.147328
537.994089	44264.166418
538.354483	44040.145103
538.714821	44671.809242
539.075103	44938.398060
539.435328	44816.036653
539.795497	44593.255462
540.155609	44721.172220
540.515665	45285.315144
540.875665	44585.701293
541.235609	44851.123084
541.595496	45010.650398
541.955328	45587.980980
542.315102	45033.779211
542.674821	44914.593732
543.034483	44825.267006
543.394090	44835.699674
543.753640	44832.856463
544.113134	45869.042951
544.472571	44983.380276
544.831953	46101.130112
545.191278	45360.773656
545.550548	45068.517802
545.909761	45706.314505
546.268918	45823.294480
546.628019	46227.088382
546.987064	45683.563778
547.346053	45012.712229
547.704986	45888.728657
548.063863	45537.088011
548.422684	45747.455361
548.781449	45322.914590
549.140158	45845.795670
549.498811	45605.889679
549.857408	45021.786306
550.215949	45849.334560
550.574434	45691.548965
550.932864	45639.070554
551.291237	46357.329113
551.649555	46092.907990
552.007817	46259.054339
552.366022	45980.797770
552.724173	46043.050979
553.082267	46424.016016
553.440305	46796.912687
553.798288	46052.087247
554.156215	46439.925898
554.514086	46625.649567
554.871902	46242.277379
555.229661	46404.229487
555.587365	46098.294463
555.945014	46220.383648
556.302606	46242.499190
556.660143	46325.012796
557.017625	46564.923828
557.375050	46260.390245
557.732421	46652.748290
558.089735	46715.001498
558.446994	46573.234170
558.804197	47037.005200
559.161345	46917.088753
559.518437	46287.539379
559.875474	46520.012188
560.232455	46748.588186
560.589381	46772.974768
560.946251	46582.237671
561.303065	47241.552538
561.659825	46925.139476
562.016528	46751.438958
562.373177	46322.310737
562.729770	46972.828791
563.086307	46488.583115
563.442789	47031.591001
563.799216	46863.382821
564.155587	46779.876107
564.511904	46737.563183
564.868164	46780.846529
565.224370	47096.027030
565.580520	46823.255236
565.936615	47035.323976
566.292654	46679.466405
566.648638	47051.624547
567.004567	46991.012233
567.360441	47062.551247
567.716260	46758.741070
568.072023	47177.819751
568.427732	47101.040457
568.783385	46629.259033
569.138982	47049.043476
569.494525	47186.240998
569.850013	46812.910788
570.205445	46932.066021
570.560823	46689.054680
570.916145	46538.258645
571.271412	46780.108000
571.626625	46424.588187
571.981782	46516.778288
572.336884	46128.899308
572.691931	46456.060111
573.046923	46121.330016
573.401860	45959.713144
573.756743	45975.408777
574.111570	46113.929602
574.466342	46021.121960
574.821059	46172.250711
575.175722	45675.245874
575.530330	45769.475121
575.884882	45414.093940
576.239380	45320.457028
576.593823	45432.678153
576.948211	45370.429986
577.302544	44917.845276
577.656823	44897.471453
578.011047	45174.684502
578.365216	45025.985588
578.719330	44745.064769
579.073389	44700.977358
579.427394	44765.448674
579.781344	44663.574517
580.135239	44427.464515
580.489080	44499.142161
580.842866	43991.654244
581.196597	44485.717568
581.550273	44470.198376
581.903895	44419.103761
582.257463	44844.332650
582.610975	44279.433553
582.964434	44598.359630
583.317837	44100.918733
583.671186	44075.763376
584.024481	44355.476838
584.377721	43926.197382
584.730906	44142.835928
585.084037	44287.796827
585.437113	43999.541129
585.790135	44108.223365
586.143103	43694.531157
586.496016	43863.122465
586.848874	43972.457530
587.201679	43986.340868
587.554428	43503.796581
587.907124	43765.891210
588.259765	43533.390674
588.612352	43690.536043
588.964884	43174.647043
589.317362	43445.528404
589.669786	43454.423520
590.022155	43346.797406
590.374470	43811.879136
590.726731	43403.187753
591.078937	42743.005807
591.431090	43104.902680
591.783188	42609.853810
592.135232	42421.602002
592.487222	42678.307638
592.839157	42823.475225
593.191038	42487.353772
593.542866	42293.012250
593.894639	41676.804289
594.246358	41971.578198
594.598022	41977.478869
594.949633	41565.747670
595.301190	41555.539333
595.652692	41498.475992
596.004141	42010.659744
596.355535	40908.701322
596.706876	40921.936871
597.058162	40630.510288
597.409395	41142.409214
597.760573	41358.619261
598.111698	40977.634059
598.462768	40892.693138
598.813785	40922.042735
599.164748	40530.105627
599.515657	40809.176342
599.866511	40307.538684
600.217312	40995.714158
600.568060	39944.250453
600.918753	40771.128233
601.269392	40683.709584
601.619978	40417.516497
601.970510	40637.850208
602.320988	40762.263364
602.671412	41021.915555
603.021783	40897.008365
603.372100	40470.698149
603.722363	40585.427249
604.072572	40621.191715
604.422728	40615.545623
604.772830	40380.431248
605.122878	40566.659033
605.472872	40421.456158
605.822813	40674.070898
606.172701	40424.894225
606.522534	40743.253173
606.872314	40958.674280
607.222041	40786.907045
607.571714	41133.801444
607.921333	40624.937292
608.270899	40816.438124
608.620411	41204.294418
608.969870	40970.306742
609.319276	40965.174847
609.668627	40985.599082
610.017926	41391.989179
610.367171	41543.433002
610.716362	41573.022055
611.065500	41484.275062
611.414585	41718.345917
611.763616	41881.296174
612.112594	41788.806125
612.461518	41909.599732
612.810389	42289.979996
613.159207	42081.228336
613.507971	42060.305027
613.856682	42558.088722
614.205340	42391.995306
614.553945	43068.729880
614.902496	42415.575303
615.250994	42837.986187
615.599439	42906.593770
615.947830	43005.261753
616.296169	43020.327242
616.644454	43066.138727
616.992686	43210.666087
617.340864	43650.569775
617.688990	43146.872806
618.037063	43836.767313
618.385082	43655.926001
618.733048	44010.873643
619.080961	43881.852872
619.428821	43918.837298
619.776628	43960.353720
620.124382	43785.750836
620.472083	43917.602215
620.819731	44029.725038
621.167326	43610.820277
621.514868	43591.598357
621.862357	43057.321749
622.209793	43157.471832
622.557176	42738.685538
622.904506	42484.167763
623.251783	42144.547749
623.599007	41820.139416
623.946179	41739.385173
624.293297	41476.882210
624.640363	40945.116096
624.987376	40808.142905
625.334336	40612.861208
625.681243	40205.979599
626.028097	40109.237336
626.374899	39923.133059
626.721647	39911.956821
627.068343	39678.115338
627.414987	39380.649453
627.761577	39145.348556
628.108115	39465.237494
628.454600	38721.238803
628.801032	38952.005183
629.147412	38848.777475
629.493739	38733.529137
629.840014	38296.388001
630.186236	38731.754650
630.532405	38146.764035
630.878521	38420.539018
631.224585	38178.782923
631.570597	37849.711524
631.916556	38013.652367
632.262462	37907.813342
632.608316	37870.715491
632.954117	37723.440702
633.299866	37670.760644
633.645562	37600.716332
633.991206	37101.039684
634.336797	36694.616819
634.682336	36595.306089
635.027823	36363.597014
635.373257	36247.453870
635.718639	35909.903250
636.063968	35807.509854
636.409245	35182.353845
636.754470	35135.660157
637.099642	34900.613838
637.444762	34328.851210
637.789829	34469.350689
638.134845	34068.122733
638.479808	33982.586956
638.824719	33942.782005
639.169577	33432.627318
639.514383	33548.999834
639.859137	33167.437420
640.203839	33323.123374
640.548489	33039.140054
640.893086	33022.796634
641.237632	32725.492065
641.582125	32830.116172
641.926566	32622.425675
642.270955	32645.259581
642.615292	32579.412029
642.959576	32464.151088
643.303809	32454.678760
643.647990	32567.590524
643.992118	32539.836451
644.336195	32364.336242
644.680219	32431.398711
645.024192	32613.522997
645.368112	33146.836745
645.711981	33162.544980
646.055797	33842.175697
646.399562	33632.980416
646.743274	34508.903582
647.086935	34908.374695
647.430544	34896.086882
647.774101	34925.335657
648.117606	35232.162965
648.461059	35372.980036
648.804460	34991.906614
649.147810	34498.624669
649.491108	34178.037531
649.834354	34093.613328
650.177548	33269.798049
650.520690	32752.278236
650.863781	32747.486619
651.206820	32561.745306
651.549807	32136.017343
651.892742	31559.896637
652.235626	31473.955047
652.578458	31330.418273
652.921238	30628.445162
653.263967	30914.354202
653.606644	30603.138569
653.949269	30516.750837
654.291843	30127.500663
654.634365	30482.037451
654.976836	30031.474244
655.319255	30125.227102
655.661622	29993.796660
656.003938	29853.032521
656.346203	29664.652164
656.688416	29916.102397
657.030577	29694.672235
657.372687	29516.308650
657.714746	29673.627938
658.056753	29852.447747
658.398708	29226.081861
658.740612	29294.737336
659.082465	29507.466466
659.424266	29386.035152
659.766016	29383.665810
660.107715	29245.525592
660.449362	29332.596401
660.790958	29309.134871
661.132503	29221.358300
661.473996	29314.372630
661.815438	29389.155627
662.156829	29507.736168
662.498168	29315.373299
662.839456	29285.761561
663.180693	29421.111501
663.521879	29476.241559
663.863013	29422.764999
664.204097	29404.354705
664.545129	29814.334104
664.886110	29742.033875
665.227040	29866.900735
665.567918	29845.589257
665.908746	29927.618913
666.249522	29988.445475
666.590248	30027.718584
666.930922	30126.946136
667.271545	30132.738422
667.612118	30195.646981
667.952639	30010.540852
668.293109	30027.232113
668.633528	29901.069676
668.973896	29861.849499
669.314213	29839.171869
669.654480	29646.607353
669.994695	29635.065632
670.334859	29547.624298
670.674973	29366.079745
671.015035	29554.510514
671.355047	29484.801438
671.695008	29398.663243
672.034918	29312.371292
672.374777	29400.999818
672.714585	29269.352605
673.054342	29420.683003
673.394049	29270.738923
673.733705	29485.655914
674.073310	29192.835452
674.412864	29256.109494
674.752368	28994.755914
675.091820	29220.546674
675.431223	28828.826335
675.770574	28616.256001
676.109875	28462.342012
676.449125	28258.608821
676.788324	28161.488472
677.127473	27678.984513
677.466571	27574.509121
677.805619	27303.053068
678.144616	27227.415596
678.483562	27185.150562
678.822458	26862.559566
679.161303	26804.871122
679.500098	26723.043112
679.838842	26647.365311
680.177535	26717.283594
680.516179	26916.336074
680.854771	26997.700297
681.193314	27667.750302
681.531805	28600.207488
681.870247	29365.532780
682.208638	30165.803350
682.546978	30519.281496
682.885268	30704.715299
683.223508	30296.205397
683.561697	30033.052125
683.899836	29880.620236
684.237925	29459.792274
684.575963	29300.509457
684.913951	28913.623584
685.251889	29048.421518
685.589776	29047.337669
685.927614	29038.528253
686.265401	29221.862416
686.603137	29315.267435
686.940824	29779.482087
687.278460	30101.755490
687.616046	30294.166250
687.953582	30959.217951
688.291068	30893.234288
688.628504	31260.273138
688.965889	31296.703036
689.303224	31043.372452
689.640510	30774.560485
689.977745	30191.276300
690.314930	29459.762027
690.652065	29056.668845
690.989150	28366.930614
691.326185	27540.965283
691.663170	26937.813910
692.000105	26224.911578
692.336990	25625.367151
692.673825	25193.582241
693.010610	24703.932448
693.347345	24193.293810
693.684030	23579.326642
694.020665	23375.842987
694.357251	22714.224313
694.693786	22723.278225
695.030272	22484.319971
695.366707	21993.692193
695.703093	21705.577648
696.039429	21771.780601
696.375716	21537.891227
696.711952	21521.041171
697.048139	21389.376314
697.384276	21216.908359
697.720363	21332.265083
698.056400	21248.153431
698.392388	21078.745456
698.728326	21075.685475
699.064214	20927.157959
699.400053	20934.190369
699.735842	20553.933614
700.071581	20379.895339
700.407270	20142.139400
700.742910	19959.604261
701.078501	19715.340192
701.414042	19509.963584
701.749533	19207.259940
702.084974	18895.484739
702.420366	19121.146950
702.755709	18722.961331
703.091002	18414.541018
703.426246	18475.155852
703.761440	18420.587882
704.096584	18183.734310
704.431679	18122.194424
704.766725	18063.752328
705.101721	17971.910067
705.436668	18093.669055
705.771565	17801.070404
706.106413	18114.978013
706.441212	18186.673303
706.775961	18270.240510
707.110661	18343.642231
707.445311	18705.629844
707.779913	18580.684846
708.114465	18879.360609
708.448967	19178.711886
708.783421	19768.612585
709.117825	20106.901735
709.452180	20322.411062
709.786485	20752.401320
710.120742	21501.907471
710.454949	21595.070515
710.789107	22106.157815
711.123216	22790.280201
711.457275	23025.568495
711.791286	23600.484365
712.125247	23759.515124
712.459159	23530.477861
712.793023	24297.159223
713.126837	23312.677330
713.460602	23593.688889
713.794318	23276.076032
714.127985	23009.454447
714.461602	22142.590234
714.795171	22116.202314
715.128691	21146.959829
715.462162	20633.790532
715.795584	20205.030315
716.128957	19929.390105
716.462281	19563.498118
716.795556	19273.251164
717.128782	18807.549372
717.461960	18218.455257
717.795088	18178.294905
718.128167	17854.284824
718.461198	17402.652892
718.794180	17285.758617
719.127113	16956.488091
719.459997	16773.695853
719.792833	16401.754481
720.125619	16437.390397
720.458357	16102.045282
720.791046	15967.985878
721.123686	15815.044832
721.456278	15581.881384
721.788821	15583.423977
722.121315	15326.584750
722.453761	15420.088072
722.786158	15290.875737
723.118506	15387.118926
723.450805	15267.174752
723.783056	15445.934068
724.115259	15330.615153
724.447412	15311.176464
724.779518	15513.543503
725.111574	15560.179217
725.443582	15822.324258
725.775542	15763.756133
726.107453	16257.958088
726.439315	16171.086404
726.771129	16567.754636
727.102895	16954.239737
727.434612	17246.997185
727.766281	17418.368689
728.097901	17742.131754
728.429473	17840.608173
728.760996	17872.516157
729.092471	17995.016195
729.423897	17876.715438
729.755276	17722.360348
730.086606	17803.898491
730.417887	18351.125823
730.749120	18889.853770
731.080305	19106.721688
731.411442	19517.167393
731.742530	19634.827924
732.073570	19782.246386
732.404562	20100.184397
732.735506	19997.102883
733.066401	19869.133193
733.397249	19436.408109
733.728048	18856.420838
734.058798	18010.878186
734.389501	17262.249196
734.720156	16739.365595
735.050762	16160.200033
735.381320	15754.830770
735.711831	15462.947962
736.042293	15093.401138
736.372707	15097.676037
736.703073	14887.487647
737.033391	15075.500001
737.363661	15061.725048
737.693883	15161.428989
738.024056	15358.039030
738.354182	15553.232507
738.684260	15901.177986
739.014290	16171.288051
739.344272	16385.680762
739.674207	16730.215901
740.004093	16915.805980
740.333931	16991.609810
740.663722	17074.940083
740.993464	17139.570196
741.323159	17002.113054
741.652806	16716.783747
741.982405	16564.119964
742.311956	16217.588528
742.641460	16114.418794
742.970915	15791.104392
743.300323	15444.522545
743.629683	15245.381844
743.958996	14938.383137
744.288260	14624.760353
744.617477	14322.495289
744.946647	14282.632365
745.275768	13962.178818
745.604842	13771.661011
745.933869	13590.789452
746.262847	13545.237586
746.591778	13454.096045
746.920662	13330.630626
747.249498	13329.607272
747.578286	13471.361997
747.907027	13625.820430
748.235720	13888.048651
748.564365	13969.710302
748.892963	13907.648657
749.221514	14015.846942
749.550017	13908.987083
749.878473	13880.325603
750.206881	13664.274352
750.535242	13597.433693
750.863555	13517.791024
751.191821	13417.938369
751.520039	13424.537240
751.848210	13338.714116
752.176334	13386.252197
752.504411	13319.935818
752.832440	13150.467349
753.160421	13261.264349
753.488356	13152.352741
753.816243	13057.926888
754.144082	12897.040983
754.471875	12831.390037
754.799620	12796.096919
755.127318	12773.658743
755.454969	12770.233279
755.782572	12732.215417
756.110129	12739.588105
756.437638	12649.737099
756.765100	12656.247749
757.092515	12679.263137
757.419882	12713.918549
757.747203	12715.559445
758.074477	12791.625415
758.401703	12771.904422
758.728882	12962.671765
759.056014	13004.271367
759.383099	13171.766224
759.710138	13296.267601
760.037129	13418.250921
760.364073	13493.880831
760.690970	13514.063091
761.017820	13527.013815
761.344623	13708.944016
761.671379	14030.516699
761.998088	14577.491974
762.324751	15969.130220
762.651366	18891.580366
762.977935	23168.175175
763.304456	26452.212163
763.630931	28033.223874
763.957359	27244.903359
764.283740	25224.822272
764.610074	23082.341969
764.936362	20473.902776
765.262602	18596.115818
765.588796	16618.266998
765.914943	15302.397294
766.241044	14148.547755
766.567097	13336.435514
766.893104	12599.045777
767.219064	12133.548151
767.544978	11647.081846
767.870845	11249.967472
768.196665	11022.432473
768.522438	10791.711464
768.848165	10592.772410
769.173846	10385.006296
769.499479	10253.888405
769.825066	10090.318086
770.150607	9866.453046
770.476101	9788.335326
770.801548	9667.667747
771.126949	9512.155713
771.452303	9402.891224
771.777611	9200.861942
772.102872	9195.810706
772.428087	9063.982012
772.753256	8908.918641
773.078378	8826.498296
773.403453	8647.605390
773.728482	8526.224488
774.053465	8451.446532
774.378401	8354.542952
774.703291	8233.436793
775.028135	8113.908515
775.352932	8081.463648
775.677683	7978.969429
776.002388	7872.069241
776.327046	7878.700879
776.651658	7788.328114
776.976224	7687.157198
777.300743	7682.743667
777.625216	7597.238136
777.949643	7549.783235
778.274024	7570.986328
778.598359	7485.566496
778.922647	7500.410174
779.246889	7449.199613
779.571086	7459.140768
779.895236	7465.101932
780.219339	7472.595608
780.543397	7472.459496
780.867409	7552.132412
781.191374	7557.435706
781.515294	7524.653083
781.839167	7614.705734
782.162995	7596.350893
782.486776	7547.252575
782.810511	7501.393199
783.134201	7413.677122
783.457844	7401.953919
783.781441	7356.853236
784.104993	7293.750592
784.428498	7267.098012
784.751958	7249.920280
785.075372	7226.975469
785.398739	7165.773340
785.722061	7208.799588
786.045337	7204.776748
786.368568	7344.938469
786.691752	7350.143460
787.014891	7643.100033
787.337983	7949.294677
787.661030	8494.934046
787.984031	9114.295248
788.306987	9548.618379
788.629897	9807.017842
788.952760	9808.015991
789.275579	9620.671591
789.598351	9256.768338
789.921078	8923.464890
790.243759	8515.756532
790.566395	8225.491934
790.888984	7972.564643
791.211529	7763.923888
791.534027	7536.898045
791.856480	7332.922878
792.178888	7255.470591
792.501249	7159.655900
792.823566	7002.394585
793.145836	7000.446179
793.468062	6966.988041
793.790241	6905.407827
794.112375	6970.070707
794.434464	7109.476255
794.756507	7138.046994
795.078505	7270.256295
795.400457	7551.192237
795.722364	7890.013228
796.044226	8170.114859
796.366042	8462.322822
796.687812	8437.502701
797.009538	8534.078605
797.331218	8447.632899
797.652852	8372.880149
797.974442	8226.626194
798.295986	8148.984863
798.617484	7958.991336
798.938938	7823.401942
799.260346	7720.600212
799.581709	7526.566201
799.903026	7442.396575
800.224299	7340.361101
800.545526	7180.735485
800.866708	7075.496357
801.187845	7009.742067
801.508936	6904.066880
801.829983	6866.303596
802.150984	6718.229784
802.471940	6676.357960
802.792851	6663.671897
803.113717	6627.496577
803.434538	6598.444407
803.755314	6545.293002
804.076045	6536.836466
804.396731	6484.844526
804.717372	6509.631879
805.037967	6505.939234
805.358518	6539.409975
805.679024	6624.071113
805.999485	6630.788450
806.319901	6670.648854
806.640272	6692.661052
806.960598	6774.317662
807.280879	6781.985257
807.601115	6856.667431
807.921306	6800.975283
808.241453	6815.327448
808.561554	6845.332396
808.881611	6807.417878
809.201623	6817.724517
809.521590	6765.178050
809.841513	6744.204329
810.161390	6784.679754
810.481223	6656.634446
810.801011	6646.042982
811.120755	6622.165557
811.440453	6543.253855
811.760107	6509.112640
812.079716	6477.509647
812.399281	6416.673002
812.718801	6403.354274
813.038276	6364.537389
813.357707	6303.587319
813.677093	6340.067628
813.996434	6244.943576
814.315731	6281.789369
814.634983	6273.859634
814.954191	6278.515140
815.273354	6376.036261
815.592473	6426.808242
815.911547	6548.872221
816.230577	6623.861905
816.549562	6765.374655
816.868502	6863.382248
817.187399	6956.262987
817.506250	7091.559994
817.825058	7121.491845
818.143821	7358.413473
818.462539	7594.709998
818.781213	7917.880727
819.099843	8388.727017
819.418429	9298.950193
819.736970	10182.908958
820.055466	11271.238621
820.373919	12634.686734
820.692327	14622.905208
821.010691	17911.287671
821.329011	25300.573170
821.647286	36880.564820
821.965517	50745.603124
822.283704	58271.461042
822.601847	61460.436992
822.919945	59272.223342
823.237999	55393.955304
823.556010	49397.427186
823.873976	42791.105976
824.191897	36356.380602
824.509775	31523.859949
824.827609	26909.530517
825.145398	24121.293530
825.463144	22465.960089
825.780845	22348.198735
826.098502	23580.886879
826.416116	26855.539759
826.733685	30538.611800
827.051210	32372.651625
827.368692	31435.425508
827.686129	27945.737169
828.003522	23977.534946
828.320872	20259.295816
828.638177	17381.532978
828.955439	15197.253948
829.272656	13380.475034
829.589830	11905.428378
829.906960	10616.980031
830.224046	9651.067228
830.541088	8878.517962
830.858086	8394.708346
831.175041	7995.270000
831.491952	7832.349990
831.808819	7822.978485
832.125642	8119.226932
832.442421	8810.646388
832.759157	10277.914544
833.075849	12828.380468
833.392497	15940.123420
833.709101	18394.883039
834.025662	18759.219830
834.342179	17428.980318
834.658653	15380.940992
834.975083	13477.497081
835.291469	11840.095024
835.607811	10515.703250
835.924110	9611.103481
836.240366	8749.920648
836.556578	7952.470604
836.872746	7302.890204
837.188871	6789.297451
837.504952	6363.110743
837.820990	6043.688112
838.136984	5811.149767
838.452935	5697.358322
838.768842	5673.916956
839.084706	5957.232323
839.400526	6915.328817
839.716303	8399.343687
840.032037	9635.303540
840.347727	9858.596408
840.663373	9070.215399
840.978977	8041.399078
841.294537	7213.243366
841.610054	6604.766014
841.925527	6164.680845
842.240957	5811.124561
842.556344	5489.292258
842.871687	5211.791863
843.186987	4926.056742
843.502244	4697.107699
843.817458	4533.555024
844.132629	4393.060587
844.447756	4299.322852
844.762840	4217.119277
845.077881	4145.378616
845.392879	4081.265222
845.707833	4035.597409
846.022745	3986.428515
846.337613	3963.110658
846.652438	3922.327723
846.967221	3898.611615
847.281960	3869.902244
847.596656	3855.847507
847.911309	3835.246832
848.225919	3808.609375
848.540485	3796.283754
848.855009	3784.658853
849.169490	3762.140019
849.483928	3749.849686
849.798323	3743.490270
850.112675	3722.929924
850.426984	3727.431674
850.741251	3716.026064
851.055474	3705.595917
851.369654	3713.901217
851.683792	3708.920558
851.997887	3714.972463
852.311938	3717.596383
852.625947	3721.359605
852.939914	3714.778378
853.253837	3716.555385
853.567718	3720.936148
853.881555	3706.957028
854.195350	3723.852455
854.509103	3716.774675
854.822812	3717.036815
855.136479	3709.459961
855.450103	3715.897514
855.763685	3705.434600
856.077224	3706.841082
856.390720	3720.779872
856.704173	3736.359558
857.017584	3751.188112
857.330953	3760.993156
857.644278	3782.876805
857.957561	3789.427784
858.270802	3790.277219
858.584000	3792.976757
858.897155	3788.260757
859.210268	3774.014457
859.523339	3751.241044
859.836367	3750.222731
860.149352	3745.141248
860.462295	3735.802510
860.775195	3727.557703
861.088054	3720.192578
861.400869	3715.847103
861.713642	3719.708627
862.026373	3724.530490
862.339062	3727.857652
862.651708	3745.912544
862.964312	3779.133748
863.276873	3784.305972
863.589392	3837.817820
863.901869	3880.362638
864.214303	3926.005245
864.526696	3956.340388
864.839045	4002.098942
865.151353	4033.911143
865.463619	4041.989592
865.775842	4046.284655
866.088023	4065.141091
866.400162	4053.012075
866.712258	4063.802665
867.024313	4067.286102
867.336325	4064.145463
867.648296	4067.626380
867.960224	4068.120413
868.272110	4076.768512
868.583954	4078.913523
868.895755	4092.461624
869.207515	4083.569029
869.519233	4122.811891
869.830909	4138.699088
870.142542	4160.628107
870.454134	4174.519006
870.765684	4203.548491
871.077191	4235.131319
871.388657	4255.812653
871.700081	4291.405720
872.011463	4332.402903
872.322803	4362.024723
872.634101	4390.976070
872.945357	4431.103655
873.256571	4483.836644
873.567744	4515.905945
873.878874	4532.312380
874.189963	4573.206220
874.501010	4579.734514
874.812015	4576.936674
875.122979	4618.715236
875.433900	4615.025112
875.744780	4632.147391
876.055618	4651.160102
876.366415	4649.562057
876.677169	4665.784490
876.987882	4707.908371
877.298554	4754.120628
877.609183	4821.344415
877.919771	4917.937964
878.230317	5038.265265
878.540822	5224.782916
878.851285	5499.624103
879.161707	5886.726745
879.472087	6522.247367
879.782425	7529.663990
880.092722	9334.661727
880.402977	12153.480873
880.713191	15633.926256
881.023363	19305.270053
881.333494	21748.563567
881.643583	23200.468807
881.953631	23419.181787
882.263637	22777.750413
882.573602	21497.103252
882.883526	20072.992413
883.193408	18511.958796
883.503248	16916.007626
883.813048	15447.365755
884.122806	14090.801338
884.432522	12671.988752
884.742197	11456.037239
885.051831	10387.962932
885.361424	9398.218074
885.670975	8587.966019
885.980485	7894.129330
886.289954	7324.562125
886.599382	6865.983483
886.908768	6485.754454
887.218113	6132.319158
887.527417	5842.200754
887.836680	5578.326597
888.145901	5366.814905
888.455082	5206.002098
888.764221	5055.019540
889.073319	4923.463068
889.382376	4845.920040
889.691392	4779.611223
890.000366	4752.883025
890.309300	4735.455756
890.618193	4736.118668
890.927044	4718.131831
891.235855	4735.339810
891.544625	4758.844190
891.853353	4803.821364
892.162041	4902.713679
892.470687	5058.734870
892.779293	5272.920894
893.087858	5587.783802
893.396381	6072.619293
893.704864	6753.454847
894.013306	7765.358097
894.321707	8889.913491
894.630068	9770.214899
894.938387	10112.539492
895.246665	9995.302418
895.554903	9478.432914
895.863100	8834.125562
896.171256	8306.422618
896.479371	7820.059657
896.787446	7341.661719
897.095480	6927.278872
897.403473	6617.746985
897.711425	6313.478063
898.019336	6051.249842
898.327207	5794.917252
898.635038	5571.105144
898.942827	5327.438453
899.250576	5135.153721
899.558284	4948.699085
899.865952	4825.924303
900.173579	4681.490204
900.481165	4575.888114
900.788711	4487.814115
901.096216	4411.861570
901.403681	4345.900593
901.711105	4320.052077
902.018489	4297.316473
902.325832	4345.499821
902.633135	4433.147842
902.940397	4689.142676
903.247619	5296.755470
903.554800	6480.302446
903.861941	8219.016572
904.169041	9774.250343
904.476101	10611.880904
904.783121	10483.454989
905.090100	9865.611174
905.397039	9086.495806
905.703938	8362.964200
906.010796	7706.878191
906.317614	7179.550814
906.624391	6666.089130
906.931129	6253.248877
907.237826	5875.850456
907.544483	5519.130848
907.851099	5156.603831
908.157675	4813.389474
908.464211	4491.695803
908.770707	4252.813167
909.077163	4049.198442
909.383578	3900.842326
909.689954	3782.904531
909.996289	3709.124724
910.302584	3643.098212
910.608839	3606.963221
910.915054	3576.696133
911.221229	3563.727765
911.527363	3566.991912
911.833458	3579.239395
912.139513	3603.757047
912.445527	3624.226652
912.751502	3693.829863
913.057436	3781.024181
913.363331	3889.776993
913.669186	4065.128488
913.975000	4283.954894
914.280775	4634.584788
914.586510	5126.649295
914.892205	5809.397966
915.197859	6725.068109
915.503475	7848.000252
915.809050	8890.031958
916.114585	9596.486655
916.420081	9958.701121
916.725536	10011.098874
917.030952	9644.397781
917.336328	9284.091392
917.641665	8921.594622
917.946961	8476.314544
918.252218	8081.796365
918.557435	7598.619413
918.862612	7192.418359
919.167750	6843.963723
919.472848	6446.793897
919.777906	6088.892138
920.082925	5742.532101
920.387904	5386.636722
920.692843	5117.436586
920.997743	4874.551273
921.302603	4642.958145
921.607423	4484.383610
921.912204	4318.002848
922.216946	4208.889593
922.521647	4092.892643
922.826310	3990.957992
923.130932	3899.221595
923.435516	3802.985968
923.740059	3738.030700
924.044564	3663.898013
924.349028	3606.018005
924.653454	3546.050959
924.957840	3474.927840
925.262186	3431.372271
925.566493	3376.963097
925.870761	3322.531239
926.174989	3287.308697
926.479178	3251.501381
926.783328	3212.666852
927.087438	3184.111236
927.391509	3151.230310
927.695541	3122.233593
927.999533	3097.317691
928.303486	3075.492015
928.607400	3063.791497
928.911275	3049.605690
929.215110	3034.083977
929.518906	3026.144160
929.822663	3022.338089
930.126381	3018.960516
930.430060	3024.341948
930.733699	3025.561907
931.037299	3036.140768
931.340861	3032.745551
931.644383	3042.515307
931.947866	3043.999927
932.251309	3037.771581
932.554714	3038.426931
932.858080	3029.851929
933.161407	3023.484951
933.464694	3016.024044
933.767943	3013.092613
934.071153	3010.050276
934.374323	2995.383039
934.677455	2994.909171
934.980548	2984.347953
935.283602	2976.468630
935.586617	2971.601396
935.889593	2980.869557
936.192530	2985.215032
936.495428	2998.085098
936.798287	3012.533045
937.101108	3039.535985
937.403890	3086.862337
937.706632	3139.907879
938.009336	3212.167778
938.312002	3283.515228
938.614628	3348.238603
938.917216	3400.137282
939.219765	3431.175666
939.522275	3464.953917
939.824747	3472.422387
940.127179	3466.257055
940.429573	3467.731593
940.731929	3467.058599
941.034246	3452.023358
941.336524	3445.104374
941.638763	3431.838578
941.940964	3419.364242
942.243126	3380.927965
942.545250	3361.461549
942.847335	3324.550221
943.149381	3293.595016
943.451389	3260.643513
943.753359	3228.276785
944.055290	3204.603527
944.357182	3176.652849
944.659036	3161.002587
944.960851	3149.644867
945.262628	3137.644401
945.564367	3139.822179
945.866067	3133.324132
946.167729	3128.693832
946.469352	3130.627115
946.770937	3125.792648
947.072484	3109.318157
947.373992	3112.428549
947.675462	3104.763475
947.976893	3091.222936
948.278286	3083.918304
948.579641	3078.015112
948.880958	3069.939184
949.182236	3071.678382
949.483476	3064.986250
949.784678	3064.134295
950.085841	3066.508679
950.386967	3073.331881
950.688054	3085.095413
950.989103	3103.430090
951.290114	3119.218983
951.591087	3147.877943
951.892021	3173.935667
952.192917	3203.116386
952.493776	3229.995819
952.794596	3236.801376
953.095378	3246.608941
953.396122	3242.979310
953.696828	3237.381109
953.997496	3229.332907
954.298126	3206.867005
954.598718	3189.802699
954.899272	3164.349913
955.199788	3139.091212
955.500266	3111.490895
955.800706	3079.933272
956.101108	3043.926830
956.401472	3016.155114
956.701798	2983.957264
957.002087	2944.132149
957.302337	2919.070052
957.602550	2890.365722
957.902724	2864.139119
958.202861	2838.850171
958.502960	2817.087510
958.803022	2798.578914
959.103045	2780.345060
959.403031	2761.551639
959.702979	2752.054105
960.002889	2737.732187
960.302762	2725.595609
960.602596	2715.810729
960.902393	2705.010057
961.202153	2698.675847
961.501875	2689.518591
961.801559	2682.501305
962.101205	2680.318486
962.400814	2671.945129
962.700385	2666.692247
962.999918	2661.525064
963.299414	2654.497696
963.598873	2653.365957
963.898293	2644.415388
964.197677	2649.612818
964.497022	2646.575522
964.796331	2644.337250
965.095601	2643.656694
965.394835	2637.385499
965.694030	2635.668986
965.993189	2633.854171
966.292309	2633.629839
966.591393	2630.766464
966.890439	2633.551701
967.189447	2631.026083
967.488419	2631.089098
967.787353	2633.786115
968.086249	2631.651186
968.385108	2635.999182
968.683930	2637.907258
968.982714	2642.522435
969.281462	2644.579225
969.580172	2650.437046
969.878844	2653.885195
970.177480	2662.684529
970.476078	2669.054027
970.774639	2675.209276
971.073162	2682.256809
971.371649	2687.063549
971.670098	2694.106041
971.968510	2700.384798
972.266885	2702.817155
972.565223	2707.334029
972.863524	2708.853937
973.161788	2712.617158
973.460014	2714.933568
973.758204	2716.322406
974.056356	2718.457335
974.354471	2724.368088
974.652550	2723.221225
974.950591	2722.843139
975.248595	2718.626214
975.546563	2717.602859
975.844493	2714.182437
976.142386	2709.214379
976.440243	2705.572146
976.738062	2701.360262
977.035845	2697.223995
977.333590	2688.880885
977.631299	2684.109433
977.928971	2676.814884
978.226606	2670.034532
978.524204	2671.040242
978.821765	2663.791063
979.119290	2664.864828
979.416777	2663.211330
979.714228	2667.345076
980.011642	2670.755417
980.309020	2676.588032
980.606360	2688.021369
980.903664	2704.712629
981.200931	2736.476939
981.498162	2776.405398
981.795356	2838.850171
982.092513	2915.735329
982.389633	3010.355266
982.686717	3104.866818
982.983764	3181.762059
983.280775	3239.725246
983.577749	3251.798809
983.874686	3250.283942
984.171587	3217.778582
984.468451	3183.712985
984.765279	3149.160917
985.062070	3108.544340
985.358824	3065.109759
985.655543	3018.796678
985.952224	2968.942187
986.248869	2908.014802
986.545478	2848.793847
986.842050	2797.500107
987.138586	2752.931266
987.435086	2714.469782
987.731549	2683.416275
988.027975	2660.703356
988.324366	2641.562095
988.620719	2626.516771
988.917037	2616.011007
989.213318	2608.101436
989.509563	2596.859663
989.805772	2594.371854
990.101944	2589.335741
990.398080	2587.208374
990.694180	2587.919177
990.990244	2585.844742
991.286271	2585.393559
991.582262	2585.358271
991.878217	2588.849270
992.174136	2591.747933
992.470019	2595.390167
992.765865	2597.850250
993.061676	2600.010384
993.357450	2607.342742
993.653188	2613.472786
993.948890	2627.537605
994.244556	2641.350366
994.540186	2666.321722
994.835780	2690.350382
995.131337	2724.068139
995.426859	2760.523243
995.722345	2806.841365
996.017795	2854.351719
996.313208	2891.835219
996.608586	2919.455701
996.903928	2934.826179
997.199234	2937.651745
997.494504	2938.995213
997.789738	2926.858635
998.084936	2908.105543
998.380099	2878.937427
998.675225	2853.295598
998.970316	2824.069508
999.265371	2791.102882
999.560390	2756.603746
999.855373	2729.603326
1000.150320	2699.220292
1000.445232	2675.766324
1000.740108	2655.952068
1001.034948	2637.418266
1001.329752	2622.866976
1001.624521	2609.102105
1001.919254	2597.648604
1002.213951	2591.364805
1002.508613	2584.549165
1002.803239	2579.220666
1003.097829	2571.038873
1003.392384	2569.176167
1003.686903	2564.805486
1003.981386	2559.469425
1004.275834	2556.215360
1004.570246	2551.232180
1004.864623	2552.106820
1005.158964	2547.766386
1005.453270	2548.031047
1005.747540	2547.710934
1006.041775	2543.899821
1006.335974	2541.154913
1006.630138	2539.876981
1006.924266	2540.048380
1007.218359	2538.785571
1007.512416	2537.416897
1007.806438	2533.777184
1008.100425	2535.269366
1008.394376	2530.755013
1008.688292	2536.748945
1008.982172	2537.764737
1009.276017	2537.295910
1009.569827	2533.890610
1009.863602	2535.617206
1010.157341	2533.242822
1010.451045	2533.300795
1010.744714	2530.628984
1011.038347	2531.836340
1011.331945	2530.399611
1011.625508	2529.958510
1011.919036	2529.046062
1012.212528	2526.379291
1012.505986	2527.599250
1012.799408	2527.024559
1013.092795	2526.298633
1013.386147	2524.277130
1013.679464	2525.396266
1013.972745	2524.831657
1014.265992	2526.142357
1014.559204	2522.132119
1014.852380	2523.105062
1015.145521	2525.615556
1015.438628	2525.381143
1015.731699	2526.301153
1016.024736	2525.255114
1016.317737	2524.735875
1016.610703	2530.538243
1016.903635	2527.594209
1017.196531	2532.103521
1017.489393	2531.874149
1017.782219	2534.099818
1018.075011	2534.233409
1018.367768	2533.706608
1018.660490	2534.876156
1018.953177	2534.876156
1019.245829	2534.876156
