Dividing Wavelength (nm)	Counts (n)	Blue Motor Position (mm): 14.500000	Red Motor Position (mm): 0.000000	
326.493990	2068.582028
326.888308	2068.582028
327.282561	2068.582028
327.676750	2042.594880
328.070874	2045.276774
328.464933	2049.881868
328.858929	2058.671120
329.252859	2069.055897
329.646726	2080.093503
330.040528	2099.191914
330.434265	2113.140787
330.827938	2137.348408
331.221547	2155.325162
331.615091	2176.954233
332.008571	2198.490042
332.401986	2216.746581
332.795338	2238.809191
333.188625	2257.645462
333.581847	2275.715478
333.975006	2292.804989
334.368100	2312.904070
334.761129	2325.592654
335.154095	2343.773575
335.546996	2382.293032
335.939833	2460.781277
336.332606	2470.034315
336.725315	2486.367653
337.117960	2495.083808
337.510540	2503.583193
337.903056	2513.549555
338.295508	2519.326717
338.687896	2526.076822
339.080220	2528.753675
339.472480	2536.267514
339.864676	2540.590304
340.256807	2543.133566
340.648875	2546.001983
341.040879	2544.870243
341.432818	2545.238248
341.824694	2548.537683
342.216506	2547.050542
342.608253	2546.407795
342.999937	2543.723381
343.391557	2542.132897
343.783113	2542.694986
344.174605	2541.807743
344.566033	2540.928061
344.957397	2537.212731
345.348697	2534.611495
345.739934	2535.617206
346.131106	2534.016639
346.522215	2532.736186
346.913260	2527.770650
347.304241	2530.200486
347.695159	2524.715710
348.086012	2525.968437
348.476802	2522.477438
348.867528	2521.466687
349.258191	2517.103568
349.648789	2517.128774
350.039324	2511.051663
350.429796	2516.009638
350.820203	2516.223887
351.210548	2517.184227
351.600828	2515.641633
351.991045	2512.644668
352.381198	2514.101561
352.771288	2513.312620
353.161314	2512.006962
353.551276	2509.378000
353.941175	2513.985614
354.331010	2514.000738
354.720782	2512.909328
355.110490	2517.169103
355.500135	2514.661129
355.889717	2512.264060
356.279235	2514.688855
356.668689	2515.911335
357.058080	2515.460152
357.447408	2515.508043
357.836672	2513.486540
358.225873	2515.571057
358.615010	2515.384535
359.004084	2517.310255
359.393095	2516.516274
359.782043	2516.304545
360.170927	2520.042561
360.559748	2517.572395
360.948505	2519.762777
361.337199	2519.019207
361.725830	2521.481810
362.114398	2522.427027
362.502903	2520.110616
362.891344	2520.745802
363.279722	2521.254958
363.668037	2522.081708
364.056289	2520.985257
364.444478	2523.309228
364.832603	2523.233611
365.220665	2525.189579
365.608665	2525.038344
365.996601	2526.250742
366.384474	2526.288550
366.772284	2522.190092
367.160031	2525.771832
367.547715	2522.948786
367.935336	2524.385515
368.322893	2520.942407
368.710388	2522.457273
369.097820	2524.521626
369.485189	2522.527850
369.872495	2529.035979
370.259738	2526.008766
370.646918	2526.850639
371.034035	2527.430372
371.421090	2528.597399
371.808081	2525.923067
372.195010	2528.234436
372.581875	2526.311236
372.968678	2526.835516
373.355418	2530.268541
373.742096	2528.723428
374.128710	2528.824251
374.515262	2529.678726
374.901751	2531.223840
375.288177	2530.719725
375.674540	2528.778880
376.060841	2530.581093
376.447079	2532.819365
376.833254	2532.206865
377.219367	2531.377595
377.605417	2533.351207
377.991404	2532.133768
378.377329	2531.480939
378.763191	2530.689478
379.148991	2529.335928
379.534727	2536.096115
379.920402	2530.439941
380.306013	2531.349869
380.691563	2534.840868
381.077049	2534.316588
381.462474	2531.974972
381.847835	2533.520086
382.233134	2535.390354
382.618371	2531.271731
383.003545	2535.322298
383.388657	2533.502442
383.773706	2532.307688
384.158693	2534.583769
384.543618	2534.891279
384.928480	2536.166691
385.313280	2535.322298
385.698017	2535.982689
386.082692	2533.751979
386.467305	2536.388502
386.851856	2536.539737
387.236344	2535.912113
387.620770	2533.477236
388.005133	2530.016484
388.389435	2534.729962
388.773674	2532.481608
389.157851	2535.856660
389.541965	2536.900179
389.926018	2541.482588
390.310008	2539.677855
390.693936	2539.652649
391.077802	2541.424615
391.461606	2536.660724
391.845348	2537.386651
392.229027	2539.438400
392.612645	2540.250026
392.996200	2538.042001
393.379694	2536.983358
393.763125	2541.606096
394.146494	2539.624923
394.529801	2538.105015
394.913047	2539.060314
395.296230	2539.811446
395.679351	2536.937988
396.062410	2540.073586
396.445408	2539.355221
396.828343	2543.042825
397.211217	2541.515356
397.594028	2543.178936
397.976778	2544.802188
398.359466	2540.653318
398.742092	2542.934440
399.124656	2542.485778
399.507158	2542.437887
399.889598	2546.057435
400.271977	2543.491488
400.654294	2545.328988
401.036549	2543.524255
401.418742	2545.515511
401.800874	2545.127342
402.182944	2543.625078
402.564952	2542.203473
402.946898	2544.661036
403.328783	2544.845038
403.710606	2546.780841
404.092367	2548.784699
404.474067	2544.819832
404.855705	2544.792106
405.237282	2545.318906
405.618797	2542.485778
406.000250	2546.526263
406.381642	2545.359235
406.762972	2546.977446
407.144240	2542.266487
407.525447	2546.758156
407.906593	2541.331353
408.287677	2549.540873
408.668700	2545.951571
409.049661	2546.213711
409.430560	2547.111036
409.811399	2548.704041
410.192176	2548.933413
410.572891	2548.146993
410.953545	2547.274874
411.334138	2548.462066
411.714669	2549.402241
412.095139	2550.612118
412.475547	2547.748742
412.855894	2548.020965
413.236180	2548.683876
413.616405	2552.197561
413.996568	2547.582384
414.376670	2550.284443
414.756711	2549.815615
415.136691	2549.039278
415.516609	2549.745039
415.896466	2548.915769
416.276262	2550.118085
416.655997	2550.859134
417.035670	2550.153373
417.415283	2552.182437
417.794834	2547.743701
418.174324	2547.748742
418.553753	2548.688917
418.933121	2549.984494
419.312428	2549.253527
419.691674	2551.249824
420.070859	2549.558517
420.449983	2549.830739
420.829045	2548.819987
421.208047	2550.924669
421.586988	2550.362581
421.965867	2550.675132
422.344686	2550.838970
422.723444	2550.055070
423.102141	2550.846531
423.480777	2551.242262
423.859352	2550.929710
424.237866	2551.058260
424.616319	2552.144628
424.994712	2552.069011
425.373044	2549.682025
425.751314	2544.061138
426.129524	2547.380738
426.507673	2551.091027
426.885762	2547.416026
427.263789	2554.541697
427.641756	2553.120092
428.019662	2549.689587
428.397508	2556.260731
428.775292	2551.063301
429.153016	2552.038764
429.530679	2551.020451
429.908282	2550.160934
430.285824	2555.244938
430.663305	2548.555327
431.040726	2549.649257
431.418086	2553.379711
431.795385	2554.665205
432.172624	2551.481717
432.549802	2550.108002
432.926920	2551.958106
433.303977	2552.452139
433.680974	2549.170348
434.057910	2553.593960
434.434786	2551.484237
434.811601	2552.999104
435.188355	2552.605894
435.565050	2553.992211
435.941683	2555.716286
436.318257	2552.487427
436.694770	2552.684032
437.071222	2551.842159
437.447614	2554.236707
437.823946	2552.923487
438.200218	2555.159238
438.576429	2553.440205
438.952580	2553.919115
439.328670	2552.903322
439.704700	2555.370967
440.080670	2552.437015
440.456580	2551.259906
440.832429	2552.023641
441.208218	2551.922818
441.583947	2553.654454
441.959616	2553.803168
442.335224	2554.138405
442.710773	2553.561193
443.086261	2554.435833
443.461689	2556.217881
443.837057	2554.773590
444.212365	2554.161090
444.587612	2552.610935
444.962800	2550.720503
445.337927	2550.841490
445.712995	2549.377035
446.088002	2553.573796
446.462949	2551.075904
446.837837	2554.776111
447.212664	2556.366595
447.587431	2556.341389
447.962139	2556.056564
448.336786	2554.206460
448.711374	2557.165618
449.085901	2555.653272
449.460369	2557.069836
449.834776	2557.044630
450.209124	2555.960782
450.583412	2557.284085
450.957640	2554.264434
451.331808	2554.904660
451.705917	2553.790565
452.079965	2555.958261
452.453954	2554.506409
452.827883	2558.882131
453.201752	2558.128478
453.575562	2557.652089
453.949311	2555.222253
454.323001	2557.004301
454.696632	2555.015566
455.070202	2554.937428
455.443713	2555.723848
455.817164	2553.246121
456.190556	2560.018911
456.563888	2557.934394
456.937160	2556.321224
457.310373	2558.955227
457.683526	2557.589075
458.056619	2554.660164
458.429653	2557.609239
458.802628	2558.962789
459.175542	2555.323076
459.548398	2558.307439
459.921194	2557.760474
460.293930	2557.422717
460.666607	2558.859445
461.039224	2557.876420
461.411782	2558.272151
461.784280	2557.266441
462.156719	2558.330124
462.529099	2556.444733
462.901419	2555.285267
463.273680	2554.980277
463.645882	2555.799465
464.018024	2556.933725
464.390106	2554.216543
464.762130	2558.095711
465.134094	2559.691236
465.505999	2560.472615
465.877845	2561.044786
466.249631	2561.150650
466.621358	2557.931873
466.993026	2562.007646
467.364634	2564.492935
467.736184	2560.001267
468.107674	2560.994374
468.479105	2558.821637
468.850477	2561.095197
469.221790	2558.400700
469.593043	2558.604867
469.964238	2559.877758
470.335373	2560.452450
470.706449	2559.814744
471.077467	2562.594940
471.448425	2562.289951
471.819324	2561.995043
472.190164	2562.625187
472.560945	2562.849519
472.931667	2563.484704
473.302330	2561.354817
473.672934	2563.341031
474.043479	2564.349262
474.413965	2559.149312
474.784393	2561.909343
475.154761	2562.710887
475.525070	2562.786504
475.895321	2560.671740
476.265513	2561.127965
476.635645	2563.330949
477.005719	2562.085784
477.375734	2564.618964
477.745691	2563.361196
478.115588	2562.254662
478.485427	2564.071998
478.855207	2565.549057
479.224928	2565.987637
479.594591	2565.909499
479.964194	2567.431928
480.333739	2565.251628
480.703226	2566.219530
481.072653	2564.593758
481.442022	2566.945456
481.811333	2567.497462
482.180584	2564.538305
482.549777	2564.487894
482.918912	2562.544529
483.287988	2571.432083
483.657005	2571.091805
484.025964	2566.806824
484.394864	2564.021587
484.763706	2568.477967
485.132489	2568.389747
485.501213	2572.241188
485.869879	2567.343707
486.238487	2567.230281
486.607036	2568.641804
486.975527	2569.087947
487.343959	2569.014850
487.712333	2570.169274
488.080648	2570.038204
488.448905	2567.449572
488.817104	2567.699109
489.185244	2571.331260
489.553326	2571.779923
489.921350	2575.240675
490.289315	2575.505335
490.657222	2577.504153
491.025070	2578.330902
491.392861	2575.800243
491.760593	2579.387024
492.128267	2577.156313
492.495883	2575.470047
492.863440	2573.929975
493.230939	2577.224369
493.598380	2579.167734
493.965763	2579.623958
494.333088	2572.858730
494.700354	2575.510377
495.067563	2576.695048
495.434713	2580.213773
495.801805	2576.790830
496.168839	2577.851992
496.535815	2577.932651
496.902733	2579.432394
497.269593	2580.609504
497.636395	2581.988259
498.003139	2581.453897
498.369825	2581.085893
498.736453	2584.229052
499.103023	2581.786613
499.469535	2583.729978
499.835989	2584.057653
500.202385	2584.171079
500.568723	2581.002714
500.935003	2586.139649
501.301226	2579.863413
501.667390	2586.432036
502.033497	2589.537387
502.399546	2590.754826
502.765537	2586.139649
503.131470	2591.682398
503.497345	2591.384970
503.863163	2590.548138
504.228923	2593.303129
504.594625	2595.959817
504.960269	2594.404621
505.325856	2599.062647
505.691385	2596.625249
506.056856	2598.291351
506.422270	2600.401074
506.787625	2599.665065
507.152924	2600.655652
507.518164	2601.878132
507.883347	2599.975096
508.248472	2603.342587
508.613540	2607.123452
508.978550	2607.430963
509.343503	2605.764861
509.708398	2607.556992
510.073236	2609.588577
510.438016	2612.041098
510.802738	2610.788371
511.167403	2612.756942
511.532010	2616.499998
511.896561	2616.568054
512.261053	2620.706841
512.625488	2624.376801
512.989866	2622.171297
513.354186	2620.081738
513.718449	2623.628190
514.082655	2626.052985
514.446803	2626.700773
514.810894	2631.099180
515.174927	2630.479118
515.538904	2630.292595
515.902822	2635.129582
516.266684	2635.091774
516.630488	2636.440282
516.994235	2637.072947
517.357925	2638.315592
517.721558	2638.897845
518.085133	2643.248361
518.448651	2644.417908
518.812112	2641.781385
519.175516	2644.551499
519.538863	2644.420429
519.902152	2650.948723
520.265385	2653.421409
520.628560	2654.482572
520.991678	2656.902326
521.354739	2660.504230
521.717743	2660.254693
522.080690	2662.576145
522.443580	2667.536640
522.806413	2667.829027
523.169189	2671.398164
523.531908	2670.563853
523.894569	2673.422187
524.257174	2675.002589
524.619722	2678.060049
524.982213	2679.769000
525.344647	2682.042560
525.707025	2687.119002
526.069345	2689.838705
526.431608	2691.318283
526.793815	2691.194775
527.155964	2696.601412
527.518057	2694.857173
527.880093	2698.471681
528.242072	2704.148020
528.603995	2703.812783
528.965860	2705.985520
529.327669	2709.736139
529.689421	2708.299410
530.051117	2716.090513
530.412755	2713.648074
530.774337	2717.713765
531.135862	2723.982440
531.497331	2722.523026
531.858743	2726.399673
532.220098	2731.186248
532.581396	2734.871332
532.942638	2736.434090
533.303824	2738.311919
533.664953	2744.968763
534.026025	2743.685789
534.387040	2749.783065
534.747999	2756.192892
535.108902	2759.762029
535.469748	2757.062491
535.830537	2767.283431
536.191270	2769.655293
536.551947	2769.370468
536.912567	2772.813576
537.273131	2782.406892
537.633638	2780.060235
537.994089	2788.980557
538.354483	2790.545835
538.714821	2800.570169
539.075103	2808.872950
539.435328	2808.520069
539.795497	2815.549958
540.155609	2821.458190
540.515665	2832.667196
540.875665	2832.581496
541.235609	2840.818742
541.595496	2844.450893
541.955328	2859.294571
542.315102	2860.781711
542.674821	2866.064840
543.034483	2871.723535
543.394090	2875.085985
543.753640	2884.255844
544.113134	2898.101373
544.472571	2904.574214
544.831953	2920.572316
545.191278	2924.789241
545.550548	2928.524736
545.909761	2940.101746
546.268918	2954.446349
546.628019	2966.822382
546.987064	2974.638691
547.346053	2974.011068
547.704986	2995.884634
548.063863	3005.513238
548.422684	3019.404137
548.781449	3025.118285
549.140158	3043.447921
549.498811	3051.765824
549.857408	3058.780590
550.215949	3085.523911
550.574434	3094.066146
550.932864	3112.017695
551.291237	3135.806900
551.649555	3151.691576
552.007817	3165.756395
552.366022	3180.017819
552.724173	3198.778473
553.082267	3223.243193
553.440305	3249.084148
553.798288	3257.744850
554.156215	3284.024385
554.514086	3307.047335
554.871902	3320.124088
555.229661	3348.823377
555.587365	3363.654451
555.945014	3394.392887
556.302606	3417.340219
556.660143	3449.545630
557.017625	3477.166112
557.375050	3500.695698
557.732421	3534.486552
558.089735	3566.160122
558.446994	3595.245059
558.804197	3636.736276
559.161345	3664.704597
559.518437	3680.233872
559.875474	3718.924727
560.232455	3757.050974
560.589381	3796.485400
560.946251	3824.312569
561.303065	3882.880694
561.659825	3912.555447
562.016528	3944.118111
562.373177	3969.606185
562.729770	4031.037685
563.086307	4052.024009
563.442789	4114.957773
563.799216	4158.147859
564.155587	4197.398283
564.511904	4245.135489
564.868164	4293.185247
565.224370	4353.268239
565.580520	4388.775606
565.936615	4449.889514
566.292654	4484.164319
566.648638	4552.721491
567.004567	4603.450622
567.360441	4666.737268
567.716260	4704.140109
568.072023	4781.980565
568.427732	4833.990149
568.783385	4871.587075
569.138982	4948.010967
569.494525	5022.615003
569.850013	5059.400303
570.205445	5126.911435
570.560823	5174.789793
570.916145	5226.113781
571.271412	5307.891378
571.626625	5354.201938
571.981782	5423.981590
572.336884	5464.888033
572.691931	5555.603596
573.046923	5601.510864
573.401860	5656.887939
573.756743	5734.282253
574.111570	5812.432741
574.466342	5882.101487
574.821059	5962.492767
575.175722	6001.506257
575.530330	6079.119861
575.884882	6128.477799
576.239380	6192.253436
576.593823	6278.389111
576.948211	6353.376275
577.302544	6391.210134
577.656823	6465.849458
578.011047	6577.006900
578.365216	6640.553165
578.719330	6698.470982
579.073389	6774.189113
579.427394	6873.162086
579.781344	6941.444515
580.135239	6999.425346
580.489080	7096.843123
580.842866	7131.433000
581.196597	7274.135463
581.550273	7366.537292
581.903895	7448.970240
582.257463	7606.738191
582.610975	7635.298848
582.964434	7769.683407
583.317837	7801.190618
583.671186	7897.103611
584.024481	8020.516098
584.377721	8070.395795
584.730906	8188.237808
585.084037	8310.591653
585.437113	8369.328657
585.790135	8485.849887
586.143103	8525.238942
586.496016	8645.268815
586.848874	8762.389942
587.201679	8883.107933
587.554428	8907.194566
587.907124	9052.291577
588.259765	9129.595150
588.612352	9260.460984
588.964884	9285.475189
589.317362	9443.041494
589.669786	9551.539727
590.022155	9638.527357
590.374470	9832.899126
590.726731	9865.190237
591.078937	9853.691365
591.431090	10029.549497
591.783188	10051.208814
592.135232	10130.664961
592.487222	10284.137848
592.839157	10428.370301
593.191038	10477.370316
593.542866	10549.690709
593.894639	10538.592609
594.246358	10711.491583
594.598022	10826.923924
594.949633	10848.192552
595.301190	10964.537342
595.652692	11062.313041
596.004141	11280.821855
596.355535	11157.840386
596.706876	11268.450863
597.058162	11325.776344
597.409395	11551.151209
597.760573	11717.390819
598.111698	11745.323852
598.462768	11840.798265
598.813785	11968.246196
599.164748	11995.687717
599.515657	12173.070797
599.866511	12163.076710
600.217312	12472.283443
600.568060	12318.520689
600.918753	12652.817244
601.269392	12758.474788
601.619978	12807.482365
601.970510	12994.894821
602.320988	13147.757729
602.671412	13354.261034
603.021783	13439.282615
603.372100	13445.662195
603.722363	13590.045882
604.072572	13721.637642
604.422728	13853.302498
604.772830	13900.490218
605.122878	14083.849587
605.472872	14166.055682
605.822813	14360.606412
606.172701	14415.030709
606.522534	14636.397857
606.872314	14835.047045
607.222041	14901.807045
607.571714	15129.657117
607.921333	15103.044865
608.270899	15292.025120
608.620411	15548.771086
608.969870	15598.257572
609.319276	15738.517596
609.668627	15874.376692
610.017926	16141.325953
610.367171	16329.219839
610.716362	16477.394474
611.065500	16579.208138
611.414585	16788.025333
611.763616	16986.152761
612.112594	17080.485353
612.461518	17269.571472
612.810389	17547.636477
613.159207	17605.539170
613.507971	17730.312768
613.856682	18073.048216
614.205340	18148.741141
614.553945	18564.117094
614.902496	18431.086085
615.250994	18748.421679
615.599439	18906.963447
615.947830	19087.777032
616.296169	19232.533765
616.644454	19388.020593
616.992686	19590.117931
617.340864	19924.185114
617.688990	19846.095120
618.037063	20284.272212
618.385082	20337.400933
618.733048	20650.927934
619.080961	20728.171014
619.428821	20882.021988
619.776628	21041.675331
620.124382	21108.163109
620.472083	21284.558123
620.819731	21473.528296
621.167326	21411.670817
621.514868	21542.415663
621.862357	21415.302969
622.209793	21598.967327
622.557176	21522.278774
622.904506	21537.210672
623.251783	21504.445692
623.599007	21488.558496
623.946179	21579.198442
624.293297	21580.569636
624.640363	21425.201274
624.987376	21484.046663
625.334336	21519.249040
625.681243	21428.808220
626.028097	21504.430569
626.374899	21527.801358
626.721647	21642.379223
627.068343	21635.099797
627.414987	21599.632759
627.761577	21597.996905
628.108115	21880.205738
628.454600	21602.395311
628.801032	21845.063855
629.147412	21896.657544
629.493739	21957.002676
629.840014	21830.129436
630.186236	22171.702898
630.532405	21976.287610
630.878521	22228.957802
631.224585	22213.436090
631.570597	22135.842650
631.916556	22334.088545
632.262462	22393.919480
632.608316	22463.830201
632.954117	22505.752437
633.299866	22580.071647
633.645562	22641.523313
633.991206	22445.699691
634.336797	22336.593999
634.682336	22362.712217
635.027823	22337.065347
635.373257	22376.441799
635.718639	22288.443418
636.063968	22316.694044
636.409245	22050.707643
636.754470	22122.476030
637.099642	22074.544739
637.444762	21823.001245
637.789829	21998.042709
638.134845	21858.092717
638.479808	21907.924522
638.824719	21969.618163
639.169577	21750.549782
639.514383	21925.215680
639.859137	21756.934403
640.203839	21950.212242
640.548489	21864.242924
640.893086	21947.240481
641.237632	21851.443435
641.582125	22000.570848
641.926566	21939.015839
642.270955	22051.519269
642.615292	22091.412440
642.959576	22108.204524
643.303809	22201.773380
643.647990	22344.259073
643.992118	22415.087285
644.336195	22376.519937
644.680219	22511.764012
645.024192	22728.896591
645.368112	23156.003309
645.711981	23243.686619
646.055797	23793.580722
646.399562	23733.830446
646.743274	24410.411265
647.086935	24769.971563
647.430544	24821.398894
647.774101	24931.230513
648.117606	25230.183539
648.461059	25418.941983
648.804460	25233.200669
649.147810	24975.322965
649.491108	24852.124727
649.834354	24855.754358
650.177548	24361.577608
650.520690	24074.375511
650.863781	24138.574606
651.206820	24096.707823
651.549807	23870.894377
651.892742	23517.406149
652.235626	23526.548282
652.578458	23494.058045
652.921238	23054.416498
653.263967	23338.447708
653.606644	23177.740765
653.949269	23178.504500
654.291843	22948.194345
654.634365	23281.212968
654.976836	23020.429038
655.319255	23135.485813
655.661622	23104.954065
656.003938	23087.405808
656.346203	23008.950331
656.688416	23257.716150
657.030577	23164.434639
657.372687	23091.292538
657.714746	23258.326130
658.056753	23468.869920
658.398708	23055.333988
658.740612	23156.194873
659.082465	23392.738415
659.424266	23352.628474
659.766016	23416.164657
660.107715	23363.797150
660.449362	23480.847702
660.790958	23526.132387
661.132503	23513.030428
661.473996	23641.670592
661.815438	23758.058231
662.156829	23911.642024
662.498168	23804.625890
662.839456	23847.357230
663.180693	24009.846222
663.521879	24100.783596
663.863013	24119.655155
664.204097	24165.950592
664.545129	24547.797831
664.886110	24541.713158
665.227040	24682.315980
665.567918	24713.314035
665.908746	24824.647918
666.249522	24941.166627
666.590248	25016.272258
666.930922	25156.237374
667.271545	25209.996238
667.612118	25295.335411
667.952639	25196.964856
668.293109	25279.682628
668.633528	25211.884150
668.973896	25237.674693
669.314213	25255.815286
669.654480	25156.297867
669.994695	25197.552150
670.334859	25175.371073
670.674973	25062.718929
671.015035	25274.560816
671.355047	25256.034576
671.695008	25230.889300
672.034918	25199.155237
672.374777	25318.668392
672.714585	25261.025318
673.054342	25417.215388
673.394049	25334.122049
673.733705	25549.018876
674.073310	25358.364958
674.412864	25445.523987
674.752368	25263.344249
675.091820	25507.744428
675.431223	25200.793612
675.770574	25069.927779
676.109875	24978.448480
676.449125	24835.136038
676.788324	24791.696416
677.127473	24420.359982
677.466571	24377.981522
677.805619	24166.623586
678.144616	24145.196161
678.483562	24138.526715
678.822458	23890.935485
679.161303	23880.160018
679.500098	23843.019317
679.838842	23809.185613
680.177535	23882.567169
680.516179	24101.176806
680.854771	24192.646022
681.193314	24823.586755
681.531805	25669.182339
681.870247	26371.745266
682.208638	27102.299199
682.546978	27456.674670
682.885268	27652.773034
683.223508	27313.362228
683.561697	27128.082180
683.899836	27009.708326
684.237925	26664.684195
684.575963	26530.778546
684.913951	26216.245834
685.251889	26368.153443
685.589776	26373.998661
685.927614	26404.626192
686.265401	26577.031132
686.603137	26679.583325
686.940824	27138.451833
687.278460	27436.018542
687.616046	27611.037321
687.953582	28237.463701
688.291068	28200.002887
688.628504	28544.467450
688.965889	28599.579864
689.303224	28408.283199
689.640510	28191.926958
689.977745	27677.441920
690.314930	27055.403865
690.652065	26713.205301
690.989150	26146.413250
691.326185	25431.809528
691.663170	24897.792539
692.000105	24267.764255
692.336990	23747.817127
692.673825	23382.535119
693.010610	22945.618315
693.347345	22493.313389
693.684030	21955.739867
694.020665	21793.139970
694.357251	21204.620547
694.693786	21211.617668
695.030272	21016.908142
695.366707	20576.487736
695.703093	20321.085238
696.039429	20403.712270
696.375716	20188.933911
696.711952	20192.543377
697.048139	20084.519012
697.384276	19945.501633
697.720363	20059.603109
698.056400	19975.773762
698.392388	19833.230095
698.728326	19853.515698
699.064214	19722.901923
699.400053	19757.519526
699.735842	19404.979035
700.071581	19254.548484
700.407270	19042.275577
700.742910	18886.781187
701.078501	18677.845525
701.414042	18501.810953
701.749533	18227.186536
702.084974	17942.290767
702.420366	18177.745419
702.755709	17802.008058
703.091002	17529.798354
703.426246	17592.527952
703.761440	17543.643883
704.096584	17334.267119
704.431679	17273.914426
704.766725	17236.889671
705.101721	17171.692428
705.436668	17280.024304
705.771565	17033.267385
706.106413	17330.352663
706.441212	17400.608704
706.775961	17493.189494
707.110661	17565.855207
707.445311	17922.784022
707.779913	17834.064756
708.114465	18108.704297
708.448967	18402.938803
708.783421	18996.517024
709.117825	19323.473660
709.452180	19529.873622
709.786485	19956.501430
710.120742	20657.491517
710.454949	20756.265365
710.789107	21236.319322
711.123216	21885.327550
711.457275	22094.298501
711.791286	22633.815388
712.125247	22802.681439
712.459159	22586.524324
712.793023	23329.124094
713.126837	22397.564234
713.460602	22667.089524
713.794318	22387.658367
714.127985	22149.748673
714.461602	21329.989002
714.795171	21328.252324
715.128691	20411.392468
715.462162	19934.136351
715.795584	19531.300268
716.128957	19285.087794
716.462281	18941.578529
716.795556	18674.455349
717.128782	18228.340960
717.461960	17656.215369
717.795088	17635.569323
718.128167	17319.715829
718.461198	16890.469141
718.794180	16785.872760
719.127113	16471.433309
719.459997	16298.796475
719.792833	15943.775736
720.125619	15974.279758
720.458357	15665.723334
720.791046	15529.292067
721.123686	15386.519028
721.456278	15180.136711
721.788821	15180.950857
722.121315	14932.933649
722.453761	15029.741447
722.786158	14917.164920
723.118506	15006.751265
723.450805	14902.941305
723.783056	15063.552466
724.115259	14955.581033
724.447412	14948.276401
724.779518	15146.711340
725.111574	15186.813719
725.443582	15446.697803
725.775542	15399.999074
726.107453	15886.964453
726.439315	15794.885257
726.771129	16190.071390
727.102895	16569.690439
727.434612	16837.085842
727.766281	17013.763161
728.097901	17324.091550
728.429473	17415.817865
728.760996	17455.143906
729.092471	17561.058549
729.423897	17460.316130
729.755276	17322.390161
730.086606	17404.636586
730.417887	17942.409234
730.749120	18476.428743
731.080305	18697.823618
731.411442	19104.372511
731.742530	19229.975379
732.073570	19364.579228
732.404562	19682.812147
732.735506	19581.381611
733.066401	19468.048911
733.397249	19058.808042
733.728048	18480.582654
734.058798	17661.508580
734.389501	16933.737364
734.720156	16428.780107
735.050762	15874.842999
735.381320	15481.441435
735.711831	15193.838567
736.042293	14821.619931
736.372707	14852.658316
736.703073	14646.800278
737.033391	14821.415765
737.363661	14804.427076
737.693883	14911.962449
738.024056	15093.585140
738.354182	15293.131653
738.684260	15630.165556
739.014290	15898.579272
739.344272	16120.170751
739.674207	16453.451514
740.004093	16625.662370
740.333931	16712.650000
740.663722	16800.577806
740.993464	16847.699991
741.323159	16729.621045
741.652806	16452.801205
741.982405	16309.133361
742.311956	15965.213243
742.641460	15860.624424
742.970915	15559.385235
743.300323	15218.235231
743.629683	15011.114384
743.958996	14715.705289
744.288260	14415.731429
744.617477	14109.577115
744.946647	14083.116099
745.275768	13767.439045
745.604842	13573.034508
745.933869	13395.575811
746.262847	13360.270090
746.591778	13263.863064
746.920662	13150.565652
747.249498	13148.632369
747.578286	13285.711424
747.907027	13447.512298
748.235720	13699.496894
748.564365	13779.825160
748.892963	13717.491292
749.221514	13835.073685
749.550017	13717.128329
749.878473	13700.421946
750.206881	13483.143174
750.535242	13426.760388
750.863555	13342.749560
751.191821	13237.452459
751.520039	13247.751536
751.848210	13168.988548
752.176334	13209.642933
752.504411	13137.115853
752.832440	12973.099392
753.160421	13092.882249
753.488356	12988.038852
753.816243	12899.448134
754.144082	12721.422307
754.471875	12682.368488
754.799620	12639.256540
755.127318	12608.008948
755.454969	12600.311106
755.782572	12574.936458
756.110129	12589.636463
756.437638	12503.906601
756.765100	12507.480779
757.092515	12521.923685
757.419882	12556.044734
757.747203	12558.217472
758.074477	12647.909681
758.401703	12625.277421
758.728882	12801.896766
759.056014	12843.254392
759.383099	13015.298891
759.710138	13137.390596
760.037129	13269.652829
760.364073	13338.799816
760.690970	13361.633722
761.017820	13359.894524
761.344623	13558.044638
761.671379	13869.832441
761.998088	14405.452517
762.324751	15796.760567
762.651366	18684.484724
762.977935	22913.213778
763.304456	26136.978731
763.630931	27704.782618
763.957359	26929.480883
764.283740	24918.846918
764.610074	22803.682108
764.936362	20238.838813
765.262602	18372.190285
765.588796	16434.032989
765.914943	15133.347241
766.241044	14004.794212
766.567097	13197.370244
766.893104	12458.087553
767.219064	12002.551248
767.544978	11519.989317
767.870845	11139.863631
768.196665	10914.763509
768.522438	10684.090392
768.848165	10487.092182
769.173846	10278.224575
769.499479	10156.417695
769.825066	9985.469648
770.150607	9764.480586
770.476101	9686.657774
770.801548	9573.478829
771.126949	9419.204398
771.452303	9313.367893
771.777611	9119.875806
772.102872	9104.785112
772.428087	8969.137744
772.753256	8823.118202
773.078378	8745.285307
773.403453	8565.043893
773.728482	8450.123229
774.053465	8369.984007
774.378401	8280.753063
774.703291	8153.549628
775.028135	8039.372534
775.352932	8003.625712
775.677683	7900.087974
776.002388	7800.608365
776.327046	7805.478119
776.651658	7709.250054
776.976224	7608.157276
777.300743	7609.117615
777.625216	7526.054523
777.949643	7483.156825
778.274024	7500.720205
778.598359	7421.039727
778.922647	7428.724966
779.246889	7379.989611
779.571086	7387.054788
779.895236	7391.092753
780.219339	7401.321254
780.543397	7407.456338
780.867409	7485.352247
781.191374	7492.125038
781.515294	7456.335366
781.839167	7552.770118
782.162995	7524.338011
782.486776	7478.082903
782.810511	7431.706809
783.134201	7347.849735
783.457844	7341.482758
783.781441	7291.424100
784.104993	7226.519244
784.428498	7205.626182
784.751958	7190.999274
785.075372	7161.755541
785.398739	7105.629854
785.722061	7144.991184
786.045337	7140.439022
786.368568	7277.439939
786.691752	7281.520753
787.014891	7572.624703
787.337983	7875.414047
787.661030	8422.038961
787.984031	9029.508082
788.306987	9457.746539
788.629897	9715.977125
788.952760	9716.347649
789.275579	9536.401142
789.598351	9171.517386
789.921078	8838.523968
790.243759	8437.356507
790.566395	8149.458732
790.888984	7901.809528
791.211529	7695.991820
791.534027	7478.937379
791.856480	7267.922241
792.178888	7186.568100
792.501249	7095.388750
792.823566	6940.375790
793.145836	6941.303362
793.468062	6906.216932
793.790241	6849.430854
794.112375	6910.194402
794.434464	7050.777059
794.756507	7073.578198
795.078505	7206.117695
795.400457	7482.751012
795.722364	7814.968092
796.044226	8104.998275
796.366042	8388.477479
796.687812	8363.949745
797.009538	8453.785627
797.331218	8371.004840
797.652852	8294.795197
797.974442	8153.983167
798.295986	8073.017195
798.617484	7891.666727
798.938938	7753.372753
799.260346	7650.046743
799.581709	7461.106818
799.903026	7375.054322
800.224299	7276.393900
800.545526	7114.441791
800.866708	7015.015114
801.187845	6950.264013
801.508936	6844.722417
801.829983	6808.942827
802.150984	6660.954715
802.471940	6621.981554
802.792851	6606.127126
803.113717	6572.593370
803.434538	6541.751591
803.755314	6480.040306
804.076045	6481.204813
804.396731	6415.942035
804.717372	6450.403363
805.037967	6453.710360
805.358518	6488.917778
805.679024	6568.701599
805.999485	6571.144038
806.319901	6613.633404
806.640272	6629.651670
806.960598	6719.409414
807.280879	6717.687860
807.601115	6793.282483
807.921306	6743.511171
808.241453	6756.247646
808.561554	6781.166069
808.881611	6746.828250
809.201623	6752.451657
809.521590	6706.602363
809.841513	6683.975144
810.161390	6719.656431
810.481223	6597.660508
810.801011	6585.629794
811.120755	6564.915693
811.440453	6488.637994
811.760107	6451.119207
812.079716	6424.627943
812.399281	6359.224013
812.718801	6351.584144
813.038276	6309.513195
813.357707	6244.701601
813.677093	6284.960255
813.996434	6193.727973
814.315731	6223.299382
814.634983	6215.258742
814.954191	6225.814918
815.273354	6323.083981
815.592473	6374.183637
815.911547	6489.547922
816.230577	6565.175312
816.549562	6704.895932
816.868502	6800.743390
817.187399	6888.986268
817.506250	7029.135386
817.825058	7053.816875
818.143821	7295.993906
818.462539	7534.364866
818.781213	7848.181734
819.099843	8317.805544
819.418429	9214.646977
819.736970	10090.421429
820.055466	11161.114615
820.373919	12507.422806
820.692327	14481.364732
821.010691	17727.867809
821.329011	25024.461612
821.647286	36389.364872
821.965517	50045.686803
822.283704	57642.035176
822.601847	60908.201274
822.919945	58656.900104
823.237999	54716.023455
823.556010	48686.604329
823.873976	42189.456868
824.191897	35838.714596
824.509775	31103.130290
824.827609	26568.279689
825.145398	23823.373941
825.463144	22199.406558
825.780845	22102.253442
826.098502	23310.199603
826.416116	26538.287345
826.733685	30172.888692
827.051210	31944.715637
827.368692	31013.944717
827.686129	27581.143279
828.003522	23668.565147
828.320872	20019.813282
828.638177	17176.302564
828.955439	15024.120561
829.272656	13234.992376
829.589830	11783.263576
829.906960	10514.626964
830.224046	9550.864213
830.541088	8789.085373
830.858086	8311.688103
831.175041	7912.653050
831.491952	7755.724452
831.808819	7744.888491
832.125642	8039.301958
832.442421	8735.888597
832.759157	10186.258805
833.075849	12694.431969
833.392497	15769.102276
833.709101	18185.523920
834.025662	18534.712044
834.342179	17231.858600
834.658653	15206.935484
834.975083	13324.976972
835.291469	11707.691639
835.607811	10410.310367
835.924110	9513.504222
836.240366	8662.393615
836.556578	7869.132769
836.872746	7227.643422
837.188871	6720.440330
837.504952	6300.439118
837.820990	5981.228215
838.136984	5757.090954
838.452935	5642.881093
838.768842	5624.659842
839.084706	5901.966153
839.400526	6844.215781
839.716303	8323.469280
840.032037	9527.909319
840.347727	9756.364329
840.663373	8974.153692
840.978977	7955.084442
841.294537	7136.085985
841.610054	6536.201281
841.925527	6109.404593
842.240957	5749.128451
842.556344	5432.400317
842.871687	5162.633051
843.186987	4879.683168
843.502244	4654.676307
843.817458	4491.577336
844.132629	4347.672558
844.447756	4257.014968
844.762840	4181.455634
845.077881	4106.145837
845.392879	4041.659397
845.707833	3994.128877
846.022745	3953.265284
846.337613	3924.974329
846.652438	3882.830283
846.967221	3866.794373
847.281960	3832.128878
847.596656	3816.755879
847.911309	3797.556645
848.225919	3774.354734
848.540485	3755.750356
848.855009	3748.105446
849.169490	3724.480079
849.483928	3713.339129
849.798323	3703.692881
850.112675	3687.162938
850.426984	3694.066798
850.741251	3678.265301
851.055474	3673.698016
851.369654	3679.578522
851.683792	3674.718849
851.997887	3680.465765
852.311938	3679.994417
852.625947	3685.232176
852.939914	3679.495342
853.253837	3684.768389
853.567718	3681.761341
853.881555	3670.448992
854.195350	3686.124460
854.509103	3680.364942
854.822812	3679.218079
855.136479	3669.952438
855.450103	3681.037936
855.763685	3666.297602
856.077224	3669.297088
856.390720	3685.154038
856.704173	3706.372254
857.017584	3716.194942
857.330953	3724.041498
857.644278	3742.426587
857.957561	3751.707351
858.270802	3754.031323
858.584000	3762.548352
858.897155	3750.394130
859.210268	3734.942994
859.523339	3716.835169
859.836367	3714.380127
860.149352	3704.234805
860.462295	3700.784135
860.775195	3690.595963
861.088054	3685.920293
861.400869	3683.561033
861.713642	3683.457689
862.026373	3689.297866
862.339062	3692.284750
862.651708	3705.747151
862.964312	3739.462388
863.276873	3749.879933
863.589392	3801.234167
863.901869	3845.251002
864.214303	3883.619223
864.526696	3917.788164
864.839045	3961.245431
865.151353	3993.496213
865.463619	3998.650792
865.775842	4002.038448
866.088023	4024.547200
866.400162	4012.582021
866.712258	4023.632230
867.024313	4026.528373
867.336325	4024.675749
867.648296	4027.650030
867.960224	4026.001573
868.272110	4031.952655
868.583954	4038.246535
868.895755	4049.160633
869.207515	4045.306671
869.519233	4081.860078
869.830909	4093.532870
870.142542	4113.112711
870.454134	4126.897746
870.765684	4157.217766
871.077191	4192.916697
871.388657	4214.709605
871.700081	4246.927619
872.011463	4287.289618
872.322803	4315.699040
872.634101	4349.205069
872.945357	4383.492477
873.256571	4427.915125
873.567744	4458.005772
873.878874	4479.034945
874.189963	4517.670348
874.501010	4528.271895
874.812015	4524.831308
875.122979	4567.519798
875.433900	4560.419333
875.744780	4575.129420
876.055618	4598.399386
876.366415	4599.384932
876.677169	4614.823465
876.987882	4651.717150
877.298554	4695.310528
877.609183	4765.916928
877.919771	4855.339436
878.230317	4980.286955
878.540822	5159.552906
878.851285	5431.356798
879.161707	5812.833512
879.472087	6438.907011
879.782425	7424.518123
880.092722	9203.261532
880.402977	11960.376955
880.713191	15353.254975
881.023363	18904.762983
881.333494	21261.215060
881.643583	22672.647396
881.953631	22893.737281
882.263637	22268.888782
882.573602	21038.703571
882.883526	19650.415172
883.193408	18127.225496
883.503248	16580.062613
883.813048	15157.128884
884.122806	13832.106966
884.432522	12428.354828
884.742197	11253.534089
885.051831	10215.626047
885.361424	9244.455320
885.670975	8447.360677
885.980485	7777.976105
886.289954	7218.251752
886.599382	6755.539364
886.908768	6392.384723
887.218113	6045.099635
887.527417	5764.191419
887.836680	5506.026369
888.145901	5295.298576
888.455082	5136.587930
888.764221	4992.501670
889.073319	4857.638202
889.382376	4786.691523
889.691392	4721.791709
890.000366	4690.841545
890.309300	4674.412424
890.618193	4674.818237
890.927044	4660.823994
891.235855	4681.376778
891.544625	4695.802040
891.853353	4745.669134
892.162041	4837.221529
892.470687	4994.452597
892.779293	5201.941448
893.087858	5513.315877
893.396381	5987.610316
893.704864	6651.731924
894.013306	7642.076679
894.321707	8746.296059
894.630068	9611.537020
894.938387	9947.285428
895.246665	9832.483231
895.554903	9320.032299
895.863100	8686.777676
896.171256	8176.146600
896.479371	7693.612395
896.787446	7231.792291
897.095480	6820.290464
897.403473	6518.615215
897.711425	6219.621860
898.019336	5968.043078
898.327207	5708.055650
898.635038	5492.647146
898.942827	5254.069499
899.250576	5064.128905
899.558284	4885.929157
899.865952	4761.193367
900.173579	4620.212459
900.481165	4520.553888
900.788711	4431.479221
901.096216	4356.544989
901.403681	4289.232983
901.711105	4262.764404
902.018489	4240.220364
902.325832	4290.833549
902.633135	4375.351014
902.940397	4627.325527
903.247619	5224.795519
903.554800	6376.704214
903.861941	8074.252278
904.169041	9603.786246
904.476101	10415.590976
904.783121	10285.193970
905.090100	9681.649387
905.397039	8919.913397
905.703938	8218.603198
906.010796	7569.514311
906.317614	7049.110958
906.624391	6555.755916
906.931129	6153.426469
907.237826	5778.379746
907.544483	5432.546510
907.851099	5081.941822
908.157675	4744.933126
908.464211	4429.185496
908.770707	4194.925597
909.077163	3993.337416
909.383578	3850.839121
909.689954	3733.186152
909.996289	3656.921056
910.302584	3596.580965
910.608839	3566.291192
910.915054	3534.189124
911.221229	3519.234541
911.527363	3524.862989
911.833458	3534.723486
912.139513	3556.435736
912.445527	3580.464396
912.751502	3647.725991
913.057436	3731.048702
913.363331	3841.911237
913.669186	4012.019932
913.975000	4224.363415
914.280775	4571.963575
914.586510	5055.226227
914.892205	5721.069389
915.197859	6611.952179
915.503475	7709.799540
915.809050	8723.404179
916.114585	9407.907172
916.420081	9762.244835
916.725536	9801.394435
917.030952	9450.290673
917.336328	9108.712171
917.641665	8752.567254
917.946961	8312.691293
918.252218	7931.191893
918.557435	7453.935777
918.862612	7062.643936
919.167750	6715.258024
919.472848	6326.779147
919.777906	5981.881045
920.082925	5647.803779
920.387904	5295.873268
920.692843	5035.631262
920.997743	4797.673677
921.302603	4573.475922
921.607423	4416.340636
921.912204	4260.621914
922.216946	4146.538082
922.521647	4034.717728
922.826310	3936.178293
923.130932	3847.322916
923.435516	3756.425871
923.740059	3690.827856
924.044564	3616.828759
924.349028	3562.265830
924.653454	3502.545801
924.957840	3438.326543
925.262186	3393.170407
925.566493	3335.492045
925.870761	3279.857871
926.174989	3246.064497
926.479178	3217.062738
926.783328	3174.747293
927.087438	3148.830721
927.391509	3118.881226
927.695541	3089.506423
927.999533	3062.712690
928.303486	3041.328115
928.607400	3026.736496
928.911275	3016.553365
929.215110	3000.603154
929.518906	2991.582009
929.822663	2991.912205
930.126381	2986.908860
930.430060	2992.113851
930.733699	2994.246259
931.037299	3001.306395
931.340861	3001.356807
931.644383	3011.791995
931.947866	3007.214627
932.251309	3002.828823
932.554714	3005.616582
932.858080	2999.894872
933.161407	2992.350785
933.464694	2985.343581
933.767943	2977.250009
934.071153	2973.766572
934.374323	2966.013277
934.677455	2961.415745
934.980548	2951.277984
935.283602	2947.570216
935.586617	2942.892025
935.889593	2953.675053
936.192530	2953.523818
936.495428	2966.225005
936.798287	2979.642036
937.101108	3007.257477
937.403890	3051.561658
937.706632	3102.164760
938.009336	3174.059176
938.312002	3244.927716
938.614628	3305.726552
938.917216	3356.490972
939.219765	3389.520612
939.522275	3418.724016
939.824747	3428.123247
940.127179	3427.931683
940.429573	3421.133687
940.731929	3419.830549
941.034246	3406.310174
941.336524	3400.500245
941.638763	3388.835015
941.940964	3374.152654
942.243126	3335.270234
942.545250	3320.403872
942.847335	3286.232410
943.149381	3252.171854
943.451389	3221.892164
943.753359	3188.882688
944.055290	3168.314781
944.357182	3142.032725
944.659036	3126.528657
944.960851	3115.556585
945.262628	3100.748196
945.564367	3105.474277
945.866067	3096.415324
946.167729	3094.865169
946.469352	3092.195878
946.770937	3089.952565
947.072484	3074.120821
947.373992	3077.478230
947.675462	3070.561767
947.976893	3055.408058
948.278286	3048.337840
948.579641	3041.348280
948.880958	3036.733104
949.182236	3039.359545
949.483476	3029.282278
949.784678	3030.363606
950.085841	3031.046682
950.386967	3038.273176
950.688054	3051.004610
950.989103	3070.095460
951.290114	3084.732450
951.591087	3109.809670
951.892021	3138.503918
952.192917	3164.440654
952.493776	3187.526618
952.794596	3198.617157
953.095378	3207.761810
953.396122	3201.994730
953.696828	3196.933411
953.997496	3187.937472
954.298126	3169.451561
954.598718	3153.256854
954.899272	3131.108545
955.199788	3105.360852
955.500266	3076.275914
955.800706	3044.040256
956.101108	3011.597911
956.401472	2980.967860
956.701798	2952.810495
957.002087	2913.824732
957.302337	2888.639127
957.602550	2861.681557
957.902724	2836.127948
958.202861	2810.796150
958.502960	2792.864766
958.803022	2770.655962
959.103045	2751.272726
959.403031	2737.686816
959.702979	2726.772718
960.002889	2714.999103
960.302762	2703.187680
960.602596	2688.974147
960.902393	2682.405523
961.202153	2673.580983
961.501875	2666.513286
961.801559	2658.323931
962.101205	2655.334527
962.400814	2648.448311
962.700385	2645.060656
962.999918	2638.761734
963.299414	2631.149592
963.598873	2631.194962
963.898293	2621.515947
964.197677	2622.690535
964.497022	2623.696246
964.796331	2619.789351
965.095601	2620.830350
965.394835	2615.509412
965.694030	2616.472272
965.993189	2616.003445
966.292309	2610.874071
966.591393	2608.819801
966.890439	2610.276694
967.189447	2611.826849
967.488419	2611.199225
967.787353	2611.030347
968.086249	2613.709720
968.385108	2612.220059
968.683930	2616.240379
968.982714	2619.895216
969.281462	2621.016872
969.580172	2628.611371
969.878844	2632.054479
970.177480	2638.229892
970.476078	2646.918321
970.774639	2653.849907
971.073162	2661.308294
971.371649	2667.972700
971.670098	2670.536127
971.968510	2677.966787
972.266885	2683.290246
972.565223	2684.442149
972.863524	2683.217149
973.161788	2688.885927
973.460014	2692.656710
973.758204	2695.010928
974.056356	2696.321628
974.354471	2698.617874
974.652550	2700.689788
974.950591	2700.160467
975.248595	2695.739375
975.546563	2696.619057
975.844493	2693.604447
976.142386	2689.682429
976.440243	2683.012982
976.738062	2679.763959
977.035845	2671.652742
977.333590	2669.863132
977.631299	2665.081598
977.928971	2657.184631
978.226606	2652.433343
978.524204	2649.874957
978.821765	2644.712816
979.119290	2647.969401
979.416777	2644.143166
979.714228	2645.557209
980.011642	2652.234217
980.309020	2654.986687
980.606360	2668.892710
980.903664	2686.453570
981.200931	2717.244937
981.498162	2754.700711
981.795356	2814.098106
982.092513	2889.843963
982.389633	2979.500884
982.686717	3072.454720
982.983764	3145.014568
983.280775	3194.838812
983.577749	3214.781616
983.874686	3207.355997
984.171587	3181.419260
984.468451	3146.965494
984.765279	3110.475102
985.062070	3072.016139
985.358824	3030.892927
985.655543	2983.301914
985.952224	2934.788370
986.248869	2876.999103
986.545478	2822.083293
986.842050	2771.707043
987.138586	2728.786659
987.435086	2694.219467
987.731549	2666.170487
988.027975	2638.416415
988.324366	2619.910339
988.620719	2609.961622
988.917037	2597.091556
989.213318	2589.678539
989.509563	2582.555389
989.805772	2577.713361
990.101944	2572.717577
990.398080	2569.710529
990.694180	2570.136507
990.990244	2569.629871
991.286271	2568.508214
991.582262	2569.481157
991.878217	2574.698751
992.174136	2572.924265
992.470019	2577.121025
992.765865	2578.330902
993.061676	2581.511870
993.357450	2587.992273
993.653188	2598.082143
993.948890	2610.848865
994.244556	2624.293622
994.540186	2645.710964
994.835780	2673.891014
995.131337	2702.804552
995.426859	2740.857702
995.722345	2781.708692
996.017795	2829.037565
996.313208	2864.136599
996.608586	2891.699108
996.903928	2907.798032
997.199234	2911.417581
997.494504	2911.450348
997.789738	2899.588513
998.084936	2878.448435
998.380099	2851.868951
998.675225	2828.319201
998.970316	2799.173770
999.265371	2769.133534
999.560390	2736.431569
999.855373	2710.323433
1000.150320	2681.520801
1000.445232	2655.168169
1000.740108	2638.025725
1001.034948	2619.161728
1001.329752	2606.752927
1001.624521	2592.393201
1001.919254	2582.608321
1002.213951	2576.526169
1002.508613	2567.779767
1002.803239	2563.323387
1003.097829	2555.459187
1003.392384	2552.963816
1003.686903	2549.513146
1003.981386	2545.001313
1004.275834	2540.733977
1004.570246	2538.946888
1004.864623	2537.308513
1005.158964	2535.879346
1005.453270	2534.906403
1005.747540	2534.329191
1006.041775	2529.058664
1006.335974	2528.879703
1006.630138	2526.926256
1006.924266	2528.274765
1007.218359	2527.349713
1007.512416	2526.898530
1007.806438	2521.323014
1008.100425	2521.025586
1008.394376	2519.014165
1008.688292	2525.088756
1008.982172	2523.765453
1009.276017	2522.918539
1009.569827	2523.248735
1009.863602	2523.586492
1010.157341	2522.757222
1010.451045	2518.850328
1010.744714	2520.072808
1011.038347	2522.467356
1011.331945	2518.343692
1011.625508	2517.486696
1011.919036	2516.032323
1012.212528	2517.733712
1012.505986	2515.535769
1012.799408	2517.005266
1013.092795	2513.647857
1013.386147	2516.334792
1013.679464	2511.081910
1013.972745	2511.848165
1014.265992	2514.688855
1014.559204	2513.476458
1014.852380	2515.828156
1015.145521	2515.268588
1015.438628	2513.380676
1015.731699	2516.022241
1016.024736	2514.673732
1016.317737	2518.003414
1016.610703	2516.695235
1016.903635	2522.086749
1017.196531	2518.363857
1017.489393	2518.300842
1017.782219	2521.532222
1018.075011	2521.993487
1018.367768	2523.710000
1018.660490	2523.294105
1018.953177	2523.294105
1019.245829	2523.294105
