Dividing Wavelength (nm)	Counts (n)	Blue Motor Position (mm): 25.500000	Red Motor Position (mm): 0.000000	
326.493990	2064.433158
326.888308	2064.433158
327.282561	2064.433158
327.676750	2041.654705
328.070874	2043.562782
328.464933	2048.752649
328.858929	2057.614998
329.252859	2068.476164
329.646726	2079.082752
330.040528	2099.885073
330.434265	2110.317741
330.827938	2138.412091
331.221547	2156.124185
331.615091	2175.842658
332.008571	2196.337469
332.401986	2215.660212
332.795338	2236.162585
333.188625	2256.286871
333.581847	2276.963163
333.975006	2295.925464
334.368100	2310.706127
334.761129	2328.261945
335.154095	2344.491940
335.546996	2392.224105
335.939833	2492.573313
336.332606	2499.451968
336.725315	2512.374966
337.117960	2524.670340
337.510540	2535.796167
337.903056	2543.045346
338.295508	2551.098589
338.687896	2557.563869
339.080220	2560.533108
339.472480	2565.896896
339.864676	2569.299675
340.256807	2574.154306
340.648875	2574.877712
341.040879	2575.228072
341.432818	2580.977508
341.824694	2580.475913
342.216506	2580.211252
342.608253	2578.792168
342.999937	2578.847620
343.391557	2576.448031
343.783113	2574.592887
344.174605	2571.348904
344.566033	2574.008113
344.957397	2571.422001
345.348697	2567.232802
345.739934	2564.591237
346.131106	2566.358162
346.522215	2564.359344
346.913260	2563.288099
347.304241	2563.018397
347.695159	2559.565207
348.086012	2560.631411
348.476802	2557.210988
348.867528	2551.181768
349.258191	2547.852086
349.648789	2549.855945
350.039324	2546.364946
350.429796	2550.584391
350.820203	2549.651778
351.210548	2549.929041
351.600828	2548.494833
351.991045	2548.799823
352.381198	2543.685572
352.771288	2549.616490
353.161314	2544.356046
353.551276	2546.911911
353.941175	2543.345294
354.331010	2544.890408
354.720782	2545.986859
355.110490	2552.154711
355.500135	2545.835624
355.889717	2549.470296
356.279235	2547.663043
356.668689	2547.531973
357.058080	2551.201933
357.447408	2548.041129
357.836672	2551.368291
358.225873	2545.681869
358.615010	2549.435008
359.004084	2551.499361
359.393095	2552.031202
359.782043	2553.520863
360.170927	2549.026675
360.559748	2557.226112
360.948505	2555.580175
361.337199	2552.878116
361.725830	2555.197047
362.114398	2554.922304
362.502903	2554.947510
362.891344	2557.710062
363.279722	2554.415668
363.668037	2559.592933
364.056289	2554.975236
364.444478	2556.147305
364.832603	2558.244425
365.220665	2553.840977
365.608665	2558.312480
365.996601	2558.743499
366.384474	2559.459343
366.772284	2559.086297
367.160031	2559.229970
367.547715	2560.245763
367.935336	2557.536142
368.322893	2557.349620
368.710388	2555.071018
369.097820	2557.677295
369.485189	2555.983467
369.872495	2563.391443
370.259738	2561.145609
370.646918	2562.249621
371.034035	2565.329766
371.421090	2558.962789
371.808081	2561.811041
372.195010	2562.915054
372.581875	2563.368757
372.968678	2564.079560
373.355418	2562.854560
373.742096	2565.322205
374.128710	2563.938408
374.515262	2566.290106
374.901751	2564.291289
375.288177	2564.629046
375.674540	2565.163408
376.060841	2567.091650
376.447079	2564.336659
376.833254	2567.278172
377.219367	2569.191290
377.605417	2564.908830
377.991404	2567.121897
378.377329	2567.613409
378.763191	2569.758420
379.148991	2569.340004
379.534727	2566.983265
379.920402	2567.777247
380.306013	2569.622309
380.691563	2569.264387
381.077049	2566.879921
381.462474	2567.782288
381.847835	2570.917885
382.233134	2570.305385
382.618371	2570.585169
383.003545	2572.780592
383.388657	2571.656414
383.773706	2568.498132
384.158693	2573.279666
384.543618	2572.659604
384.928480	2573.539285
385.313280	2571.091805
385.698017	2573.249419
386.082692	2571.737073
386.467305	2573.130952
386.851856	2573.398133
387.236344	2571.638770
387.620770	2569.264387
388.005133	2571.326219
388.389435	2571.704305
388.773674	2569.491239
389.157851	2575.286045
389.541965	2575.344018
389.926018	2574.507187
390.310008	2576.448031
390.693936	2576.253947
391.077802	2577.894842
391.461606	2577.438618
391.845348	2575.717064
392.229027	2577.310068
392.612645	2574.567681
392.996200	2576.246385
393.379694	2579.170254
393.763125	2576.387537
394.146494	2579.830645
394.529801	2575.507856
394.913047	2580.922055
395.296230	2579.253433
395.679351	2579.676890
396.062410	2579.064390
396.445408	2580.576736
396.828343	2579.941551
397.211217	2581.040522
397.594028	2581.668146
397.976778	2580.617065
398.359466	2578.877867
398.742092	2580.947261
399.124656	2579.480285
399.507158	2582.809967
399.889598	2581.779051
400.271977	2582.323496
400.654294	2584.982705
401.036549	2583.654361
401.418742	2583.107395
401.800874	2585.169227
402.182944	2585.950606
402.564952	2586.474886
402.946898	2587.793148
403.328783	2585.847262
403.710606	2583.745101
404.092367	2585.990935
404.474067	2584.108064
404.855705	2586.658888
405.237282	2587.016810
405.618797	2588.118302
406.000250	2590.308684
406.381642	2587.901533
406.762972	2586.661409
407.144240	2584.876840
407.525447	2586.648806
407.906593	2583.117478
408.287677	2588.536718
408.668700	2589.862542
409.049661	2590.769949
409.430560	2588.284660
409.811399	2590.011256
410.192176	2591.964703
410.572891	2587.440267
410.953545	2589.403797
411.334138	2589.245000
411.714669	2593.363623
412.095139	2593.419076
412.475547	2588.670309
412.855894	2589.650813
413.236180	2591.011925
413.616405	2593.656010
413.996568	2589.633169
414.376670	2592.932604
414.756711	2594.639035
415.136691	2591.410176
415.516609	2593.015783
415.896466	2592.708273
416.276262	2592.332707
416.655997	2596.264807
417.035670	2593.509816
417.415283	2598.422421
417.794834	2594.182810
418.174324	2595.385126
418.553753	2593.618201
418.933121	2595.732965
419.312428	2595.561566
419.691674	2596.927719
420.070859	2596.920157
420.449983	2597.497369
420.829045	2598.361927
421.208047	2598.626587
421.586988	2598.525764
421.965867	2598.331680
422.344686	2597.734303
422.723444	2598.009046
423.102141	2597.338573
423.480777	2597.003336
423.859352	2598.455188
424.237866	2600.201948
424.616319	2598.235898
424.994712	2601.857967
425.373044	2597.550301
425.751314	2598.961824
426.129524	2598.240939
426.507673	2601.154726
426.885762	2595.115424
427.263789	2601.293358
427.641756	2602.193204
428.019662	2600.108687
428.397508	2603.556836
428.775292	2601.931064
429.153016	2603.501383
429.530679	2602.982144
429.908282	2603.675303
430.285824	2603.715632
430.663305	2602.712443
431.040726	2607.065479
431.418086	2607.057917
431.795385	2605.490118
432.172624	2608.093874
432.549802	2606.836107
432.926920	2606.183277
433.303977	2606.095057
433.680974	2609.523042
434.057910	2609.003803
434.434786	2610.619492
434.811601	2609.931375
435.188355	2612.245265
435.565050	2608.819801
435.941683	2609.346601
436.318257	2614.218876
436.694770	2611.277363
437.071222	2613.263578
437.447614	2613.409771
437.823946	2615.083434
438.200218	2614.221397
438.576429	2615.464041
438.952580	2616.472272
439.328670	2617.752725
439.704700	2618.324896
440.080670	2619.686008
440.456580	2618.062756
440.832429	2621.142901
441.208218	2622.778756
441.583947	2623.640793
441.959616	2623.113992
442.335224	2623.842439
442.710773	2624.991822
443.086261	2624.424692
443.461689	2627.066257
443.837057	2627.116668
444.212365	2630.504324
444.587612	2627.961062
444.962800	2627.572893
445.337927	2633.120683
445.712995	2629.639766
446.088002	2635.454737
446.462949	2637.284676
446.837837	2637.246867
447.212664	2641.405819
447.587431	2647.193064
447.962139	2653.817140
448.336786	2659.937101
448.711374	2662.871052
449.085901	2658.694456
449.460369	2664.222081
449.834776	2665.416835
450.209124	2676.489729
450.583412	2678.556602
450.957640	2684.641275
451.331808	2689.279137
451.705917	2689.957172
452.079965	2696.238449
452.453954	2703.520396
452.827883	2709.355532
453.201752	2716.851727
453.575562	2726.109807
453.949311	2741.046745
454.323001	2750.577047
454.696632	2760.797986
455.070202	2782.832870
455.443713	2797.616053
455.817164	2813.299083
456.190556	2838.593072
456.563888	2851.458097
456.937160	2870.216230
457.310373	2879.323075
457.683526	2895.734551
458.056619	2918.888571
458.429653	2938.786005
458.802628	2967.694502
459.175542	2993.963954
459.548398	3042.215358
459.921194	3095.361723
460.293930	3149.528921
460.666607	3226.963565
461.039224	3304.244453
461.411782	3363.089842
461.784280	3379.876884
462.156719	3415.268305
462.529099	3451.310034
462.901419	3454.173410
463.273680	3466.408290
463.645882	3520.862834
464.018024	3563.579051
464.390106	3641.734580
464.762130	3793.062456
465.134094	4005.083305
465.505999	4289.096871
465.877845	4585.584773
466.249631	4771.346251
466.621358	4801.071415
466.993026	4789.774189
467.364634	4786.734373
467.736184	4775.585862
468.107674	4788.874343
468.479105	4850.376420
468.850477	4896.281167
469.221790	4919.150361
469.593043	4904.404986
469.964238	4931.186116
470.335373	5019.928068
470.706449	5213.652048
471.077467	5451.917144
471.448425	5964.489064
471.819324	6379.333176
472.190164	6465.655374
472.560945	6262.322954
472.931667	6075.419654
473.302330	6111.007680
473.672934	6104.920487
474.043479	6290.036697
474.413965	6351.921902
474.784393	6412.705614
475.154761	6662.945971
475.525070	6799.616693
475.895321	6876.106120
476.265513	7109.380473
476.635645	7366.756583
477.005719	7503.510483
477.375734	7724.008032
477.745691	8024.097838
478.115588	8321.856111
478.485427	8802.061303
478.855207	9465.943456
479.224928	10166.026134
479.594591	10750.215207
479.964194	10808.682509
480.333739	11110.851791
480.703226	11354.727691
481.072653	11699.073786
481.442022	12060.161554
481.811333	12388.844785
482.180584	12426.232502
482.549777	12541.329606
482.918912	12657.492914
483.287988	12845.948889
483.657005	12981.228253
484.025964	13034.566181
484.394864	13300.066110
484.763706	13468.521307
485.132489	13446.070528
485.501213	13679.876723
485.869879	13935.594293
486.238487	14100.954222
486.607036	14409.344287
486.975527	14476.651253
487.343959	14827.994470
487.712333	15188.104254
488.080648	15371.403129
488.448905	15782.731036
488.817104	15930.724189
489.185244	16549.283848
489.553326	17266.657685
489.921350	18497.737701
490.289315	20062.690816
490.657222	20801.267745
491.025070	21357.211232
491.392861	21447.276487
491.760593	21269.306112
492.128267	20948.247627
492.495883	20637.319340
492.863440	20358.987153
493.230939	20026.170177
493.598380	19919.489279
493.965763	20052.338806
494.333088	19973.835438
494.700354	20072.944522
495.067563	20249.493292
495.434713	20384.460104
495.801805	20775.938467
496.168839	20877.316071
496.535815	20999.044813
496.902733	21283.990993
497.269593	21372.833768
497.636395	21671.378461
498.003139	22063.766753
498.369825	22100.655396
498.736453	22576.933529
499.103023	22670.124299
499.469535	22920.354573
499.835989	23202.175238
500.202385	23307.351351
500.568723	23521.171891
500.935003	23950.721049
501.301226	24025.539333
501.667390	24753.416414
502.033497	25096.199752
502.399546	25134.273066
502.765537	25014.570868
503.131470	25553.820575
503.497345	26061.326135
503.863163	25426.228971
504.228923	26195.340169
504.594625	26671.824989
504.960269	26425.289881
505.325856	27119.207229
505.691385	27009.277307
506.056856	27428.101410
506.422270	27996.103337
506.787625	27750.788188
507.152924	28286.042780
507.518164	28588.517052
507.883347	28386.034067
508.248472	28638.406831
508.613540	29365.686535
508.978550	29681.466932
509.343503	29698.057370
509.708398	30142.298970
510.073236	30785.769491
510.438016	30994.564001
510.802738	30845.628152
511.167403	31444.786930
511.532010	31773.515532
511.896561	32345.976359
512.261053	33131.776297
512.625488	33057.144535
512.989866	33106.699078
513.354186	33244.564553
513.718449	33315.314627
514.082655	34229.575768
514.446803	34029.676374
514.810894	34690.899318
515.174927	34793.431346
515.538904	34885.523144
515.902822	35554.527110
516.266684	35338.985015
516.630488	35741.816057
516.994235	35819.507800
517.357925	36443.700948
517.721558	36744.337720
518.085133	37162.874477
518.448651	37417.503158
518.812112	37373.509008
519.175516	37582.787469
519.538863	38064.192455
519.902152	38193.641724
520.265385	38780.918503
520.628560	38835.501597
520.991678	38825.578085
521.354739	39085.767159
521.717743	39495.527267
522.080690	39446.378537
522.443580	40149.218727
522.806413	40188.562412
523.169189	40367.435154
523.531908	40639.972533
523.894569	40531.933045
524.257174	40758.636254
524.619722	41128.493109
524.982213	41296.580301
525.344647	41358.783099
525.707025	41519.676565
526.069345	41960.865747
526.431608	41906.010431
526.793815	42298.577684
527.155964	41880.262738
527.518057	42159.169615
527.880093	42048.982595
528.242072	42671.527287
528.603995	42438.109261
528.965860	42401.757500
529.327669	42647.652382
529.689421	42711.244017
530.051117	42668.384127
530.412755	42949.965337
530.774337	43027.984754
531.135862	42983.254596
531.497331	43165.860312
531.858743	43164.055579
532.220098	43556.791711
532.581396	43305.303669
532.942638	43100.484108
533.303824	43359.828789
533.664953	43433.386785
534.026025	43113.286119
534.387040	43692.905385
534.747999	43754.858645
535.108902	44095.275162
535.469748	43431.468626
535.830537	43716.001431
536.191270	43984.163090
536.551947	43735.404832
536.912567	44009.348694
537.273131	44149.149973
537.633638	43788.944407
537.994089	43968.969052
538.354483	43727.487700
538.714821	44385.186878
539.075103	44656.426161
539.435328	44539.221854
539.795497	44303.968848
540.155609	44452.642558
540.515665	45022.892840
540.875665	44333.623436
541.235609	44614.019975
541.595496	44763.084373
541.955328	45325.591443
542.315102	44768.317091
542.674821	44680.923648
543.034483	44585.131643
543.394090	44612.258091
543.753640	44626.663188
544.113134	45669.390573
544.472571	44777.953257
544.831953	45882.553243
545.191278	45164.705538
545.550548	44891.790072
545.909761	45509.127252
546.268918	45639.365461
546.628019	46041.669703
546.987064	45497.230128
547.346053	44819.227704
547.704986	45710.798611
548.063863	45371.014760
548.422684	45567.521457
548.781449	45156.511143
549.140158	45685.159303
549.498811	45438.014215
549.857408	44860.083735
550.215949	45688.226845
550.574434	45540.841150
550.932864	45489.315517
551.291237	46178.905034
551.649555	45935.213136
552.007817	46125.012579
552.366022	45825.890674
552.724173	45903.085863
553.082267	46294.579350
553.440305	46656.874474
553.798288	45922.126301
554.156215	46292.825028
554.514086	46515.092022
554.871902	46120.805736
555.229661	46276.126206
555.587365	45979.976062
555.945014	46109.180835
556.302606	46119.903369
556.660143	46210.853346
557.017625	46448.601723
557.375050	46133.322921
557.732421	46554.559216
558.089735	46603.337420
558.446994	46468.335320
558.804197	46961.322358
559.161345	46815.761561
559.518437	46190.915583
559.875474	46428.263188
560.232455	46619.348125
560.589381	46675.337700
560.946251	46500.956627
561.303065	47148.167684
561.659825	46845.496807
562.016528	46654.215265
562.373177	46263.919052
562.729770	46885.289155
563.086307	46413.386743
563.442789	46936.996270
563.799216	46784.413146
564.155587	46697.359981
564.511904	46653.814494
564.868164	46709.173925
565.224370	47033.063018
565.580520	46759.227541
565.936615	46940.338555
566.292654	46604.506968
566.648638	46979.130234
567.004567	46917.176973
567.360441	46986.926378
567.716260	46725.963487
568.072023	47119.791029
568.427732	47028.437759
568.783385	46566.519353
569.138982	46990.230854
569.494525	47131.839387
569.850013	46734.644354
570.205445	46849.983434
570.560823	46634.053171
570.916145	46494.972777
571.271412	46726.664208
571.626625	46368.253293
571.981782	46456.133207
572.336884	46083.289469
572.691931	46392.105512
573.046923	46073.446616
573.401860	45914.635146
573.756743	45926.023113
574.111570	46061.171406
574.466342	45971.635473
574.821059	46144.466391
575.175722	45628.675694
575.530330	45723.522483
575.884882	45378.223610
576.239380	45278.098733
576.593823	45364.448657
576.948211	45308.723742
577.302544	44859.153642
577.656823	44864.139343
578.011047	45124.590557
578.365216	44976.320140
578.719330	44688.422364
579.073389	44670.569118
579.427394	44724.774125
579.781344	44640.629705
580.135239	44386.943720
580.489080	44470.384899
580.842866	43959.932784
581.196597	44443.591166
581.550273	44439.210403
581.903895	44379.056835
582.257463	44822.602756
582.610975	44244.780661
582.964434	44563.920988
583.317837	44080.733953
583.671186	44042.698447
584.024481	44324.148587
584.377721	43894.231426
584.730906	44107.996513
585.084037	44250.633441
585.437113	43970.960308
585.790135	44086.700159
586.143103	43662.482022
586.496016	43828.726673
586.848874	43937.915544
587.201679	43976.558509
587.554428	43466.771826
587.907124	43728.329573
588.259765	43501.631405
588.612352	43655.832740
588.964884	43126.017553
589.317362	43424.458902
589.669786	43432.980972
590.022155	43323.507275
590.374470	43782.711020
590.726731	43369.701888
591.078937	42717.918505
591.431090	43072.130139
591.783188	42576.078080
592.135232	42385.719069
592.487222	42650.450222
592.839157	42787.897282
593.191038	42458.409987
593.542866	42269.346553
593.894639	41651.868222
594.246358	41951.557256
594.598022	41966.642909
594.949633	41539.120295
595.301190	41549.830227
595.652692	41496.711588
596.004141	41971.810092
596.355535	40891.720195
596.706876	40896.290001
597.058162	40626.817642
597.409395	41120.109670
597.760573	41339.127640
598.111698	40957.557664
598.462768	40884.879349
598.813785	40900.070866
599.164748	40517.104491
599.515657	40778.669799
599.866511	40288.742742
600.217312	40963.843983
600.568060	39926.240931
600.918753	40746.988668
601.269392	40652.235140
601.619978	40400.447150
601.970510	40612.830961
602.320988	40740.006670
602.671412	41001.012410
603.021783	40866.937883
603.372100	40458.667435
603.722363	40555.737373
604.072572	40595.839752
604.422728	40589.520666
604.772830	40357.085665
605.122878	40546.741434
605.472872	40381.938553
605.822813	40659.214618
606.172701	40390.979863
606.522534	40723.965718
606.872314	40919.900245
607.222041	40752.493608
607.571714	41097.374066
607.921333	40587.637795
608.270899	40795.628241
608.620411	41163.304797
608.969870	40932.994642
609.319276	40938.746598
609.668627	40963.798612
610.017926	41362.813501
610.367171	41513.914526
610.716362	41557.243243
611.065500	41461.007616
611.414585	41693.039325
611.763616	41853.423635
612.112594	41763.207145
612.461518	41885.021587
612.810389	42259.324739
613.159207	42061.565315
613.507971	42031.267981
613.856682	42528.902962
614.205340	42356.072043
614.553945	43032.723439
614.902496	42393.530337
615.250994	42807.003255
615.599439	42885.136098
615.947830	42974.316631
616.296169	42983.743588
616.644454	43050.291860
616.992686	43194.970455
617.340864	43629.807783
617.688990	43116.066315
618.037063	43805.118949
618.385082	43620.433757
618.733048	43980.762831
619.080961	43865.012898
619.428821	43909.087706
619.776628	43950.611690
620.124382	43778.559630
620.472083	43893.923915
620.819731	43992.881765
621.167326	43574.385337
621.514868	43574.355091
621.862357	43024.355124
622.209793	43133.906958
622.557176	42710.099675
622.904506	42473.364570
623.251783	42110.247738
623.599007	41803.112919
623.946179	41728.929820
624.293297	41464.622124
624.640363	40922.733373
624.987376	40788.984000
625.334336	40593.667015
625.681243	40185.565446
626.028097	40095.737126
626.374899	39932.837281
626.721647	39880.013550
627.068343	39649.453858
627.414987	39357.855876
627.761577	39136.244232
628.108115	39430.332545
628.454600	38693.809885
628.801032	38936.206206
629.147412	38842.528965
629.493739	38711.872340
629.840014	38277.423181
630.186236	38701.190135
630.532405	38140.223137
630.878521	38398.834330
631.224585	38151.666557
631.570597	37828.160591
631.916556	37999.048145
632.262462	37903.475429
632.608316	37855.166052
632.954117	37717.267809
633.299866	37682.025103
633.645562	37601.525437
633.991206	37088.671213
634.336797	36688.476694
634.682336	36578.052740
635.027823	36352.675354
635.373257	36252.366475
635.718639	35912.653199
636.063968	35795.554757
636.409245	35163.525135
636.754470	35117.438907
637.099642	34887.436262
637.444762	34319.313347
637.789829	34451.759582
638.134845	34065.246755
638.479808	33979.413549
638.824719	33939.419555
639.169577	33420.158024
639.514383	33539.550191
639.859137	33154.685821
640.203839	33315.140707
640.548489	33034.348438
640.893086	33026.718651
641.237632	32729.615729
641.582125	32823.461849
641.926566	32609.759776
642.270955	32641.660197
642.615292	32590.058946
642.959576	32445.536627
643.303809	32457.532053
643.647990	32561.904102
643.992118	32518.963554
644.336195	32361.931611
644.680219	32419.226845
645.024192	32616.709006
645.368112	33142.924809
645.711981	33157.057684
646.055797	33844.860112
646.399562	33639.057527
646.743274	34494.722816
647.086935	34902.960496
647.430544	34887.383330
647.774101	34921.201911
648.117606	35238.751753
648.461059	35377.454060
648.804460	34993.834855
649.147810	34501.026779
649.491108	34186.599931
649.834354	34086.888429
650.177548	33282.481592
650.520690	32754.617331
650.863781	32755.300408
651.206820	32572.921544
651.549807	32141.718888
651.892742	31556.851780
652.235626	31484.135657
652.578458	31323.479125
652.921238	30640.896812
653.263967	30902.961194
653.606644	30603.297366
653.949269	30516.788645
654.291843	30134.248247
654.634365	30490.851909
654.976836	30046.471677
655.319255	30117.463726
655.661622	29997.411167
656.003938	29869.224707
656.346203	29674.883185
656.688416	29929.882391
657.030577	29713.047241
657.372687	29536.652226
657.714746	29671.624079
658.056753	29863.167761
658.398708	29235.584436
658.740612	29316.464709
659.082465	29527.615958
659.424266	29405.468800
659.766016	29408.007021
660.107715	29249.576159
660.449362	29342.971096
660.790958	29325.102726
661.132503	29241.845549
661.473996	29331.560444
661.815438	29411.470294
662.156829	29533.743481
662.498168	29317.548557
662.839456	29309.341558
663.180693	29426.029146
663.521879	29499.652678
663.863013	29436.176989
664.204097	29407.190354
664.545129	29826.851289
664.886110	29756.330587
665.227040	29878.187879
665.567918	29850.038076
665.908746	29915.865463
666.249522	30005.134215
666.590248	30037.279133
666.930922	30150.291719
667.271545	30168.825522
667.612118	30211.327490
667.952639	30026.244047
668.293109	30054.605578
668.633528	29905.669729
668.973896	29882.944207
669.314213	29843.603043
669.654480	29669.806743
669.994695	29639.043102
670.334859	29551.536233
670.674973	29366.712410
671.015035	29567.564582
671.355047	29491.959877
671.695008	29407.112217
672.034918	29316.162239
672.374777	29410.898123
672.714585	29297.394024
673.054342	29425.731718
673.394049	29280.400294
673.733705	29490.220679
674.073310	29215.238339
674.412864	29272.899057
674.752368	29003.366205
675.091820	29239.561907
675.431223	28836.877058
675.770574	28634.436922
676.109875	28485.264139
676.449125	28274.249001
676.788324	28174.918105
677.127473	27700.260703
677.466571	27598.386546
677.805619	27323.010996
678.144616	27239.703408
678.483562	27196.823354
678.822458	26877.274694
679.161303	26820.980129
679.500098	26745.740908
679.838842	26659.033062
680.177535	26710.914096
680.516179	26927.298063
680.854771	26997.327252
681.193314	27690.314507
681.531805	28630.582960
681.870247	29381.392250
682.208638	30176.820792
682.546978	30530.311540
682.885268	30715.551259
683.223508	30304.717385
683.561697	30043.688960
683.899836	29876.998167
684.237925	29470.381218
684.575963	29304.872575
684.913951	28913.921012
685.251889	29064.407016
685.589776	29061.730164
685.927614	29072.883717
686.265401	29231.818694
686.603137	29326.756224
686.940824	29793.612441
687.278460	30123.117380
687.616046	30304.672015
687.953582	30972.990383
688.291068	30907.659550
688.628504	31286.918157
688.965889	31293.229681
689.303224	31056.519782
689.640510	30800.474537
689.977745	30201.769462
690.314930	29491.221348
690.652065	29063.156810
690.989150	28392.121260
691.326185	27569.629284
691.663170	26955.296632
692.000105	26233.988175
692.336990	25628.873273
692.673825	25210.578492
693.010610	24719.023142
693.347345	24214.285175
693.684030	23587.926850
694.020665	23398.855855
694.357251	22724.770407
694.693786	22733.332806
695.030272	22488.892298
695.366707	22009.662569
695.703093	21713.149461
696.039429	21780.403495
696.375716	21540.310981
696.711952	21534.821165
697.048139	21396.242366
697.384276	21235.900906
697.720363	21350.304852
698.056400	21253.494533
698.392388	21089.596539
698.728326	21079.584808
699.064214	20929.512178
699.400053	20948.565219
699.735842	20551.849097
700.071581	20380.492716
700.407270	20143.263578
700.742910	19960.786411
701.078501	19716.189627
701.414042	19522.049751
701.749533	19226.663341
702.084974	18908.180885
702.420366	19126.561149
702.755709	18735.473475
703.091002	18433.553730
703.426246	18484.071133
703.761440	18432.837886
704.096584	18185.017284
704.431679	18127.086864
704.766725	18063.991783
705.101721	17978.332497
705.436668	18097.235672
705.771565	17817.403742
706.106413	18116.989433
706.441212	18187.114404
706.775961	18276.189072
707.110661	18351.319908
707.445311	18702.637919
707.779913	18600.801571
708.114465	18886.055261
708.448967	19179.004273
708.783421	19788.300812
709.117825	20119.446646
709.452180	20336.279276
709.786485	20774.963004
710.120742	21506.046258
710.454949	21605.314139
710.789107	22112.169391
711.123216	22809.179487
711.457275	23042.894941
711.791286	23606.039716
712.125247	23781.522282
712.459159	23542.710221
712.793023	24310.891326
713.126837	23333.822450
713.460602	23600.444035
713.794318	23290.110605
714.127985	23024.456920
714.461602	22141.592086
714.795171	22119.378241
715.128691	21157.689925
715.462162	20645.062552
715.795584	20211.646829
716.128957	19945.768814
716.462281	19576.567309
716.795556	19294.393764
717.128782	18819.940528
717.461960	18230.133090
717.795088	18196.649746
718.128167	17867.527935
718.461198	17411.369047
718.794180	17292.286911
719.127113	16961.098227
719.459997	16774.005884
719.792833	16404.015438
720.125619	16438.166735
720.458357	16102.972854
720.791046	15969.430168
721.123686	15828.378684
721.456278	15592.480410
721.788821	15595.643734
722.121315	15329.548949
722.453761	15420.297280
722.786158	15304.491894
723.118506	15388.084307
723.450805	15274.980979
723.783056	15452.364059
724.115259	15332.619012
724.447412	15309.785105
724.779518	15524.371901
725.111574	15569.187759
725.443582	15831.549569
725.775542	15765.487769
726.107453	16276.237312
726.439315	16175.414235
726.771129	16568.069708
727.102895	16969.325390
727.434612	17248.093636
727.766281	17427.591480
728.097901	17743.573524
728.429473	17861.060135
728.760996	17880.987816
729.092471	18000.296804
729.423897	17877.874903
729.755276	17734.005414
730.086606	17814.086663
730.417887	18353.386781
730.749120	18891.330828
731.080305	19112.405589
731.411442	19524.623260
731.742530	19639.180960
732.073570	19774.253637
732.404562	20096.814386
732.735506	20003.248050
733.066401	19874.499501
733.397249	19440.022616
733.728048	18860.819245
734.058798	18015.551335
734.389501	17269.581554
734.720156	16747.088643
735.050762	16155.814229
735.381320	15762.037099
735.711831	15467.810155
736.042293	15086.968626
736.372707	15113.815291
736.703073	14891.394542
737.033391	15082.534931
737.363661	15064.737137
737.693883	15171.755792
738.024056	15353.199522
738.354182	15554.601180
738.684260	15898.715383
739.014290	16176.861046
739.344272	16392.521608
739.674207	16739.625215
740.004093	16916.877225
740.333931	17000.129360
740.663722	17084.183039
740.993464	17141.634549
741.323159	17007.338210
741.652806	16726.677011
741.982405	16574.940801
742.311956	16219.882253
742.641460	16131.241124
742.970915	15798.991277
743.300323	15457.720285
743.629683	15245.225568
743.958996	14939.661069
744.288260	14626.123985
744.617477	14316.148476
744.946647	14280.633547
745.275768	13970.968070
745.604842	13763.343107
745.933869	13591.217950
746.262847	13545.240107
746.591778	13462.703815
746.920662	13334.673631
747.249498	13324.344307
747.578286	13476.826608
747.907027	13635.398623
748.235720	13888.764494
748.564365	13976.709944
748.892963	13906.731167
749.221514	14024.396739
749.550017	13909.997834
749.878473	13870.795302
750.206881	13673.847503
750.535242	13599.621554
750.863555	13520.205737
751.191821	13416.234459
751.520039	13425.699226
751.848210	13343.785517
752.176334	13385.536353
752.504411	13317.637052
752.832440	13142.981236
753.160421	13270.104012
753.488356	13159.884224
753.816243	13071.127149
754.144082	12894.011250
754.471875	12837.865399
754.799620	12813.798931
755.127318	12778.836008
755.454969	12763.967125
755.782572	12727.862381
756.110129	12739.603228
756.437638	12655.952842
756.765100	12659.408553
757.092515	12679.865555
757.419882	12712.658261
757.747203	12713.353940
758.074477	12796.653966
758.401703	12777.671502
758.728882	12960.239409
759.056014	12999.865398
759.383099	13172.088858
759.710138	13301.170123
760.037129	13432.900514
760.364073	13503.179240
760.690970	13513.871527
761.017820	13528.115307
761.344623	13715.318555
761.671379	14025.427655
761.998088	14570.998968
762.324751	15970.299767
762.651366	18896.175377
762.977935	23177.370240
763.304456	26460.575437
763.630931	28034.978195
763.957359	27259.278209
764.283740	25233.883746
764.610074	23084.338266
764.936362	20476.904783
765.262602	18591.699767
765.588796	16626.650436
765.914943	15293.923115
766.241044	14162.529395
766.567097	13347.420189
766.893104	12606.037857
767.219064	12132.237451
767.544978	11647.603606
767.870845	11260.445511
768.196665	11022.823163
768.522438	10798.416199
768.848165	10590.965157
769.173846	10389.102233
769.499479	10254.395041
769.825066	10087.973949
770.150607	9873.803049
770.476101	9784.065469
770.801548	9672.776957
771.126949	9521.504533
771.452303	9402.722345
771.777611	9206.014002
772.102872	9197.464205
772.428087	9060.521260
772.753256	8914.564733
773.078378	8825.779932
773.403453	8644.799988
773.728482	8529.465950
774.053465	8455.449208
774.378401	8353.254938
774.703291	8233.136844
775.028135	8115.181406
775.352932	8081.521622
775.677683	7980.035633
776.002388	7871.721402
776.327046	7880.742546
776.651658	7785.124461
776.976224	7685.914553
777.300743	7684.122423
777.625216	7593.570697
777.949643	7556.072074
778.274024	7574.013541
778.598359	7483.416444
778.922647	7497.529154
779.246889	7450.341434
779.571086	7454.079449
779.895236	7460.917775
780.219339	7472.935885
780.543397	7474.748180
780.867409	7554.123668
781.191374	7561.430821
781.515294	7530.233640
781.839167	7625.108155
782.162995	7598.369875
782.486776	7545.125208
782.810511	7495.777353
783.134201	7412.258037
783.457844	7404.139259
783.781441	7353.576486
784.104993	7291.862680
784.428498	7277.666791
784.751958	7256.614933
785.075372	7225.135447
785.398739	7168.530852
785.722061	7200.960594
786.045337	7209.086934
786.368568	7344.509971
786.691752	7343.526946
787.014891	7642.784961
787.337983	7946.214532
787.661030	8493.537646
787.984031	9111.043704
788.306987	9547.852123
788.629897	9810.662597
788.952760	9802.805958
789.275579	9621.331982
789.598351	9256.793544
789.921078	8920.593953
790.243759	8512.237806
790.566395	8227.203406
790.888984	7973.613203
791.211529	7764.564115
791.534027	7539.902573
791.856480	7330.961870
792.178888	7253.542349
792.501249	7158.262021
792.823566	7000.065572
793.145836	6997.880232
793.468062	6964.351518
793.790241	6910.456542
794.112375	6966.504091
794.434464	7108.805781
794.756507	7135.402909
795.078505	7271.665297
795.400457	7555.255407
795.722364	7889.110862
796.044226	8177.079213
796.366042	8471.074265
796.687812	8439.498998
797.009538	8528.689612
797.331218	8448.560472
797.652852	8376.522383
797.974442	8227.067295
798.295986	8144.841035
798.617484	7959.800442
798.938938	7820.926735
799.260346	7720.683391
799.581709	7522.374481
799.903026	7450.124664
800.224299	7338.639547
800.545526	7176.241296
800.866708	7075.952582
801.187845	7005.106726
801.508936	6903.961015
801.829983	6870.215532
802.150984	6720.775567
802.471940	6679.362488
802.792851	6657.816597
803.113717	6633.908924
803.434538	6599.492967
803.755314	6538.215222
804.076045	6540.070366
804.396731	6484.300081
804.717372	6509.684811
805.037967	6503.108626
805.358518	6544.199071
805.679024	6621.485001
805.999485	6634.143338
806.319901	6673.050963
806.640272	6690.851278
806.960598	6775.119205
807.280879	6779.525174
807.601115	6858.820003
807.921306	6807.808568
808.241453	6816.945659
808.561554	6840.339133
808.881611	6813.041285
809.201623	6815.156049
809.521590	6767.048318
809.841513	6747.468477
810.161390	6779.280678
810.481223	6658.721484
810.801011	6644.860831
811.120755	6623.206555
811.440453	6540.869389
811.760107	6514.665471
812.079716	6478.285985
812.399281	6419.874135
812.718801	6411.236118
813.038276	6363.836669
813.357707	6303.383152
813.677093	6339.941600
813.996434	6243.716055
814.315731	6286.636439
814.634983	6272.347288
814.954191	6279.873731
815.273354	6378.098093
815.592473	6431.378048
815.911547	6550.298867
816.230577	6625.230578
816.549562	6768.326251
816.868502	6866.159923
817.187399	6952.837522
817.506250	7093.757937
817.825058	7119.717359
818.143821	7361.581838
818.462539	7597.054134
818.781213	7916.343175
819.099843	8395.842605
819.418429	9301.848857
819.736970	10186.478095
820.055466	11279.067533
820.373919	12641.520018
820.692327	14627.293533
821.010691	17926.453982
821.329011	25335.896535
821.647286	36944.814326
821.965517	50833.445230
822.283704	58344.469553
822.601847	61525.026776
822.919945	59314.385033
823.237999	55459.442413
823.556010	49474.587087
823.873976	42839.914428
824.191897	36389.400160
824.509775	31563.586762
824.827609	26942.081247
825.145398	24131.879953
825.463144	22484.390547
825.780845	22385.588973
826.098502	23611.436271
826.416116	26885.413637
826.733685	30596.665728
827.051210	32377.770917
827.368692	31449.472683
827.686129	27966.383215
828.003522	23986.475432
828.320872	20272.289390
828.638177	17392.636119
828.955439	15215.913779
829.272656	13398.136717
829.589830	11908.122875
829.906960	10622.784920
830.224046	9657.277929
830.541088	8882.250937
830.858086	8399.056341
831.175041	7997.394846
831.491952	7841.149324
831.808819	7826.850091
832.125642	8119.700800
832.442421	8819.526380
832.759157	10293.698397
833.075849	12835.342302
833.392497	15948.511900
833.709101	18413.081604
834.025662	18778.701369
834.342179	17449.580993
834.658653	15401.708025
834.975083	13482.205519
835.291469	11854.079185
835.607811	10526.813953
835.924110	9616.351322
836.240366	8755.788552
836.556578	7956.937066
836.872746	7308.964795
837.188871	6789.244518
837.504952	6364.673500
837.820990	6049.883690
838.136984	5814.620601
838.452935	5696.657601
838.768842	5681.531619
839.084706	5959.503363
839.400526	6919.941473
839.716303	8411.775172
840.032037	9636.483170
840.347727	9866.992450
840.663373	9073.073733
840.978977	8044.879995
841.294537	7214.667492
841.610054	6604.279543
841.925527	6171.786351
842.240957	5813.788811
842.556344	5492.904245
842.871687	5209.447726
843.186987	4930.583698
843.502244	4698.383111
843.817458	4530.767266
844.132629	4394.141915
844.447756	4298.415444
844.762840	4217.693968
845.077881	4145.055983
845.392879	4083.155654
845.707833	4034.687481
846.022745	3992.261130
846.337613	3962.006645
846.652438	3921.024585
846.967221	3904.855084
847.281960	3871.901061
847.596656	3853.936910
847.911309	3832.501923
848.225919	3811.044252
848.540485	3794.330307
848.855009	3779.547123
849.169490	3759.558948
849.483928	3748.120570
849.798323	3739.863160
850.112675	3718.531517
850.426984	3729.813620
850.741251	3713.313923
851.055474	3711.773851
851.369654	3714.768296
851.683792	3706.989796
851.997887	3713.613872
852.311938	3721.478072
852.625947	3719.980849
852.939914	3709.162533
853.253837	3719.877505
853.567718	3718.818863
853.881555	3713.140003
854.195350	3724.843042
854.509103	3719.932958
854.822812	3714.183522
855.136479	3707.012481
855.450103	3715.506825
855.763685	3701.091646
856.077224	3706.336966
856.390720	3719.738874
856.704173	3742.613109
857.017584	3753.862444
857.330953	3762.432406
857.644278	3784.361425
857.957561	3788.359060
858.270802	3791.756798
858.584000	3795.618321
858.897155	3789.868885
859.210268	3774.876494
859.523339	3752.317330
859.836367	3753.552413
860.149352	3746.336001
860.462295	3738.129003
860.775195	3726.854462
861.088054	3717.518245
861.400869	3717.891291
861.713642	3718.294583
862.026373	3725.528639
862.339062	3731.018455
862.651708	3746.580497
862.964312	3777.911268
863.276873	3788.031385
863.589392	3837.127182
863.901869	3884.756004
864.214303	3925.359977
864.526696	3957.227631
864.839045	4004.400228
865.151353	4027.755894
865.463619	4037.737379
865.775842	4046.017474
866.088023	4067.276020
866.400162	4057.334864
866.712258	4067.127306
867.024313	4070.436823
867.336325	4062.870051
867.648296	4072.239036
867.960224	4069.720979
868.272110	4078.250612
868.583954	4076.544181
868.895755	4094.163014
869.207515	4084.942743
869.519233	4126.310452
869.830909	4136.448212
870.142542	4160.507119
870.454134	4173.911547
870.765684	4199.994477
871.077191	4235.700970
871.388657	4256.014299
871.700081	4291.798930
872.011463	4331.606401
872.322803	4362.909446
872.634101	4395.923963
872.945357	4432.784879
873.256571	4482.833455
873.567744	4513.639946
873.878874	4531.583933
874.189963	4567.456784
874.501010	4582.867591
874.812015	4579.222837
875.122979	4623.700937
875.433900	4616.164412
875.744780	4629.475579
876.055618	4654.767048
876.366415	4654.698992
876.677169	4668.899923
876.987882	4705.884348
877.298554	4757.525928
877.609183	4824.941278
877.919771	4916.254218
878.230317	5044.705339
878.540822	5225.206373
878.851285	5498.852807
879.161707	5888.281941
879.472087	6527.391864
879.782425	7532.913013
880.092722	9343.753448
880.402977	12172.722958
880.713191	15670.847667
881.023363	19352.649338
881.333494	21800.396711
881.643583	23250.487135
881.953631	23488.379185
882.263637	22831.234535
882.573602	21536.346114
882.883526	20110.324678
883.193408	18541.555410
883.503248	16951.915765
883.813048	15479.956815
884.122806	14121.277633
884.432522	12694.873070
884.742197	11479.677730
885.051831	10402.869624
885.361424	9414.392616
885.670975	8590.501720
885.980485	7908.325220
886.289954	7338.705082
886.599382	6869.504729
886.908768	6493.129662
887.218113	6133.274457
887.527417	5846.609243
887.836680	5583.796249
888.145901	5369.678281
888.455082	5208.477304
888.764221	5059.818718
889.073319	4922.906021
889.382376	4848.982541
889.691392	4784.561636
890.000366	4757.518366
890.309300	4736.829471
890.618193	4740.723762
890.927044	4724.425712
891.235855	4738.558587
891.544625	4761.916773
891.853353	4808.330676
892.162041	4899.215118
892.470687	5057.739242
892.779293	5274.584475
893.087858	5590.909317
893.396381	6079.190438
893.704864	6755.446103
894.013306	7775.858820
894.321707	8893.911126
894.630068	9781.895252
894.938387	10121.847983
895.246665	10005.568728
895.554903	9490.289708
895.863100	8844.119649
896.171256	8316.376377
896.479371	7833.474167
896.787446	7347.942996
897.095480	6931.306754
897.403473	6622.084898
897.711425	6316.487631
898.019336	6062.471451
898.327207	5800.034023
898.635038	5575.032203
898.942827	5331.448690
899.250576	5138.193537
899.558284	4952.416936
899.865952	4829.115354
900.173579	4686.667469
900.481165	4580.379782
900.788711	4487.889732
901.096216	4415.846602
901.403681	4349.615923
901.711105	4321.602231
902.018489	4299.400990
902.325832	4349.149617
902.633135	4434.261937
902.940397	4688.840207
903.247619	5299.644051
903.554800	6486.031717
903.861941	8231.712718
904.169041	9796.418817
904.476101	10633.482248
904.783121	10505.399132
905.090100	9879.401250
905.397039	9098.019883
905.703938	8380.111685
906.010796	7717.459573
906.317614	7186.948707
906.624391	6673.794534
906.931129	6261.193735
907.237826	5883.520572
907.544483	5520.955746
907.851099	5162.907794
908.157675	4818.365093
908.464211	4495.922811
908.770707	4257.466152
909.077163	4050.378072
909.383578	3903.209147
909.689954	3783.315385
909.996289	3710.576577
910.302584	3642.132831
910.608839	3609.566977
910.915054	3577.424580
911.221229	3562.727096
911.527363	3568.879824
911.833458	3577.364086
912.139513	3599.169597
912.445527	3621.002834
912.751502	3694.039071
913.057436	3775.743572
913.363331	3893.149525
913.669186	4067.538160
913.975000	4280.632774
914.280775	4641.246673
914.586510	5132.408813
914.892205	5815.500283
915.197859	6742.306335
915.503475	7866.140844
915.809050	8904.414370
916.114585	9618.425757
916.420081	9970.651176
916.725536	10029.625114
917.030952	9660.715996
917.336328	9309.614754
917.641665	8936.211448
917.946961	8492.874734
918.252218	8090.683919
918.557435	7604.903211
918.862612	7204.857406
919.167750	6852.553849
919.472848	6453.652386
919.777906	6097.575526
920.082925	5748.115179
920.387904	5389.094285
920.692843	5123.922031
920.997743	4874.115213
921.302603	4644.881345
921.607423	4485.177591
921.912204	4325.010051
922.216946	4209.323132
922.521647	4096.625617
922.826310	3989.659895
923.130932	3901.691760
923.435516	3808.032163
923.740059	3740.677306
924.044564	3664.636542
924.349028	3609.468674
924.653454	3549.705796
924.957840	3479.938747
925.262186	3434.603650
925.566493	3375.982593
925.870761	3322.823626
926.174989	3287.485137
926.479178	3251.839138
926.783328	3210.809187
927.087438	3187.645085
927.391509	3151.457162
927.695541	3122.626803
927.999533	3094.882813
928.303486	3075.648291
928.607400	3062.821075
928.911275	3048.952861
929.215110	3033.156405
929.518906	3024.437729
929.822663	3021.707945
930.126381	3016.008920
930.430060	3026.769263
930.733699	3026.255065
931.037299	3035.069523
931.340861	3035.145140
931.644383	3042.023795
931.947866	3040.695451
932.251309	3035.394677
932.554714	3036.481046
932.858080	3028.994932
933.161407	3023.149715
933.464694	3015.598066
933.767943	3012.119670
934.071153	3004.797394
934.374323	2997.381857
934.677455	2992.060919
934.980548	2987.362563
935.283602	2979.556337
935.586617	2971.336735
935.889593	2981.202273
936.192530	2985.940958
936.495428	2996.197186
936.798287	3014.899866
937.101108	3039.021788
937.403890	3084.601380
937.706632	3139.388640
938.009336	3212.346739
938.312002	3285.632513
938.614628	3343.867922
938.917216	3397.165521
939.219765	3431.888989
939.522275	3464.573310
939.824747	3472.629074
940.127179	3473.100422
940.429573	3469.874083
940.731929	3466.264617
941.034246	3454.397741
941.336524	3443.839044
941.638763	3428.697939
941.940964	3421.617638
942.243126	3379.130793
942.545250	3357.761342
942.847335	3325.006445
943.149381	3290.585447
943.451389	3262.596961
943.753359	3225.967937
944.055290	3203.751572
944.357182	3178.777696
944.659036	3163.288750
944.960851	3151.079076
945.262628	3137.205820
945.564367	3140.447282
945.866067	3132.646097
946.167729	3130.047382
946.469352	3128.502268
946.770937	3123.529170
947.072484	3109.068620
947.373992	3111.654732
947.675462	3106.495111
947.976893	3090.960796
948.278286	3083.804878
948.579641	3078.463775
948.880958	3069.997157
949.182236	3071.930440
949.483476	3061.585992
949.784678	3062.306877
950.085841	3062.311918
950.386967	3071.806932
950.688054	3089.592122
950.989103	3102.936057
951.290114	3121.066566
951.591087	3150.431287
951.892021	3175.652180
952.192917	3202.766026
952.493776	3224.495920
952.794596	3235.730131
953.095378	3240.854464
953.396122	3241.721542
953.696828	3238.152406
953.997496	3224.851321
954.298126	3206.894731
954.598718	3188.660878
954.899272	3167.803104
955.199788	3142.375524
955.500266	3114.467696
955.800706	3083.857810
956.101108	3043.263918
956.401472	3015.837521
956.701798	2983.818632
957.002087	2944.323713
957.302337	2918.991914
957.602550	2891.729354
957.902724	2862.490662
958.202861	2839.492918
958.502960	2820.407110
958.803022	2799.919861
959.103045	2778.880605
959.403031	2762.171701
959.702979	2748.696696
960.002889	2739.665469
960.302762	2724.025289
960.602596	2714.522714
960.902393	2704.299254
961.202153	2698.219623
961.501875	2688.233097
961.801559	2683.796882
962.101205	2674.712722
962.400814	2671.821621
962.700385	2663.385250
962.999918	2658.553304
963.299414	2651.397386
963.598873	2652.456028
963.898293	2642.421612
964.197677	2646.678866
964.497022	2644.019657
964.796331	2640.969759
965.095601	2637.899697
965.394835	2634.980868
965.694030	2635.840385
965.993189	2633.004736
966.292309	2634.375930
966.591393	2632.556073
966.890439	2630.831999
967.189447	2630.358130
967.488419	2630.733696
967.787353	2631.809983
968.086249	2632.263687
968.385108	2632.596403
968.683930	2634.708646
968.982714	2639.187711
969.281462	2643.570995
969.580172	2648.014772
969.878844	2653.171872
970.177480	2660.262255
970.476078	2666.730055
970.774639	2674.574091
971.073162	2680.908301
971.371649	2686.385514
971.670098	2690.209229
971.968510	2698.932946
972.266885	2703.512834
972.565223	2704.498380
972.863524	2710.739328
973.161788	2710.046170
973.460014	2714.217725
973.758204	2718.638817
974.056356	2717.713765
974.354471	2722.006307
974.652550	2722.757439
974.950591	2719.846173
975.248595	2721.098900
975.546563	2716.352653
975.844493	2713.214535
976.142386	2708.523741
976.440243	2704.775643
976.738062	2701.347659
977.035845	2693.102852
977.333590	2688.505319
977.631299	2684.416944
977.928971	2678.072652
978.226606	2670.281548
978.524204	2667.352638
978.821765	2663.012204
979.119290	2668.582679
979.416777	2666.089829
979.714228	2670.279028
980.011642	2670.546209
980.309020	2676.409071
980.606360	2684.389217
980.903664	2706.655994
981.200931	2734.412587
981.498162	2774.540172
981.795356	2840.619616
982.092513	2919.148190
982.389633	3013.448014
982.686717	3105.388578
982.983764	3181.116791
983.280775	3239.727766
983.577749	3256.625714
983.874686	3250.472986
984.171587	3220.498285
984.468451	3188.088707
984.765279	3150.232162
985.062070	3105.330605
985.358824	3066.995150
985.655543	3013.440452
985.952224	2965.531847
986.248869	2905.264853
986.545478	2851.178313
986.842050	2797.245528
987.138586	2750.357757
987.435086	2710.744370
987.731549	2680.467200
988.027975	2656.294867
988.324366	2639.598565
988.620719	2626.952831
988.917037	2615.499329
989.213318	2604.938112
989.509563	2600.141454
989.805772	2592.047882
990.101944	2588.635021
990.398080	2587.745257
990.694180	2585.055801
990.990244	2585.887592
991.286271	2583.971953
991.582262	2588.120823
991.878217	2590.406986
992.174136	2589.479414
992.470019	2591.261462
992.765865	2596.758840
993.061676	2599.458378
993.357450	2604.953236
993.653188	2612.530090
993.948890	2631.716721
994.244556	2646.353712
994.540186	2661.915753
994.835780	2691.693849
995.131337	2723.037223
995.426859	2761.385281
995.722345	2803.892290
996.017795	2853.925742
996.313208	2888.858417
996.608586	2921.862852
996.903928	2938.876746
997.199234	2938.246602
997.494504	2940.696602
997.789738	2929.351486
998.084936	2906.356262
998.380099	2880.779968
998.675225	2856.476566
998.970316	2824.976916
999.265371	2789.683798
999.560390	2755.522419
999.855373	2728.327914
1000.150320	2699.585776
1000.445232	2674.402692
1000.740108	2655.067346
1001.034948	2633.163532
1001.329752	2621.397479
1001.624521	2609.828031
1001.919254	2597.825044
1002.213951	2592.027717
1002.508613	2580.556572
1002.803239	2577.519276
1003.097829	2570.970817
1003.392384	2566.232133
1003.686903	2562.443706
1003.981386	2557.493293
1004.275834	2552.162272
1004.570246	2553.384752
1004.864623	2549.177909
1005.158964	2545.535676
1005.453270	2546.553989
1005.747540	2544.817311
1006.041775	2544.048535
1006.335974	2541.719522
1006.630138	2538.974614
1006.924266	2539.826569
1007.218359	2535.027391
1007.512416	2537.847916
1007.806438	2534.871115
1008.100425	2534.994623
1008.394376	2531.007070
1008.688292	2537.127031
1008.982172	2533.313398
1009.276017	2534.097298
1009.569827	2534.556043
1009.863602	2532.174097
1010.157341	2531.538912
1010.451045	2532.547143
1010.744714	2527.301822
1011.038347	2530.477749
1011.331945	2526.956503
1011.625508	2526.250742
1011.919036	2528.052954
1012.212528	2527.064888
1012.505986	2525.245032
1012.799408	2523.747809
1013.092795	2523.520957
1013.386147	2525.751667
1013.679464	2525.696215
1013.972745	2523.614218
1014.265992	2523.485669
1014.559204	2526.759898
1014.852380	2523.107582
1015.145521	2524.935001
1015.438628	2522.167407
1015.731699	2524.135978
1016.024736	2524.665299
1016.317737	2523.233611
1016.610703	2523.503313
1016.903635	2529.068747
1017.196531	2528.811648
1017.489393	2528.342821
1017.782219	2530.361803
1018.075011	2533.928419
1018.367768	2534.485467
1018.660490	2535.455889
1018.953177	2535.455889
1019.245829	2535.455889
