Dividing Wavelength (nm)	Counts (n)	Blue Motor Position (mm): 10.000000	Red Motor Position (mm): 0.000000	
326.493990	2064.990206
326.888308	2064.990206
327.282561	2064.990206
327.676750	2042.055477
328.070874	2042.191588
328.464933	2049.279450
328.858929	2056.493341
329.252859	2068.362738
329.646726	2081.787331
330.040528	2099.060844
330.434265	2111.217587
330.827938	2133.902779
331.221547	2155.557055
331.615091	2171.419046
332.008571	2194.497448
332.401986	2214.906560
332.795338	2235.179560
333.188625	2258.210071
333.581847	2273.179778
333.975006	2291.910185
334.368100	2310.675880
334.761129	2323.855977
335.154095	2340.988338
335.546996	2374.466641
335.939833	2427.935639
336.332606	2441.453493
336.725315	2450.373815
337.117960	2462.417131
337.510540	2475.221662
337.903056	2479.846921
338.295508	2487.307828
338.687896	2497.261587
339.080220	2500.291320
339.472480	2508.452948
339.864676	2510.166940
340.256807	2510.000582
340.648875	2514.774555
341.040879	2515.878568
341.432818	2517.708507
341.824694	2517.126253
342.216506	2514.157014
342.608253	2519.031809
342.999937	2516.002076
343.391557	2516.486027
343.783113	2511.681807
344.174605	2510.166940
344.566033	2511.149965
344.957397	2509.153668
345.348697	2505.183760
345.739934	2505.125787
346.131106	2502.033039
346.522215	2503.731907
346.913260	2498.363079
347.304241	2498.567245
347.695159	2497.531288
348.086012	2495.172028
348.476802	2491.207161
348.867528	2489.916625
349.258191	2488.404279
349.648789	2484.840183
350.039324	2486.508805
350.429796	2488.467294
350.820203	2482.720378
351.210548	2485.669453
351.600828	2485.470328
351.991045	2486.009731
352.381198	2482.995121
352.771288	2480.507312
353.161314	2482.342292
353.551276	2484.918321
353.941175	2481.439925
354.331010	2480.555203
354.720782	2482.493526
355.110490	2488.464773
355.500135	2482.513691
355.889717	2483.340440
356.279235	2483.116109
356.668689	2484.411685
357.058080	2482.415388
357.447408	2484.867910
357.836672	2487.000318
358.225873	2485.429998
358.615010	2485.656850
359.004084	2487.610297
359.393095	2488.013590
359.782043	2486.763384
360.170927	2490.332521
360.559748	2485.513177
360.948505	2487.937973
361.337199	2488.719351
361.725830	2491.023159
362.114398	2492.691781
362.502903	2491.181955
362.891344	2492.016266
363.279722	2491.983498
363.668037	2494.854436
364.056289	2491.053406
364.444478	2491.847387
364.832603	2495.280413
365.220665	2493.407624
365.608665	2493.579024
365.996601	2494.022645
366.384474	2494.052892
366.772284	2496.071874
367.160031	2495.943325
367.547715	2498.491628
367.935336	2495.293016
368.322893	2494.446102
368.710388	2490.471152
369.097820	2496.414673
369.485189	2493.299240
369.872495	2500.407267
370.259738	2493.359733
370.646918	2497.301916
371.034035	2497.188490
371.421090	2497.402739
371.808081	2495.928201
372.195010	2501.075219
372.581875	2496.601195
372.968678	2501.833913
373.355418	2498.363079
373.742096	2500.669407
374.128710	2499.532626
374.515262	2498.781494
374.901751	2498.123624
375.288177	2500.697133
375.674540	2499.469612
376.060841	2501.533964
376.447079	2503.953718
376.833254	2503.643687
377.219367	2501.440703
377.605417	2498.791577
377.991404	2505.355159
378.377329	2499.530106
378.763191	2501.783502
379.148991	2500.034221
379.534727	2500.979437
379.920402	2501.864160
380.306013	2503.989006
380.691563	2503.361383
381.077049	2503.568070
381.462474	2501.962462
381.847835	2503.759634
382.233134	2504.717453
382.618371	2502.874911
383.003545	2502.368275
383.388657	2503.694099
383.773706	2502.832062
384.158693	2505.541682
384.543618	2506.252484
384.928480	2505.660149
385.313280	2505.826507
385.698017	2507.734584
386.082692	2506.290293
386.467305	2507.154851
386.851856	2506.446569
387.236344	2506.040756
387.620770	2504.946826
388.005133	2499.451968
388.389435	2504.435148
388.773674	2500.490446
389.157851	2508.198370
389.541965	2508.180726
389.926018	2508.347084
390.310008	2506.653256
390.693936	2506.073523
391.077802	2508.790705
391.461606	2508.800788
391.845348	2508.871364
392.229027	2506.852382
392.612645	2508.309275
392.996200	2509.917403
393.379694	2509.093175
393.763125	2508.016888
394.146494	2506.749038
394.529801	2513.378155
394.913047	2509.746004
395.296230	2511.056704
395.679351	2508.944461
396.062410	2511.507887
396.445408	2513.552075
396.828343	2511.036539
397.211217	2511.976715
397.594028	2508.977228
397.976778	2511.422188
398.359466	2512.004441
398.742092	2509.282218
399.124656	2511.633916
399.507158	2511.155007
399.889598	2512.773217
400.271977	2511.442352
400.654294	2512.795902
401.036549	2513.541993
401.418742	2514.262878
401.800874	2510.834893
402.182944	2513.705830
402.564952	2510.824811
402.946898	2513.287415
403.328783	2512.228772
403.710606	2514.020903
404.092367	2512.564009
404.474067	2515.346726
404.855705	2513.156345
405.237282	2515.611387
405.618797	2513.564678
406.000250	2516.087776
406.381642	2516.359998
406.762972	2514.298166
407.144240	2512.014523
407.525447	2511.578463
407.906593	2510.799605
408.287677	2516.112981
408.668700	2516.191119
409.049661	2518.618435
409.430560	2517.887468
409.811399	2516.102899
410.192176	2516.216325
410.572891	2517.161541
410.953545	2519.674557
411.334138	2518.376459
411.714669	2518.615914
412.095139	2518.152128
412.475547	2515.371932
412.855894	2517.953002
413.236180	2516.707838
413.616405	2517.141377
413.996568	2515.281191
414.376670	2519.203209
414.756711	2520.650020
415.136691	2518.512571
415.516609	2518.328568
415.896466	2518.502488
416.276262	2519.215812
416.655997	2519.921573
417.035670	2516.906963
417.415283	2520.400483
417.794834	2517.310255
418.174324	2518.189937
418.553753	2516.359998
418.933121	2520.062725
419.312428	2517.453928
419.691674	2520.574403
420.070859	2517.539628
420.449983	2518.530215
420.829045	2519.200688
421.208047	2517.791686
421.586988	2521.723786
421.965867	2521.368384
422.344686	2520.254289
422.723444	2519.790503
423.102141	2521.897705
423.480777	2519.573733
423.859352	2519.641789
424.237866	2519.800585
424.616319	2518.608353
424.994712	2521.086080
425.373044	2520.604649
425.751314	2520.360153
426.129524	2515.787827
426.507673	2515.462673
426.885762	2515.397137
427.263789	2521.136491
427.641756	2519.850997
428.019662	2520.955010
428.397508	2520.110616
428.775292	2519.787982
429.153016	2520.720596
429.530679	2522.820237
429.908282	2520.498785
430.285824	2525.083715
430.663305	2519.934176
431.040726	2522.752181
431.418086	2523.097500
431.795385	2521.227232
432.172624	2521.910308
432.549802	2522.190092
432.926920	2520.922242
433.303977	2521.426358
433.680974	2524.047757
434.057910	2521.249917
434.434786	2522.457273
434.811601	2523.178158
435.188355	2520.529032
435.565050	2520.859228
435.941683	2525.595392
436.318257	2523.306708
436.694770	2521.628004
437.071222	2522.802593
437.447614	2524.037675
437.823946	2523.311749
438.200218	2523.510875
438.576429	2523.982223
438.952580	2521.824609
439.328670	2523.344517
439.704700	2522.225380
440.080670	2521.693539
440.456580	2520.072808
440.832429	2521.968282
441.208218	2521.733868
441.583947	2523.949455
441.959616	2521.648168
442.335224	2522.467356
442.710773	2520.846625
443.086261	2521.380987
443.461689	2522.795031
443.837057	2522.789990
444.212365	2520.886954
444.587612	2523.037006
444.962800	2517.050636
445.337927	2520.224042
445.712995	2518.016017
446.088002	2523.722603
446.462949	2522.963909
446.837837	2521.544825
447.212664	2524.650175
447.587431	2522.926101
447.962139	2524.572038
448.336786	2523.344517
448.711374	2526.515402
449.085901	2521.650689
449.460369	2525.093797
449.834776	2523.646986
450.209124	2521.814526
450.583412	2523.926770
450.957640	2523.997346
451.331808	2520.642458
451.705917	2524.680422
452.079965	2523.664630
452.453954	2523.596574
452.827883	2521.796882
453.201752	2522.827798
453.575562	2522.853004
453.949311	2526.228057
454.323001	2521.849814
454.696632	2528.468849
455.070202	2523.541122
455.443713	2525.360978
455.817164	2525.086235
456.190556	2527.379960
456.563888	2524.342665
456.937160	2525.895340
457.310373	2523.987264
457.683526	2524.887110
458.056619	2525.920546
458.429653	2523.125226
458.802628	2526.457429
459.175542	2524.224198
459.548398	2526.412059
459.921194	2525.444157
460.293930	2523.460463
460.666607	2523.702438
461.039224	2525.355937
461.411782	2526.525485
461.784280	2526.860721
462.156719	2522.497603
462.529099	2522.971471
462.901419	2522.275792
463.273680	2523.233611
463.645882	2520.927283
464.018024	2525.517254
464.390106	2521.617921
464.762130	2525.693694
465.134094	2524.476256
465.505999	2527.533715
465.877845	2528.269724
466.249631	2528.970444
466.621358	2526.223015
466.993026	2527.813499
467.364634	2528.287368
467.736184	2528.355423
468.107674	2526.293592
468.479105	2527.485824
468.850477	2525.872655
469.221790	2527.374919
469.593043	2528.945238
469.964238	2528.857018
470.335373	2527.392563
470.706449	2527.906761
471.077467	2525.449198
471.448425	2524.529188
471.819324	2526.936339
472.190164	2529.232584
472.560945	2526.583458
472.931667	2527.606812
473.302330	2528.272244
473.672934	2530.051772
474.043479	2525.401307
474.413965	2526.119672
474.784393	2526.636390
475.154761	2529.961031
475.525070	2527.581606
475.895321	2526.369209
476.265513	2526.517923
476.635645	2530.699560
477.005719	2529.537574
477.375734	2528.529343
477.745691	2526.769981
478.115588	2529.217461
478.485427	2526.028931
478.855207	2529.363654
479.224928	2527.755526
479.594591	2528.063037
479.964194	2531.806093
480.333739	2528.105886
480.703226	2529.608150
481.072653	2530.976823
481.442022	2529.466998
481.811333	2527.432892
482.180584	2527.919364
482.549777	2530.276103
482.918912	2525.363499
483.287988	2531.261649
483.657005	2531.324663
484.025964	2532.186700
484.394864	2531.153264
484.763706	2530.641587
485.132489	2532.360620
485.501213	2531.541433
485.869879	2528.519261
486.238487	2529.734179
486.607036	2529.656041
486.975527	2530.757533
487.343959	2531.707791
487.712333	2536.675848
488.080648	2529.915661
488.448905	2527.843746
488.817104	2529.930784
489.185244	2531.332225
489.553326	2530.356762
489.921350	2533.757020
490.289315	2530.898686
490.657222	2532.375744
491.025070	2535.773481
491.392861	2533.068902
491.760593	2535.826413
492.128267	2532.436238
492.495883	2537.179963
492.863440	2533.268028
493.230939	2533.363810
493.598380	2529.711494
493.965763	2532.181659
494.333088	2532.831968
494.700354	2531.566638
495.067563	2532.897503
495.434713	2532.537061
495.801805	2531.528830
496.168839	2532.363141
496.535815	2533.051258
496.902733	2533.457071
497.269593	2532.393388
497.636395	2532.411032
498.003139	2533.552853
498.369825	2533.401618
498.736453	2531.463295
499.103023	2532.625281
499.469535	2535.370189
499.835989	2532.900024
500.202385	2532.897503
500.568723	2526.689322
500.935003	2532.254756
501.301226	2528.758716
501.667390	2533.177287
502.033497	2534.004036
502.399546	2530.132430
502.765537	2535.730632
503.131470	2532.690816
503.497345	2532.698377
503.863163	2531.463295
504.228923	2533.875487
504.594625	2533.341125
504.960269	2532.506814
505.325856	2534.157792
505.691385	2537.263142
506.056856	2534.288862
506.422270	2533.457071
506.787625	2534.424973
507.152924	2534.097298
507.518164	2534.714839
507.883347	2533.573018
508.248472	2535.302133
508.613540	2533.830117
508.978550	2536.844727
509.343503	2534.263656
509.708398	2534.404808
510.073236	2535.821372
510.438016	2534.568646
510.802738	2535.350024
511.167403	2532.617719
511.532010	2536.718698
511.896561	2537.704243
512.261053	2533.673841
512.625488	2537.185004
512.989866	2538.977135
513.354186	2537.510159
513.718449	2538.110056
514.082655	2537.235416
514.446803	2537.182484
514.810894	2541.154913
515.174927	2538.074768
515.538904	2540.945705
515.902822	2540.151723
516.266684	2538.215920
516.630488	2540.950746
516.994235	2542.415202
517.357925	2543.352856
517.721558	2544.532486
518.085133	2544.451828
518.448651	2541.747249
518.812112	2538.838503
519.175516	2541.212886
519.538863	2540.078627
519.902152	2545.001313
520.265385	2546.959802
520.628560	2546.687579
520.991678	2547.584905
521.354739	2550.561706
521.717743	2548.870399
522.080690	2546.768238
522.443580	2553.324258
522.806413	2552.820143
523.169189	2553.180586
523.531908	2556.003632
523.894569	2553.334341
524.257174	2553.218394
524.619722	2554.463559
524.982213	2556.485062
525.344647	2557.896585
525.707025	2564.124931
526.069345	2560.129816
526.431608	2564.518141
526.793815	2562.219374
527.155964	2562.032852
527.518057	2559.908005
527.880093	2563.469581
528.242072	2564.601320
528.603995	2563.643500
528.965860	2566.383367
529.327669	2564.674416
529.689421	2570.655745
530.051117	2570.968297
530.412755	2570.005437
530.774337	2570.128945
531.135862	2572.707495
531.497331	2575.074317
531.858743	2576.135480
532.220098	2576.964749
532.581396	2575.502815
532.942638	2579.881057
533.303824	2577.930130
533.664953	2581.622776
534.026025	2581.307703
534.387040	2580.054977
534.747999	2583.566140
535.108902	2583.205698
535.469748	2586.043867
535.830537	2584.594536
536.191270	2585.454053
536.551947	2583.687128
536.912567	2585.108733
537.273131	2588.045206
537.633638	2585.466655
537.994089	2594.684405
538.354483	2591.967223
538.714821	2594.346648
539.075103	2597.595672
539.435328	2596.579879
539.795497	2597.144488
540.155609	2600.461567
540.515665	2599.652462
540.875665	2601.593307
541.235609	2602.341918
541.595496	2601.613471
541.955328	2606.024481
542.315102	2606.289141
542.674821	2604.539861
543.034483	2609.636467
543.394090	2608.403905
543.753640	2608.822321
544.113134	2611.620162
544.472571	2612.454472
544.831953	2615.219545
545.191278	2614.629730
545.550548	2613.293825
545.909761	2616.426902
546.268918	2615.562344
546.628019	2618.266923
546.987064	2620.011162
547.346053	2618.934876
547.704986	2620.890843
548.063863	2618.337499
548.422684	2620.369084
548.781449	2622.758591
549.140158	2621.858745
549.498811	2625.760598
549.857408	2621.349588
550.215949	2625.095166
550.574434	2624.719600
550.932864	2626.584827
551.291237	2628.450054
551.649555	2626.050464
552.007817	2629.806124
552.366022	2627.230094
552.724173	2628.518109
553.082267	2631.981382
553.440305	2629.236474
553.798288	2629.705301
554.156215	2632.833337
554.514086	2630.078346
554.871902	2626.814199
555.229661	2628.462657
555.587365	2627.532564
555.945014	2634.496918
556.302606	2633.823924
556.660143	2631.726804
557.017625	2634.449027
557.375050	2633.778553
557.732421	2635.447175
558.089735	2636.533544
558.446994	2636.646970
558.804197	2638.184522
559.161345	2638.340798
559.518437	2631.845271
559.875474	2633.856691
560.232455	2637.259470
560.589381	2640.115284
560.946251	2638.713843
561.303065	2638.711322
561.659825	2638.204686
562.016528	2637.637557
562.373177	2638.020684
562.729770	2639.979172
563.086307	2639.139820
563.442789	2639.684265
563.799216	2641.524286
564.155587	2640.785757
564.511904	2638.207207
564.868164	2640.281642
565.224370	2638.978503
565.580520	2639.351549
565.936615	2640.992444
566.292654	2639.608648
566.648638	2642.668628
567.004567	2640.967239
567.360441	2640.473206
567.716260	2642.388844
568.072023	2641.078144
568.427732	2641.673000
568.783385	2642.409009
569.138982	2645.491674
569.494525	2641.761220
569.850013	2641.839358
570.205445	2642.966056
570.560823	2641.857002
570.916145	2643.228196
571.271412	2643.404637
571.626625	2641.965387
571.981782	2639.762403
572.336884	2639.346508
572.691931	2633.798718
573.046923	2639.883391
573.401860	2636.392392
573.756743	2642.587970
574.111570	2640.823566
574.466342	2643.303813
574.821059	2640.984883
575.175722	2642.862712
575.530330	2641.073103
575.884882	2640.909265
576.239380	2640.269039
576.593823	2641.438587
576.948211	2640.064872
577.302544	2641.370531
577.656823	2640.692496
578.011047	2644.690131
578.365216	2639.386837
578.719330	2641.173926
579.073389	2641.725932
579.427394	2640.584111
579.781344	2641.420942
580.135239	2639.432207
580.489080	2641.443628
580.842866	2642.013278
581.196597	2647.629123
581.550273	2641.622589
581.903895	2643.795326
582.257463	2642.482105
582.610975	2643.732312
582.964434	2646.058804
583.317837	2644.617034
583.671186	2645.446304
584.024481	2643.492857
584.377721	2645.388331
584.730906	2646.941006
585.084037	2649.774134
585.437113	2645.673156
585.790135	2649.466624
586.143103	2649.088537
586.496016	2649.829587
586.848874	2652.080462
587.201679	2653.207160
587.554428	2653.008035
587.907124	2657.353509
588.259765	2655.999959
588.612352	2658.213026
588.964884	2658.230670
589.317362	2659.543891
589.669786	2661.303253
590.022155	2659.773263
590.374470	2661.146977
590.726731	2663.599499
591.078937	2659.765701
591.431090	2665.353820
591.783188	2667.697957
592.135232	2668.983451
592.487222	2670.735252
592.839157	2673.495284
593.191038	2675.710871
593.542866	2677.366890
593.894639	2675.380675
594.246358	2677.807991
594.598022	2682.894515
594.949633	2684.711851
595.301190	2683.680935
595.652692	2685.891481
596.004141	2690.171421
596.355535	2689.211081
596.706876	2694.128727
597.058162	2691.154446
597.409395	2696.447657
597.760573	2701.095601
598.111698	2699.492514
598.462768	2703.220447
598.813785	2707.344111
599.164748	2708.090202
599.515657	2714.691593
599.866511	2713.953064
600.217312	2719.422716
600.568060	2722.046637
600.918753	2730.079715
601.269392	2733.532906
601.619978	2738.037177
601.970510	2739.872157
602.320988	2744.734349
602.671412	2752.101996
603.021783	2751.824732
603.372100	2758.234559
603.722363	2760.944180
604.072572	2767.815272
604.422728	2770.739142
604.772830	2774.081427
605.122878	2783.263888
605.472872	2787.042233
605.822813	2792.905095
606.172701	2798.876342
606.522534	2805.374389
606.872314	2816.142294
607.222041	2819.534990
607.571714	2828.520847
607.921333	2828.848522
608.270899	2841.708505
608.620411	2846.326202
608.969870	2857.522605
609.319276	2867.625077
609.668627	2875.385934
610.017926	2889.276833
610.367171	2897.004922
610.716362	2905.620254
611.065500	2915.062335
611.414585	2926.157915
611.763616	2939.622837
612.112594	2946.219186
612.461518	2961.193934
612.810389	2974.248002
613.159207	2982.981801
613.507971	2995.791373
613.856682	3012.805267
614.205340	3025.203985
614.553945	3045.166954
614.902496	3050.029147
615.250994	3070.176118
615.599439	3085.632296
615.947830	3102.409256
616.296169	3118.306535
616.644454	3137.392343
616.992686	3154.179385
617.340864	3183.183664
617.688990	3194.362423
618.037063	3225.642782
618.385082	3241.091398
618.733048	3268.865635
619.080961	3285.198974
619.428821	3308.111018
619.776628	3327.269923
620.124382	3344.830783
620.472083	3362.890716
620.819731	3377.505021
621.167326	3390.075138
621.514868	3403.416552
621.862357	3405.352355
622.209793	3424.276847
622.557176	3433.040893
622.904506	3442.508180
623.251783	3452.429170
623.599007	3459.978298
623.946179	3474.910196
624.293297	3487.850838
624.640363	3490.326044
624.987376	3507.516379
625.334336	3518.891743
625.681243	3529.619318
626.028097	3544.233623
626.374899	3569.091553
626.721647	3587.456476
627.068343	3602.421141
627.414987	3622.263123
627.761577	3640.872542
628.108115	3671.464784
628.454600	3676.755475
628.801032	3705.767316
629.147412	3728.790265
629.493739	3751.258688
629.840014	3764.186727
630.186236	3806.628201
630.532405	3815.364521
630.878521	3850.884491
631.224585	3877.537071
631.570597	3896.249834
631.916556	3931.064043
632.262462	3957.784679
632.608316	3983.973473
632.954117	4011.515817
633.299866	4035.884755
633.645562	4058.433836
633.991206	4065.514137
634.336797	4067.666709
634.682336	4084.521807
635.027823	4097.326338
635.373257	4115.492136
635.718639	4123.789875
636.063968	4143.468019
636.409245	4138.867966
636.754470	4158.662057
637.099642	4171.670754
637.444762	4171.138913
637.789829	4203.694684
638.134845	4211.422773
638.479808	4230.969847
638.824719	4260.137963
639.169577	4259.069238
639.514383	4299.085918
639.859137	4302.365188
640.203839	4335.772915
640.548489	4349.381510
640.893086	4379.883011
641.237632	4392.561513
641.582125	4428.998973
641.926566	4444.223258
642.270955	4475.561590
642.615292	4496.303418
642.959576	4524.077655
643.303809	4553.943971
643.647990	4602.452474
643.992118	4627.527173
644.336195	4650.471985
644.680219	4687.015309
645.024192	4734.855859
645.368112	4809.159946
645.711981	4857.013099
646.055797	4947.022901
646.399562	4975.278568
646.743274	5088.371814
647.086935	5171.568496
647.430544	5217.067430
647.774101	5261.076703
648.117606	5331.776365
648.461059	5378.412080
648.804460	5383.700250
649.147810	5369.466552
649.491108	5375.437799
649.834354	5398.120471
650.177548	5357.975242
650.520690	5342.319939
650.863781	5369.481676
651.206820	5391.451024
651.549807	5385.010950
651.892742	5365.053022
652.235626	5387.050097
652.578458	5411.323252
652.921238	5379.972317
653.263967	5441.814672
653.606644	5455.123318
653.949269	5478.279858
654.291843	5478.100897
654.634365	5549.158481
654.976836	5543.852667
655.319255	5588.547537
655.661622	5610.199292
656.003938	5636.345237
656.346203	5648.126413
656.688416	5713.343821
657.030577	5729.079782
657.372687	5740.258541
657.714746	5792.938599
658.056753	5854.677610
658.398708	5817.965407
658.740612	5861.110122
659.082465	5926.871974
659.424266	5954.870543
659.766016	5993.185832
660.107715	6017.022928
660.449362	6068.866154
660.790958	6107.350323
661.132503	6141.635210
661.473996	6186.841757
661.815438	6243.469038
662.156829	6301.389376
662.498168	6313.704914
662.839456	6349.328228
663.180693	6402.499798
663.521879	6456.404856
663.863013	6491.415670
664.204097	6529.194077
664.545129	6629.891125
664.886110	6667.858575
665.227040	6730.963739
665.567918	6775.797241
665.908746	6831.839748
666.249522	6892.235292
666.590248	6942.929135
666.930922	7009.379104
667.271545	7057.743934
667.612118	7110.870134
667.952639	7126.008719
668.293109	7173.125863
668.633528	7196.010181
668.973896	7229.853967
669.314213	7269.018692
669.654480	7273.008765
669.994695	7319.536094
670.334859	7346.554158
670.674973	7362.428752
671.015035	7437.567150
671.355047	7474.733057
671.695008	7505.375710
672.034918	7534.982407
672.374777	7597.444824
672.714585	7627.752241
673.054342	7707.974642
673.394049	7729.568425
673.733705	7817.972619
674.073310	7812.384500
674.412864	7866.816359
674.752368	7859.408383
675.091820	7945.982639
675.431223	7909.880416
675.770574	7914.621621
676.109875	7921.008763
676.449125	7915.314779
676.788324	7937.780682
677.127473	7889.199082
677.466571	7903.500835
677.805619	7894.242756
678.144616	7919.496417
678.483562	7952.387425
678.822458	7921.631345
679.161303	7955.616284
679.500098	7982.959502
679.838842	8003.164447
680.177535	8066.740959
680.516179	8160.705546
680.854771	8224.924805
681.193314	8428.715969
681.531805	8702.521199
681.870247	8943.054814
682.208638	9185.524232
682.546978	9318.283018
682.885268	9415.920086
683.223508	9364.596099
683.561697	9349.152524
683.899836	9357.919090
684.237925	9311.520310
684.575963	9320.115478
684.913951	9282.959653
685.251889	9360.200212
685.589776	9416.235158
685.927614	9466.624011
686.265401	9571.200227
686.603137	9644.826279
686.940824	9823.346140
687.278460	9972.236619
687.616046	10081.090254
687.953582	10317.679165
688.291068	10358.794816
688.628504	10513.926243
688.965889	10571.902033
689.303224	10549.685668
689.640510	10517.772644
689.977745	10402.441126
690.314930	10244.279965
690.652065	10166.419344
690.989150	10018.852168
691.326185	9821.299431
691.663170	9682.350108
692.000105	9520.531590
692.336990	9378.731494
692.673825	9295.280233
693.010610	9193.128812
693.347345	9074.863343
693.684030	8925.153677
694.020665	8899.763905
694.357251	8742.721881
694.693786	8777.679762
695.030272	8741.766582
695.366707	8634.778174
695.703093	8581.896470
696.039429	8630.467987
696.375716	8589.871576
696.711952	8624.751319
697.048139	8624.214436
697.384276	8603.517979
697.720363	8672.617075
698.056400	8678.023712
698.392388	8664.833533
698.728326	8696.738996
699.064214	8675.177981
699.400053	8718.118529
699.735842	8618.674208
700.071581	8586.834280
700.407270	8544.251654
700.742910	8513.563630
701.078501	8463.210065
701.414042	8423.929394
701.749533	8363.193572
702.084974	8276.082434
702.420366	8379.857106
702.755709	8275.908514
703.091002	8201.554015
703.426246	8253.961851
703.761440	8258.377902
704.096584	8206.751445
704.431679	8208.624234
704.766725	8220.528918
705.101721	8219.717293
705.436668	8287.808158
705.771565	8219.379535
706.106413	8350.736881
706.441212	8406.459275
706.775961	8461.753171
707.110661	8520.979167
707.445311	8681.086213
707.779913	8667.273452
708.114465	8795.575858
708.448967	8939.644473
708.783421	9194.958751
709.117825	9358.556796
709.452180	9472.983427
709.786485	9663.289505
710.120742	9975.266352
710.454949	10042.593482
710.789107	10270.617474
711.123216	10560.372914
711.457275	10682.598210
711.791286	10924.787844
712.125247	11024.151507
712.459159	10970.901798
712.793023	11302.743312
713.126837	10958.334202
713.460602	11087.307082
713.794318	11004.977478
714.127985	10931.984091
714.461602	10630.046702
714.795171	10644.330811
715.128691	10297.627976
715.462162	10117.449576
715.795584	9979.485798
716.128957	9896.261389
716.462281	9780.766034
716.795556	9692.071973
717.128782	9531.972489
717.461960	9307.154671
717.795088	9318.658584
718.128167	9204.738590
718.461198	9046.098519
718.794180	9019.672791
719.127113	8908.182632
719.459997	8846.229372
719.792833	8707.332981
720.125619	8748.836800
720.458357	8627.581927
720.791046	8587.348478
721.123686	8540.571612
721.456278	8464.964386
721.788821	8484.521542
722.121315	8392.712049
722.453761	8452.550545
722.786158	8421.360926
723.118506	8477.781520
723.450805	8440.328267
723.783056	8542.588073
724.115259	8510.140686
724.447412	8517.347016
724.779518	8631.367833
725.111574	8672.972476
725.443582	8809.524731
725.775542	8811.155544
726.107453	9054.098830
726.439315	9038.052838
726.771129	9237.291841
727.102895	9435.835164
727.434612	9584.549203
727.766281	9680.878091
728.097901	9860.481800
728.429473	9920.900028
728.760996	9956.828332
729.092471	10037.161639
729.423897	10012.404533
729.755276	9967.281164
730.086606	10038.333707
730.417887	10309.633484
730.749120	10589.651936
731.080305	10742.353527
731.411442	10955.324633
731.742530	11048.883407
732.073570	11135.651747
732.404562	11312.608850
732.735506	11288.315530
733.066401	11254.970818
733.397249	11080.239384
733.728048	10814.961266
734.058798	10446.231109
734.389501	10108.516651
734.720156	9866.344662
735.050762	9606.679868
735.381320	9418.155838
735.711831	9290.317217
736.042293	9120.604253
736.372707	9147.322368
736.703073	9053.153614
737.033391	9166.987909
737.363661	9173.985031
737.693883	9239.731759
738.024056	9347.191515
738.354182	9457.862486
738.684260	9647.240992
739.014290	9800.736565
739.344272	9926.185678
739.674207	10123.829156
740.004093	10232.919725
740.333931	10279.855388
740.663722	10351.845586
740.993464	10400.167566
741.323159	10354.678714
741.652806	10229.453932
741.982405	10179.730511
742.311956	10014.536941
742.641460	9990.851079
742.970915	9838.507410
743.300323	9678.029839
743.629683	9594.482796
743.958996	9442.078633
744.288260	9296.346437
744.617477	9148.655753
744.946647	9144.416143
745.275768	8983.832707
745.604842	8897.283658
745.933869	8808.944998
746.262847	8807.437693
746.591778	8772.575594
746.920662	8722.096000
747.249498	8731.354079
747.578286	8826.442843
747.907027	8926.436650
748.235720	9078.303931
748.564365	9141.378848
748.892963	9113.002193
749.221514	9201.393784
749.550017	9146.099888
749.878473	9150.132811
750.206881	9042.431080
750.535242	9021.608594
750.863555	8995.603802
751.191821	8944.153786
751.520039	8970.176222
751.848210	8934.026107
752.176334	8969.772929
752.504411	8938.774874
752.832440	8849.281791
753.160421	8923.842977
753.488356	8881.509887
753.816243	8838.967590
754.144082	8758.460363
754.471875	8727.762257
754.799620	8723.825116
755.127318	8716.631389
755.454969	8724.293943
755.782572	8715.575267
756.110129	8736.503618
756.437638	8697.064150
756.765100	8706.423052
757.092515	8731.578410
757.419882	8760.184438
757.747203	8772.258001
758.074477	8827.380498
758.401703	8826.944438
758.728882	8934.197507
759.056014	8965.596333
759.383099	9073.542561
759.710138	9161.752671
760.037129	9248.120239
760.364073	9305.843971
760.690970	9333.159463
761.017820	9341.999127
761.344623	9485.009099
761.671379	9699.611019
761.998088	10062.125433
762.324751	10940.359968
762.651366	12704.181561
762.977935	15327.655996
763.304456	17368.126029
763.630931	18433.924255
763.957359	18010.099328
764.283740	16759.033657
764.610074	15468.291585
764.936362	13880.607907
765.262602	12718.448026
765.588796	11511.515137
765.914943	10700.461539
766.241044	9986.140121
766.567097	9485.525818
766.893104	9033.311633
767.219064	8744.554340
767.544978	8446.397817
767.870845	8206.360756
768.196665	8068.066782
768.522438	7928.235257
768.848165	7809.750497
769.173846	7680.013883
769.499479	7609.183150
769.825066	7508.574323
770.150607	7365.035028
770.476101	7320.388049
770.801548	7261.255315
771.126949	7166.816859
771.452303	7104.724967
771.777611	6982.565207
772.102872	6983.656617
772.428087	6901.662249
772.753256	6811.929711
773.078378	6763.988338
773.403453	6648.014073
773.728482	6575.807106
774.053465	6529.650301
774.378401	6467.129911
774.703291	6393.508900
775.028135	6324.308982
775.352932	6307.053112
775.677683	6236.267750
776.002388	6175.678122
776.327046	6185.838568
776.651658	6126.703313
776.976224	6061.279218
777.300743	6068.004117
777.625216	6012.954717
777.949643	5988.245502
778.274024	6003.308469
778.598359	5954.527744
778.922647	5966.326565
779.246889	5935.237769
779.571086	5940.233552
779.895236	5948.932063
780.219339	5956.682837
780.543397	5964.408406
780.867409	6018.497466
781.191374	6032.441297
781.515294	6018.822620
781.839167	6086.729483
782.162995	6073.567030
782.486776	6044.076280
782.810511	6020.430748
783.134201	5967.125588
783.457844	5967.324713
783.781441	5937.269354
784.104993	5897.469444
784.428498	5885.952928
784.751958	5883.918823
785.075372	5866.352922
785.398739	5836.413509
785.722061	5866.829311
786.045337	5867.892995
786.368568	5973.243028
786.691752	5977.112113
787.014891	6184.696746
787.337983	6393.705505
787.661030	6773.977384
787.984031	7205.167437
788.306987	7521.769543
788.629897	7722.951910
788.952760	7743.444201
789.275579	7634.494784
789.598351	7377.761421
789.921078	7148.862790
790.243759	6870.812908
790.566395	6664.067627
790.888984	6489.076574
791.211529	6346.820254
791.534027	6193.816194
791.856480	6044.771960
792.178888	5992.336398
792.501249	5923.683444
792.823566	5815.938863
793.145836	5813.803934
793.468062	5794.647550
793.790241	5755.104739
794.112375	5802.093334
794.434464	5910.692391
794.756507	5932.878509
795.078505	6030.823087
795.400457	6226.092181
795.722364	6465.186546
796.044226	6670.285891
796.366042	6883.478807
796.687812	6872.824329
797.009538	6948.754188
797.331218	6890.987606
797.652852	6850.350865
797.974442	6753.164980
798.295986	6697.480395
798.617484	6572.744605
798.938938	6476.559389
799.260346	6408.188740
799.581709	6267.870744
799.903026	6213.690943
800.224299	6137.433408
800.545526	6014.593092
800.866708	5944.586589
801.187845	5894.258229
801.508936	5821.002702
801.829983	5793.230986
802.150984	5680.762843
802.471940	5650.150437
802.792851	5642.102234
803.113717	5620.430314
803.434538	5602.501450
803.755314	5553.481270
804.076045	5554.237443
804.396731	5511.213716
804.717372	5532.888157
805.037967	5536.616090
805.358518	5563.792951
805.679024	5619.777485
805.999485	5627.261077
806.319901	5656.915665
806.640272	5678.038100
806.960598	5745.501341
807.280879	5749.451085
807.601115	5810.938038
807.921306	5772.874806
808.241453	5788.832579
808.561554	5805.866638
808.881611	5784.976096
809.201623	5795.393641
809.521590	5760.145893
809.841513	5747.782463
810.161390	5786.851405
810.481223	5686.522362
810.801011	5680.314181
811.120755	5670.433519
811.440453	5613.347493
811.760107	5590.019553
812.079716	5574.822995
812.399281	5529.243403
812.718801	5529.641654
813.038276	5495.417260
813.357707	5451.481084
813.677093	5477.969827
813.996434	5412.802831
814.315731	5440.367860
814.634983	5437.771666
814.954191	5447.475887
815.273354	5525.563360
815.592473	5565.600204
815.911547	5661.082179
816.230577	5722.392692
816.549562	5835.828736
816.868502	5914.155663
817.187399	5990.173743
817.506250	6102.530980
817.825058	6133.735722
818.143821	6324.165309
818.462539	6513.374936
818.781213	6769.445387
819.099843	7147.166442
819.418429	7856.545008
819.736970	8556.985608
820.055466	9410.047142
820.373919	10484.478343
820.692327	12034.635672
821.010691	14566.434203
821.329011	20026.359220
821.647286	28250.086750
821.965517	38251.746063
822.283704	45062.662502
822.601847	49302.035953
822.919945	46949.326932
823.237999	43204.934296
823.556010	38302.477715
823.873976	33286.640544
824.191897	28431.190202
824.509775	24818.472504
824.827609	21370.532481
825.145398	19309.721392
825.463144	18093.532944
825.780845	18041.004121
826.098502	18992.877311
826.416116	21488.810553
826.733685	24312.121368
827.051210	25724.198972
827.368692	25062.968466
827.686129	22431.400458
828.003522	19371.972080
828.320872	16477.263404
828.638177	14275.277322
828.955439	12550.703632
829.272656	11127.941302
829.589830	9997.686884
829.906960	8988.500816
830.224046	8226.227943
830.541088	7607.300279
830.858086	7227.517393
831.175041	6911.767242
831.491952	6798.563091
831.808819	6793.625281
832.125642	7037.294493
832.442421	7614.849407
832.759157	8793.090569
833.075849	10794.907556
833.392497	13232.610430
833.709101	15123.448936
834.025662	15455.673577
834.342179	14455.049909
834.658653	12857.858615
834.975083	11330.830101
835.291469	10052.806860
835.607811	8996.019697
835.924110	8258.960155
836.240366	7560.846047
836.556578	6913.609784
836.872746	6397.756072
837.188871	5986.435727
837.504952	5640.231966
837.820990	5379.629518
838.136984	5195.503895
838.452935	5097.236683
838.768842	5085.561370
839.084706	5315.677441
839.400526	6087.468012
839.716303	7279.206864
840.032037	8275.958926
840.347727	8472.999985
840.663373	7844.237031
840.978977	7011.259454
841.294537	6346.626170
841.610054	5847.960272
841.925527	5494.882898
842.240957	5200.802147
842.556344	4932.050674
842.871687	4706.872414
843.186987	4477.797342
843.502244	4286.805667
843.817458	4155.034947
844.132629	4039.640414
844.447756	3961.905822
844.762840	3895.042478
845.077881	3831.982685
845.392879	3786.619862
845.707833	3743.124786
846.022745	3709.873336
846.337613	3686.008513
846.652438	3648.945950
846.967221	3639.823982
847.281960	3610.975979
847.596656	3600.263527
847.911309	3580.817277
848.225919	3561.005542
848.540485	3547.243192
848.855009	3539.381512
849.169490	3520.303266
849.483928	3510.621730
849.798323	3503.075123
850.112675	3491.687156
850.426984	3494.928618
850.741251	3485.163903
851.055474	3480.553768
851.369654	3483.495281
851.683792	3481.173830
851.997887	3488.324706
852.311938	3490.106754
852.625947	3490.850324
852.939914	3482.088799
853.253837	3492.395438
853.567718	3495.374760
853.881555	3482.567709
854.195350	3496.130933
854.509103	3490.777228
854.822812	3490.610870
855.136479	3488.541476
855.450103	3496.778721
855.763685	3478.363386
856.077224	3485.766321
856.390720	3497.978516
856.704173	3510.609127
857.017584	3524.041281
857.330953	3530.980430
857.644278	3551.513049
857.957561	3559.384811
858.270802	3556.816343
858.584000	3563.659709
858.897155	3557.191909
859.210268	3545.163716
859.523339	3526.823998
859.836367	3531.373640
860.149352	3523.040612
860.462295	3515.410826
860.775195	3507.639887
861.088054	3504.131244
861.400869	3502.916326
861.713642	3500.882221
862.026373	3509.094260
862.339062	3511.251874
862.651708	3524.500026
862.964312	3554.142011
863.276873	3560.904719
863.589392	3605.203858
863.901869	3640.310454
864.214303	3674.101308
864.526696	3703.796225
864.839045	3745.698295
865.151353	3767.400463
865.463619	3775.307513
865.775842	3782.549130
866.088023	3798.834578
866.400162	3792.560862
866.712258	3799.288281
867.024313	3803.447233
867.336325	3803.762305
867.648296	3806.025783
867.960224	3808.339673
868.272110	3819.155469
868.583954	3814.159685
868.895755	3828.269875
869.207515	3826.364319
869.519233	3858.877240
869.830909	3865.617263
870.142542	3886.409502
870.454134	3897.971388
870.765684	3924.941562
871.077191	3952.942651
871.388657	3973.782781
871.700081	4000.420237
872.011463	4037.548336
872.322803	4061.700504
872.634101	4087.533897
872.945357	4118.937764
873.256571	4163.229342
873.567744	4183.257846
873.878874	4201.469015
874.189963	4238.022421
874.501010	4247.114142
874.812015	4245.057351
875.122979	4282.482878
875.433900	4281.928351
875.744780	4291.345226
876.055618	4313.826252
876.366415	4316.994617
876.677169	4329.053057
876.987882	4369.747771
877.298554	4407.037186
877.609183	4465.136484
877.919771	4549.651428
878.230317	4660.181247
878.540822	4821.629240
878.851285	5060.219490
879.161707	5400.124329
879.472087	5947.555828
879.782425	6806.712117
880.092722	8329.261566
880.402977	10583.834444
880.713191	13191.094008
881.023363	15806.454706
881.333494	17563.732881
881.643583	18760.651518
881.953631	19133.439804
882.263637	18815.254776
882.573602	17910.332372
882.883526	16834.487127
883.193408	15638.687626
883.503248	14394.944232
883.813048	13231.410636
884.122806	12107.155190
884.432522	10970.349792
884.742197	9992.202108
885.051831	9127.354358
885.361424	8323.370978
885.670975	7646.230590
885.980485	7083.040444
886.289954	6610.016376
886.599382	6215.157918
886.908768	5901.577985
887.218113	5597.379638
887.527417	5355.956260
887.836680	5126.049398
888.145901	4953.435249
888.455082	4813.132375
888.764221	4680.469371
889.073319	4568.510385
889.382376	4504.626363
889.691392	4452.110143
890.000366	4430.438222
890.309300	4410.384512
890.618193	4411.470881
890.927044	4398.409251
891.235855	4412.877363
891.544625	4430.216412
891.853353	4474.477742
892.162041	4555.211821
892.470687	4691.620403
892.779293	4880.492273
893.087858	5149.546216
893.396381	5565.554834
893.704864	6141.070601
894.013306	6994.711867
894.321707	7950.290305
894.630068	8709.634267
894.938387	9008.988065
895.246665	8930.235160
895.554903	8496.847164
895.863100	7948.263761
896.171256	7493.400449
896.479371	7072.950575
896.787446	6671.034502
897.095480	6310.518905
897.403473	6046.639707
897.711425	5782.120283
898.019336	5560.974946
898.327207	5334.233928
898.635038	5145.664527
898.942827	4933.678967
899.250576	4771.734420
899.558284	4603.889203
899.865952	4499.645703
900.173579	4377.279255
900.481165	4287.448414
900.788711	4207.384809
901.096216	4142.424500
901.403681	4082.386878
901.711105	4061.322417
902.018489	4040.434396
902.325832	4089.515070
902.633135	4161.240607
902.940397	4389.287283
903.247619	4912.647273
903.554800	5915.620119
903.861941	7368.704988
904.169041	8686.157614
904.476101	9397.570286
904.783121	9308.188108
905.090100	8802.620871
905.397039	8151.293712
905.703938	7530.551233
906.010796	6965.284131
906.317614	6519.424321
906.624391	6076.400159
906.931129	5725.248505
907.237826	5390.089912
907.544483	5086.982976
907.851099	4778.048465
908.157675	4484.063496
908.464211	4204.851629
908.770707	4003.843181
909.077163	3823.715192
909.383578	3694.860779
909.689954	3591.353288
909.996289	3527.862476
910.302584	3469.627067
910.608839	3441.963735
910.915054	3412.513314
911.221229	3399.507137
911.527363	3409.589445
911.833458	3412.147831
912.139513	3433.381171
912.445527	3455.579892
912.751502	3516.141793
913.057436	3592.464862
913.363331	3690.936241
913.669186	3845.253522
913.975000	4038.725445
914.280775	4349.421839
914.586510	4778.633239
914.892205	5369.065780
915.197859	6153.691130
915.503475	7105.657581
915.809050	8002.103284
916.114585	8609.965615
916.420081	8922.113861
916.725536	8975.161923
917.030952	8669.655397
917.336328	8369.580714
917.641665	8058.407931
917.946961	7670.012233
918.252218	7331.546643
918.557435	6914.645741
918.862612	6571.212094
919.167750	6269.809067
919.472848	5916.847640
919.777906	5613.924705
920.082925	5310.709383
920.387904	5002.034492
920.692843	4773.864307
920.997743	4560.162234
921.302603	4355.909804
921.607423	4216.481571
921.912204	4076.609716
922.216946	3975.320332
922.521647	3875.621433
922.826310	3786.035088
923.130932	3704.650700
923.435516	3622.139615
923.740059	3564.173907
924.044564	3497.398783
924.349028	3450.523614
924.653454	3393.666961
924.957840	3332.535408
925.262186	3293.728606
925.566493	3242.399578
925.870761	3195.567258
926.174989	3164.854029
926.479178	3134.813793
926.783328	3095.419696
927.087438	3071.907755
927.391509	3044.108312
927.695541	3020.840866
927.999533	2993.578306
928.303486	2978.921151
928.607400	2967.374388
928.911275	2953.730506
929.215110	2936.807352
929.518906	2928.207144
929.822663	2928.270158
930.126381	2927.854263
930.430060	2930.221085
930.733699	2933.467588
931.037299	2941.271294
931.340861	2940.373968
931.644383	2947.292952
931.947866	2945.551233
932.251309	2944.046449
932.554714	2943.116356
932.858080	2938.677620
933.161407	2932.759306
933.464694	2928.804520
933.767943	2922.354364
934.071153	2918.555855
934.374323	2908.009761
934.677455	2908.009761
934.980548	2898.119017
935.283602	2893.546690
935.586617	2889.047461
935.889593	2897.362844
936.192530	2901.534399
936.495428	2909.086047
936.798287	2928.013059
937.101108	2948.870833
937.403890	2988.864827
937.706632	3039.359545
938.009336	3105.572580
938.312002	3168.730676
938.614628	3223.606156
938.917216	3273.657252
939.219765	3300.239256
939.522275	3335.633198
939.824747	3336.689319
940.127179	3336.951459
940.429573	3335.423990
940.731929	3330.153463
941.034246	3320.174499
941.336524	3314.692244
941.638763	3299.621715
941.940964	3288.203502
942.243126	3255.892226
942.545250	3236.924885
942.847335	3205.092519
943.149381	3173.718898
943.451389	3148.709733
943.753359	3118.593880
944.055290	3095.462546
944.357182	3073.528486
944.659036	3060.129099
944.960851	3052.970660
945.262628	3037.897610
945.564367	3038.497508
945.866067	3033.957948
946.167729	3033.098432
946.469352	3029.846887
946.770937	3026.529808
947.072484	3013.589166
947.373992	3014.970443
947.675462	3014.665453
947.976893	2997.744820
948.278286	2992.955724
948.579641	2984.090855
948.880958	2977.300420
949.182236	2981.000627
949.483476	2973.950574
949.784678	2976.178764
950.085841	2976.821511
950.386967	2987.516319
950.688054	2997.754902
950.989103	3012.585977
951.290114	3028.707587
951.591087	3053.361350
951.892021	3076.626275
952.192917	3098.535129
952.493776	3121.192595
952.794596	3130.601909
953.095378	3136.132055
953.396122	3134.178607
953.696828	3130.516209
953.997496	3120.993470
954.298126	3101.769029
954.598718	3088.503233
954.899272	3066.745613
955.199788	3047.145607
955.500266	3018.489168
955.800706	2990.319200
956.101108	2957.844087
956.401472	2933.223092
956.701798	2905.761406
957.002087	2869.081971
957.302337	2845.580112
957.602550	2821.329641
957.902724	2795.445837
958.202861	2772.692589
958.502960	2754.453694
958.803022	2735.851836
959.103045	2718.681666
959.403031	2705.708257
959.702979	2694.698377
960.002889	2683.441480
960.302762	2672.179543
960.602596	2661.532626
960.902393	2654.253200
961.202153	2645.209370
961.501875	2637.304840
961.801559	2632.024232
962.101205	2628.233284
962.400814	2624.664147
962.700385	2617.329268
962.999918	2611.216869
963.299414	2606.077413
963.598873	2604.897783
963.898293	2598.591299
964.197677	2601.802514
964.497022	2597.711618
964.796331	2597.285641
965.095601	2593.950917
965.394835	2592.441092
965.694030	2592.025197
965.993189	2588.236769
966.292309	2587.934300
966.591393	2587.268868
966.890439	2587.508323
967.189447	2587.175607
967.488419	2587.261306
967.787353	2589.116451
968.086249	2588.698035
968.385108	2589.849939
968.683930	2590.409507
968.982714	2595.485949
969.281462	2599.546598
969.580172	2605.527927
969.878844	2607.496498
970.177480	2613.419853
970.476078	2622.814044
970.774639	2627.464508
971.073162	2634.832154
971.371649	2639.855664
971.670098	2642.751807
971.968510	2651.024341
972.266885	2655.949548
972.565223	2659.306956
972.863524	2660.237049
973.161788	2665.225271
973.460014	2666.858605
973.758204	2671.627536
974.056356	2671.511590
974.354471	2674.286745
974.652550	2672.971004
974.950591	2672.005623
975.248595	2671.219203
975.546563	2670.221054
975.844493	2667.458502
976.142386	2662.077070
976.440243	2657.870227
976.738062	2655.221101
977.035845	2649.680873
977.333590	2642.759369
977.631299	2639.046559
977.928971	2633.092956
978.226606	2624.336472
978.524204	2625.402676
978.821765	2621.941924
979.119290	2621.621811
979.416777	2623.292953
979.714228	2623.255145
980.011642	2628.145064
980.309020	2630.693367
980.606360	2643.192908
980.903664	2659.609426
981.200931	2688.585978
981.498162	2723.004456
981.795356	2780.082920
982.092513	2849.771831
982.389633	2935.035387
982.686717	3016.487830
982.983764	3084.268664
983.280775	3130.281796
983.577749	3146.839465
983.874686	3141.644556
984.171587	3115.233951
984.468451	3085.657502
984.765279	3054.115002
985.062070	3014.279804
985.358824	2977.250009
985.655543	2932.255190
985.952224	2891.063922
986.248869	2838.202383
986.545478	2788.559620
986.842050	2740.366190
987.138586	2701.720704
987.435086	2668.375992
987.731549	2639.966570
988.027975	2617.886316
988.324366	2600.373347
988.620719	2587.508323
988.917037	2574.481981
989.213318	2569.531568
989.509563	2560.152501
989.805772	2557.193344
990.101944	2552.706717
990.398080	2552.343754
990.694180	2550.375183
990.990244	2550.881819
991.286271	2551.574978
991.582262	2551.801830
991.878217	2553.573796
992.174136	2556.348951
992.470019	2558.183931
992.765865	2563.575445
993.061676	2561.458160
993.357450	2571.318657
993.653188	2576.531210
993.948890	2592.844384
994.244556	2608.459358
994.540186	2623.910495
994.835780	2651.009217
995.131337	2677.780265
995.426859	2712.962477
995.722345	2751.315576
996.017795	2792.731175
996.313208	2829.027483
996.608586	2852.816688
996.903928	2871.058103
997.199234	2873.303937
997.494504	2872.832589
997.789738	2866.140458
998.084936	2843.331757
998.380099	2818.262099
998.675225	2793.263017
998.970316	2768.984820
999.265371	2738.440469
999.560390	2709.108515
999.855373	2684.784948
1000.150320	2658.674292
1000.445232	2635.056486
1000.740108	2617.420009
1001.034948	2601.978955
1001.329752	2587.427664
1001.624521	2576.170768
1001.919254	2565.488563
1002.213951	2560.903633
1002.508613	2552.898281
1002.803239	2548.361242
1003.097829	2540.073586
1003.392384	2534.568646
1003.686903	2531.117976
1003.981386	2530.994467
1004.275834	2528.191586
1004.570246	2525.192099
1004.864623	2522.542973
1005.158964	2521.542304
1005.453270	2518.590708
1005.747540	2520.229083
1006.041775	2516.516274
1006.335974	2515.200533
1006.630138	2512.158196
1006.924266	2514.716582
1007.218359	2512.556447
1007.512416	2513.073166
1007.806438	2507.288442
1008.100425	2512.276663
1008.394376	2506.433966
1008.688292	2513.345388
1008.982172	2508.707526
1009.276017	2509.292300
1009.569827	2509.037722
1009.863602	2508.483195
1010.157341	2510.038391
1010.451045	2512.647188
1010.744714	2510.545027
1011.038347	2508.279028
1011.331945	2507.346415
1011.625508	2508.120232
1011.919036	2504.165447
1012.212528	2506.476816
1012.505986	2502.373317
1012.799408	2502.184273
1013.092795	2500.124962
1013.386147	2505.357680
1013.679464	2500.495487
1013.972745	2503.399191
1014.265992	2501.075219
1014.559204	2502.043121
1014.852380	2499.167143
1015.145521	2501.599499
1015.438628	2501.460868
1015.731699	2504.263749
1016.024736	2500.752586
1016.317737	2503.217710
1016.610703	2502.232164
1016.903635	2507.495129
1017.196531	2507.217865
1017.489393	2507.787516
1017.782219	2508.667197
1018.075011	2511.084430
1018.367768	2509.032681
1018.660490	2511.218021
1018.953177	2511.218021
1019.245829	2511.218021
