Dividing Wavelength (nm)	Counts (n)	Blue Motor Position (mm): 8.500000	Red Motor Position (mm): 0.000000	
326.493990	2065.423745
326.888308	2065.423745
327.282561	2065.423745
327.676750	2043.053625
328.070874	2043.071269
328.464933	2049.652495
328.858929	2055.522919
329.252859	2066.205124
329.646726	2077.681311
330.040528	2096.073961
330.434265	2112.137597
330.827938	2136.007461
331.221547	2156.603095
331.615091	2174.945333
332.008571	2196.629856
332.401986	2215.551827
332.795338	2236.311299
333.188625	2255.712179
333.581847	2274.813111
333.975006	2293.430093
334.368100	2308.520787
334.761129	2325.685915
335.154095	2342.838441
335.546996	2368.296268
335.939833	2410.336971
336.332606	2421.989598
336.725315	2434.794129
337.117960	2445.640171
337.510540	2455.891357
337.903056	2466.082050
338.295508	2469.570528
338.687896	2477.969091
339.080220	2479.584781
339.472480	2488.888230
339.864676	2492.190186
340.256807	2495.073726
340.648875	2494.123468
341.040879	2498.010198
341.432818	2497.120434
341.824694	2499.429283
342.216506	2498.695795
342.608253	2497.753099
342.999937	2496.260917
343.391557	2496.099601
343.783113	2495.754282
344.174605	2494.451143
344.566033	2491.479383
344.957397	2491.796976
345.348697	2487.264978
345.739934	2489.387304
346.131106	2483.514360
346.522215	2484.691469
346.913260	2480.716520
347.304241	2480.618217
347.695159	2478.470686
348.086012	2478.029585
348.476802	2476.189563
348.867528	2473.469861
349.258191	2467.944756
349.648789	2469.598255
350.039324	2464.368058
350.429796	2472.416260
350.820203	2470.054479
351.210548	2469.663790
351.600828	2465.373768
351.991045	2465.351083
352.381198	2466.669344
352.771288	2466.097173
353.161314	2464.849488
353.551276	2466.157667
353.941175	2463.422841
354.331010	2467.145733
354.720782	2468.869808
355.110490	2466.825620
355.500135	2465.356124
355.889717	2467.309571
356.279235	2468.093470
356.668689	2469.520117
357.058080	2466.886114
357.447408	2466.928964
357.836672	2468.307719
358.225873	2467.919551
358.615010	2467.843933
359.004084	2470.019191
359.393095	2468.166567
359.782043	2469.522637
360.170927	2471.108080
360.559748	2472.005406
360.948505	2473.164871
361.337199	2472.315437
361.725830	2472.708647
362.114398	2472.431383
362.502903	2474.891466
362.891344	2475.299800
363.279722	2473.084213
363.668037	2477.107053
364.056289	2473.779892
364.444478	2475.985397
364.832603	2475.652681
365.220665	2476.577732
365.608665	2474.793164
365.996601	2477.091930
366.384474	2475.531693
366.772284	2478.090078
367.160031	2475.284676
367.547715	2482.730461
367.935336	2475.534213
368.322893	2474.475571
368.710388	2472.872484
369.097820	2477.250726
369.485189	2471.740745
369.872495	2479.166365
370.259738	2477.664101
370.646918	2480.366159
371.034035	2478.795840
371.421090	2481.971767
371.808081	2481.596201
372.195010	2479.302476
372.581875	2480.083855
372.968678	2479.736015
373.355418	2481.152579
373.742096	2482.133084
374.128710	2483.189206
374.515262	2480.925728
374.901751	2481.873464
375.288177	2485.354381
375.674540	2484.252889
376.060841	2482.092755
376.447079	2483.549648
376.833254	2483.945379
377.219367	2480.986221
377.605417	2484.726758
377.991404	2483.385811
378.377329	2486.934783
378.763191	2481.397075
379.148991	2485.505616
379.534727	2486.082828
379.920402	2483.148876
380.306013	2485.727427
380.691563	2486.087869
381.077049	2486.440750
381.462474	2485.314052
381.847835	2485.924032
382.233134	2487.575009
382.618371	2487.617859
383.003545	2485.969402
383.388657	2488.351347
383.773706	2487.469145
384.158693	2487.547283
384.543618	2485.770276
384.928480	2487.017962
385.313280	2489.110041
385.698017	2487.907726
386.082692	2487.005359
386.467305	2491.156749
386.851856	2489.961996
387.236344	2488.250524
387.620770	2485.432519
388.005133	2485.808085
388.389435	2488.961327
388.773674	2484.401603
389.157851	2489.629280
389.541965	2489.644403
389.926018	2491.565083
390.310008	2491.401245
390.693936	2492.341420
391.077802	2494.373005
391.461606	2489.029382
391.845348	2491.348313
392.229027	2489.984681
392.612645	2493.616832
392.996200	2488.253045
393.379694	2491.618015
393.763125	2491.126502
394.146494	2490.698004
394.529801	2494.209168
394.913047	2492.381750
395.296230	2490.362767
395.679351	2492.638848
396.062410	2491.839826
396.445408	2493.299240
396.828343	2490.425782
397.211217	2492.187665
397.594028	2492.759836
397.976778	2494.052892
398.359466	2493.863849
398.742092	2493.568941
399.124656	2493.631956
399.507158	2493.747902
399.889598	2495.650938
400.271977	2492.613643
400.654294	2494.420896
401.036549	2494.277223
401.418742	2495.557677
401.800874	2495.592965
402.182944	2493.808396
402.564952	2496.243273
402.946898	2494.932573
403.328783	2494.942656
403.710606	2495.928201
404.092367	2496.936432
404.474067	2498.171515
404.855705	2495.434168
405.237282	2497.357368
405.618797	2498.582369
406.000250	2498.446258
406.381642	2497.909375
406.762972	2495.378716
407.144240	2493.977275
407.525447	2497.440548
407.906593	2492.951400
408.287677	2501.743172
408.668700	2498.552122
409.049661	2499.401556
409.430560	2496.124806
409.811399	2499.303254
410.192176	2499.225116
410.572891	2500.205620
410.953545	2499.328460
411.334138	2499.499859
411.714669	2497.735455
412.095139	2500.772750
412.475547	2497.279231
412.855894	2499.799808
413.236180	2500.175373
413.616405	2501.831393
413.996568	2500.384581
414.376670	2501.523882
414.756711	2500.984479
415.136691	2502.118738
415.516609	2499.875425
415.896466	2501.072699
416.276262	2503.741990
416.655997	2500.470281
417.035670	2500.445075
417.415283	2503.041269
417.794834	2499.542709
418.174324	2503.310971
418.553753	2504.117556
418.933121	2502.068327
419.312428	2500.311485
419.691674	2503.056393
420.070859	2502.247288
420.449983	2499.552791
420.829045	2502.330467
421.208047	2500.561022
421.586988	2503.177381
421.965867	2503.618482
422.344686	2501.596979
422.723444	2503.298368
423.102141	2503.038749
423.480777	2504.868688
423.859352	2503.179901
424.237866	2506.741476
424.616319	2504.737618
424.994712	2506.723832
425.373044	2500.298882
425.751314	2501.395333
426.129524	2499.696464
426.507673	2501.024808
426.885762	2496.815444
427.263789	2504.374655
427.641756	2504.662000
428.019662	2503.842813
428.397508	2502.688389
428.775292	2504.331805
429.153016	2505.508914
429.530679	2507.669049
429.908282	2503.018584
430.285824	2504.402381
430.663305	2502.148985
431.040726	2504.626712
431.418086	2502.983296
431.795385	2505.816425
432.172624	2503.081599
432.549802	2507.396826
432.926920	2504.384737
433.303977	2503.815087
433.680974	2505.070334
434.057910	2508.029491
434.434786	2505.256857
434.811601	2504.757782
435.188355	2502.713594
435.565050	2504.510766
435.941683	2505.334994
436.318257	2504.707371
436.694770	2505.637464
437.071222	2505.304747
437.447614	2504.442710
437.823946	2508.200890
438.200218	2504.669562
438.576429	2505.632423
438.952580	2504.359531
439.328670	2507.701816
439.704700	2502.471619
440.080670	2508.546209
440.456580	2503.197545
440.832429	2505.208966
441.208218	2507.021260
441.583947	2506.312978
441.959616	2506.388596
442.335224	2505.473626
442.710773	2504.556136
443.086261	2507.162413
443.461689	2505.087978
443.837057	2507.822804
444.212365	2505.425735
444.587612	2506.680982
444.962800	2505.405571
445.337927	2504.974552
445.712995	2501.070178
446.088002	2506.318019
446.462949	2507.263236
446.837837	2507.686693
447.212664	2507.364059
447.587431	2507.674090
447.962139	2507.021260
448.336786	2505.294665
448.711374	2506.559995
449.085901	2506.577639
449.460369	2507.996724
449.834776	2508.417660
450.209124	2505.377844
450.583412	2510.106447
450.957640	2509.514111
451.331808	2506.771723
451.705917	2508.359687
452.079965	2505.917248
452.453954	2507.895901
452.827883	2510.832373
453.201752	2507.648884
453.575562	2509.176354
453.949311	2508.846158
454.323001	2507.913545
454.696632	2508.447907
455.070202	2508.868843
455.443713	2506.877588
455.817164	2509.882115
456.190556	2507.858092
456.563888	2510.229955
456.937160	2509.113339
457.310373	2508.906652
457.683526	2509.894718
458.056619	2510.164420
458.429653	2507.197701
458.802628	2507.427073
459.175542	2508.057218
459.548398	2509.937568
459.921194	2509.872033
460.293930	2507.820283
460.666607	2509.572084
461.039224	2508.591580
461.411782	2508.379851
461.784280	2510.610562
462.156719	2509.123422
462.529099	2509.428411
462.901419	2509.357835
463.273680	2507.331291
463.645882	2505.269459
464.018024	2507.149810
464.390106	2503.716784
464.762130	2509.849348
465.134094	2510.366066
465.505999	2511.311282
465.877845	2507.880777
466.249631	2510.723988
466.621358	2509.773730
466.993026	2512.417816
467.364634	2512.949657
467.736184	2511.459996
468.107674	2510.277846
468.479105	2509.435973
468.850477	2511.066786
469.221790	2509.965294
469.593043	2510.393792
469.964238	2510.136693
470.335373	2512.201046
470.706449	2509.904800
471.077467	2511.172651
471.448425	2513.567199
471.819324	2510.323216
472.190164	2509.899759
472.560945	2512.047291
472.931667	2508.757938
473.302330	2509.834224
473.672934	2511.011334
474.043479	2508.889008
474.413965	2509.909842
474.784393	2511.528052
475.154761	2510.711385
475.525070	2508.954543
475.895321	2512.624503
476.265513	2506.711229
476.635645	2513.690707
477.005719	2513.605007
477.375734	2511.059225
477.745691	2513.599966
478.115588	2511.132321
478.485427	2510.164420
478.855207	2511.996879
479.224928	2512.075017
479.594591	2514.280522
479.964194	2511.497805
480.333739	2512.473268
480.703226	2513.491581
481.072653	2511.802795
481.442022	2514.003258
481.811333	2513.486540
482.180584	2509.869512
482.549777	2512.712723
482.918912	2507.265756
483.287988	2513.889833
483.657005	2515.986953
484.025964	2513.945285
484.394864	2514.086438
484.763706	2513.758762
485.132489	2514.010820
485.501213	2513.617610
485.869879	2513.892353
486.238487	2512.548886
486.607036	2513.990656
486.975527	2514.527538
487.343959	2517.239679
487.712333	2514.973681
488.080648	2513.988135
488.448905	2516.745646
488.817104	2514.928310
489.185244	2517.398476
489.553326	2517.403517
489.921350	2517.043074
490.289315	2513.410923
490.657222	2515.893691
491.025070	2515.555934
491.392861	2517.161541
491.760593	2514.792199
492.128267	2514.714061
492.495883	2516.332272
492.863440	2514.784637
493.230939	2514.966119
493.598380	2515.737415
493.965763	2515.729854
494.333088	2516.594412
494.700354	2514.174658
495.067563	2518.384021
495.434713	2516.728002
495.801805	2515.097189
496.168839	2517.985770
496.535815	2516.433095
496.902733	2513.801612
497.269593	2515.694566
497.636395	2512.473268
498.003139	2514.993845
498.369825	2514.830008
498.736453	2518.245389
499.103023	2514.088958
499.469535	2515.747498
499.835989	2515.190450
500.202385	2514.835049
500.568723	2510.532424
500.935003	2515.644154
501.301226	2511.533093
501.667390	2519.251100
502.033497	2515.129956
502.399546	2517.854700
502.765537	2513.383197
503.131470	2516.964936
503.497345	2515.734895
503.863163	2515.465193
504.228923	2516.614576
504.594625	2518.941069
504.960269	2516.700276
505.325856	2517.277488
505.691385	2514.872858
506.056856	2515.492919
506.422270	2517.292611
506.787625	2517.456449
507.152924	2513.461334
507.518164	2518.741943
507.883347	2515.369411
508.248472	2515.813033
508.613540	2516.354957
508.978550	2516.186078
509.343503	2514.512415
509.708398	2515.956706
510.073236	2515.807992
510.438016	2515.364370
510.802738	2515.404699
511.167403	2516.544000
511.532010	2516.022241
511.896561	2517.607683
512.261053	2516.995183
512.625488	2517.466531
512.989866	2518.298322
513.354186	2517.912673
513.718449	2516.816222
514.082655	2518.603311
514.446803	2517.264885
514.810894	2518.376459
515.174927	2518.308404
515.538904	2516.314628
515.902822	2519.039371
516.266684	2518.351254
516.630488	2516.319669
516.994235	2516.705317
517.357925	2519.165400
517.721558	2519.916532
518.085133	2516.972498
518.448651	2518.631038
518.812112	2515.765142
519.175516	2516.352436
519.538863	2515.019051
519.902152	2519.840915
520.265385	2518.729340
520.628560	2523.105062
520.991678	2519.034330
521.354739	2520.818898
521.717743	2520.965092
522.080690	2520.680267
522.443580	2522.600946
522.806413	2520.463497
523.169189	2522.958868
523.531908	2522.086749
523.894569	2523.412572
524.257174	2524.839219
524.619722	2523.107582
524.982213	2524.927439
525.344647	2524.158663
525.707025	2525.928108
526.069345	2527.352234
526.431608	2525.683612
526.793815	2526.764939
527.155964	2525.628159
527.518057	2527.208561
527.880093	2526.407017
528.242072	2528.010104
528.603995	2528.390712
528.965860	2531.067564
529.327669	2527.253931
529.689421	2528.846936
530.051117	2531.034797
530.412755	2533.071423
530.774337	2531.503624
531.135862	2533.764582
531.497331	2533.527647
531.858743	2532.947915
532.220098	2534.505631
532.581396	2535.612164
532.942638	2535.148378
533.303824	2535.765920
533.664953	2539.483771
534.026025	2535.891948
534.387040	2538.450334
534.747999	2538.442772
535.108902	2540.378575
535.469748	2539.382947
535.830537	2542.062321
536.191270	2539.519059
536.551947	2539.700540
536.912567	2535.748276
537.273131	2540.822197
537.633638	2536.217103
537.994089	2542.730274
538.354483	2542.672300
538.714821	2546.801005
539.075103	2545.543238
539.435328	2546.803526
539.795497	2546.717826
540.155609	2549.820657
540.515665	2547.912580
540.875665	2549.929041
541.235609	2549.281253
541.595496	2550.672612
541.955328	2551.683363
542.315102	2550.523897
542.674821	2553.533466
543.034483	2553.137736
543.394090	2554.715617
543.753640	2555.209650
544.113134	2555.751574
544.472571	2557.629404
544.831953	2558.771225
545.191278	2558.700649
545.550548	2556.550597
545.909761	2559.434137
546.268918	2559.509754
546.628019	2561.014539
546.987064	2561.248952
547.346053	2559.986143
547.704986	2561.503531
548.063863	2564.417318
548.422684	2565.685168
548.781449	2562.589899
549.140158	2565.876732
549.498811	2563.862791
549.857408	2564.928995
550.215949	2564.437482
550.574434	2568.979562
550.932864	2568.747669
551.291237	2569.050138
551.649555	2567.815055
552.007817	2569.629871
552.366022	2573.448545
552.724173	2566.247256
553.082267	2567.610888
553.440305	2572.233627
553.798288	2572.604151
554.156215	2571.696744
554.514086	2571.595921
554.871902	2568.180539
555.229661	2571.313616
555.587365	2570.872515
555.945014	2573.798905
556.302606	2574.363514
556.660143	2573.380489
557.017625	2575.079358
557.375050	2572.281518
557.732421	2576.085068
558.089735	2577.025243
558.446994	2573.977866
558.804197	2580.110429
559.161345	2575.943916
559.518437	2576.372414
559.875474	2579.422312
560.232455	2579.102199
560.589381	2578.156982
560.946251	2579.026581
561.303065	2577.839390
561.659825	2579.991962
562.016528	2579.268557
562.373177	2578.754359
562.729770	2579.928948
563.086307	2579.946592
563.442789	2579.313927
563.799216	2581.900039
564.155587	2582.971284
564.511904	2582.908270
564.868164	2584.523960
565.224370	2581.605132
565.580520	2582.888105
565.936615	2584.080338
566.292654	2581.768969
566.648638	2583.276274
567.004567	2584.768456
567.360441	2582.683938
567.716260	2583.926583
568.072023	2584.314752
568.427732	2581.660584
568.783385	2583.931624
569.138982	2585.267530
569.494525	2584.523960
569.850013	2584.433219
570.205445	2583.876171
570.560823	2586.376584
570.916145	2585.317941
571.271412	2586.928590
571.626625	2585.779207
571.981782	2583.435070
572.336884	2583.072107
572.691931	2580.790985
573.046923	2585.179310
573.401860	2578.358628
573.756743	2588.108220
574.111570	2586.185020
574.466342	2587.024372
574.821059	2585.393559
575.175722	2582.822570
575.530330	2583.803075
575.884882	2585.295256
576.239380	2584.367684
576.593823	2586.434557
576.948211	2584.498754
577.302544	2584.609659
577.656823	2584.612180
578.011047	2584.518918
578.365216	2586.744588
578.719330	2585.247365
579.073389	2584.103023
579.427394	2584.748291
579.781344	2584.279464
580.135239	2585.098651
580.489080	2583.750142
580.842866	2582.820050
581.196597	2588.340113
581.550273	2582.893146
581.903895	2581.839545
582.257463	2581.443815
582.610975	2581.995821
582.964434	2583.419947
583.317837	2583.777869
583.671186	2582.268043
584.024481	2583.583784
584.377721	2583.556058
584.730906	2582.976325
585.084037	2581.998342
585.437113	2582.116809
585.790135	2580.889288
586.143103	2583.992118
586.496016	2580.228897
586.848874	2585.161666
587.201679	2583.172930
587.554428	2580.173444
587.907124	2582.157138
588.259765	2582.376428
588.612352	2584.304669
588.964884	2579.931468
589.317362	2585.794330
589.669786	2581.189236
590.022155	2580.390213
590.374470	2581.322827
590.726731	2580.095306
591.078937	2577.824266
591.431090	2583.304000
591.783188	2581.038002
592.135232	2580.793506
592.487222	2581.774010
592.839157	2584.218970
593.191038	2583.649319
593.542866	2581.963053
593.894639	2582.242838
594.246358	2584.380287
594.598022	2582.076479
594.949633	2583.230904
595.301190	2580.783423
595.652692	2582.401634
596.004141	2583.798033
596.355535	2581.874833
596.706876	2580.891808
597.058162	2580.430543
597.409395	2580.687642
597.760573	2582.033630
598.111698	2582.220152
598.462768	2580.642271
598.813785	2582.537745
599.164748	2580.990111
599.515657	2583.424988
599.866511	2581.141345
600.217312	2582.212591
600.568060	2583.913980
600.918753	2586.114444
601.269392	2583.588826
601.619978	2582.694021
601.970510	2584.034968
602.320988	2585.428847
602.671412	2588.385483
603.021783	2587.712489
603.372100	2588.050247
603.722363	2585.706110
604.072572	2588.665268
604.422728	2589.245000
604.772830	2587.347006
605.122878	2588.811461
605.472872	2590.868252
605.822813	2588.027562
606.172701	2590.774990
606.522534	2593.023345
606.872314	2592.700711
607.222041	2595.891762
607.571714	2592.065526
607.921333	2592.249528
608.270899	2594.298757
608.620411	2593.358582
608.969870	2600.464088
609.319276	2599.481063
609.668627	2600.965683
610.017926	2603.347628
610.367171	2603.478698
610.716362	2609.056735
611.065500	2607.909872
611.414585	2610.019595
611.763616	2610.460696
612.112594	2611.020264
612.461518	2614.113012
612.810389	2616.711727
613.159207	2618.889505
613.507971	2621.082407
613.856682	2620.081738
614.205340	2623.106431
614.553945	2627.560290
614.902496	2630.050620
615.250994	2631.502472
615.599439	2632.588841
615.947830	2638.096302
616.296169	2639.470016
616.644454	2640.886580
616.992686	2648.319762
617.340864	2651.621717
617.688990	2655.231183
618.037063	2658.538180
618.385082	2661.139416
618.733048	2668.726352
619.080961	2671.304903
619.428821	2673.956549
619.776628	2676.560305
620.124382	2682.100533
620.472083	2686.501461
620.819731	2686.491378
621.167326	2687.557582
621.514868	2691.393901
621.862357	2691.333407
622.209793	2694.819365
622.557176	2695.840198
622.904506	2695.804910
623.251783	2696.677030
623.599007	2698.660724
623.946179	2702.912937
624.293297	2707.139945
624.640363	2704.760520
624.987376	2706.532486
625.334336	2707.893597
625.681243	2712.992724
626.028097	2717.156717
626.374899	2720.176368
626.721647	2725.643500
627.068343	2729.782287
627.414987	2734.155488
627.761577	2738.816035
628.108115	2744.225193
628.454600	2745.069586
628.801032	2755.159456
629.147412	2760.548449
629.493739	2762.640528
629.840014	2768.473143
630.186236	2779.782972
630.532405	2783.689866
630.878521	2790.765125
631.224585	2797.278296
631.570597	2802.584110
631.916556	2812.991572
632.262462	2821.800989
632.608316	2829.387925
632.954117	2832.702484
633.299866	2843.190605
633.645562	2847.946933
633.991206	2851.289218
634.336797	2851.566482
634.682336	2855.569158
635.027823	2859.130733
635.373257	2864.595344
635.718639	2864.444109
636.063968	2872.706560
636.409245	2870.992568
636.754470	2878.801315
637.099642	2881.238713
637.444762	2883.086296
637.789829	2889.239024
638.134845	2895.051475
638.479808	2900.760582
638.824719	2911.273908
639.169577	2910.303486
639.514383	2923.899478
639.859137	2923.826381
640.203839	2935.252156
640.548489	2943.554937
640.893086	2948.480144
641.237632	2953.362501
641.582125	2967.349183
641.926566	2972.196252
642.270955	2983.606904
642.615292	2988.060763
642.959576	2998.652228
643.303809	3005.367044
643.647990	3021.077800
643.992118	3030.464429
644.336195	3039.664535
644.680219	3052.547203
645.024192	3067.274934
645.368112	3087.411823
645.711981	3105.491922
646.055797	3132.230202
646.399562	3151.361380
646.743274	3182.114939
647.086935	3212.712223
647.430544	3228.919532
647.774101	3250.581370
648.117606	3267.529730
648.461059	3284.399951
648.804460	3290.887916
649.147810	3289.085703
649.491108	3290.701393
649.834354	3296.907054
650.177548	3288.579067
650.520690	3290.910601
650.863781	3302.941315
651.206820	3308.224444
651.549807	3311.097902
651.892742	3307.483394
652.235626	3319.425888
652.578458	3332.268227
652.921238	3325.419820
653.263967	3350.005527
653.606644	3356.001980
653.949269	3369.010677
654.291843	3366.212837
654.634365	3395.847260
654.976836	3396.820202
655.319255	3413.942481
655.661622	3423.946651
656.003938	3434.550718
656.346203	3439.612037
656.688416	3466.428455
657.030577	3473.269300
657.372687	3479.898418
657.714746	3497.066067
658.056753	3518.299407
658.398708	3511.748428
658.740612	3529.044627
659.082465	3549.287380
659.424266	3562.568300
659.766016	3578.967173
660.107715	3592.933690
660.449362	3611.497739
660.790958	3633.124289
661.132503	3645.943943
661.473996	3665.745595
661.815438	3687.664532
662.156829	3708.202193
662.498168	3717.525807
662.839456	3734.143971
663.180693	3751.626692
663.521879	3778.624592
663.863013	3790.105820
664.204097	3808.763130
664.545129	3846.539016
664.886110	3863.200030
665.227040	3889.308166
665.567918	3911.902617
665.908746	3932.115123
666.249522	3962.939259
666.590248	3987.845079
666.930922	4012.531610
667.271545	4029.434598
667.612118	4057.438208
667.952639	4064.571441
668.293109	4085.991303
668.633528	4097.059157
668.973896	4113.465592
669.314213	4128.276502
669.654480	4138.323522
669.994695	4154.195594
670.334859	4171.469108
670.674973	4177.377340
671.015035	4211.495870
671.355047	4224.320565
671.695008	4245.170777
672.034918	4259.069238
672.374777	4285.502529
672.714585	4305.611691
673.054342	4336.496320
673.394049	4348.990820
673.733705	4388.233682
674.073310	4393.695773
674.412864	4416.570008
674.752368	4420.696192
675.091820	4449.881953
675.431223	4449.413125
675.770574	4450.940595
676.109875	4452.974701
676.449125	4455.684321
676.788324	4460.261688
677.127473	4448.588897
677.466571	4457.778920
677.805619	4459.308910
678.144616	4474.966734
678.483562	4489.896111
678.822458	4483.788753
679.161303	4501.014376
679.500098	4513.652549
679.838842	4531.999828
680.177535	4554.977407
680.516179	4596.095579
680.854771	4628.535404
681.193314	4713.098239
681.531805	4824.356504
681.870247	4932.438843
682.208638	5032.717475
682.546978	5089.743008
682.885268	5131.662722
683.223508	5112.443323
683.561697	5114.041369
683.899836	5124.090909
684.237925	5119.453048
684.575963	5130.014265
684.913951	5123.755673
685.251889	5162.302855
685.589776	5193.747053
685.927614	5224.077155
686.265401	5277.951966
686.603137	5321.648687
686.940824	5401.175410
687.278460	5474.287264
687.616046	5537.256317
687.953582	5645.184900
688.291068	5674.698335
688.628504	5752.379995
688.965889	5781.303616
689.303224	5781.802690
689.640510	5773.880517
689.977745	5727.950564
690.314930	5663.829607
690.652065	5633.025637
690.989150	5575.395166
691.326185	5491.928782
691.663170	5430.550213
692.000105	5368.024782
692.336990	5312.325073
692.673825	5279.494559
693.010610	5238.820009
693.347345	5193.046332
693.684030	5137.611284
694.020665	5128.433863
694.357251	5070.899174
694.693786	5094.380869
695.030272	5079.010391
695.366707	5042.134351
695.703093	5026.534500
696.039429	5052.493922
696.375716	5038.534967
696.711952	5062.220828
697.048139	5066.783072
697.384276	5067.299791
697.720363	5105.005101
698.056400	5115.818376
698.392388	5109.930308
698.728326	5133.404441
699.064214	5127.047546
699.400053	5147.121421
699.735842	5113.355772
700.071581	5104.629535
700.407270	5082.718160
700.742910	5074.007046
701.078501	5055.450558
701.414042	5041.481521
701.749533	5016.462275
702.084974	4985.285259
702.420366	5030.244789
702.755709	4992.431094
703.091002	4961.778358
703.426246	4983.946832
703.761440	4987.828521
704.096584	4973.970389
704.431679	4979.140092
704.766725	4989.613089
705.101721	4989.587883
705.436668	5024.870919
705.771565	4999.178679
706.106413	5068.872631
706.441212	5090.166464
706.775961	5126.004027
707.110661	5155.940919
707.445311	5230.544955
707.779913	5237.937807
708.114465	5298.093896
708.448967	5372.113158
708.783421	5491.197815
709.117825	5573.408952
709.452180	5630.684021
709.786485	5735.280402
710.120742	5886.686416
710.454949	5930.403302
710.789107	6053.205810
711.123216	6198.239806
711.457275	6277.065808
711.791286	6395.946298
712.125247	6457.274455
712.459159	6439.892557
712.793023	6600.657474
713.126837	6440.812567
713.460602	6505.954357
713.794318	6472.753318
714.127985	6436.696465
714.461602	6292.668179
714.795171	6302.256454
715.128691	6141.612525
715.462162	6057.543723
715.795584	5993.148024
716.128957	5954.810049
716.462281	5902.351802
716.795556	5864.429722
717.128782	5792.356345
717.461960	5689.582342
717.795088	5698.437129
718.128167	5651.198997
718.461198	5579.891875
718.794180	5570.427109
719.127113	5516.396022
719.459997	5496.874154
719.792833	5438.989105
720.125619	5458.319409
720.458357	5407.582716
720.791046	5393.749790
721.123686	5378.497779
721.456278	5345.011915
721.788821	5356.241085
722.121315	5318.629036
722.453761	5347.963510
722.786158	5343.078632
723.118506	5370.648703
723.450805	5363.412126
723.783056	5418.464047
724.115259	5405.445267
724.447412	5422.373462
724.779518	5478.607533
725.111574	5502.079145
725.443582	5576.579837
725.775542	5583.743317
726.107453	5710.009097
726.439315	5710.515733
726.771129	5814.073636
727.102895	5918.254122
727.434612	5998.864692
727.766281	6055.880142
728.097901	6147.903885
728.429473	6192.966759
728.760996	6207.616352
729.092471	6257.748107
729.423897	6246.423155
729.755276	6230.586370
730.086606	6267.288490
730.417887	6410.139667
730.749120	6555.670217
731.080305	6629.666793
731.411442	6751.125834
731.742530	6797.602752
732.073570	6849.236770
732.404562	6944.416275
732.735506	6933.560150
733.066401	6922.807369
733.397249	6836.417116
733.728048	6709.470779
734.058798	6521.357603
734.389501	6349.061047
734.720156	6234.228603
735.050762	6099.440753
735.381320	6011.439850
735.711831	5950.893072
736.042293	5865.153128
736.372707	5883.709615
736.703073	5840.600188
737.033391	5905.653757
737.363661	5915.615078
737.693883	5960.584690
738.024056	6019.041910
738.354182	6088.514052
738.684260	6191.088929
739.014290	6280.675274
739.344272	6351.972313
739.674207	6459.822759
740.004093	6528.775661
740.333931	6562.528707
740.663722	6601.413647
740.993464	6632.303317
741.323159	6614.112313
741.652806	6552.161574
741.982405	6526.365989
742.311956	6439.083452
742.641460	6436.076403
742.970915	6358.369537
743.300323	6274.663698
743.629683	6224.567232
743.958996	6157.167005
744.288260	6079.818061
744.617477	6004.815774
744.946647	6012.412793
745.275768	5927.713847
745.604842	5880.437906
745.933869	5838.934086
746.262847	5845.679150
746.591778	5828.675338
746.920662	5806.159025
747.249498	5815.333925
747.578286	5867.764445
747.907027	5927.328198
748.235720	6016.806159
748.564365	6050.874276
748.892963	6047.766405
749.221514	6090.119659
749.550017	6072.926804
749.878473	6077.657927
750.206881	6025.232447
750.535242	6012.581672
750.863555	6002.474158
751.191821	5980.593030
751.520039	5998.847048
751.848210	5981.891127
752.176334	6004.702348
752.504411	5995.260267
752.832440	5951.321570
753.160421	6003.946175
753.488356	5979.322659
753.816243	5960.685513
754.144082	5919.219503
754.471875	5910.261372
754.799620	5907.082925
755.127318	5910.032000
755.454969	5916.129275
755.782572	5918.516262
756.110129	5930.897335
756.437638	5915.718421
756.765100	5926.927427
757.092515	5941.425785
757.419882	5959.311799
757.747203	5969.464683
758.074477	6010.915570
758.401703	6006.373491
758.728882	6074.834881
759.056014	6096.836997
759.383099	6157.570298
759.710138	6213.648093
760.037129	6264.127687
760.364073	6300.363501
760.690970	6315.817158
761.017820	6334.378686
761.344623	6413.229894
761.671379	6537.068359
761.998088	6743.657364
762.324751	7235.545430
762.651366	8221.627890
762.977935	9675.405918
763.304456	10805.068002
763.630931	11389.088195
763.957359	11171.638024
764.283740	10505.237815
764.610074	9801.049116
764.936362	8925.836753
765.262602	8275.379193
765.588796	7607.512008
765.914943	7149.334138
766.241044	6754.374857
766.567097	6474.553010
766.893104	6225.139403
767.219064	6062.930196
767.544978	5896.413323
767.870845	5763.561275
768.196665	5685.975396
768.522438	5609.559066
768.848165	5545.828799
769.173846	5479.192307
769.499479	5439.604126
769.825066	5383.385178
770.150607	5309.791893
770.476101	5284.266011
770.801548	5247.702522
771.126949	5198.127815
771.452303	5169.665461
771.777611	5095.527732
772.102872	5102.986119
772.428087	5053.192122
772.753256	5003.052805
773.078378	4982.263087
773.403453	4917.098612
773.728482	4877.941449
774.053465	4848.818703
774.378401	4820.578160
774.703291	4779.109628
775.028135	4739.042537
775.352932	4732.768821
775.677683	4696.069221
776.002388	4658.444570
776.327046	4666.843132
776.651658	4633.982371
776.976224	4596.244293
777.300743	4609.316005
777.625216	4577.740738
777.949643	4563.917894
778.274024	4577.677723
778.598359	4548.123959
778.922647	4558.586874
779.246889	4542.573648
779.571086	4548.343249
779.895236	4554.672418
780.219339	4554.206111
780.543397	4562.493768
780.867409	4600.829222
781.191374	4610.624184
781.515294	4604.814254
781.839167	4642.156602
782.162995	4639.414214
782.486776	4623.859734
782.810511	4614.594093
783.134201	4581.330039
783.457844	4585.073096
783.781441	4567.653389
784.104993	4549.175039
784.428498	4543.836457
784.751958	4545.086664
785.075372	4538.114748
785.398739	4519.177653
785.722061	4541.015932
786.045337	4544.622878
786.368568	4604.637814
786.691752	4612.794401
787.014891	4740.380964
787.337983	4860.713306
787.661030	5091.862813
787.984031	5356.604048
788.306987	5548.457761
788.629897	5672.150032
788.952760	5689.542013
789.275579	5627.505573
789.598351	5483.449561
789.921078	5347.966031
790.243759	5178.570659
790.566395	5061.015992
790.888984	4954.176298
791.211529	4869.202609
791.534027	4778.741624
791.856480	4687.842058
792.178888	4657.320392
792.501249	4617.880925
792.823566	4555.461358
793.145836	4553.260895
793.468062	4546.896438
793.790241	4521.443652
794.112375	4551.935071
794.434464	4622.279332
794.756507	4630.705621
795.078505	4692.832801
795.400457	4815.441224
795.722364	4962.466476
796.044226	5096.707362
796.366042	5231.318772
796.687812	5220.346701
797.009538	5270.266727
797.331218	5242.230350
797.652852	5218.738573
797.974442	5160.614069
798.295986	5129.598370
798.617484	5054.845620
798.938938	4996.786651
799.260346	4956.374241
799.581709	4873.275861
799.903026	4837.541642
800.224299	4794.827946
800.545526	4722.618458
800.866708	4681.074309
801.187845	4650.182118
801.508936	4605.671251
801.829983	4588.397737
802.150984	4521.725957
802.471940	4504.432278
802.792851	4498.370291
803.113717	4483.776151
803.434538	4473.114110
803.755314	4448.359524
804.076045	4446.209472
804.396731	4423.705761
804.717372	4436.406948
805.037967	4440.588586
805.358518	4459.518118
805.679024	4499.219725
805.999485	4499.476824
806.319901	4520.659753
806.640272	4531.379766
806.960598	4577.443310
807.280879	4582.290379
807.601115	4621.011482
807.921306	4599.190847
808.241453	4607.659986
808.561554	4625.931648
808.881611	4614.354638
809.201623	4622.680104
809.521590	4603.967341
809.841513	4597.958285
810.161390	4624.426863
810.481223	4565.221032
810.801011	4564.303542
811.120755	4561.271288
811.440453	4525.191750
811.760107	4512.881252
812.079716	4501.846167
812.399281	4474.442454
812.718801	4475.682578
813.038276	4455.102067
813.357707	4431.045681
813.677093	4453.680462
813.996434	4410.011467
814.315731	4431.645579
814.634983	4432.898305
814.954191	4437.571455
815.273354	4492.371318
815.592473	4528.065208
815.911547	4585.952777
816.230577	4626.758397
816.549562	4702.347978
816.868502	4760.248151
817.187399	4812.963497
817.506250	4889.132811
817.825058	4909.720883
818.143821	5041.910019
818.462539	5172.165873
818.781213	5340.530329
819.099843	5587.448565
819.418429	6050.549122
819.736970	6504.777248
820.055466	7070.200625
820.373919	7784.960623
820.692327	8817.691400
821.010691	10427.301576
821.329011	13796.952480
821.647286	18818.004725
821.965517	24986.282433
822.283704	29256.366593
822.601847	32201.040666
822.919945	30830.865133
823.237999	28566.948475
823.556010	25538.495467
823.873976	22399.573134
824.191897	19323.362754
824.509775	17025.998041
824.827609	14850.384755
825.145398	13552.333010
825.463144	12782.891616
825.780845	12754.373809
826.098502	13345.229807
826.416116	14886.933121
826.733685	16682.955084
827.051210	17636.040671
827.368692	17248.769150
827.686129	15609.955570
828.003522	13675.692565
828.320872	11812.640900
828.638177	10371.664882
828.955439	9258.923432
829.272656	8319.517015
829.589830	7567.122283
829.906960	6895.154120
830.224046	6392.344394
830.541088	5987.040666
830.858086	5735.580350
831.175041	5522.493298
831.491952	5450.424962
831.808819	5453.086692
832.125642	5626.741839
832.442421	6013.867166
832.759157	6799.760365
833.075849	8130.738407
833.392497	9713.592659
833.709101	10961.686569
834.025662	11191.737104
834.342179	10576.784391
834.658653	9548.782216
834.975083	8547.828353
835.291469	7678.035230
835.607811	6962.824048
835.924110	6464.732842
836.240366	5997.160782
836.556578	5554.406322
836.872746	5203.834401
837.188871	4922.928706
837.504952	4685.886091
837.820990	4507.010829
838.136984	4381.009709
838.452935	4320.218435
838.768842	4312.412208
839.084706	4464.085404
839.400526	4988.723326
839.716303	5790.037415
840.032037	6473.290201
840.347727	6615.675071
840.663373	6203.628800
840.978977	5642.558459
841.294537	5186.258418
841.610054	4844.049772
841.925527	4593.423767
842.240957	4388.460534
842.556344	4208.493863
842.871687	4055.235224
843.186987	3894.172879
843.502244	3765.777211
843.817458	3668.946728
844.132629	3588.129470
844.447756	3533.339690
844.762840	3490.787310
845.077881	3443.213941
845.392879	3412.193201
845.707833	3383.773696
846.022745	3356.382587
846.337613	3339.066223
846.652438	3318.674756
846.967221	3310.719815
847.281960	3288.919345
847.596656	3283.006072
847.911309	3269.818413
848.225919	3259.088317
848.540485	3249.154724
848.855009	3243.523755
849.169490	3227.780232
849.483928	3223.628841
849.798323	3218.277657
850.112675	3209.942109
850.426984	3211.656101
850.741251	3204.474977
851.055474	3202.619833
851.369654	3208.260884
851.683792	3204.056562
851.997887	3206.998075
852.311938	3208.117211
852.625947	3213.801112
852.939914	3208.596121
853.253837	3215.086606
853.567718	3215.699106
853.881555	3209.057386
854.195350	3217.196329
854.509103	3213.203735
854.822812	3214.322871
855.136479	3210.133672
855.450103	3220.299159
855.763685	3207.111501
856.077224	3211.041080
856.390720	3220.170610
856.704173	3231.465315
857.017584	3239.271542
857.330953	3245.172212
857.644278	3259.146291
857.957561	3262.511261
858.270802	3265.903957
858.584000	3270.035183
858.897155	3268.873197
859.210268	3258.755601
859.523339	3247.193715
859.836367	3246.825711
860.149352	3244.085844
860.462295	3240.189032
860.775195	3235.999833
861.088054	3234.316087
861.400869	3232.392887
861.713642	3230.520099
862.026373	3233.582600
862.339062	3240.239443
862.651708	3252.706217
862.964312	3271.658435
863.276873	3276.046759
863.589392	3308.242088
863.901869	3330.584482
864.214303	3356.397710
864.526696	3379.508880
864.839045	3407.562901
865.151353	3423.757608
865.463619	3434.185235
865.775842	3439.392747
866.088023	3451.592339
866.400162	3449.515383
866.712258	3456.368832
867.024313	3457.404789
867.336325	3458.062660
867.648296	3458.430664
867.960224	3462.450984
868.272110	3473.246615
868.583954	3470.552118
868.895755	3478.615444
869.207515	3477.808859
869.519233	3501.671161
869.830909	3509.726925
870.142542	3523.156559
870.454134	3534.128630
870.765684	3549.662946
871.077191	3572.711101
871.388657	3587.063266
871.700081	3607.903396
872.011463	3634.727376
872.322803	3652.084068
872.634101	3671.205165
872.945357	3695.516129
873.256571	3723.517218
873.567744	3742.091350
873.878874	3753.900253
874.189963	3781.941671
874.501010	3788.487609
874.812015	3789.561375
875.122979	3816.904593
875.433900	3818.787464
875.744780	3828.390863
876.055618	3847.312833
876.366415	3850.529090
876.677169	3859.288094
876.987882	3893.467117
877.298554	3920.054163
877.609183	3965.502685
877.919771	4029.837891
878.230317	4115.197228
878.540822	4238.471084
878.851285	4415.471037
879.161707	4663.208460
879.472087	5071.441098
879.782425	5697.943096
880.092722	6762.697802
880.402977	8293.663458
880.713191	9965.819230
881.023363	11615.748554
881.333494	12700.761138
881.643583	13499.156399
881.953631	13808.095951
882.263637	13699.660731
882.573602	13192.939070
882.883526	12522.382430
883.193408	11749.253432
883.503248	10928.198184
883.813048	10138.549325
884.122806	9384.997648
884.432522	8591.862831
884.742197	7922.080008
885.051831	7315.687173
885.361424	6750.099959
885.670975	6284.156191
885.980485	5877.756012
886.289954	5543.061205
886.599382	5262.069811
886.908768	5033.133370
887.218113	4810.266479
887.527417	4637.871621
887.836680	4472.670489
888.145901	4337.222247
888.455082	4237.566197
888.764221	4142.396774
889.073319	4064.213519
889.382376	4012.740817
889.691392	3971.357986
890.000366	3950.555664
890.309300	3937.562090
890.618193	3939.578552
890.927044	3929.337448
891.235855	3940.042338
891.544625	3951.367290
891.853353	3986.133607
892.162041	4047.368503
892.470687	4150.520593
892.779293	4285.658804
893.087858	4486.117767
893.396381	4792.758552
893.704864	5208.411769
894.013306	5824.949926
894.321707	6500.283059
894.630068	7041.511419
894.938387	7270.319309
895.246665	7226.184007
895.554903	6924.460867
895.863100	6531.308841
896.171256	6214.084153
896.479371	5909.434623
896.787446	5613.294561
897.095480	5352.903841
897.403473	5154.957894
897.711425	4961.927072
898.019336	4799.375067
898.327207	4632.505313
898.635038	4489.765041
898.942827	4337.686033
899.250576	4217.109194
899.558284	4094.157973
899.865952	4018.487733
900.173579	3925.309566
900.481165	3854.355325
900.788711	3792.563382
901.096216	3744.327102
901.403681	3703.408056
901.711105	3688.047660
902.018489	3675.187677
902.325832	3708.056000
902.633135	3764.554731
902.940397	3935.757357
903.247619	4316.639215
903.554800	5027.341085
903.861941	6053.649432
904.169041	6981.627552
904.476101	7496.160481
904.783121	7457.671272
905.090100	7122.759695
905.397039	6665.784140
905.703938	6229.333643
906.010796	5817.264687
906.317614	5486.537268
906.624391	5167.114637
906.931129	4903.719389
907.237826	4665.648378
907.544483	4435.988533
907.851099	4206.752144
908.157675	3990.884895
908.464211	3790.899801
908.770707	3639.990340
909.077163	3509.399250
909.383578	3413.206473
909.689954	3333.531036
909.996289	3284.735188
910.302584	3243.420411
910.608839	3221.965261
910.915054	3200.414328
911.221229	3189.033923
911.527363	3194.180941
911.833458	3201.253680
912.139513	3216.364539
912.445527	3231.742578
912.751502	3279.449538
913.057436	3338.514217
913.363331	3416.644540
913.669186	3529.077394
913.975000	3672.064682
914.280775	3910.123090
914.586510	4228.693766
914.892205	4657.401051
915.197859	5225.208894
915.503475	5899.833745
915.809050	6518.519433
916.114585	6950.294260
916.420081	7184.891916
916.725536	7239.742191
917.030952	7035.106633
917.336328	6833.183215
917.641665	6610.976716
917.946961	6339.510581
918.252218	6095.337253
918.557435	5798.035205
918.862612	5551.704264
919.167750	5324.723791
919.472848	5062.767793
919.777906	4846.855174
920.082925	4624.938541
920.387904	4397.358171
920.692843	4231.042944
920.997743	4072.440682
921.302603	3920.364194
921.607423	3816.327381
921.912204	3709.225547
922.216946	3633.661172
922.521647	3554.552865
922.826310	3487.876044
923.130932	3428.455963
923.435516	3364.476159
923.740059	3319.735919
924.044564	3269.215996
924.349028	3229.879872
924.653454	3190.584078
924.957840	3146.736122
925.262186	3112.640278
925.566493	3072.421952
925.870761	3036.788556
926.174989	3014.176461
926.479178	2988.582523
926.783328	2959.905919
927.087438	2942.917231
927.391509	2920.637851
927.695541	2900.758061
927.999533	2885.899260
928.303486	2867.630118
928.607400	2858.026720
928.911275	2853.199816
929.215110	2838.061231
929.518906	2830.554952
929.822663	2831.308605
930.126381	2828.364571
930.430060	2833.458657
930.733699	2833.945128
931.037299	2838.378823
931.340861	2842.018536
931.644383	2848.282170
931.947866	2846.106912
932.251309	2844.861747
932.554714	2843.548527
932.858080	2837.801611
933.161407	2833.441013
933.464694	2828.495641
933.767943	2823.749395
934.071153	2821.367450
934.374323	2816.079279
934.677455	2812.028712
934.980548	2807.610141
935.283602	2806.382620
935.586617	2801.427166
935.889593	2806.906900
936.192530	2810.607107
936.495428	2817.568940
936.798287	2831.971517
937.101108	2849.376100
937.403890	2879.996069
937.706632	2916.617531
938.009336	2970.625933
938.312002	3017.180988
938.614628	3061.144891
938.917216	3098.308277
939.219765	3121.028758
939.522275	3143.882829
939.824747	3149.599497
940.127179	3151.411792
940.429573	3144.694454
940.731929	3146.718478
941.034246	3139.968373
941.336524	3132.835140
941.638763	3125.268368
941.940964	3114.951647
942.243126	3090.378542
942.545250	3074.940009
942.847335	3050.301369
943.149381	3030.923174
943.451389	3007.078516
943.753359	2982.046667
944.055290	2966.217444
944.357182	2949.826132
944.659036	2938.231478
944.960851	2928.789397
945.262628	2921.678849
945.564367	2920.254723
945.866067	2915.879002
946.167729	2915.720206
946.469352	2912.962694
946.770937	2912.284659
947.072484	2901.592372
947.373992	2903.419790
947.675462	2899.611198
947.976893	2887.212481
948.278286	2880.636295
948.579641	2877.457848
948.880958	2873.694627
949.182236	2878.713095
949.483476	2871.922661
949.784678	2871.794112
950.085841	2874.443238
950.386967	2881.833569
950.688054	2888.946638
950.989103	2902.832496
951.290114	2913.174423
951.591087	2933.349121
951.892021	2947.857561
952.192917	2966.698874
952.493776	2983.899291
952.794596	2990.009169
953.095378	2995.163749
953.396122	2993.684170
953.696828	2988.685866
953.997496	2985.220073
954.298126	2964.289202
954.598718	2959.421968
954.899272	2939.837086
955.199788	2924.965682
955.500266	2904.493556
955.800706	2876.832745
956.101108	2855.435567
956.401472	2833.446054
956.701798	2812.686583
957.002087	2785.534928
957.302337	2767.434665
957.602550	2747.017992
957.902724	2730.132647
958.202861	2711.717312
958.502960	2697.080322
958.803022	2684.371573
959.103045	2670.730211
959.403031	2658.959117
959.702979	2651.074752
960.002889	2639.497742
960.302762	2631.157153
960.602596	2623.192130
960.902393	2617.568723
961.202153	2612.325923
961.501875	2607.050356
961.801559	2602.795622
962.101205	2597.656165
962.400814	2592.252048
962.700385	2589.481934
962.999918	2583.498085
963.299414	2577.221848
963.598873	2579.689493
963.898293	2571.172464
964.197677	2575.633885
964.497022	2573.498956
964.796331	2571.389233
965.095601	2570.444017
965.394835	2567.724314
965.694030	2565.032338
965.993189	2564.177863
966.292309	2563.003274
966.591393	2565.990158
966.890439	2562.110990
967.189447	2565.266752
967.488419	2564.616443
967.787353	2566.983265
968.086249	2566.859757
968.385108	2567.326063
968.683930	2567.782288
968.982714	2571.222875
969.281462	2573.050293
969.580172	2577.070614
969.878844	2580.735532
970.177480	2588.352716
970.476078	2592.801534
970.774639	2597.852770
971.073162	2602.127669
971.371649	2608.988679
971.670098	2611.436159
971.968510	2613.533279
972.266885	2621.097531
972.565223	2621.919239
972.863524	2625.178345
973.161788	2627.172121
973.460014	2626.733541
973.758204	2629.067595
974.056356	2630.642956
974.354471	2632.568676
974.652550	2633.498769
974.950591	2632.598923
975.248595	2633.702936
975.546563	2630.143881
975.844493	2629.206227
976.142386	2625.682460
976.440243	2623.204733
976.738062	2616.643671
977.035845	2611.920110
977.333590	2613.261057
977.631299	2606.364759
977.928971	2601.411825
978.226606	2595.622060
978.524204	2594.502924
978.821765	2588.330031
979.119290	2591.377408
979.416777	2594.475197
979.714228	2594.248345
980.011642	2596.738675
980.309020	2601.489963
980.606360	2609.797784
980.903664	2626.080711
981.200931	2647.296407
981.498162	2673.964111
981.795356	2719.883982
982.092513	2771.205448
982.389633	2829.997905
982.686717	2887.623335
982.983764	2939.302723
983.280775	2977.955770
983.577749	2984.927686
983.874686	2980.367963
984.171587	2966.663586
984.468451	2945.831018
984.765279	2919.745567
985.062070	2891.898233
985.358824	2862.321783
985.655543	2831.278358
985.952224	2797.338790
986.248869	2758.272368
986.545478	2721.529918
986.842050	2685.646985
987.138586	2652.647592
987.435086	2626.665485
987.731549	2604.217227
988.027975	2586.477407
988.324366	2575.386868
988.620719	2564.392112
988.917037	2555.416337
989.213318	2549.306459
989.509563	2542.027033
989.805772	2542.072403
990.101944	2536.844727
990.398080	2539.209028
990.694180	2531.571680
990.990244	2534.855991
991.286271	2534.644263
991.582262	2534.334232
991.878217	2537.991589
992.174136	2542.551313
992.470019	2539.554347
992.765865	2543.367980
993.061676	2543.526776
993.357450	2551.388455
993.653188	2555.444064
993.948890	2564.818089
994.244556	2579.024061
994.540186	2595.155753
994.835780	2613.656788
995.131337	2637.985396
995.426859	2664.585044
995.722345	2693.617049
996.017795	2726.813047
996.313208	2751.860020
996.608586	2769.594800
996.903928	2780.529062
997.199234	2782.661470
997.494504	2785.376132
997.789738	2778.711726
998.084936	2762.108686
998.380099	2745.493043
998.675225	2727.942266
998.970316	2707.147506
999.265371	2685.031964
999.560390	2662.533295
999.855373	2640.906745
1000.150320	2623.711369
1000.445232	2605.290993
1000.740108	2587.941862
1001.034948	2576.753021
1001.329752	2567.051320
1001.624521	2555.572613
1001.919254	2548.583053
1002.213951	2542.689944
1002.508613	2536.055786
1002.803239	2529.199817
1003.097829	2528.423479
1003.392384	2523.402490
1003.686903	2519.493075
1003.981386	2519.475431
1004.275834	2516.652385
1004.570246	2511.114677
1004.864623	2513.385717
1005.158964	2511.311282
1005.453270	2509.020078
1005.747540	2510.774399
1006.041775	2508.352125
1006.335974	2508.710047
1006.630138	2504.288955
1006.924266	2507.626199
1007.218359	2504.795591
1007.512416	2501.788543
1007.806438	2498.494149
1008.100425	2501.017246
1008.394376	2499.933398
1008.688292	2503.429438
1008.982172	2502.698471
1009.276017	2503.779798
1009.569827	2502.212000
1009.863602	2503.704181
1010.157341	2501.231495
1010.451045	2501.289468
1010.744714	2500.750065
1011.038347	2505.125787
1011.331945	2498.869715
1011.625508	2498.030362
1011.919036	2498.020280
1012.212528	2499.247801
1012.505986	2494.534322
1012.799408	2497.072543
1013.092795	2496.770074
1013.386147	2497.755620
1013.679464	2494.819148
1013.972745	2499.106649
1014.265992	2494.773777
1014.559204	2496.931391
1014.852380	2495.008191
1015.145521	2497.150681
1015.438628	2496.886021
1015.731699	2495.033397
1016.024736	2495.615650
1016.317737	2496.240753
1016.610703	2497.864004
1016.903635	2502.080930
1017.196531	2497.821155
1017.489393	2501.811228
1017.782219	2501.183604
1018.075011	2503.011023
1018.367768	2503.888183
1018.660490	2503.628564
1018.953177	2503.628564
1019.245829	2503.628564
