Dividing Wavelength (nm)	Counts (n)	Blue Motor Position (mm): 19.000000	Red Motor Position (mm): 0.000000	
326.493990	2068.914744
326.888308	2068.914744
327.282561	2068.914744
327.676750	2043.295600
328.070874	2043.290559
328.464933	2051.419420
328.858929	2062.146995
329.252859	2069.340722
329.646726	2084.718762
330.040528	2097.256111
330.434265	2116.052053
330.827938	2138.142389
331.221547	2157.979330
331.615091	2178.096054
332.008571	2198.926102
332.401986	2215.670294
332.795338	2238.773903
333.188625	2258.993971
333.581847	2276.728750
333.975006	2293.558642
334.368100	2314.126550
334.761129	2329.280258
335.154095	2345.238031
335.546996	2390.570607
335.939833	2473.996662
336.332606	2486.972592
336.725315	2500.553460
337.117960	2508.694923
337.510540	2518.028620
337.903056	2528.267203
338.295508	2534.477905
338.687896	2542.281611
339.080220	2544.688762
339.472480	2551.310317
339.864676	2554.521533
340.256807	2558.791390
340.648875	2562.940259
341.040879	2561.410269
341.432818	2564.064437
341.824694	2564.286248
342.216506	2563.184755
342.608253	2565.244067
342.999937	2561.755588
343.391557	2562.168963
343.783113	2559.355999
344.174605	2558.279713
344.566033	2556.434650
344.957397	2555.827191
345.348697	2555.602860
345.739934	2553.495658
346.131106	2554.249310
346.522215	2549.455173
346.913260	2548.371325
347.304241	2543.408309
347.695159	2543.330171
348.086012	2542.929399
348.476802	2541.049049
348.867528	2537.038811
349.258191	2533.492359
349.648789	2534.997144
350.039324	2527.352234
350.429796	2534.293903
350.820203	2533.658717
351.210548	2534.031763
351.600828	2532.247194
351.991045	2531.649817
352.381198	2532.988244
352.771288	2529.083870
353.161314	2529.048582
353.551276	2529.651000
353.941175	2527.528674
354.331010	2527.140505
354.720782	2533.961187
355.110490	2535.995292
355.500135	2531.281813
355.889717	2531.725435
356.279235	2529.388860
356.668689	2532.421114
357.058080	2530.094622
357.447408	2531.627132
357.836672	2531.606968
358.225873	2533.217616
358.615010	2532.143851
359.004084	2532.988244
359.393095	2534.296423
359.782043	2535.649973
360.170927	2535.629808
360.559748	2533.681402
360.948505	2538.599048
361.337199	2539.801363
361.725830	2540.580222
362.114398	2539.486291
362.502903	2538.747762
362.891344	2538.581404
363.279722	2537.248019
363.668037	2538.601569
364.056289	2537.961342
364.444478	2540.754141
364.832603	2541.101981
365.220665	2538.967052
365.608665	2538.898997
365.996601	2542.021992
366.384474	2544.358566
366.772284	2540.063503
367.160031	2545.397044
367.547715	2543.569626
367.935336	2542.284132
368.322893	2541.701878
368.710388	2539.587114
369.097820	2540.398740
369.485189	2539.899666
369.872495	2545.568443
370.259738	2545.719678
370.646918	2543.005017
371.034035	2544.915614
371.421090	2546.748073
371.808081	2545.238248
372.195010	2545.213042
372.581875	2545.283618
372.968678	2544.696324
373.355418	2545.959133
373.742096	2543.970397
374.128710	2547.743701
374.515262	2547.312682
374.901751	2547.993238
375.288177	2549.734957
375.674540	2547.549617
376.060841	2549.041798
376.447079	2547.872251
376.833254	2545.893598
377.219367	2548.973743
377.605417	2550.964998
377.991404	2548.517518
378.377329	2550.770914
378.763191	2548.457024
379.148991	2551.282591
379.534727	2549.707231
379.920402	2551.781665
380.306013	2549.276212
380.691563	2552.638662
381.077049	2552.313507
381.462474	2547.786551
381.847835	2552.099258
382.233134	2551.547252
382.618371	2552.731923
383.003545	2553.296532
383.388657	2553.334341
383.773706	2553.485575
384.158693	2553.102448
384.543618	2554.327448
384.928480	2554.445915
385.313280	2554.571944
385.698017	2552.545400
386.082692	2556.003632
386.467305	2553.775442
386.851856	2554.335010
387.236344	2555.413817
387.620770	2552.268137
388.005133	2550.410472
388.389435	2554.516491
388.773674	2550.430636
389.157851	2554.748384
389.541965	2554.965154
389.926018	2555.534804
390.310008	2554.322407
390.693936	2558.047820
391.077802	2557.447922
391.461606	2557.253838
391.845348	2555.459187
392.229027	2558.236863
392.612645	2557.142933
392.996200	2558.118396
393.379694	2558.055381
393.763125	2558.473797
394.146494	2557.515978
394.529801	2558.234342
394.913047	2560.563355
395.296230	2559.434137
395.679351	2560.936401
396.062410	2560.139898
396.445408	2562.476473
396.828343	2560.472615
397.211217	2559.063612
397.594028	2560.202913
397.976778	2561.208623
398.359466	2563.373799
398.742092	2560.041596
399.124656	2560.601164
399.507158	2560.923798
399.889598	2565.138202
400.271977	2562.395815
400.654294	2563.585527
401.036549	2564.762637
401.418742	2567.603327
401.800874	2565.246587
402.182944	2562.625187
402.564952	2563.182235
402.946898	2563.267934
403.328783	2565.702812
403.710606	2563.872873
404.092367	2565.806155
404.474067	2564.727348
404.855705	2564.961762
405.237282	2565.135682
405.618797	2564.780281
406.000250	2565.332287
406.381642	2566.219530
406.762972	2564.470250
407.144240	2560.694425
407.525447	2561.836247
407.906593	2559.328273
408.287677	2569.067782
408.668700	2566.945456
409.049661	2567.555436
409.430560	2566.252297
409.811399	2567.852864
410.192176	2569.191290
410.572891	2567.283213
410.953545	2565.584345
411.334138	2567.452092
411.714669	2567.774726
412.095139	2568.523337
412.475547	2569.897052
412.855894	2569.226578
413.236180	2568.558625
413.616405	2566.824468
413.996568	2567.331104
414.376670	2565.874211
414.756711	2568.170457
415.136691	2570.113821
415.516609	2570.171795
415.896466	2569.473595
416.276262	2568.024263
416.655997	2569.360169
417.035670	2570.098698
417.415283	2569.133317
417.794834	2567.890673
418.174324	2566.562328
418.553753	2569.377813
418.933121	2572.715057
419.312428	2570.398647
419.691674	2569.511403
420.070859	2571.500139
420.449983	2570.660787
420.829045	2569.370251
421.208047	2570.086095
421.586988	2571.502659
421.965867	2570.557443
422.344686	2569.183728
422.723444	2570.557443
423.102141	2572.420149
423.480777	2571.467371
423.859352	2568.404870
424.237866	2570.562484
424.616319	2569.090467
424.994712	2576.412743
425.373044	2571.053997
425.751314	2570.509552
426.129524	2567.245405
426.507673	2569.730694
426.885762	2569.171126
427.263789	2572.843606
427.641756	2569.783626
428.019662	2573.960222
428.397508	2571.406877
428.775292	2573.962742
429.153016	2569.803790
429.530679	2571.651373
429.908282	2573.045252
430.285824	2573.355283
430.663305	2572.122721
431.040726	2572.694892
431.418086	2575.094481
431.795385	2574.703792
432.172624	2572.399985
432.549802	2574.297979
432.926920	2573.708164
433.303977	2576.027095
433.680974	2574.983576
434.057910	2573.935016
434.434786	2576.047259
434.811601	2574.308061
435.188355	2573.158678
435.565050	2572.795715
435.941683	2575.996848
436.318257	2574.880232
436.694770	2575.777558
437.071222	2575.525500
437.447614	2572.054666
437.823946	2578.477096
438.200218	2573.640108
438.576429	2573.163719
438.952580	2572.846127
439.328670	2574.484502
439.704700	2574.915520
440.080670	2576.407702
440.456580	2576.889132
440.832429	2573.262022
441.208218	2576.228741
441.583947	2577.146231
441.959616	2574.880232
442.335224	2575.797722
442.710773	2576.281673
443.086261	2574.910479
443.461689	2575.223031
443.837057	2579.412230
444.212365	2573.015005
444.587612	2574.237485
444.962800	2574.030798
445.337927	2576.430387
445.712995	2570.880077
446.088002	2577.065572
446.462949	2578.066242
446.837837	2578.358628
447.212664	2579.200501
447.587431	2579.686973
447.962139	2580.796026
448.336786	2579.560944
448.711374	2580.087744
449.085901	2579.951633
449.460369	2577.489029
449.834776	2578.288052
450.209124	2580.032292
450.583412	2580.634709
450.957640	2581.910121
451.331808	2579.593711
451.705917	2580.082703
452.079965	2581.821901
452.453954	2582.910790
452.827883	2580.191088
453.201752	2579.051787
453.575562	2581.844586
453.949311	2582.482292
454.323001	2582.734350
454.696632	2579.868454
455.070202	2579.903742
455.443713	2581.501788
455.817164	2581.204360
456.190556	2581.542117
456.563888	2584.813826
456.937160	2582.671336
457.310373	2585.257448
457.683526	2582.361305
458.056619	2583.258630
458.429653	2582.512539
458.802628	2582.033630
459.175542	2585.101172
459.548398	2583.535893
459.921194	2586.326172
460.293930	2588.776173
460.666607	2587.029413
461.039224	2588.191399
461.411782	2585.625452
461.784280	2585.978332
462.156719	2586.583271
462.529099	2587.868765
462.901419	2587.962027
463.273680	2584.344999
463.645882	2581.315265
464.018024	2588.098138
464.390106	2580.803588
464.762130	2590.759867
465.134094	2591.168200
465.505999	2590.381780
465.877845	2593.116606
466.249631	2594.260948
466.621358	2595.929570
466.993026	2593.421596
467.364634	2598.102307
467.736184	2596.547112
468.107674	2593.156936
468.479105	2592.373036
468.850477	2594.626432
469.221790	2591.531163
469.593043	2591.591657
469.964238	2595.586772
470.335373	2593.754312
470.706449	2595.891762
471.077467	2598.097266
471.448425	2601.603389
471.819324	2602.369644
472.190164	2601.305961
472.560945	2600.854777
472.931667	2598.808069
473.302330	2599.652462
473.672934	2599.536516
474.043479	2599.463419
474.413965	2596.973089
474.784393	2598.122472
475.154761	2603.002309
475.525070	2602.662031
475.895321	2605.043976
476.265513	2606.067331
476.635645	2607.050356
477.005719	2608.514811
477.375734	2605.411981
477.745691	2609.013885
478.115588	2613.341716
478.485427	2614.165944
478.855207	2618.713065
479.224928	2615.456480
479.594591	2621.344547
479.964194	2621.813375
480.333739	2623.277830
480.703226	2624.270937
481.072653	2629.473408
481.442022	2625.644652
481.811333	2628.540794
482.180584	2624.525515
482.549777	2627.028448
482.918912	2624.149949
483.287988	2632.329222
483.657005	2632.815693
484.025964	2635.419449
484.394864	2633.075312
484.763706	2634.922895
485.132489	2633.839047
485.501213	2636.573873
485.869879	2637.020015
486.238487	2641.778864
486.607036	2639.172588
486.975527	2641.171405
487.343959	2641.541930
487.712333	2648.627272
488.080648	2646.515028
488.448905	2650.842859
488.817104	2650.248003
489.185244	2653.267654
489.553326	2660.874755
489.921350	2667.032525
490.289315	2674.601817
490.657222	2682.551717
491.025070	2684.328723
491.392861	2687.822243
491.760593	2687.061029
492.128267	2689.342151
492.495883	2689.505988
492.863440	2688.154959
493.230939	2691.081349
493.598380	2687.313087
493.965763	2691.885413
494.333088	2698.393543
494.700354	2700.246167
495.067563	2705.524255
495.434713	2709.685727
495.801805	2717.350802
496.168839	2721.108982
496.535815	2727.002091
496.902733	2733.033831
497.269593	2740.595562
497.636395	2746.617220
498.003139	2754.983015
498.369825	2761.781011
498.736453	2771.898607
499.103023	2783.629372
499.469535	2793.058850
499.835989	2800.645787
500.202385	2807.945377
500.568723	2820.142449
500.935003	2833.158708
501.301226	2842.827642
501.667390	2865.361599
502.033497	2887.275495
502.399546	2896.694891
502.765537	2905.330388
503.131470	2931.680499
503.497345	2951.237655
503.863163	2959.595888
504.228923	2984.516832
504.594625	3014.942716
504.960269	3027.041485
505.325856	3057.280847
505.691385	3077.135431
506.056856	3102.391612
506.422270	3138.322436
506.787625	3156.115188
507.152924	3194.732947
507.518164	3227.399624
507.883347	3247.907038
508.248472	3280.029271
508.613540	3327.038030
508.978550	3370.084443
509.343503	3401.390008
509.708398	3451.799026
510.073236	3501.645955
510.438016	3548.934499
510.802738	3582.332143
511.167403	3641.752224
511.532010	3696.857076
511.896561	3763.269237
512.261053	3839.559539
512.625488	3884.607290
512.989866	3937.952780
513.354186	3996.006707
513.718449	4050.289852
514.082655	4145.582783
514.446803	4194.754198
514.810894	4284.128814
515.174927	4347.785984
515.538904	4414.427518
515.902822	4515.701778
516.266684	4569.216147
516.630488	4661.025640
516.994235	4733.119182
517.357925	4841.040203
517.721558	4937.560655
518.085133	5039.512951
518.448651	5133.079287
518.812112	5206.642324
519.175516	5301.264782
519.538863	5418.706022
519.902152	5514.281258
520.265385	5645.913347
520.628560	5741.997739
520.991678	5835.289332
521.354739	5947.891065
521.717743	6077.645324
522.080690	6173.361712
522.443580	6336.992525
522.806413	6445.805830
523.169189	6563.287400
523.531908	6696.951074
523.894569	6797.050745
524.257174	6932.562002
524.619722	7077.180103
524.982213	7221.823409
525.344647	7342.949733
525.707025	7479.133984
526.069345	7660.383629
526.431608	7779.372504
526.793815	7957.607540
527.155964	8022.099021
527.518057	8190.912140
527.880093	8307.425808
528.242072	8527.328500
528.603995	8631.753482
528.965860	8762.173173
529.327669	8933.320346
529.689421	9084.318027
530.051117	9211.773520
530.412755	9408.870032
530.774337	9567.636132
531.135862	9709.834479
531.497331	9884.860820
531.858743	10043.054748
532.220098	10277.455799
532.581396	10379.287107
532.942638	10494.774900
533.303824	10691.886536
533.664953	10880.319826
534.026025	10979.154167
534.387040	11251.915878
534.747999	11433.546131
535.108902	11682.311950
535.469748	11706.174252
535.830537	11929.671287
536.191270	12163.744663
536.551947	12280.389401
536.912567	12518.258766
537.273131	12752.785846
537.633638	12846.589116
537.994089	13081.622832
538.354483	13203.464999
538.714821	13550.639182
539.075103	13828.323580
539.435328	13981.221777
539.795497	14110.842445
540.155609	14336.116487
540.515665	14701.063258
540.875665	14696.311970
541.235609	14971.503517
541.595496	15212.571494
541.955328	15590.116109
542.315102	15629.298477
542.674821	15786.111129
543.034483	15956.227386
543.394090	16172.661765
543.753640	16378.688682
544.113134	16943.623067
544.472571	16859.239192
544.831953	17452.129296
545.191278	17420.818690
545.550548	17526.945061
545.909761	17991.716760
546.268918	18259.245753
546.628019	18632.248288
546.987064	18645.751019
547.346053	18606.145194
547.704986	19171.432460
548.063863	19258.893958
548.422684	19560.095339
548.781449	19616.606673
549.140158	20057.117820
549.498811	20173.127373
549.857408	20144.634771
550.215949	20732.163608
550.574434	20889.056919
550.932864	21080.913152
551.291237	21633.242132
551.649555	21752.266295
552.007817	22055.290052
552.366022	22138.960603
552.724173	22398.927866
553.082267	22823.733298
553.440305	23240.556062
553.798288	23091.703392
554.156215	23519.223485
554.514086	23855.037428
554.871902	23868.698955
555.229661	24201.689852
555.587365	24254.198510
555.945014	24555.881321
556.302606	24795.673886
556.660143	25070.131945
557.017625	25427.123776
557.375050	25471.057431
557.732421	25932.983399
558.089735	26192.837236
558.446994	26338.894587
558.804197	26851.670673
559.161345	26999.716759
559.518437	26856.815171
559.875474	27213.577629
560.232455	27582.174195
560.589381	27817.991810
560.946251	27939.264328
561.303065	28568.559124
561.659825	28589.986548
562.016528	28707.377377
562.373177	28656.852413
562.729770	29296.602563
563.086307	29191.310503
563.442789	29757.656411
563.799216	29875.165707
564.155587	30037.332065
564.511904	30214.062316
564.868164	30468.829628
565.224370	30895.422149
565.580520	30910.941341
565.936615	31255.010173
566.292654	31226.058827
566.648638	31676.057425
567.004567	31850.667871
567.360441	32098.985027
567.716260	32098.853957
568.072023	32586.041147
568.427732	32730.573548
568.783385	32603.140741
569.138982	33081.546241
569.494525	33383.087899
569.850013	33283.086530
570.205445	33563.586413
570.560823	33578.230964
570.916145	33675.111859
571.271412	34032.852301
571.626625	33937.577013
571.981782	34188.812998
572.336884	34071.525512
572.691931	34504.033827
573.046923	34423.539203
573.401860	34472.508972
573.756743	34664.644989
574.111570	34930.923776
574.466342	35035.656268
574.821059	35326.122511
575.175722	35099.739415
575.530330	35342.717990
575.884882	35230.501905
576.239380	35308.617104
576.593823	35542.695522
576.948211	35651.312222
577.302544	35442.847908
577.656823	35588.111277
578.011047	35953.448737
578.365216	35979.037634
578.719330	35883.880814
579.073389	36003.008320
579.427394	36183.337955
579.781344	36257.115242
580.135239	36192.044028
580.489080	36389.138020
580.842866	36114.443026
581.196597	36637.341750
581.550273	36758.883969
581.903895	36829.407191
582.257463	37319.631676
582.610975	36969.662173
582.964434	37363.950980
583.317837	37061.585093
583.671186	37159.675865
584.024481	37506.464399
584.377721	37253.148939
584.730906	37561.949859
585.084037	37802.004564
585.437113	37672.562857
585.790135	37885.571772
586.143103	37627.255487
586.496016	37889.100579
586.848874	38089.279757
587.201679	38220.085097
587.554428	37903.934174
587.907124	38234.896007
588.259765	38115.892008
588.612352	38377.807677
588.964884	37993.258379
589.317362	38348.563944
589.669786	38432.312632
590.022155	38415.805374
590.374470	38927.142212
590.726731	38651.736415
591.078937	38158.661158
591.431090	38561.875327
591.783188	38210.338026
592.135232	38142.045515
592.487222	38465.622057
592.839157	38678.376393
593.191038	38449.555899
593.542866	38352.059984
593.894639	37870.249184
594.246358	38232.619926
594.598022	38310.409971
594.949633	37984.454004
595.301190	38064.505007
595.652692	38073.074968
596.004141	38609.242009
596.355535	37686.612553
596.706876	37743.209587
597.058162	37560.364416
597.409395	38072.341480
597.760573	38358.595840
598.111698	38063.700943
598.462768	38051.992863
598.813785	38140.739856
599.164748	37823.787390
599.515657	38144.898808
599.866511	37730.727690
600.217312	38444.844941
600.568060	37502.461723
600.918753	38319.221908
601.269392	38295.029410
601.619978	38101.146633
601.970510	38359.823361
602.320988	38542.413953
602.671412	38830.629321
603.021783	38748.881971
603.372100	38395.386181
603.722363	38546.091475
604.072572	38621.018144
604.422728	38670.502111
604.772830	38491.044595
605.122878	38692.736120
605.472872	38591.391283
605.822813	38864.768015
606.172701	38687.889050
606.522534	39025.263230
606.872314	39288.116553
607.222041	39141.880242
607.571714	39509.352631
607.921333	39066.333511
608.270899	39284.706213
608.620411	39706.381088
608.969870	39488.439404
609.319276	39552.028519
609.668627	39594.709448
610.017926	40006.249083
610.367171	40164.705152
610.716362	40246.271021
611.065500	40173.436430
611.414585	40436.476276
611.763616	40628.307303
612.112594	40556.848948
612.461518	40692.115708
612.810389	41092.705958
613.159207	40923.542478
613.507971	40909.656620
613.856682	41425.139807
614.205340	41293.684158
614.553945	41970.708599
614.902496	41350.664320
615.250994	41773.861624
615.599439	41872.794268
615.947830	42002.546007
616.296169	42020.119469
616.644454	42095.298196
616.992686	42261.419339
617.340864	42699.505690
617.688990	42227.414236
618.037063	42913.452260
618.385082	42737.649581
618.733048	43140.160510
619.080961	43015.104606
619.428821	43082.474586
619.776628	43126.055361
620.124382	42961.315495
620.472083	43094.200310
620.819731	43221.139085
621.167326	42840.022813
621.514868	42842.205632
621.862357	42327.478619
622.209793	42439.664457
622.557176	42030.753783
622.904506	41813.248159
623.251783	41480.922695
623.599007	41202.272916
623.946179	41139.558441
624.293297	40883.185521
624.640363	40371.924301
624.987376	40233.499258
625.334336	40063.267054
625.681243	39668.890027
626.028097	39589.227193
626.374899	39436.916292
626.721647	39400.935056
627.068343	39162.672481
627.414987	38889.391531
627.761577	38648.736929
628.108115	38985.375100
628.454600	38249.152390
628.801032	38481.171496
629.147412	38387.990808
629.493739	38281.554406
629.840014	37871.945533
630.186236	38286.371229
630.532405	37735.846982
630.878521	37994.924481
631.224585	37765.418390
631.570597	37458.525547
631.916556	37613.674618
632.262462	37532.196969
632.608316	37485.679722
632.954117	37341.429625
633.299866	37305.854203
633.645562	37234.796619
633.991206	36739.215908
634.336797	36345.169076
634.682336	36248.121823
635.027823	36021.438779
635.373257	35925.608965
635.718639	35595.194098
636.063968	35494.973439
636.409245	34883.597424
636.754470	34826.410574
637.099642	34623.700737
637.444762	34036.607960
637.789829	34173.533260
638.134845	33789.167965
638.479808	33721.477872
638.824719	33669.538863
639.169577	33171.082174
639.514383	33301.481701
639.859137	32911.104829
640.203839	33066.120310
640.548489	32806.979796
640.893086	32786.611014
641.237632	32501.493435
641.582125	32595.947014
641.926566	32384.989849
642.270955	32420.406475
642.615292	32363.590151
642.959576	32251.769797
643.303809	32258.774480
643.647990	32360.227701
643.992118	32315.837821
644.336195	32153.111896
644.680219	32217.454663
645.024192	32407.420463
645.368112	32939.204221
645.711981	32950.514049
646.055797	33644.128928
646.399562	33439.314408
646.743274	34302.914474
647.086935	34697.830904
647.430544	34681.477401
647.774101	34720.352259
648.117606	35029.329620
648.461059	35179.059451
648.804460	34790.804905
649.147810	34310.834127
649.491108	34003.598485
649.834354	33889.081113
650.177548	33092.730040
650.520690	32591.959461
650.863781	32574.698551
651.206820	32399.142888
651.549807	31981.448004
651.892742	31393.175597
652.235626	31303.838789
652.578458	31169.837358
652.921238	30481.155249
653.263967	30755.041138
653.606644	30463.281838
653.949269	30372.475534
654.291843	29992.193573
654.634365	30337.724340
654.976836	29883.135771
655.319255	29971.444184
655.661622	29843.683701
656.003938	29723.898324
656.346203	29554.775174
656.688416	29793.844334
657.030577	29569.205477
657.372687	29389.097653
657.714746	29545.693536
658.056753	29719.517562
658.398708	29112.575241
658.740612	29178.899182
659.082465	29385.957014
659.424266	29277.022721
659.766016	29285.133938
660.107715	29123.713671
660.449362	29228.176461
660.790958	29199.162100
661.132503	29127.073600
661.473996	29226.278466
661.815438	29283.624112
662.156829	29407.064326
662.498168	29211.298678
662.839456	29188.981490
663.180693	29307.380549
663.521879	29374.765653
663.863013	29314.740634
664.204097	29307.521702
664.545129	29716.230729
664.886110	29640.628545
665.227040	29737.811909
665.567918	29750.001419
665.908746	29803.130139
666.249522	29885.326153
666.590248	29935.412537
666.930922	30034.685459
667.271545	30041.927076
667.612118	30099.149214
667.952639	29909.465718
668.293109	29938.152404
668.633528	29804.387907
668.973896	29760.877708
669.314213	29739.059594
669.654480	29550.901048
669.994695	29541.547187
670.334859	29447.295254
670.674973	29267.714230
671.015035	29470.850045
671.355047	29402.330682
671.695008	29313.583689
672.034918	29225.991121
672.374777	29313.434975
672.714585	29193.818477
673.054342	29328.636575
673.394049	29178.127885
673.733705	29404.208512
674.073310	29123.015471
674.412864	29182.589307
674.752368	28926.934751
675.091820	29142.537339
675.431223	28745.861546
675.770574	28542.950062
676.109875	28385.340908
676.449125	28172.624380
676.788324	28079.547036
677.127473	27607.195962
677.466571	27511.628288
677.805619	27237.533192
678.144616	27147.939285
678.483562	27106.228778
678.822458	26796.341489
679.161303	26742.585145
679.500098	26658.271847
679.838842	26577.109270
680.177535	26631.934339
680.516179	26842.039549
680.854771	26915.237103
681.193314	27575.224964
681.531805	28538.337407
681.870247	29282.147054
682.208638	30084.267727
682.546978	30442.174527
682.885268	30621.634563
683.223508	30213.832943
683.561697	29964.189963
683.899836	29780.286151
684.237925	29386.902231
684.575963	29220.002230
684.913951	28836.740947
685.251889	28959.346850
685.589776	28964.249372
685.927614	28961.045718
686.265401	29136.064498
686.603137	29238.828419
686.940824	29686.079588
687.278460	30016.519661
687.616046	30208.844721
687.953582	30874.463552
688.291068	30797.969083
688.628504	31163.863591
688.965889	31189.845698
689.303224	30946.123554
689.640510	30685.901713
689.977745	30090.601937
690.314930	29371.302380
690.652065	28954.197311
690.989150	28292.858420
691.326185	27467.724879
691.663170	26855.990942
692.000105	26147.807129
692.336990	25548.424019
692.673825	25125.176304
693.010610	24639.113292
693.347345	24128.978769
693.684030	23510.676209
694.020665	23326.323733
694.357251	22646.713180
694.693786	22649.548829
695.030272	22421.461824
695.366707	21934.294798
695.703093	21650.515645
696.039429	21707.079912
696.375716	21460.728806
696.711952	21457.903239
697.048139	21320.884678
697.384276	21157.979791
697.720363	21267.166142
698.056400	21170.312974
698.392388	21012.479488
698.728326	21002.855926
699.064214	20857.796724
699.400053	20875.942357
699.735842	20485.628500
700.071581	20300.872732
700.407270	20060.916329
700.742910	19895.425331
701.078501	19644.166662
701.414042	19452.373443
701.749533	19155.184821
702.084974	18846.487244
702.420366	19065.986645
702.755709	18667.954781
703.091002	18366.130818
703.426246	18427.902597
703.761440	18364.318523
704.096584	18124.959497
704.431679	18057.854178
704.766725	17998.822266
705.101721	17918.453671
705.436668	18043.370943
705.771565	17768.723840
706.106413	18052.293785
706.441212	18121.047562
706.775961	18205.005459
707.110661	18281.764588
707.445311	18644.331934
707.779913	18527.689716
708.114465	18815.234611
708.448967	19124.121231
708.783421	19718.301870
709.117825	20048.822601
709.452180	20271.661766
709.786485	20702.115811
710.120742	21427.527767
710.454949	21534.201103
710.789107	22031.576465
711.123216	22726.244944
711.457275	22948.111166
711.791286	23510.426672
712.125247	23672.913142
712.459159	23456.629998
712.793023	24216.286513
713.126837	23234.264702
713.460602	23502.738912
713.794318	23193.741387
714.127985	22924.566457
714.461602	22053.039177
714.795171	22036.549563
715.128691	21063.725338
715.462162	20552.078469
715.795584	20132.500714
716.128957	19865.748058
716.462281	19500.899590
716.795556	19226.000429
717.128782	18754.123224
717.461960	18158.236154
717.795088	18117.289382
718.128167	17791.892983
718.461198	17337.863983
718.794180	17211.404118
719.127113	16898.524904
719.459997	16713.169239
719.792833	16342.349524
720.125619	16373.040069
720.458357	16043.424224
720.791046	15910.120993
721.123686	15756.522077
721.456278	15532.929260
721.788821	15528.825760
722.121315	15271.248005
722.453761	15365.714187
722.786158	15244.764303
723.118506	15327.557693
723.450805	15216.831269
723.783056	15389.823505
724.115259	15270.441420
724.447412	15253.089768
724.779518	15456.427229
725.111574	15506.387585
725.443582	15760.154228
725.775542	15713.604213
726.107453	16204.607557
726.439315	16107.046107
726.771129	16507.787590
727.102895	16907.888848
727.434612	17178.447575
727.766281	17347.878235
728.097901	17681.670675
728.429473	17783.103732
728.760996	17804.652144
729.092471	17919.787056
729.423897	17802.474365
729.755276	17652.341242
730.086606	17730.431236
730.417887	18277.368702
730.749120	18817.218305
731.080305	19030.960708
731.411442	19436.758469
731.742530	19557.652900
732.073570	19700.430980
732.404562	20019.722541
732.735506	19910.405120
733.066401	19790.755854
733.397249	19370.396720
733.728048	18784.019787
734.058798	17936.627031
734.389501	17194.932148
734.720156	16679.585072
735.050762	16102.733399
735.381320	15702.039807
735.711831	15413.922741
736.042293	15030.477456
736.372707	15056.169696
736.703073	14835.846067
737.033391	15016.853737
737.363661	15002.453682
737.693883	15111.758500
738.024056	15294.298681
738.354182	15495.904505
738.684260	15834.748182
739.014290	16112.021725
739.344272	16339.912126
739.674207	16671.524267
740.004093	16854.344232
740.333931	16932.925738
740.663722	17029.330244
740.993464	17080.084581
741.323159	16942.841688
741.652806	16663.130746
741.982405	16506.189545
742.311956	16154.198539
742.641460	16054.597942
742.970915	15735.946607
743.300323	15396.659309
743.629683	15185.374469
743.958996	14869.314288
744.288260	14569.733638
744.617477	14264.537143
744.946647	14224.593561
745.275768	13923.107355
745.604842	13709.304459
745.933869	13527.273434
746.262847	13495.972910
746.591778	13405.217018
746.920662	13284.282257
747.249498	13280.292184
747.578286	13414.845621
747.907027	13578.645313
748.235720	13834.773737
748.564365	13910.091096
748.892963	13861.126368
749.221514	13967.020846
749.550017	13850.539945
749.878473	13830.501359
750.206881	13618.329276
750.535242	13545.731619
750.863555	13469.103560
751.191821	13359.302188
751.520039	13380.815312
751.848210	13286.742340
752.176334	13327.608454
752.504411	13261.155964
752.832440	13092.415942
753.160421	13210.497409
753.488356	13099.491201
753.816243	13019.208306
754.144082	12842.165503
754.471875	12792.401753
754.799620	12747.182603
755.127318	12722.213768
755.454969	12705.940923
755.782572	12679.311028
756.110129	12692.990199
756.437638	12598.037546
756.765100	12608.762601
757.092515	12629.264973
757.419882	12663.065910
757.747203	12664.114470
758.074477	12746.711255
758.401703	12727.806928
758.728882	12916.535125
759.056014	12950.509982
759.383099	13117.954427
759.710138	13236.192170
760.037129	13377.457904
760.364073	13440.179940
760.690970	13462.870173
761.017820	13463.671717
761.344623	13664.697809
761.671379	13976.510818
761.998088	14515.745401
762.324751	15903.582617
762.651366	18817.629159
762.977935	23089.409667
763.304456	26349.657450
763.630931	27926.956351
763.957359	27142.825034
764.283740	25109.362205
764.610074	22989.337722
764.936362	20393.065353
765.262602	18500.704420
765.588796	16548.189918
765.914943	15244.182050
766.241044	14095.625722
766.567097	13293.222744
766.893104	12552.324363
767.219064	12075.789131
767.544978	11597.068559
767.870845	11215.606968
768.196665	10976.573097
768.522438	10751.903993
768.848165	10550.915710
769.173846	10341.841416
769.499479	10219.752231
769.825066	10047.087671
770.150607	9829.501389
770.476101	9746.256815
770.801548	9627.638465
771.126949	9478.014498
771.452303	9368.944094
771.777611	9169.989916
772.102872	9160.399121
772.428087	9023.945169
772.753256	8876.579639
773.078378	8794.529819
773.403453	8613.469217
773.728482	8494.777770
774.053465	8421.411337
774.378401	8322.841656
774.703291	8204.339253
775.028135	8085.582271
775.352932	8050.468114
775.677683	7951.064122
776.002388	7838.933737
776.327046	7855.952672
776.651658	7748.623986
776.976224	7653.283164
777.300743	7658.105028
777.625216	7568.954743
777.949643	7526.281375
778.274024	7536.769496
778.598359	7458.213196
778.922647	7469.379351
779.246889	7426.030469
779.571086	7423.323370
779.895236	7434.653363
780.219339	7439.651667
780.543397	7446.893285
780.867409	7525.061416
781.191374	7537.949126
781.515294	7498.660893
781.839167	7593.089267
782.162995	7568.402736
782.486776	7519.203595
782.810511	7475.479148
783.134201	7392.781539
783.457844	7378.502471
783.781441	7328.191756
784.104993	7268.597755
784.428498	7238.514670
784.751958	7232.339256
785.075372	7202.170471
785.398739	7140.552448
785.722061	7175.989239
786.045337	7180.173396
786.368568	7317.905281
786.691752	7320.592216
787.014891	7608.121988
787.337983	7917.595902
787.661030	8463.585631
787.984031	9078.956760
788.306987	9512.032205
788.629897	9768.505948
788.952760	9770.177090
789.275579	9585.139018
789.598351	9218.642092
789.921078	8883.773365
790.243759	8484.128333
790.566395	8194.544291
790.888984	7945.604552
791.211529	7734.576811
791.534027	7506.192377
791.856480	7302.252498
792.178888	7227.406487
792.501249	7133.280583
792.823566	6973.987683
793.145836	6973.143290
793.468062	6938.850841
793.790241	6877.991511
794.112375	6940.484175
794.434464	7082.150680
794.756507	7105.902077
795.078505	7247.114878
795.400457	7523.191148
795.722364	7856.212292
796.044226	8142.615365
796.366042	8433.260570
796.687812	8403.205210
797.009538	8500.128955
797.331218	8414.978825
797.652852	8341.776230
797.974442	8189.954320
798.295986	8114.082434
798.617484	7932.338756
798.938938	7791.809031
799.260346	7691.142230
799.581709	7495.245512
799.903026	7415.058398
800.224299	7314.106772
800.545526	7150.995198
800.866708	7045.544342
801.187845	6978.355843
801.508936	6881.608539
801.829983	6841.228897
802.150984	6691.806576
802.471940	6648.803013
802.792851	6640.268340
803.113717	6602.424398
803.434538	6569.803092
803.755314	6515.729155
804.076045	6514.173959
804.396731	6455.583148
804.717372	6486.727397
805.037967	6482.548280
805.358518	6518.272417
805.679024	6602.903308
805.999485	6604.768535
806.319901	6645.397714
806.640272	6665.428739
806.960598	6752.398725
807.280879	6758.344766
807.601115	6832.366548
807.921306	6781.786131
808.241453	6792.188552
808.561554	6813.187479
808.881611	6781.367716
809.201623	6793.645446
809.521590	6738.626293
809.841513	6724.132975
810.161390	6760.446927
810.481223	6629.323995
810.801011	6621.164888
811.120755	6597.237051
811.440453	6522.499424
811.760107	6487.123127
812.079716	6459.258149
812.399281	6397.115846
812.718801	6383.625718
813.038276	6337.942782
813.357707	6282.243073
813.677093	6315.587785
813.996434	6224.937757
814.315731	6257.599393
814.634983	6252.729638
814.954191	6255.041007
815.273354	6350.132292
815.592473	6412.390542
815.911547	6524.503283
816.230577	6597.862154
816.549562	6739.480768
816.868502	6836.477609
817.187399	6926.603358
817.506250	7060.549336
817.825058	7091.570076
818.143821	7335.158630
818.462539	7572.400371
818.781213	7890.068681
819.099843	8369.099284
819.418429	9262.535418
819.736970	10151.898301
820.055466	11235.517005
820.373919	12581.283271
820.692327	14566.043514
821.010691	17846.186210
821.329011	25226.299330
821.647286	36788.339431
821.965517	50628.759260
822.283704	58169.392801
822.601847	61376.675701
822.919945	59158.008440
823.237999	55252.515650
823.556010	49238.945912
823.873976	42621.511479
824.191897	36217.295168
824.509775	31409.672773
824.827609	26812.067369
825.145398	24027.883470
825.463144	22377.810472
825.780845	22266.509357
826.098502	23493.173323
826.416116	26754.560406
826.733685	30434.937951
827.051210	32231.456468
827.368692	31293.733797
827.686129	27832.038985
828.003522	23880.603640
828.320872	20163.292082
828.638177	17317.404460
828.955439	15139.144568
829.272656	13331.240605
829.589830	11856.468692
829.906960	10575.766078
830.224046	9613.898800
830.541088	8841.687292
830.858086	8362.271041
831.175041	7956.911860
831.491952	7805.871329
831.808819	7791.690564
832.125642	8085.685615
832.442421	8782.602449
832.759157	10242.298792
833.075849	12778.604115
833.392497	15874.986672
833.709101	18320.692378
834.025662	18682.599333
834.342179	17354.950974
834.658653	15321.034440
834.975083	13423.801231
835.291469	11793.842438
835.607811	10473.337393
835.924110	9575.512934
836.240366	8710.380358
836.556578	7919.027589
836.872746	7274.379959
837.188871	6762.465909
837.504952	6334.038408
837.820990	6019.999730
838.136984	5789.402229
838.452935	5674.917625
838.768842	5653.616230
839.084706	5934.277429
839.400526	6893.437607
839.716303	8372.103812
840.032037	9594.508002
840.347727	9825.254217
840.663373	9031.827013
840.978977	8008.671908
841.294537	7187.523399
841.610054	6577.566468
841.925527	6147.563607
842.240957	5789.538340
842.556344	5466.216377
842.871687	5190.339233
843.186987	4911.162653
843.502244	4682.569011
843.817458	4513.488711
844.132629	4380.195563
844.447756	4282.586221
844.762840	4205.401115
845.077881	4125.760966
845.392879	4070.036052
845.707833	4022.571067
846.022745	3976.973831
846.337613	3952.645222
846.652438	3905.754930
846.967221	3891.039802
847.281960	3858.577292
847.596656	3841.548274
847.911309	3823.200995
848.225919	3796.823157
848.540485	3780.396557
848.855009	3768.433899
849.169490	3750.379007
849.483928	3736.858632
849.798323	3725.039647
850.112675	3709.331412
850.426984	3717.240982
850.741251	3704.834702
851.055474	3695.858928
851.369654	3702.104917
851.683792	3697.608208
851.997887	3699.896892
852.311938	3706.528530
852.625947	3707.372923
852.939914	3695.904298
853.253837	3708.280331
853.567718	3705.442161
853.881555	3697.633414
854.195350	3709.659087
854.509103	3705.502655
854.822812	3710.440465
855.136479	3693.885316
855.450103	3706.944425
855.763685	3694.460008
856.077224	3693.502188
856.390720	3709.888459
856.704173	3729.163311
857.017584	3737.004826
857.330953	3748.544027
857.644278	3769.991616
857.957561	3776.441772
858.270802	3774.465640
858.584000	3784.462248
858.897155	3774.624436
859.210268	3760.632714
859.523339	3739.351483
859.836367	3739.003643
860.149352	3733.556676
860.462295	3722.922362
860.775195	3714.407853
861.088054	3709.011298
861.400869	3704.935525
861.713642	3705.860577
862.026373	3710.914334
862.339062	3714.266701
862.651708	3731.083990
862.964312	3764.093466
863.276873	3775.375568
863.589392	3825.756860
863.901869	3864.712376
864.214303	3914.143410
864.526696	3948.393009
864.839045	3992.886233
865.151353	4019.019575
865.463619	4027.743291
865.775842	4035.259652
866.088023	4051.661046
866.400162	4042.045045
866.712258	4049.200963
867.024313	4053.158268
867.336325	4049.669790
867.648296	4056.712282
867.960224	4060.624217
868.272110	4064.455494
868.583954	4064.987336
868.895755	4076.350097
869.207515	4075.858584
869.519233	4108.618523
869.830909	4121.642343
870.142542	4143.667145
870.454134	4156.975791
870.765684	4185.581818
871.077191	4221.376531
871.388657	4240.321187
871.700081	4273.892751
872.011463	4316.266170
872.322803	4346.399667
872.634101	4376.707084
872.945357	4414.911468
873.256571	4464.823933
873.567744	4495.874920
873.878874	4516.329402
874.189963	4553.218045
874.501010	4565.878903
874.812015	4561.941762
875.122979	4603.753092
875.433900	4599.415179
875.744780	4610.183083
876.055618	4632.099500
876.366415	4633.763080
876.677169	4649.614989
876.987882	4691.806926
877.298554	4735.798555
877.609183	4806.304132
877.919771	4894.985590
878.230317	5021.206000
878.540822	5203.206778
878.851285	5476.775073
879.161707	5867.507346
879.472087	6493.853068
879.782425	7497.919844
880.092722	9303.562849
880.402977	12106.840118
880.713191	15579.534727
881.023363	19236.632223
881.333494	21664.446874
881.643583	23118.711374
881.953631	23345.913657
882.263637	22683.324560
882.573602	21416.810274
882.883526	19986.203909
883.193408	18443.452036
883.503248	16834.822364
883.813048	15391.787034
884.122806	14028.399415
884.432522	12609.226387
884.742197	11406.215515
885.051831	10341.370068
885.361424	9352.366259
885.670975	8543.485398
885.980485	7867.121349
886.289954	7298.028012
886.599382	6832.013668
886.908768	6455.701615
887.218113	6102.931752
887.527417	5815.585982
887.836680	5555.477567
888.145901	5345.490824
888.455082	5182.754817
888.764221	5035.497672
889.073319	4901.372732
889.382376	4823.630578
889.691392	4763.711424
890.000366	4735.609512
890.309300	4711.863156
890.618193	4715.732242
890.927044	4700.679357
891.235855	4716.175863
891.544625	4740.549842
891.853353	4786.111791
892.162041	4883.383375
892.470687	5038.940780
892.779293	5248.688068
893.087858	5562.179781
893.396381	6046.783380
893.704864	6714.890020
894.013306	7731.113538
894.321707	8849.493519
894.630068	9725.187313
894.938387	10064.015866
895.246665	9956.283887
895.554903	9435.134444
895.863100	8793.887072
896.171256	8270.630426
896.479371	7790.652086
896.787446	7309.305073
897.095480	6891.942905
897.403473	6586.184321
897.711425	6282.769874
898.019336	6027.080030
898.327207	5770.734837
898.635038	5549.135796
898.942827	5308.312315
899.250576	5116.700578
899.558284	4927.828708
899.865952	4809.875790
900.173579	4665.169469
900.481165	4555.466399
900.788711	4471.490859
901.096216	4396.657450
901.403681	4331.377029
901.711105	4303.060868
902.018489	4279.833751
902.325832	4330.588088
902.633135	4418.193260
902.940397	4671.372609
903.247619	5278.524137
903.554800	6452.432427
903.861941	8182.425357
904.169041	9739.937729
904.476101	10569.560417
904.783121	10435.705180
905.090100	9820.754987
905.397039	9041.324547
905.703938	8330.673089
906.010796	7670.453334
906.317614	7143.083107
906.624391	6632.351208
906.931129	6228.380865
907.237826	5848.476991
907.544483	5492.364842
907.851099	5134.218587
908.157675	4794.772493
908.464211	4472.612515
908.770707	4235.582503
909.077163	4034.019528
909.383578	3885.653329
909.689954	3769.197634
909.996289	3693.393804
910.302584	3631.881644
910.608839	3594.715738
910.915054	3565.575348
911.221229	3548.803429
911.527363	3555.157803
911.833458	3568.060637
912.139513	3592.114502
912.445527	3611.273407
912.751502	3679.071886
913.057436	3761.976181
913.363331	3881.146537
913.669186	4048.797670
913.975000	4266.583078
914.280775	4622.319661
914.586510	5107.218167
914.892205	5790.201252
915.197859	6706.844338
915.503475	7815.396590
915.809050	8861.529274
916.114585	9554.753463
916.420081	9914.107074
916.725536	9966.099014
917.030952	9609.699519
917.336328	9252.334644
917.641665	8888.154128
917.946961	8433.850385
918.252218	8043.765900
918.557435	7560.445275
918.862612	7156.676578
919.167750	6811.196223
919.472848	6412.055305
919.777906	6058.907355
920.082925	5715.458585
920.387904	5360.432804
920.692843	5092.697124
920.997743	4852.481102
921.302603	4623.963077
921.607423	4462.353767
921.912204	4304.905930
922.216946	4194.577757
922.521647	4075.974531
922.826310	3975.554746
923.130932	3887.342116
923.435516	3789.886529
923.740059	3725.016962
924.044564	3648.898059
924.349028	3593.692383
924.653454	3532.669216
924.957840	3467.701346
925.262186	3422.434305
925.566493	3366.883310
925.870761	3311.959939
926.174989	3279.028602
926.479178	3244.403436
926.783328	3202.314843
927.087438	3175.364834
927.391509	3144.326450
927.695541	3114.800412
927.999533	3089.634972
928.303486	3069.475398
928.607400	3051.208777
928.911275	3038.681510
929.215110	3021.637368
929.518906	3012.742252
929.822663	3013.821059
930.126381	3009.132786
930.430060	3016.573529
930.733699	3015.343488
931.037299	3025.728265
931.340861	3022.567461
931.644383	3037.544729
931.947866	3033.973072
932.251309	3026.418903
932.554714	3026.834798
932.858080	3023.542925
933.161407	3016.359280
933.464694	3009.800739
933.767943	3000.214985
934.071153	2997.626353
934.374323	2987.150835
934.677455	2983.642192
934.980548	2975.137765
935.283602	2969.317753
935.586617	2966.792135
935.889593	2975.402426
936.192530	2978.543065
936.495428	2986.704693
936.798287	3009.924248
937.101108	3032.364944
937.403890	3077.024526
937.706632	3128.610653
938.009336	3200.074050
938.312002	3273.458127
938.614628	3334.801407
938.917216	3386.158162
939.219765	3418.141763
939.522275	3453.513018
939.824747	3461.657002
940.127179	3457.233390
940.429573	3455.476548
940.731929	3455.237093
941.034246	3440.506842
941.336524	3430.815223
941.638763	3417.367945
941.940964	3406.128693
942.243126	3370.659134
942.545250	3351.109540
942.847335	3314.664518
943.149381	3283.429529
943.451389	3250.263778
943.753359	3216.354456
944.055290	3192.237576
944.357182	3168.060202
944.659036	3156.533604
944.960851	3141.158085
945.262628	3127.630149
945.564367	3131.388329
945.866067	3123.052781
946.167729	3120.965743
946.469352	3120.234776
946.770937	3115.415433
947.072484	3098.961107
947.373992	3103.215841
947.675462	3095.868359
947.976893	3084.561051
948.278286	3072.568146
948.579641	3067.978175
948.880958	3060.348389
949.182236	3065.669327
949.483476	3057.316135
949.784678	3056.065929
950.085841	3057.532904
950.386967	3064.736713
950.688054	3077.057293
950.989103	3098.164604
951.290114	3114.175309
951.591087	3139.018115
951.892021	3161.499141
952.192917	3190.899150
952.493776	3217.352605
952.794596	3224.609346
953.095378	3235.868763
953.396122	3227.497927
953.696828	3225.496589
953.997496	3215.066442
954.298126	3197.107331
954.598718	3179.463292
954.899272	3154.277688
955.199788	3131.179121
955.500266	3104.705502
955.800706	3069.556056
956.101108	3034.230171
956.401472	3007.267559
956.701798	2978.011223
957.002087	2937.843309
957.302337	2915.198446
957.602550	2883.096378
957.902724	2854.830629
958.202861	2832.155519
958.502960	2811.811942
958.803022	2793.552883
959.103045	2774.157044
959.403031	2757.027203
959.702979	2744.507497
960.002889	2732.781774
960.302762	2718.054043
960.602596	2706.320757
960.902393	2700.720035
961.202153	2691.600588
961.501875	2684.810154
961.801559	2678.102898
962.101205	2671.037721
962.400814	2667.919768
962.700385	2663.869201
962.999918	2655.112716
963.299414	2648.034936
963.598873	2646.817498
963.898293	2639.570839
964.197677	2640.606796
964.497022	2640.334574
964.796331	2637.022536
965.095601	2634.494397
965.394835	2629.231432
965.694030	2631.875518
965.993189	2626.907461
966.292309	2629.662451
966.591393	2625.334621
966.890439	2628.321504
967.189447	2627.096504
967.488419	2624.964096
967.787353	2628.243366
968.086249	2628.094652
968.385108	2632.155302
968.683930	2631.285703
968.982714	2633.576907
969.281462	2639.717032
969.580172	2645.254740
969.878844	2649.421254
970.177480	2656.776297
970.476078	2664.995898
970.774639	2667.932371
971.073162	2676.036025
971.371649	2684.553055
971.670098	2687.386183
971.968510	2692.175279
972.266885	2697.234077
972.565223	2701.629963
972.863524	2703.901003
973.161788	2706.653473
973.460014	2712.234031
973.758204	2713.552292
974.056356	2712.178578
974.354471	2717.784341
974.652550	2715.372149
974.950591	2715.324258
975.248595	2714.225286
975.546563	2715.929196
975.844493	2708.400233
976.142386	2704.906713
976.440243	2699.351362
976.738062	2696.417410
977.035845	2690.327697
977.333590	2682.675225
977.631299	2679.668177
977.928971	2672.635767
978.226606	2665.958759
978.524204	2665.386588
978.821765	2659.251504
979.119290	2662.568583
979.416777	2660.650424
979.714228	2661.565393
980.011642	2666.772905
980.309020	2671.662824
980.606360	2682.735719
980.903664	2703.318750
981.200931	2730.102400
981.498162	2770.260232
981.795356	2831.893379
982.092513	2910.709299
982.389633	3006.314781
982.686717	3099.666868
982.983764	3176.191584
983.280775	3230.396590
983.577749	3244.703385
983.874686	3239.132910
984.171587	3210.738611
984.468451	3180.058149
984.765279	3139.393681
985.062070	3098.681323
985.358824	3058.518450
985.655543	3007.514576
985.952224	2958.716207
986.248869	2898.396280
986.545478	2843.861078
986.842050	2790.346709
987.138586	2746.019844
987.435086	2711.291335
987.731549	2676.199863
988.027975	2655.110196
988.324366	2634.527165
988.620719	2622.869496
988.917037	2611.466406
989.213318	2601.046341
989.509563	2594.152563
989.805772	2588.635021
990.101944	2587.858683
990.398080	2584.435739
990.694180	2583.240986
990.990244	2582.746953
991.286271	2582.351222
991.582262	2582.711665
991.878217	2583.528332
992.174136	2586.295925
992.470019	2593.025866
992.765865	2592.065526
993.061676	2593.892944
993.357450	2603.776126
993.653188	2612.651077
993.948890	2625.299333
994.244556	2639.291055
994.540186	2659.624549
994.835780	2685.016841
995.131337	2719.082438
995.426859	2755.920670
995.722345	2801.159984
996.017795	2848.642612
996.313208	2886.544528
996.608586	2913.534865
996.903928	2926.972061
997.199234	2932.897937
997.494504	2932.035900
997.789738	2922.067018
998.084936	2900.311919
998.380099	2873.860985
998.675225	2846.585822
998.970316	2820.132367
999.265371	2788.249589
999.560390	2751.764238
999.855373	2723.596791
1000.150320	2696.551001
1000.445232	2668.554953
1000.740108	2650.487458
1001.034948	2634.693523
1001.329752	2618.884464
1001.624521	2604.244953
1001.919254	2594.817996
1002.213951	2589.449167
1002.508613	2580.644792
1002.803239	2573.067937
1003.097829	2570.406208
1003.392384	2563.038562
1003.686903	2557.523540
1003.981386	2556.268292
1004.275834	2550.652447
1004.570246	2550.465924
1004.864623	2547.022816
1005.158964	2547.345450
1005.453270	2544.507280
1005.747540	2542.120294
1006.041775	2540.708771
1006.335974	2539.771116
1006.630138	2539.279604
1006.924266	2537.116949
1007.218359	2537.719367
1007.512416	2534.704757
1007.806438	2531.138140
1008.100425	2533.361289
1008.394376	2530.734848
1008.688292	2535.720549
1008.982172	2533.152081
1009.276017	2534.220806
1009.569827	2531.453213
1009.863602	2528.988088
1010.157341	2528.972965
1010.451045	2529.330887
1010.744714	2527.468180
1011.038347	2528.279806
1011.331945	2529.958510
1011.625508	2526.359127
1011.919036	2525.507172
1012.212528	2527.390043
1012.505986	2523.508354
1012.799408	2525.756709
1013.092795	2521.880061
1013.386147	2523.654547
1013.679464	2525.265196
1013.972745	2523.951976
1014.265992	2522.487520
1014.559204	2522.968951
1014.852380	2521.375946
1015.145521	2520.738240
1015.438628	2523.452901
1015.731699	2523.735206
1016.024736	2527.586647
1016.317737	2525.734023
1016.610703	2524.256965
1016.903635	2524.766122
1017.196531	2530.565969
1017.489393	2529.890455
1017.782219	2527.783252
1018.075011	2532.403470
1018.367768	2530.946577
1018.660490	2532.148892
1018.953177	2532.148892
1019.245829	2532.148892
