Dividing Wavelength (nm)	Counts (n)	Blue Motor Position (mm): 27.500000	Red Motor Position (mm): 0.000000	
326.493990	2069.446586
326.888308	2069.446586
327.282561	2069.446586
327.676750	2043.721578
328.070874	2043.121681
328.464933	2052.919163
328.858929	2059.502910
329.252859	2067.452810
329.646726	2081.915880
330.040528	2098.564291
330.434265	2114.968205
330.827938	2136.796401
331.221547	2156.771973
331.615091	2175.963646
332.008571	2197.817048
332.401986	2216.197095
332.795338	2235.552605
333.188625	2257.184196
333.581847	2276.418719
333.975006	2293.861111
334.368100	2312.344502
334.761129	2323.755153
335.154095	2344.880109
335.546996	2393.383570
335.939833	2494.383088
336.332606	2505.831548
336.725315	2518.245389
337.117960	2529.232584
337.510540	2539.085519
337.903056	2547.353012
338.295508	2551.948023
338.687896	2560.661658
339.080220	2567.628532
339.472480	2572.115159
339.864676	2574.353432
340.256807	2577.857034
340.648875	2580.574216
341.040879	2580.390213
341.432818	2581.022878
341.824694	2583.634196
342.216506	2582.199988
342.608253	2581.375759
342.999937	2583.611511
343.391557	2582.633527
343.783113	2580.448187
344.174605	2575.543144
344.566033	2574.986097
344.957397	2572.770509
345.348697	2572.029460
345.739934	2571.996692
346.131106	2569.090467
346.522215	2567.878070
346.913260	2570.005437
347.304241	2566.451423
347.695159	2565.085270
348.086012	2562.915054
348.476802	2561.979920
348.867528	2556.490103
349.258191	2553.742674
349.648789	2554.526574
350.039324	2548.237734
350.429796	2554.776111
350.820203	2553.092365
351.210548	2551.837118
351.600828	2554.249310
351.991045	2551.040616
352.381198	2549.492982
352.771288	2552.106820
353.161314	2551.242262
353.551276	2546.765717
353.941175	2547.098433
354.331010	2549.866027
354.720782	2553.132695
355.110490	2554.098076
355.500135	2548.953578
355.889717	2548.477189
356.279235	2550.970040
356.668689	2547.791592
357.058080	2550.445760
357.447408	2550.284443
357.836672	2552.752087
358.225873	2551.380894
358.615010	2548.968702
359.004084	2556.101934
359.393095	2553.009186
359.782043	2553.697304
360.170927	2556.376677
360.559748	2555.128992
360.948505	2556.676626
361.337199	2559.045968
361.725830	2559.892882
362.114398	2557.170659
362.502903	2558.977912
362.891344	2557.952038
363.279722	2559.131668
363.668037	2559.371122
364.056289	2559.696277
364.444478	2560.606205
364.832603	2562.027811
365.220665	2560.701987
365.608665	2561.710218
365.996601	2561.974878
366.384474	2560.296174
366.772284	2563.167111
367.160031	2563.411607
367.547715	2563.514951
367.935336	2565.065106
368.322893	2558.748540
368.710388	2562.466391
369.097820	2560.676781
369.485189	2560.891030
369.872495	2565.344890
370.259738	2566.083419
370.646918	2563.401525
371.034035	2569.156002
371.421090	2565.538974
371.808081	2566.138872
372.195010	2568.392267
372.581875	2568.372103
372.968678	2564.538305
373.355418	2567.933522
373.742096	2566.484191
374.128710	2570.091136
374.515262	2571.207752
374.901751	2567.603327
375.288177	2569.849161
375.674540	2570.625498
376.060841	2568.964438
376.447079	2572.004254
376.833254	2570.328070
377.219367	2569.672720
377.605417	2571.616085
377.991404	2571.820252
378.377329	2572.142886
378.763191	2571.530386
379.148991	2571.961404
379.534727	2572.813359
379.920402	2573.201528
380.306013	2570.630540
380.691563	2571.369069
381.077049	2572.243709
381.462474	2574.020716
381.847835	2576.901735
382.233134	2573.945098
382.618371	2575.008782
383.003545	2575.512897
383.388657	2573.811508
383.773706	2577.269739
384.158693	2574.615572
384.543618	2578.903073
384.928480	2579.313927
385.313280	2579.376942
385.698017	2580.231417
386.082692	2576.281673
386.467305	2575.747311
386.851856	2576.427867
387.236344	2577.773855
387.620770	2576.876529
388.005133	2573.307392
388.389435	2577.126066
388.773674	2572.868812
389.157851	2580.070100
389.541965	2579.064390
389.926018	2579.444997
390.310008	2580.065059
390.693936	2581.703434
391.077802	2583.576223
391.461606	2583.856007
391.845348	2580.175964
392.229027	2580.619586
392.612645	2581.847107
392.996200	2583.344330
393.379694	2585.504464
393.763125	2584.415575
394.146494	2582.015986
394.529801	2582.530183
394.913047	2583.122519
395.296230	2585.983374
395.679351	2587.069742
396.062410	2587.634352
396.445408	2583.535893
396.828343	2582.631006
397.211217	2586.742067
397.594028	2589.164342
397.976778	2584.551686
398.359466	2585.811974
398.742092	2587.407500
399.124656	2587.319279
399.507158	2587.294074
399.889598	2588.143508
400.271977	2588.577047
400.654294	2591.029569
401.036549	2589.628128
401.418742	2589.310535
401.800874	2589.625607
402.182944	2589.633169
402.564952	2588.826584
402.946898	2590.326328
403.328783	2589.880186
403.710606	2590.301122
404.092367	2593.797162
404.474067	2592.680547
404.855705	2594.386977
405.237282	2592.960331
405.618797	2593.406473
406.000250	2594.265989
406.381642	2595.685074
406.762972	2589.391194
407.144240	2593.434199
407.525447	2591.127871
407.906593	2590.018817
408.287677	2595.559045
408.668700	2596.020311
409.049661	2595.584251
409.430560	2598.359406
409.811399	2597.643562
410.192176	2596.595002
410.572891	2594.374374
410.953545	2595.634663
411.334138	2597.010898
411.714669	2595.110383
412.095139	2598.944180
412.475547	2599.705394
412.855894	2598.162801
413.236180	2596.393356
413.616405	2601.431990
413.996568	2599.627257
414.376670	2599.249170
414.756711	2599.967534
415.136691	2601.177411
415.516609	2601.754623
415.896466	2601.749582
416.276262	2601.777309
416.655997	2603.168667
417.035670	2598.021649
417.415283	2602.047010
417.794834	2604.852412
418.174324	2601.825200
418.553753	2604.398709
418.933121	2605.311157
419.312428	2605.190170
419.691674	2604.197062
420.070859	2606.750407
420.449983	2606.147989
420.829045	2606.450458
421.208047	2605.754779
421.586988	2606.614296
421.965867	2607.650253
422.344686	2608.129162
422.723444	2612.404061
423.102141	2607.947681
423.480777	2607.483895
423.859352	2612.678804
424.237866	2610.896756
424.616319	2612.532610
424.994712	2612.701489
425.373044	2612.580501
425.751314	2610.291817
426.129524	2611.070676
426.507673	2611.436159
426.885762	2607.534306
427.263789	2612.774586
427.641756	2615.217025
428.019662	2618.708024
428.397508	2617.813219
428.775292	2618.975205
429.153016	2619.474279
429.530679	2621.669702
429.908282	2618.080400
430.285824	2620.512757
430.663305	2619.358333
431.040726	2621.145422
431.418086	2623.512243
431.795385	2625.256483
432.172624	2627.764457
432.549802	2630.065743
432.926920	2627.411576
433.303977	2629.791001
433.680974	2632.631691
434.057910	2630.789149
434.434786	2635.159829
434.811601	2635.001033
435.188355	2637.894655
435.565050	2636.871301
435.941683	2639.129738
436.318257	2641.425984
436.694770	2642.484626
437.071222	2645.494195
437.447614	2647.750111
437.823946	2649.796820
438.200218	2653.963333
438.576429	2655.518529
438.952580	2660.002636
439.328670	2665.434479
439.704700	2667.687875
440.080670	2668.922957
440.456580	2679.413598
440.832429	2682.095492
441.208218	2684.144721
441.583947	2693.720393
441.959616	2701.473688
442.335224	2708.264122
442.710773	2719.016903
443.086261	2729.452092
443.461689	2735.166239
443.837057	2746.644947
444.212365	2763.121958
444.587612	2773.398350
444.962800	2782.472427
445.337927	2803.680561
445.712995	2803.413380
446.088002	2840.274297
446.462949	2860.718697
446.837837	2880.495143
447.212664	2903.213103
447.587431	2964.332052
447.962139	3037.315357
448.336786	3105.499483
448.711374	3126.221146
449.085901	3094.834922
449.460369	3123.909777
449.834776	3150.106133
450.209124	3252.073552
450.583412	3284.203346
450.957640	3346.343129
451.331808	3355.049202
451.705917	3357.572299
452.079965	3391.186713
452.453954	3459.486786
452.827883	3500.219309
453.201752	3547.238151
453.575562	3599.512396
453.949311	3692.554452
454.323001	3760.756222
454.696632	3814.210097
455.070202	3953.194708
455.443713	4030.548693
455.817164	4128.768014
456.190556	4244.621292
456.563888	4300.557935
456.937160	4413.018515
457.310373	4403.604160
457.683526	4485.064165
458.056619	4562.385383
458.429653	4658.782327
458.802628	4777.078043
459.175542	4872.517168
459.548398	5093.420529
459.921194	5317.973686
460.293930	5496.498588
460.666607	5829.156768
461.039224	6148.229039
461.411782	6357.164702
461.784280	6379.723865
462.156719	6482.127344
462.529099	6571.633030
462.901419	6505.498133
463.273680	6490.588921
463.645882	6675.495923
464.018024	6769.916735
464.390106	7020.762029
464.762130	7541.349384
465.134094	8263.676154
465.505999	9267.516078
465.877845	10293.093458
466.249631	10948.864394
466.621358	10953.887904
466.993026	10811.802983
467.364634	10686.721874
467.736184	10529.881495
468.107674	10444.408732
468.479105	10543.948835
468.850477	10587.784188
469.221790	10545.551922
469.593043	10371.685047
469.964238	10346.189411
470.335373	10518.284321
470.706449	11038.793538
471.077467	11654.958649
471.448425	13158.457578
471.819324	14330.966948
472.190164	14448.955154
472.560945	13649.065191
472.931667	12914.599322
473.302330	12863.819780
473.672934	12694.636136
474.043479	13105.341460
474.413965	13124.797794
474.784393	13147.283860
475.154761	13705.258933
475.525070	13924.909568
475.895321	13959.368375
476.265513	14435.515438
476.635645	14964.279544
477.005719	15134.592406
477.375734	15524.976839
477.745691	16094.919611
478.115588	16675.171542
478.485427	17668.689704
478.855207	19112.498851
479.224928	20571.048331
479.594591	21736.941187
479.964194	21648.703351
480.333739	22149.647849
480.703226	22489.280466
481.072653	23002.785000
481.442022	23558.915010
481.811333	24033.290108
482.180584	23853.701522
482.549777	23838.000849
482.918912	23817.821110
483.287988	23908.251848
483.657005	23951.812458
484.025964	23799.226814
484.394864	24121.457368
484.763706	24181.946173
485.132489	23886.862232
485.501213	24088.894034
485.869879	24358.280693
486.238487	24430.109574
486.607036	24786.383039
486.975527	24648.247862
487.343959	25054.315325
487.712333	25461.214578
488.080648	25549.505347
488.448905	26035.207917
488.817104	26049.802058
489.185244	26890.111992
489.553326	27835.262803
489.921350	29632.018254
490.289315	31955.385239
490.657222	32874.319529
491.025070	33485.118332
491.392861	33356.730226
491.760593	32782.293266
492.128267	31989.294560
492.495883	31210.343030
492.863440	30504.294145
493.230939	29724.467975
493.598380	29307.304932
493.965763	29249.561035
494.333088	28876.220743
494.700354	28783.294634
495.067563	28807.477049
495.434713	28779.019735
495.801805	29122.435738
496.168839	29044.244922
496.535815	28973.043665
496.902733	29141.461053
497.269593	29058.443331
497.636395	29249.939122
498.003139	29567.141125
498.369825	29408.445602
498.736453	29827.806587
499.103023	29724.951925
499.469535	29871.417609
499.835989	30029.286383
500.202385	29951.871904
500.568723	30019.224240
500.935003	30365.412877
501.301226	30273.729412
501.667390	30997.467706
502.033497	31235.810939
502.399546	31083.197568
502.765537	30719.347248
503.131470	31216.720089
503.497345	31665.632319
503.863163	30679.522133
504.228923	31438.848451
504.594625	31850.095700
504.960269	31366.487729
505.325856	32022.818233
505.691385	31720.200288
506.056856	32048.752449
506.422270	32553.104768
506.787625	32093.709459
507.152924	32554.670046
507.518164	32758.302415
507.883347	32360.416745
508.248472	32494.529081
508.613540	33185.784699
508.978550	33411.015891
509.343503	33274.821558
509.708398	33638.876045
510.073236	34220.186619
510.438016	34327.908515
510.802738	34014.620968
511.167403	34552.169285
511.532010	34795.233558
511.896561	35314.013660
512.261053	36045.787552
512.625488	35850.379826
512.989866	35783.145957
513.354186	35828.854099
513.718449	35795.237165
514.082655	36653.821282
514.446803	36364.759000
514.810894	36966.952553
515.174927	36970.751062
515.538904	36985.037693
515.902822	37595.297092
516.266684	37310.043402
516.630488	37645.983373
516.994235	37661.495004
517.357925	38237.850123
517.721558	38470.045669
518.085133	38864.397490
518.448651	39039.643122
518.812112	38934.996329
519.175516	39085.520142
519.538863	39533.691322
519.902152	39604.035583
520.265385	40131.491510
520.628560	40156.825828
520.991678	40097.572106
521.354739	40297.292539
521.717743	40664.893478
522.080690	40596.268250
522.443580	41247.935687
522.806413	41258.547316
523.169189	41381.629608
523.531908	41621.091977
523.894569	41483.181132
524.257174	41655.197904
524.619722	41993.824810
524.982213	42133.749597
525.344647	42190.659183
525.707025	42328.774195
526.069345	42752.848660
526.431608	42668.822708
526.793815	43031.959704
527.155964	42592.660955
527.518057	42844.504398
527.880093	42704.635064
528.242072	43353.865104
528.603995	43063.676124
528.965860	43004.492978
529.327669	43225.910537
529.689421	43259.340948
530.051117	43219.324269
530.412755	43487.294364
530.774337	43548.226790
531.135862	43482.467459
531.497331	43653.982636
531.858743	43632.436745
532.220098	44039.777099
532.581396	43755.360240
532.942638	43545.796954
533.303824	43787.507678
533.664953	43845.919528
534.026025	43527.510168
534.387040	44098.733393
534.747999	44168.603785
535.108902	44488.631355
535.469748	43812.221935
535.830537	44101.967293
536.191270	44326.573382
536.551947	44074.180453
536.912567	44351.653123
537.273131	44478.695241
537.633638	44094.254328
537.994089	44292.527950
538.354483	44052.390066
538.714821	44688.122416
539.075103	44963.578623
539.435328	44840.612278
539.795497	44597.643786
540.155609	44753.866623
540.515665	45301.986240
540.875665	44608.230209
541.235609	44876.442279
541.595496	45025.715886
541.955328	45584.212718
542.315102	45035.384819
542.674821	44942.002485
543.034483	44841.683523
543.394090	44851.264236
543.753640	44842.820304
544.113134	45906.718014
544.472571	44998.176062
544.831953	46120.475540
545.191278	45393.306742
545.550548	45099.851094
545.909761	45707.902468
546.268918	45857.244130
546.628019	46268.188910
546.987064	45711.834568
547.346053	45034.973965
547.704986	45917.304437
548.063863	45557.038378
548.422684	45770.493434
548.781449	45344.916706
549.140158	45864.573968
549.498811	45632.806920
549.857408	45032.566814
550.215949	45890.616569
550.574434	45711.186780
550.932864	45652.989179
551.291237	46370.380660
551.649555	46115.610827
552.007817	46302.584702
552.366022	45987.615931
552.724173	46050.900055
553.082267	46445.007381
553.440305	46821.384968
553.798288	46086.949347
554.156215	46473.449571
554.514086	46655.475554
554.871902	46277.575538
555.229661	46429.931810
555.587365	46118.587628
555.945014	46263.059536
556.302606	46256.826149
556.660143	46363.880092
557.017625	46590.041377
557.375050	46279.352545
557.732421	46686.287086
558.089735	46735.105620
558.446994	46603.677698
558.804197	47074.024914
559.161345	46948.676623
559.518437	46299.169321
559.875474	46558.445945
560.232455	46766.103675
560.589381	46800.663305
560.946251	46622.602190
561.303065	47275.358516
561.659825	46955.106615
562.016528	46767.207688
562.373177	46354.422887
562.729770	46996.882657
563.086307	46502.232039
563.442789	47049.950883
563.799216	46880.752116
564.155587	46792.879764
564.511904	46754.856861
564.868164	46817.011767
565.224370	47121.764641
565.580520	46843.636621
565.936615	47043.089873
566.292654	46693.402675
566.648638	47060.746514
567.004567	47010.834050
567.360441	47081.924402
567.716260	46797.474775
568.072023	47193.752318
568.427732	47124.857388
568.783385	46647.548339
569.138982	47061.558140
569.494525	47203.643061
569.850013	46819.071078
570.205445	46927.211390
570.560823	46682.864143
570.916145	46555.048208
571.271412	46799.269426
571.626625	46442.680888
571.981782	46534.271092
572.336884	46136.004815
572.691931	46464.315000
573.046923	46139.463046
573.401860	45964.716489
573.756743	45987.610889
574.111570	46124.611807
574.466342	46047.272945
574.821059	46203.095011
575.175722	45691.611980
575.530330	45776.522654
575.884882	45439.221571
576.239380	45329.851218
576.593823	45434.273679
576.948211	45379.060441
577.302544	44930.899344
577.656823	44915.337302
578.011047	45175.397826
578.365216	45037.479418
578.719330	44758.693528
579.073389	44730.100104
579.427394	44786.359381
579.781344	44692.528384
580.135239	44455.374863
580.489080	44524.889854
580.842866	44028.016087
581.196597	44503.185166
581.550273	44498.736348
581.903895	44436.384837
582.257463	44876.228030
582.610975	44293.342096
582.964434	44629.637469
583.317837	44121.171569
583.671186	44080.965846
584.024481	44371.457296
584.377721	43938.817911
584.730906	44171.658725
585.084037	44315.750025
585.437113	44017.858162
585.790135	44133.542560
586.143103	43732.004574
586.496016	43888.749171
586.848874	43981.912214
587.201679	44011.743242
587.554428	43518.395762
587.907124	43786.738902
588.259765	43573.051952
588.612352	43710.793919
588.964884	43180.557796
589.317362	43492.670754
589.669786	43477.627951
590.022155	43368.645767
590.374470	43822.954551
590.726731	43427.347483
591.078937	42763.661935
591.431090	43118.065132
591.783188	42629.380720
592.135232	42438.333592
592.487222	42692.052344
592.839157	42851.746016
593.191038	42502.789785
593.542866	42321.393946
593.894639	41697.228524
594.246358	42006.639423
594.598022	42013.024045
594.949633	41591.051742
595.301190	41587.724580
595.652692	41544.516850
596.004141	42035.757128
596.355535	40945.146343
596.706876	40954.744700
597.058162	40662.451038
597.409395	41155.170895
597.760573	41400.629717
598.111698	41003.321259
598.462768	40933.574375
598.813785	40955.735287
599.164748	40576.484242
599.515657	40839.836639
599.866511	40351.706754
600.217312	41023.080061
600.568060	39991.191157
600.918753	40779.441096
601.269392	40707.909643
601.619978	40453.301127
601.970510	40674.242297
602.320988	40809.705663
602.671412	41068.747874
603.021783	40920.351428
603.372100	40508.506803
603.722363	40604.225712
604.072572	40660.396768
604.422728	40638.427420
604.772830	40415.182442
605.122878	40594.143404
605.472872	40458.853958
605.822813	40708.721269
606.172701	40455.594852
606.522534	40792.374176
606.872314	40984.361479
607.222041	40823.931799
607.571714	41159.455876
607.921333	40660.197643
608.270899	40845.512979
608.620411	41217.761861
608.969870	40986.277117
609.319276	41006.366116
609.668627	41050.110728
610.017926	41431.847062
610.367171	41584.168046
610.716362	41613.278189
611.065500	41513.145750
611.414585	41761.200766
611.763616	41924.163626
612.112594	41824.734428
612.461518	41935.569237
612.810389	42329.885770
613.159207	42121.766774
613.507971	42091.413987
613.856682	42580.456322
614.205340	42419.855242
614.553945	43097.338428
614.902496	42454.692136
615.250994	42880.241138
615.599439	42930.629991
615.947830	43045.359091
616.296169	43066.965477
616.644454	43103.501239
616.992686	43252.182510
617.340864	43694.188359
617.688990	43191.303016
618.037063	43872.662849
618.385082	43702.518865
618.733048	44051.477617
619.080961	43925.683184
619.428821	43972.213034
619.776628	44000.657745
620.124382	43824.237525
620.472083	43942.089620
620.819731	44049.105754
621.167326	43633.150068
621.514868	43630.773164
621.862357	43080.606839
622.209793	43194.418449
622.557176	42764.458437
622.904506	42535.327912
623.251783	42165.433249
623.599007	41866.243289
623.946179	41764.195212
624.293297	41520.314271
624.640363	40979.786632
624.987376	40835.476041
625.334336	40637.063788
625.681243	40239.256255
626.028097	40144.545577
626.374899	39968.523609
626.721647	39934.410121
627.068343	39706.166839
627.414987	39409.568032
627.761577	39174.844347
628.108115	39484.587963
628.454600	38736.052234
628.801032	38976.661466
629.147412	38885.242662
629.493739	38757.194833
629.840014	38327.045778
630.186236	38752.103268
630.532405	38190.312042
630.878521	38444.751680
631.224585	38211.888181
631.570597	37876.595997
631.916556	38045.918273
632.262462	37946.731050
632.608316	37891.411948
632.954117	37755.338603
633.299866	37702.315747
633.645562	37620.810372
633.991206	37128.060268
634.336797	36717.327217
634.682336	36608.889478
635.027823	36385.992340
635.373257	36270.421367
635.718639	35945.579496
636.063968	35828.284449
636.409245	35197.245413
636.754470	35154.740924
637.099642	34924.690389
637.444762	34352.133779
637.789829	34479.977441
638.134845	34080.831482
638.479808	34012.327243
638.824719	33960.453770
639.169577	33447.909576
639.514383	33568.657813
639.859137	33194.810885
640.203839	33350.474154
640.548489	33064.693663
640.893086	33044.405540
641.237632	32767.497479
641.582125	32851.155427
641.926566	32635.071409
642.270955	32672.096163
642.615292	32609.031329
642.959576	32492.966323
643.303809	32488.900633
643.647990	32597.542539
643.992118	32557.213308
644.336195	32396.503844
644.680219	32455.485344
645.024192	32642.401247
645.368112	33171.472863
645.711981	33189.913404
646.055797	33878.809762
646.399562	33658.229035
646.743274	34538.220412
647.086935	34918.638484
647.430544	34917.166467
647.774101	34938.765291
648.117606	35252.138537
648.461059	35403.511784
648.804460	35006.112586
649.147810	34521.806415
649.491108	34202.784556
649.834354	34101.099441
650.177548	33292.543735
650.520690	32783.273770
650.863781	32748.383945
651.206820	32579.051587
651.549807	32150.939158
651.892742	31578.591756
652.235626	31485.920225
652.578458	31347.701869
652.921238	30645.519550
653.263967	30943.678594
653.606644	30630.171757
653.949269	30538.193384
654.291843	30147.440947
654.634365	30497.770892
654.976836	30053.453675
655.319255	30146.962037
655.661622	30008.085811
656.003938	29880.254752
656.346203	29691.834065
656.688416	29927.228223
657.030577	29736.143287
657.372687	29552.075637
657.714746	29685.522541
658.056753	29876.531860
658.398708	29256.348949
658.740612	29319.938064
659.082465	29536.173317
659.424266	29425.484702
659.766016	29407.099614
660.107715	29266.630382
660.449362	29362.644198
660.790958	29335.487503
661.132503	29268.997204
661.473996	29346.502424
661.815438	29414.661344
662.156829	29526.537151
662.498168	29351.520893
662.839456	29319.819597
663.180693	29441.843246
663.521879	29510.965027
663.863013	29457.475864
664.204097	29433.963923
664.545129	29846.065647
664.886110	29761.139848
665.227040	29885.484949
665.567918	29864.337309
665.908746	29937.212229
666.249522	30017.172490
666.590248	30064.161085
666.930922	30156.509983
667.271545	30177.108137
667.612118	30217.238242
667.952639	30030.221517
668.293109	30078.954351
668.633528	29926.288048
668.973896	29887.846730
669.314213	29868.995335
669.654480	29678.782518
669.994695	29661.758541
670.334859	29594.433932
670.674973	29392.717202
671.015035	29576.386601
671.355047	29504.968574
671.695008	29422.028991
672.034918	29342.005715
672.374777	29434.062225
672.714585	29303.370312
673.054342	29441.843246
673.394049	29297.331009
673.733705	29506.032258
674.073310	29222.603465
674.412864	29296.899991
674.752368	29024.775985
675.091820	29249.281251
675.431223	28847.254273
675.770574	28664.830039
676.109875	28500.274175
676.449125	28295.000911
676.788324	28187.677266
677.127473	27710.179173
677.466571	27602.079191
677.805619	27340.445827
678.144616	27267.253314
678.483562	27211.135190
678.822458	26895.498465
679.161303	26837.305906
679.500098	26763.644566
679.838842	26673.256677
680.177535	26732.391932
680.516179	26950.268081
680.854771	27028.791614
681.193314	27714.769144
681.531805	28656.514656
681.870247	29401.322451
682.208638	30203.531345
682.546978	30563.457127
682.885268	30750.383112
683.223508	30336.748877
683.561697	30075.047457
683.899836	29916.359496
684.237925	29499.766104
684.575963	29330.300155
684.913951	28949.440982
685.251889	29079.744727
685.589776	29090.563043
685.927614	29089.733773
686.265401	29262.108467
686.603137	29348.929739
686.940824	29819.173611
687.278460	30148.023200
687.616046	30330.901138
687.953582	30999.229589
688.291068	30934.387748
688.628504	31304.504222
688.965889	31333.369869
689.303224	31090.971027
689.640510	30829.302375
689.977745	30218.380064
690.314930	29493.242851
690.652065	29082.582897
690.989150	28401.822961
691.326185	27574.486435
691.663170	26959.914329
692.000105	26246.543169
692.336990	25644.158052
692.673825	25221.253135
693.010610	24722.670417
693.347345	24224.183480
693.684030	23600.459159
694.020665	23407.017483
694.357251	22741.375967
694.693786	22741.433941
695.030272	22514.529085
695.366707	22008.616529
695.703093	21733.367009
696.039429	21791.410854
696.375716	21557.644989
696.711952	21551.653577
697.048139	21409.268707
697.384276	21244.785940
697.720363	21367.646421
698.056400	21261.353692
698.392388	21105.665217
698.728326	21098.037951
699.064214	20945.379210
699.400053	20953.969336
699.735842	20578.680638
700.071581	20388.919004
700.407270	20157.686319
700.742910	19976.900459
701.078501	19735.177133
701.414042	19545.044974
701.749533	19233.738601
702.084974	18919.866280
702.420366	19154.773967
702.755709	18751.577441
703.091002	18453.776319
703.426246	18504.417230
703.761440	18436.028937
704.096584	18204.443370
704.431679	18140.261920
704.766725	18081.822344
705.101721	17994.973345
705.436668	18119.285679
705.771565	17832.905290
706.106413	18145.262744
706.441212	18207.856231
706.775961	18297.954253
707.110661	18371.716416
707.445311	18730.455006
707.779913	18609.598384
708.114465	18898.189318
708.448967	19205.228355
708.783421	19810.464245
709.117825	20142.706530
709.452180	20370.062568
709.786485	20795.919081
710.120742	21532.673633
710.454949	21626.429012
710.789107	22146.597951
711.123216	22840.865659
711.457275	23058.991345
711.791286	23635.795127
712.125247	23793.711792
712.459159	23580.102980
712.793023	24337.763197
713.126837	23361.039639
713.460602	23633.642554
713.794318	23303.840187
714.127985	23036.144836
714.461602	22153.789157
714.795171	22135.809882
715.128691	21171.651400
715.462162	20658.719038
715.795584	20233.303626
716.128957	19955.868766
716.462281	19591.131203
716.795556	19308.657708
717.128782	18841.357870
717.461960	18238.269512
717.795088	18215.836378
718.128167	17874.194861
718.461198	17427.473013
718.794180	17302.558262
719.127113	16987.644943
719.459997	16788.184129
719.792833	16420.205104
720.125619	16457.035774
720.458357	16126.525125
720.791046	15983.111860
721.123686	15835.375805
721.456278	15600.881493
721.788821	15610.938595
722.121315	15338.466750
722.453761	15444.620847
722.786158	15320.303473
723.118506	15401.360185
723.450805	15296.925122
723.783056	15471.071781
724.115259	15347.603841
724.447412	15339.674106
724.779518	15536.258942
725.111574	15595.575678
725.443582	15847.061200
725.775542	15788.130111
726.107453	16289.639219
726.439315	16196.307297
726.771129	16596.466528
727.102895	16994.369842
727.434612	17271.923170
727.766281	17443.670240
728.097901	17771.025127
728.429473	17878.820120
728.760996	17897.323675
729.092471	18023.133231
729.423897	17908.368843
729.755276	17748.158453
730.086606	17829.726843
730.417887	18371.562661
730.749120	18924.461292
731.080305	19131.095667
731.411442	19550.338186
731.742530	19661.437655
732.073570	19803.431835
732.404562	20125.669951
732.735506	20025.983654
733.066401	19904.385982
733.397249	19464.709146
733.728048	18875.738540
734.058798	18035.486578
734.389501	17277.211340
734.720156	16759.568019
735.050762	16166.221691
735.381320	15777.647032
735.711831	15484.859337
736.042293	15110.107522
736.372707	15136.734897
736.703073	14919.413275
737.033391	15100.047899
737.363661	15079.943778
737.693883	15183.726012
738.024056	15373.830444
738.354182	15576.666310
738.684260	15924.251348
739.014290	16205.454471
739.344272	16413.308806
739.674207	16767.028927
740.004093	16938.397911
740.333931	17016.828182
740.663722	17109.565248
740.993464	17160.556520
741.323159	17029.801592
741.652806	16744.026142
741.982405	16581.857264
742.311956	16232.747278
742.641460	16137.779501
742.970915	15813.134234
743.300323	15467.517768
743.629683	15253.835859
743.958996	14951.089365
744.288260	14638.812569
744.617477	14332.663296
744.946647	14302.413853
745.275768	13981.083145
745.604842	13783.505202
745.933869	13599.319085
746.262847	13567.302717
746.591778	13471.437614
746.920662	13356.211961
747.249498	13343.702338
747.578286	13483.778359
747.907027	13645.838852
748.235720	13908.089758
748.564365	13988.947345
748.892963	13926.646245
749.221514	14044.432805
749.550017	13923.356892
749.878473	13896.285896
750.206881	13680.403524
750.535242	13616.133853
750.863555	13543.485785
751.191821	13428.648301
751.520039	13438.844034
751.848210	13361.464843
752.176334	13399.422211
752.504411	13334.340915
752.832440	13163.687775
753.160421	13285.386270
753.488356	13173.737315
753.816243	13084.612236
754.144082	12914.243921
754.471875	12850.188500
754.799620	12812.969661
755.127318	12789.964355
755.454969	12784.593006
755.782572	12745.166142
756.110129	12755.681988
756.437638	12670.189060
756.765100	12670.274760
757.092515	12698.578318
757.419882	12728.260632
757.747203	12733.410171
758.074477	12805.483547
758.401703	12796.958956
758.728882	12983.564828
759.056014	13019.394828
759.383099	13192.303885
759.710138	13307.562306
760.037129	13447.466928
760.364073	13510.241896
760.690970	13530.519938
761.017820	13540.529148
761.344623	13733.658273
761.671379	14052.783476
761.998088	14588.650568
762.324751	15988.326933
762.651366	18925.056148
762.977935	23205.343603
763.304456	26493.010221
763.630931	28062.767556
763.957359	27282.820397
764.283740	25246.000159
764.610074	23108.697122
764.936362	20500.204996
765.262602	18607.929762
765.588796	16635.487579
765.914943	15313.036649
766.241044	14164.704653
766.567097	13350.535622
766.893104	12600.684152
767.219064	12140.663740
767.544978	11659.853609
767.870845	11264.586819
768.196665	11038.652386
768.522438	10805.141098
768.848165	10601.722979
769.173846	10397.465507
769.499479	10267.980950
769.825066	10101.587585
770.150607	9875.287668
770.476101	9797.313621
770.801548	9684.177526
771.126949	9524.216673
771.452303	9412.025795
771.777611	9212.398623
772.102872	9201.204741
772.428087	9063.803052
772.753256	8918.693438
773.078378	8831.337804
773.403453	8652.245772
773.728482	8537.315026
774.053465	8461.375085
774.378401	8359.208540
774.703291	8237.310920
775.028135	8118.843804
775.352932	8096.425793
775.677683	7989.049216
776.002388	7874.652833
776.327046	7886.267651
776.651658	7788.900285
776.976224	7692.883948
777.300743	7694.040893
777.625216	7601.933971
777.949643	7562.963331
778.274024	7575.271308
778.598359	7491.988926
778.922647	7501.229361
779.246889	7458.281251
779.571086	7461.653783
779.895236	7470.009496
780.219339	7474.687686
780.543397	7480.641289
780.867409	7555.041158
781.191374	7567.167654
781.515294	7535.698251
781.839167	7622.048175
782.162995	7597.386850
782.486776	7548.031434
782.810511	7504.120463
783.134201	7415.292812
783.457844	7414.047647
783.781441	7361.959925
784.104993	7302.897766
784.428498	7273.636389
784.751958	7265.628516
785.075372	7232.271201
785.398739	7175.482603
785.722061	7212.220011
786.045337	7211.350412
786.368568	7355.991198
786.691752	7356.407094
787.014891	7645.413923
787.337983	7951.434647
787.661030	8503.985438
787.984031	9121.526784
788.306987	9560.482734
788.629897	9809.467843
788.952760	9815.761724
789.275579	9634.388570
789.598351	9262.588351
789.921078	8929.093338
790.243759	8524.578551
790.566395	8225.988488
790.888984	7984.124009
791.211529	7772.362780
791.534027	7542.634878
791.856480	7341.639033
792.178888	7264.121211
792.501249	7170.993455
792.823566	7010.478076
793.145836	7003.357446
793.468062	6972.319062
793.790241	6914.194558
794.112375	6972.676983
794.434464	7112.647141
794.756507	7140.774258
795.078505	7279.549662
795.400457	7558.582569
795.722364	7896.740648
796.044226	8180.671036
796.366042	8474.363618
796.687812	8441.402033
797.009538	8543.777785
797.331218	8453.445350
797.652852	8380.769555
797.974442	8231.780774
798.295986	8149.937641
798.617484	7964.493756
798.938938	7825.257087
799.260346	7724.456695
799.581709	7526.122579
799.903026	7452.425951
800.224299	7343.625248
800.545526	7177.920001
800.866708	7084.371309
801.187845	7013.066708
801.508936	6905.223824
801.829983	6868.869543
802.150984	6721.130968
802.471940	6676.826788
802.792851	6667.475447
803.113717	6635.196939
803.434538	6600.488595
803.755314	6540.902157
804.076045	6546.354164
804.396731	6485.981306
804.717372	6517.422983
805.037967	6516.180338
805.358518	6545.010697
805.679024	6634.145859
805.999485	6634.304655
806.319901	6675.221180
806.640272	6696.711619
806.960598	6781.932325
807.280879	6784.442819
807.601115	6862.260591
807.921306	6808.985677
808.241453	6822.465722
808.561554	6845.876841
808.881611	6814.735113
809.201623	6823.239539
809.521590	6771.124091
809.841513	6750.039465
810.161390	6787.885928
810.481223	6655.865670
810.801011	6643.509802
811.120755	6617.585668
811.440453	6544.302415
811.760107	6512.391911
812.079716	6478.379246
812.399281	6417.582931
812.718801	6410.905922
813.038276	6371.121136
813.357707	6302.160672
813.677093	6344.881930
813.996434	6242.775880
814.315731	6289.343538
814.634983	6277.388442
814.954191	6281.653258
815.273354	6382.960286
815.592473	6437.891219
815.911547	6549.146964
816.230577	6632.159644
816.549562	6769.561333
816.868502	6864.370314
817.187399	6957.810621
817.506250	7098.259687
817.825058	7125.867567
818.143821	7364.304061
818.462539	7604.048735
818.781213	7922.901716
819.099843	8398.758913
819.418429	9304.583683
819.736970	10190.337099
820.055466	11283.803697
820.373919	12643.985143
820.692327	14634.252846
821.010691	17938.010828
821.329011	25310.768904
821.647286	36910.655468
821.965517	50769.697319
822.283704	58268.038099
822.601847	61447.493830
822.919945	59241.865514
823.237999	55374.982921
823.556010	49384.789014
823.873976	42762.147068
824.191897	36325.110325
824.509775	31509.031395
824.827609	26896.771356
825.145398	24110.659216
825.463144	22456.898615
825.780845	22353.859951
826.098502	23588.244443
826.416116	26863.066202
826.733685	30560.003937
827.051210	32385.952709
827.368692	31435.682607
827.686129	27959.436505
828.003522	23981.051151
828.320872	20253.332131
828.638177	17376.542236
828.955439	15205.176122
829.272656	13383.295560
829.589830	11911.732341
829.906960	10621.751483
830.224046	9657.517384
830.541088	8879.407726
830.858086	8391.499651
831.175041	7995.348138
831.491952	7836.365269
831.808819	7823.394380
832.125642	8126.261862
832.442421	8812.819125
832.759157	10289.201687
833.075849	12835.801047
833.392497	15945.731704
833.709101	18412.085976
834.025662	18769.554196
834.342179	17434.888550
834.658653	15385.795623
834.975083	13485.809944
835.291469	11846.492248
835.607811	10519.421101
835.924110	9610.301937
836.240366	8757.212677
836.556578	7953.849359
836.872746	7301.408105
837.188871	6792.458254
837.504952	6361.845413
837.820990	6045.018976
838.136984	5807.303367
838.452935	5697.670873
838.768842	5678.988357
839.084706	5957.680986
839.400526	6913.602222
839.716303	8407.306189
840.032037	9634.126430
840.347727	9858.543476
840.663373	9073.550123
840.978977	8048.744039
841.294537	7210.987449
841.610054	6601.496826
841.925527	6166.006668
842.240957	5809.864273
842.556344	5488.074820
842.871687	5211.247418
843.186987	4927.052370
843.502244	4701.256569
843.817458	4530.610990
844.132629	4389.131008
844.447756	4301.921567
844.762840	4221.948702
845.077881	4141.643121
845.392879	4079.657094
845.707833	4034.609343
846.022745	3993.516377
846.337613	3960.980770
846.652438	3919.698762
846.967221	3904.028335
847.281960	3869.433417
847.596656	3852.701827
847.911309	3835.889579
848.225919	3809.642811
848.540485	3795.512457
848.855009	3780.857823
849.169490	3758.699431
849.483928	3750.212649
849.798323	3743.606217
850.112675	3724.596025
850.426984	3731.678847
850.741251	3713.732339
851.055474	3707.350238
851.369654	3714.669993
851.683792	3709.802759
851.997887	3713.215621
852.311938	3717.982032
852.625947	3716.867937
852.939914	3712.388871
853.253837	3719.108729
853.567718	3721.830953
853.881555	3708.456771
854.195350	3722.035119
854.509103	3717.603945
854.822812	3714.980024
855.136479	3709.177656
855.450103	3714.092781
855.763685	3703.491235
856.077224	3707.468705
856.390720	3721.969584
856.704173	3738.577666
857.017584	3752.549223
857.330953	3763.354937
857.644278	3779.700878
857.957561	3786.224131
858.270802	3789.102630
858.584000	3794.811737
858.897155	3785.505767
859.210268	3772.043365
859.523339	3752.193822
859.836367	3751.752721
860.149352	3744.435486
860.462295	3734.791759
860.775195	3729.102817
861.088054	3723.333216
861.400869	3719.093606
861.713642	3716.041187
862.026373	3727.930749
862.339062	3727.643403
862.651708	3745.753748
862.964312	3779.126187
863.276873	3788.101961
863.589392	3836.232377
863.901869	3881.333060
864.214303	3922.584822
864.526696	3958.654278
864.839045	4003.835619
865.151353	4027.425699
865.463619	4042.881876
865.775842	4045.629305
866.088023	4065.952717
866.400162	4054.111047
866.712258	4063.510278
867.024313	4066.660999
867.336325	4061.864341
867.648296	4072.748192
867.960224	4068.105290
868.272110	4080.062907
868.583954	4080.612392
868.895755	4090.936675
869.207515	4087.982559
869.519233	4124.263743
869.830909	4135.613901
870.142542	4157.842869
870.454134	4173.525899
870.765684	4200.685115
871.077191	4235.103593
871.388657	4260.488323
871.700081	4289.832880
872.011463	4329.690763
872.322803	4361.475238
872.634101	4392.990011
872.945357	4427.466462
873.256571	4482.707426
873.567744	4510.239688
873.878874	4532.408162
874.189963	4570.274789
874.501010	4577.284513
874.812015	4578.227209
875.122979	4619.259681
875.433900	4614.238692
875.744780	4627.990959
876.055618	4650.620699
876.366415	4649.224299
876.677169	4664.506557
876.987882	4702.272361
877.298554	4752.184825
877.609183	4819.590093
877.919771	4915.755144
878.230317	5037.299884
878.540822	5229.229214
878.851285	5492.629502
879.161707	5884.576693
879.472087	6516.845770
879.782425	7526.142744
880.092722	9332.131068
880.402977	12145.755305
880.713191	15628.494413
881.023363	19279.260220
881.333494	21714.631561
881.643583	23160.215193
881.953631	23376.521023
882.263637	22741.348241
882.573602	21448.554419
882.883526	20040.850017
883.193408	18485.649014
883.503248	16891.729429
883.813048	15432.509475
884.122806	14071.176126
884.432522	12650.747851
884.742197	11434.738364
885.051831	10370.432320
885.361424	9383.442452
885.670975	8572.053617
885.980485	7892.435503
886.289954	7321.741599
886.599382	6853.093253
886.908768	6482.374360
887.218113	6123.754237
887.527417	5837.870403
887.836680	5580.214509
888.145901	5363.893557
888.455082	5201.780131
888.764221	5053.174478
889.073319	4921.991052
889.382376	4845.297457
889.691392	4777.456130
890.000366	4750.695164
890.309300	4730.366712
890.618193	4734.777721
890.927044	4715.132345
891.235855	4736.164038
891.544625	4755.567440
891.853353	4806.122651
892.162041	4901.662599
892.470687	5057.411567
892.779293	5270.423003
893.087858	5584.444037
893.396381	6067.096709
893.704864	6746.056953
894.013306	7763.238291
894.321707	8882.976863
894.630068	9764.382284
894.938387	10102.222771
895.246665	9991.529114
895.554903	9465.242735
895.863100	8822.225918
896.171256	8307.319944
896.479371	7816.896333
896.787446	7336.202149
897.095480	6922.469612
897.403473	6613.882941
897.711425	6309.702238
898.019336	6054.380399
898.327207	5792.356345
898.635038	5570.981636
898.942827	5326.682279
899.250576	5135.620028
899.558284	4944.519968
899.865952	4827.119057
900.173579	4682.422818
900.481165	4574.950459
900.788711	4483.967714
901.096216	4408.446189
901.403681	4346.074513
901.711105	4312.833144
902.018489	4294.596770
902.325832	4346.374461
902.633135	4431.983336
902.940397	4688.550340
903.247619	5293.478720
903.554800	6469.174099
903.861941	8215.003814
904.169041	9765.206512
904.476101	10602.882444
904.783121	10468.507968
905.090100	9857.230255
905.397039	9079.964991
905.703938	8355.241152
906.010796	7693.647683
906.317614	7167.056314
906.624391	6657.292317
906.931129	6251.512199
907.237826	5871.656216
907.544483	5510.782697
907.851099	5152.109642
908.157675	4808.340759
908.464211	4486.856296
908.770707	4247.706478
909.077163	4044.237947
909.383578	3897.142119
909.689954	3783.015437
909.996289	3705.381668
910.302584	3642.445382
910.608839	3606.023046
910.915054	3576.166812
911.221229	3557.811971
911.527363	3567.450657
911.833458	3575.541709
912.139513	3598.436109
912.445527	3619.472844
912.751502	3688.829039
913.057436	3776.724077
913.363331	3891.788413
913.669186	4064.140422
913.975000	4278.855767
914.280775	4633.843739
914.586510	5121.068738
914.892205	5803.638448
915.197859	6718.857408
915.503475	7841.872730
915.809050	8884.035505
916.114585	9593.502292
916.420081	9950.141241
916.725536	9996.517336
917.030952	9636.279003
917.336328	9278.906566
917.641665	8913.647243
917.946961	8468.490673
918.252218	8076.823266
918.557435	7585.141888
918.862612	7184.685229
919.167750	6839.245203
919.472848	6434.218738
919.777906	6084.276962
920.082925	5735.968519
920.387904	5373.363364
920.692843	5114.212768
920.997743	4868.446436
921.302603	4636.082011
921.607423	4474.775170
921.912204	4321.234227
922.216946	4203.619067
922.521647	4087.382662
922.826310	3990.211901
923.130932	3899.939959
923.435516	3801.771050
923.740059	3736.601533
924.044564	3661.516067
924.349028	3605.574383
924.653454	3541.718087
924.957840	3478.028150
925.262186	3432.748506
925.566493	3374.109804
925.870761	3321.898574
926.174989	3286.093779
926.479178	3252.174375
926.783328	3206.914896
927.087438	3183.599559
927.391509	3151.124446
927.695541	3121.507667
927.999533	3096.495983
928.303486	3075.529824
928.607400	3059.980385
928.911275	3047.727860
929.215110	3029.733462
929.518906	3021.521422
929.822663	3018.552182
930.126381	3017.937162
930.430060	3023.109385
930.733699	3024.775487
931.037299	3034.446940
931.340861	3033.658000
931.644383	3042.628733
931.947866	3042.326264
932.251309	3037.088505
932.554714	3036.720501
932.858080	3031.797814
933.161407	3021.460928
933.464694	3017.498581
933.767943	3012.011285
934.071153	3004.885614
934.374323	2996.764315
934.677455	2993.555621
934.980548	2982.147490
935.283602	2976.887046
935.586617	2972.632312
935.889593	2985.242758
936.192530	2985.109168
936.495428	2995.824140
936.798287	3016.384486
937.101108	3039.599000
937.403890	3082.733632
937.706632	3137.498207
938.009336	3209.937067
938.312002	3281.677728
938.614628	3343.217613
938.917216	3396.701735
939.219765	3429.960748
939.522275	3462.806386
939.824747	3470.350472
940.127179	3468.107159
940.429573	3462.924853
940.731929	3462.884523
941.034246	3451.884726
941.336524	3443.561781
941.638763	3426.777259
941.940964	3414.953233
942.243126	3377.232799
942.545250	3359.823174
942.847335	3323.909994
943.149381	3288.770631
943.451389	3258.584202
943.753359	3225.093297
944.055290	3199.035572
944.357182	3175.644618
944.659036	3159.752381
944.960851	3147.802326
945.262628	3136.797487
945.564367	3137.231026
945.866067	3128.477062
946.167729	3128.396404
946.469352	3125.618728
946.770937	3122.566310
947.072484	3107.894031
947.373992	3110.840586
947.675462	3104.307250
947.976893	3086.602718
948.278286	3079.633323
948.579641	3073.616706
948.880958	3067.675706
949.182236	3071.905234
949.483476	3061.724624
949.784678	3062.294274
950.085841	3062.175807
950.386967	3073.410018
950.688054	3085.854107
950.989103	3102.701643
951.290114	3124.817185
951.591087	3146.854589
951.892021	3172.952642
952.192917	3199.653114
952.493776	3226.189747
952.794596	3236.463619
953.095378	3243.753127
953.396122	3241.857654
953.696828	3236.385481
953.997496	3224.989953
954.298126	3206.355328
954.598718	3188.295394
954.899272	3163.538287
955.199788	3140.411994
955.500266	3113.207407
955.800706	3077.528641
956.101108	3039.165460
956.401472	3012.752335
956.701798	2986.082110
957.002087	2944.931172
957.302337	2915.851276
957.602550	2892.014180
957.902724	2861.053933
958.202861	2839.029132
958.502960	2819.393838
958.803022	2798.838533
959.103045	2777.340532
959.403031	2762.035589
959.702979	2748.522777
960.002889	2736.378637
960.302762	2724.413458
960.602596	2712.937272
960.902393	2704.692464
961.202153	2695.885569
961.501875	2690.957841
961.801559	2681.939217
962.101205	2678.072652
962.400814	2670.977227
962.700385	2664.723676
962.999918	2658.487769
963.299414	2653.935607
963.598873	2651.919145
963.898293	2644.372538
964.197677	2647.669453
964.497022	2643.986890
964.796331	2642.608134
965.095601	2638.421456
965.394835	2636.485653
965.694030	2633.034983
965.993189	2631.865435
966.292309	2631.305867
966.591393	2631.081536
966.890439	2631.220168
967.189447	2633.115642
967.488419	2632.649335
967.787353	2632.117493
968.086249	2630.973151
968.385108	2634.862401
968.683930	2634.413739
968.982714	2640.155613
969.281462	2643.787764
969.580172	2650.684063
969.878844	2651.765390
970.177480	2663.740651
970.476078	2666.104952
970.774639	2677.452590
971.073162	2681.225893
971.371649	2684.752180
971.670098	2691.978674
971.968510	2696.487987
972.266885	2701.806404
972.565223	2707.016436
972.863524	2708.725387
973.161788	2712.844010
973.460014	2715.457848
973.758204	2718.104454
974.056356	2721.330793
974.354471	2722.938921
974.652550	2721.628221
974.950591	2720.509085
975.248595	2717.668394
975.546563	2714.890719
975.844493	2716.403065
976.142386	2709.451314
976.440243	2706.136755
976.738062	2701.433358
977.035845	2697.783563
977.333590	2685.727644
977.631299	2684.689166
977.928971	2676.091478
978.226606	2670.805828
978.524204	2668.053358
978.821765	2664.784170
979.119290	2667.551763
979.416777	2667.952535
979.714228	2666.505724
980.011642	2672.610561
980.309020	2679.068279
980.606360	2688.727130
980.903664	2704.246322
981.200931	2735.294789
981.498162	2773.839451
981.795356	2837.562156
982.092513	2916.899836
982.389633	3011.718898
982.686717	3104.871860
982.983764	3177.260308
983.280775	3233.993454
983.577749	3251.249323
983.874686	3245.033581
984.171587	3219.021227
984.468451	3183.130732
984.765279	3145.790905
985.062070	3103.626695
985.358824	3063.483987
985.655543	3015.081348
985.952224	2964.551342
986.248869	2901.761251
986.545478	2848.163703
986.842050	2792.562297
987.138586	2750.191398
987.435086	2713.206973
987.731549	2683.721264
988.027975	2657.144301
988.324366	2639.354069
988.620719	2623.776904
988.917037	2615.600153
989.213318	2604.640684
989.509563	2599.057606
989.805772	2595.407811
990.101944	2592.546956
990.398080	2586.661409
990.694180	2585.214598
990.990244	2585.423806
991.286271	2586.542942
991.582262	2586.568147
991.878217	2587.442788
992.174136	2590.762388
992.470019	2593.386308
992.765865	2597.799838
993.061676	2599.077771
993.357450	2606.392485
993.653188	2610.614451
993.948890	2628.629015
994.244556	2643.583597
994.540186	2663.213851
994.835780	2690.438602
995.131337	2722.878427
995.426859	2759.759508
995.722345	2805.770120
996.017795	2850.724609
996.313208	2887.676267
996.608586	2919.090217
996.903928	2935.554625
997.199234	2936.411622
997.494504	2939.637960
997.789738	2926.341917
998.084936	2905.622774
998.380099	2876.726881
998.675225	2850.268385
998.970316	2823.925835
999.265371	2787.291770
999.560390	2755.507295
999.855373	2726.472770
1000.150320	2700.455375
1000.445232	2671.756086
1000.740108	2653.791934
1001.034948	2636.110087
1001.329752	2620.411934
1001.624521	2611.829369
1001.919254	2599.080291
1002.213951	2589.822212
1002.508613	2581.779051
1002.803239	2575.896025
1003.097829	2571.981569
1003.392384	2566.675754
1003.686903	2561.760629
1003.981386	2557.069836
1004.275834	2556.583364
1004.570246	2552.379042
1004.864623	2551.108671
1005.158964	2544.585418
1005.453270	2548.005841
1005.747540	2545.510470
1006.041775	2543.027702
1006.335974	2541.016281
1006.630138	2541.132228
1006.924266	2539.322454
1007.218359	2536.832124
1007.512416	2534.117462
1007.806438	2534.006557
1008.100425	2533.265507
1008.394376	2533.192411
1008.688292	2536.058307
1008.982172	2534.293903
1009.276017	2537.928575
1009.569827	2532.327853
1009.863602	2532.786598
1010.157341	2533.134437
1010.451045	2532.731145
1010.744714	2527.316946
1011.038347	2531.591844
1011.331945	2532.385826
1011.625508	2527.861390
1011.919036	2528.660413
1012.212528	2527.062368
1012.505986	2526.923736
1012.799408	2526.180166
1013.092795	2526.689322
1013.386147	2524.821575
1013.679464	2525.164373
1013.972745	2524.108251
1014.265992	2523.165556
1014.559204	2524.526667
1014.852380	2524.854342
1015.145521	2521.297808
1015.438628	2524.110772
1015.731699	2526.936339
1016.024736	2526.838036
1016.317737	2525.945752
1016.610703	2526.454908
1016.903635	2530.220650
1017.196531	2525.416431
1017.489393	2530.165198
1017.782219	2530.475229
1018.075011	2534.656866
1018.367768	2534.482946
1018.660490	2534.319108
1018.953177	2534.319108
1019.245829	2534.319108
