Dividing Wavelength (nm)	Counts (n)	Blue Motor Position (mm): 29.500000	Red Motor Position (mm): 0.000000	
326.493990	2068.614796
326.888308	2068.614796
327.282561	2068.614796
327.676750	2042.423481
328.070874	2045.433050
328.464933	2050.955634
328.858929	2056.392518
329.252859	2067.442727
329.646726	2082.190623
330.040528	2098.060175
330.434265	2113.876795
330.827938	2137.169447
331.221547	2156.915646
331.615091	2176.119922
332.008571	2195.697243
332.401986	2216.658361
332.795338	2237.692575
333.188625	2256.004566
333.581847	2275.965015
333.975006	2294.808848
334.368100	2312.944399
334.761129	2328.667758
335.154095	2343.866837
335.546996	2393.507079
335.939833	2497.846360
336.332606	2509.191477
336.725315	2519.372087
337.117960	2532.411032
337.510540	2539.551826
337.903056	2551.408620
338.295508	2557.130330
338.687896	2564.558470
339.080220	2568.331773
339.472480	2573.831672
339.864676	2576.044739
340.256807	2578.867785
340.648875	2581.262333
341.040879	2583.183013
341.432818	2583.304000
341.824694	2588.183837
342.216506	2584.082859
342.608253	2586.847932
342.999937	2580.733012
343.391557	2585.806933
343.783113	2580.085224
344.174605	2580.259143
344.566033	2577.277301
344.957397	2575.827969
345.348697	2572.931826
345.739934	2570.940571
346.131106	2569.670200
346.522215	2572.117680
346.913260	2569.332443
347.304241	2567.825138
347.695159	2565.110476
348.086012	2564.137533
348.476802	2563.519992
348.867528	2558.834240
349.258191	2556.480021
349.648789	2554.443395
350.039324	2549.170348
350.429796	2555.461708
350.820203	2557.248797
351.210548	2553.712427
351.600828	2550.566747
351.991045	2554.256872
352.381198	2551.017931
352.771288	2553.596481
353.161314	2552.250493
353.551276	2551.748898
353.941175	2549.067004
354.331010	2553.178065
354.720782	2553.694783
355.110490	2555.928014
355.500135	2553.954403
355.889717	2553.677139
356.279235	2550.324772
356.668689	2553.246121
357.058080	2554.418189
357.447408	2556.298539
357.836672	2555.174362
358.225873	2555.660833
358.615010	2554.151008
359.004084	2558.123437
359.393095	2554.173693
359.782043	2552.734443
360.170927	2557.528581
360.559748	2556.406924
360.948505	2559.250135
361.337199	2559.776935
361.725830	2560.018911
362.114398	2559.449260
362.502903	2562.804148
362.891344	2560.437327
363.279722	2558.199054
363.668037	2560.210475
364.056289	2559.303067
364.444478	2563.933367
364.832603	2562.985630
365.220665	2562.874724
365.608665	2563.467060
365.996601	2565.332287
366.384474	2565.193655
366.772284	2566.912689
367.160031	2564.581155
367.547715	2566.824468
367.935336	2565.029818
368.322893	2564.717266
368.710388	2562.448747
369.097820	2561.984961
369.485189	2563.530074
369.872495	2570.186918
370.259738	2565.465878
370.646918	2566.156516
371.034035	2570.108780
371.421090	2568.382185
371.808081	2566.012843
372.195010	2566.327915
372.581875	2571.442165
372.968678	2569.478636
373.355418	2567.719273
373.742096	2570.073492
374.128710	2571.258163
374.515262	2569.513924
374.901751	2571.270766
375.288177	2572.886456
375.674540	2572.031980
376.060841	2570.562484
376.447079	2568.576269
376.833254	2572.047104
377.219367	2572.334450
377.605417	2573.816549
377.991404	2575.311251
378.377329	2571.648853
378.763191	2574.887794
379.148991	2574.618092
379.534727	2576.470716
379.920402	2573.592218
380.306013	2575.694379
380.691563	2575.691858
381.077049	2576.831159
381.462474	2574.197156
381.847835	2576.337126
382.233134	2577.473906
382.618371	2577.486509
383.003545	2579.311407
383.388657	2577.388206
383.773706	2576.422825
384.158693	2579.939030
384.543618	2578.275449
384.928480	2580.213773
385.313280	2578.877867
385.698017	2580.211252
386.082692	2581.043043
386.467305	2577.403330
386.851856	2578.076324
387.236344	2580.851479
387.620770	2578.880388
388.005133	2577.418453
388.389435	2579.674370
388.773674	2575.699420
389.157851	2582.646130
389.541965	2580.080183
389.926018	2584.322313
390.310008	2583.581264
390.693936	2582.182344
391.077802	2584.718044
391.461606	2581.731160
391.845348	2580.929617
392.229027	2583.183013
392.612645	2587.626790
392.996200	2586.293405
393.379694	2587.155442
393.763125	2586.628641
394.146494	2585.885071
394.529801	2586.991604
394.913047	2589.068560
395.296230	2586.568147
395.679351	2591.606781
396.062410	2590.548138
396.445408	2584.617221
396.828343	2589.355906
397.211217	2587.619228
397.594028	2590.230546
397.976778	2588.050247
398.359466	2589.018148
398.742092	2588.972778
399.124656	2590.719538
399.507158	2590.525453
399.889598	2591.737851
400.271977	2590.026379
400.654294	2591.740371
401.036549	2595.385126
401.418742	2592.584765
401.800874	2594.636514
402.182944	2593.078798
402.564952	2593.124168
402.946898	2591.563931
403.328783	2595.589292
403.710606	2595.294385
404.092367	2596.186669
404.474067	2596.579879
404.855705	2596.436206
405.237282	2595.753130
405.618797	2594.863366
406.000250	2596.252204
406.381642	2600.086002
406.762972	2592.425968
407.144240	2594.381936
407.525447	2596.030393
407.906593	2593.623242
408.287677	2599.881835
408.668700	2600.350662
409.049661	2602.006681
409.430560	2600.698502
409.811399	2601.484922
410.192176	2600.950559
410.572891	2601.187494
410.953545	2604.139089
411.334138	2598.929057
411.714669	2602.097422
412.095139	2606.379882
412.475547	2603.508945
412.855894	2603.652618
413.236180	2604.751589
413.616405	2602.092381
413.996568	2602.921651
414.376670	2604.625561
414.756711	2606.682351
415.136691	2605.512804
415.516609	2606.165633
415.896466	2608.229986
416.276262	2606.833586
416.655997	2607.612444
417.035670	2608.419029
417.415283	2610.586725
417.794834	2609.523042
418.174324	2607.572115
418.553753	2607.942640
418.933121	2610.112857
419.312428	2612.293156
419.691674	2611.539503
420.070859	2614.899432
420.449983	2611.335336
420.829045	2613.709720
421.208047	2613.311469
421.586988	2616.313476
421.965867	2615.663167
422.344686	2616.898250
422.723444	2619.328086
423.102141	2615.070831
423.480777	2618.909670
423.859352	2621.725154
424.237866	2619.857407
424.616319	2621.984774
424.994712	2622.715741
425.373044	2624.114661
425.751314	2623.050978
426.129524	2620.684156
426.507673	2623.774383
426.885762	2622.052829
427.263789	2628.931484
427.641756	2631.656227
428.019662	2634.872484
428.397508	2636.520941
428.775292	2634.567494
429.153016	2636.954480
429.530679	2640.662249
429.908282	2643.230717
430.285824	2644.521252
430.663305	2648.327323
431.040726	2650.784886
431.418086	2656.670433
431.795385	2659.032213
432.172624	2664.453974
432.549802	2666.077226
432.926920	2673.061745
433.303977	2678.463341
433.680974	2684.275791
434.057910	2691.741740
434.434786	2702.164326
434.811601	2706.673638
435.188355	2718.658981
435.565050	2726.029148
435.941683	2735.519120
436.318257	2754.446132
436.694770	2764.092380
437.071222	2778.968825
437.447614	2787.480813
437.823946	2800.161836
438.200218	2820.437357
438.576429	2832.563852
438.952580	2853.421626
439.328670	2871.025336
439.704700	2893.082904
440.080670	2910.956315
440.456580	2944.374124
440.832429	2965.196610
441.208218	2973.171715
441.583947	3007.169257
441.959616	3037.900131
442.335224	3066.783422
442.710773	3102.626026
443.086261	3145.085144
443.461689	3157.821619
443.837057	3200.366437
444.212365	3254.357195
444.587612	3286.832308
444.962800	3314.999755
445.337927	3367.016901
445.712995	3357.005169
446.088002	3473.995227
446.462949	3527.562527
446.837837	3574.651945
447.212664	3626.192702
447.587431	3803.066626
447.962139	4015.667207
448.336786	4219.208835
448.711374	4251.920882
449.085901	4114.927527
449.460369	4166.808561
449.834776	4204.193758
450.209124	4460.871668
450.583412	4507.938401
450.957640	4646.973424
451.331808	4636.586127
451.705917	4592.602059
452.079965	4641.206344
452.453954	4773.428248
452.827883	4848.669989
453.201752	4923.813429
453.575562	5014.954970
453.949311	5202.178382
454.323001	5317.315816
454.696632	5394.120315
455.070202	5674.353016
455.443713	5802.741122
455.817164	5968.448890
456.190556	6190.753693
456.563888	6254.695688
456.937160	6459.769827
457.310373	6378.874431
457.683526	6492.938098
458.056619	6621.457274
458.429653	6762.037411
458.802628	6936.985614
459.175542	7082.896771
459.548398	7451.763039
459.921194	7852.174327
460.293930	8119.267261
460.666607	8681.885236
461.039224	9217.283501
461.411782	9544.698882
461.784280	9519.513277
462.156719	9631.363878
462.529099	9740.341021
462.901419	9536.784270
463.273680	9451.629099
463.645882	9707.883552
464.018024	9789.456983
464.390106	10145.569132
464.762130	10948.801380
465.134094	12052.476315
465.505999	13655.795131
465.877845	15283.243430
466.249631	16296.742205
466.621358	16193.149014
466.993026	15851.835172
467.364634	15537.342790
467.736184	15163.463094
468.107674	14904.062961
468.479105	14948.704899
468.850477	14908.809208
469.221790	14751.011010
469.593043	14393.865425
469.964238	14246.961160
470.335373	14423.593109
470.706449	15096.410707
471.077467	15903.509520
471.448425	18028.499539
471.819324	19667.373613
472.190164	19727.496935
472.560945	18419.292306
472.931667	17225.146303
473.302330	17058.694965
473.672934	16717.141668
474.043479	17175.183428
474.413965	17097.700893
474.784393	17046.843212
475.154761	17721.883959
475.525070	17927.951205
475.895321	17864.503243
476.265513	18439.295604
476.635645	19050.069201
477.005719	19196.129072
477.375734	19596.676472
477.745691	20239.935264
478.115588	20904.923950
478.485427	22064.333882
478.855207	23810.468587
479.224928	25546.047115
479.594591	26928.323938
479.964194	26662.665213
480.333739	27154.165110
480.703226	27465.968037
481.072653	27936.653010
481.442022	28508.708025
481.811333	28965.809609
482.180584	28596.782024
482.549777	28464.187075
482.918912	28291.484706
483.287988	28301.998032
483.657005	28213.485453
484.025964	27907.636128
484.394864	28130.198030
484.763706	28123.536145
485.132489	27655.820412
485.501213	27772.571014
485.869879	27960.631258
486.238487	27941.895810
486.607036	28234.769204
486.975527	27964.031517
487.343959	28331.012393
487.712333	28706.817809
488.080648	28698.530152
488.448905	29149.403391
488.817104	29061.450380
489.185244	29891.887214
489.553326	30851.916991
489.921350	32743.758686
490.289315	35234.388635
490.657222	36127.693699
491.025070	36690.929215
491.392861	36438.667356
491.760593	35688.707502
492.128267	34708.525712
492.495883	33758.805095
492.863440	32877.225755
493.230939	31944.062807
493.598380	31406.103636
493.965763	31261.223395
494.333088	30777.549890
494.700354	30592.660531
495.067563	30553.034541
495.434713	30442.812233
495.801805	30742.680228
496.168839	30587.536198
496.535815	30437.246799
496.902733	30567.679093
497.269593	30381.723531
497.636395	30536.925534
498.003139	30810.879478
498.369825	30580.498748
498.736453	30979.526239
499.103023	30811.227318
499.469535	30909.091237
499.835989	31015.051250
500.202385	30898.562788
500.568723	30939.295311
500.935003	31231.793139
501.301226	31102.114498
501.667390	31817.842397
502.033497	32011.256347
502.399546	31808.934678
502.765537	31413.685532
503.131470	31881.645761
503.497345	32303.118990
503.863163	31267.751690
504.228923	32026.702442
504.594625	32407.143200
504.960269	31883.611811
505.325856	32539.546585
505.691385	32210.709599
506.056856	32521.285005
506.422270	32995.070287
506.787625	32507.026101
507.152924	32960.515698
507.518164	33133.538181
507.883347	32716.120560
508.248472	32848.559233
508.613540	33524.774569
508.978550	33727.423912
509.343503	33566.084304
509.708398	33912.759413
510.073236	34505.508365
510.438016	34603.694918
510.802738	34276.566883
511.167403	34820.124256
511.532010	35036.916556
511.896561	35529.197832
512.261053	36277.753726
512.625488	36046.669754
512.989866	35970.545810
513.354186	36037.804885
513.718449	35978.982181
514.082655	36830.168405
514.446803	36530.928033
514.810894	37127.510783
515.174927	37133.119066
515.538904	37131.316854
515.902822	37759.958821
516.266684	37444.216232
516.630488	37775.299052
516.994235	37782.144939
517.357925	38347.202832
517.721558	38592.959082
518.085133	38979.771858
518.448651	39162.284312
518.812112	39042.297289
519.175516	39178.090850
519.538863	39605.210172
519.902152	39684.683962
520.265385	40220.190612
520.628560	40222.464172
520.991678	40162.121560
521.354739	40385.243030
521.717743	40748.700140
522.080690	40669.261637
522.443580	41320.581235
522.806413	41329.221772
523.169189	41468.211425
523.531908	41680.716224
523.894569	41530.734336
524.257174	41722.613254
524.619722	42062.661766
524.982213	42204.398848
525.344647	42257.819955
525.707025	42352.639018
526.069345	42807.477123
526.431608	42715.458422
526.793815	43072.041918
527.155964	42638.820280
527.518057	42886.814803
527.880093	42730.844023
528.242072	43357.555228
528.603995	43094.162502
528.965860	43027.382337
529.327669	43249.273764
529.689421	43303.919872
530.051117	43248.356274
530.412755	43514.440977
530.774337	43568.048607
531.135862	43517.178324
531.497331	43675.760421
531.858743	43665.191642
532.220098	44054.648503
532.581396	43782.000217
532.942638	43566.135489
533.303824	43805.476871
533.664953	43864.793608
534.026025	43534.875294
534.387040	44113.173778
534.747999	44168.870967
535.108902	44517.013051
535.469748	43836.580790
535.830537	44112.034477
536.191270	44343.277246
536.551947	44087.930200
536.912567	44361.001943
537.273131	44496.603940
537.633638	44100.785143
537.994089	44295.247652
538.354483	44060.574379
538.714821	44707.712339
539.075103	44981.593187
539.435328	44859.022572
539.795497	44625.654958
540.155609	44766.003201
540.515665	45319.078272
540.875665	44621.498526
541.235609	44903.934212
541.595496	45047.370162
541.955328	45625.885416
542.315102	45061.407255
542.674821	44959.712058
543.034483	44857.487541
543.394090	44870.942380
543.753640	44869.311567
544.113134	45907.486790
544.472571	45034.248039
544.831953	46132.032385
545.191278	45401.942238
545.550548	45112.403567
545.909761	45736.339617
546.268918	45886.185395
546.628019	46275.450692
546.987064	45714.904631
547.346053	45053.870730
547.704986	45940.813858
548.063863	45583.106184
548.422684	45775.663138
548.781449	45371.108021
549.140158	45884.370579
549.498811	45655.401372
549.857408	45062.987657
550.215949	45893.865593
550.574434	45735.991777
550.932864	45686.036463
551.291237	46386.756848
551.649555	46129.564741
552.007817	46306.499158
552.366022	46000.480955
552.724173	46083.987669
553.082267	46465.401369
553.440305	46853.474433
553.798288	46120.974614
554.156215	46493.609145
554.514086	46692.717078
554.871902	46294.539021
555.229661	46459.510780
555.587365	46147.150806
555.945014	46268.831657
556.302606	46277.630991
556.660143	46377.213944
557.017625	46634.897564
557.375050	46307.197358
557.732421	46709.320118
558.089735	46752.353928
558.446994	46640.359654
558.804197	47106.469780
559.161345	46973.821899
559.518437	46333.824733
559.875474	46587.276304
560.232455	46792.567212
560.589381	46827.434353
560.946251	46672.948193
561.303065	47297.083368
561.659825	46991.624733
562.016528	46795.128118
562.373177	46390.643578
562.729770	47041.645582
563.086307	46542.266362
563.442789	47089.612161
563.799216	46918.056655
564.155587	46842.562855
564.511904	46806.473235
564.868164	46856.519290
565.224370	47156.636822
565.580520	46883.350831
565.936615	47084.591172
566.292654	46735.329951
566.648638	47092.687265
567.004567	47035.422278
567.360441	47129.089437
567.716260	46830.373345
568.072023	47229.224397
568.427732	47159.026329
568.783385	46699.386524
569.138982	47110.003629
569.494525	47238.303515
569.850013	46868.340796
570.205445	46975.548494
570.560823	46746.591889
570.916145	46614.755634
571.271412	46850.711881
571.626625	46484.610685
571.981782	46584.803618
572.336884	46195.755091
572.691931	46507.386618
573.046923	46193.428598
573.401860	46006.583272
573.756743	46051.409212
574.111570	46162.705286
574.466342	46095.728516
574.821059	46245.768378
575.175722	45744.584424
575.530330	45829.459811
575.884882	45486.926010
576.239380	45391.640641
576.593823	45490.664026
576.948211	45436.854749
577.302544	44960.316997
577.656823	44966.305888
578.011047	45238.646663
578.365216	45095.039313
578.719330	44809.727649
579.073389	44776.997958
579.427394	44823.210215
579.781344	44755.573054
580.135239	44497.176111
580.489080	44571.205455
580.842866	44062.432044
581.196597	44547.529676
581.550273	44534.873859
581.903895	44470.929343
582.257463	44903.596454
582.610975	44333.290720
582.964434	44667.705742
583.317837	44172.188046
583.671186	44139.392819
584.024481	44416.600828
584.377721	43978.275022
584.730906	44202.341707
585.084037	44352.623545
585.437113	44060.478597
585.790135	44191.167990
586.143103	43770.350111
586.496016	43934.724494
586.848874	44043.295824
587.201679	44066.444803
587.554428	43575.413733
587.907124	43830.475953
588.259765	43606.779792
588.612352	43756.975930
588.964884	43234.470416
589.317362	43525.337431
589.669786	43535.255901
590.022155	43398.633070
590.374470	43881.613418
590.726731	43472.783402
591.078937	42811.794872
591.431090	43159.803366
591.783188	42669.717512
592.135232	42481.279182
592.487222	42743.721651
592.839157	42891.099783
593.191038	42539.234807
593.542866	42352.323946
593.894639	41736.720923
594.246358	42043.986812
594.598022	42039.119578
594.949633	41628.313430
595.301190	41626.740590
595.652692	41582.171749
596.004141	42080.499889
596.355535	40977.442495
596.706876	40985.246202
597.058162	40706.886289
597.409395	41201.476413
597.760573	41430.433018
598.111698	41036.124047
598.462768	40964.932872
598.813785	40991.227531
599.164748	40601.783273
599.515657	40859.882788
599.866511	40390.402651
600.217312	41051.602910
600.568060	40007.761430
600.918753	40832.209374
601.269392	40740.430127
601.619978	40469.722686
601.970510	40684.692609
602.320988	40823.699906
602.671412	41089.812335
603.021783	40942.703904
603.372100	40525.253516
603.722363	40645.235498
604.072572	40662.408189
604.422728	40662.352736
604.772830	40453.782557
605.122878	40623.487960
605.472872	40486.119039
605.822813	40721.145193
606.172701	40488.195994
606.522534	40819.528351
606.872314	41017.509586
607.222041	40844.378719
607.571714	41179.880110
607.921333	40667.020844
608.270899	40873.115817
608.620411	41244.134657
608.969870	41018.732066
609.319276	41012.987671
609.668627	41067.021279
610.017926	41448.750051
610.367171	41593.887391
610.716362	41630.967598
611.065500	41537.141642
611.414585	41778.539815
611.763616	41940.880092
612.112594	41844.904085
612.461518	41959.514717
612.810389	42363.379196
613.159207	42140.023313
613.507971	42106.721451
613.856682	42613.677526
614.205340	42436.440639
614.553945	43134.511897
614.902496	42478.405724
615.250994	42895.052048
615.599439	42960.312305
615.947830	43070.990838
616.296169	43082.209926
616.644454	43129.949653
616.992686	43268.546095
617.340864	43704.537847
617.688990	43218.308477
618.037063	43897.044389
618.385082	43711.086306
618.733048	44069.595524
619.080961	43943.385196
619.428821	43989.484028
619.776628	44028.318556
620.124382	43835.905276
620.472083	43962.133247
620.819731	44074.445114
621.167326	43665.173998
621.514868	43658.328111
621.862357	43110.478196
622.209793	43219.667068
622.557176	42783.836633
622.904506	42542.914849
623.251783	42200.338198
623.599007	41874.089845
623.946179	41802.487816
624.293297	41544.670606
624.640363	40998.486792
624.987376	40867.426874
625.334336	40675.127020
625.681243	40258.389955
626.028097	40167.717241
626.374899	39980.970218
626.721647	39976.347479
627.068343	39737.676571
627.414987	39434.567114
627.761577	39205.262669
628.108115	39519.906287
628.454600	38771.962893
628.801032	39001.095939
629.147412	38905.225795
629.493739	38788.823033
629.840014	38357.378401
630.186236	38758.071994
630.532405	38207.237716
630.878521	38464.389494
631.224585	38244.375897
631.570597	37903.314113
631.916556	38070.314937
632.262462	37978.444949
632.608316	37923.710621
632.954117	37781.542521
633.299866	37728.565035
633.645562	37661.822679
633.991206	37145.328741
634.336797	36752.753926
634.682336	36651.880438
635.027823	36401.917345
635.373257	36302.281460
635.718639	35968.635213
636.063968	35878.159104
636.409245	35230.194395
636.754470	35197.983942
637.099642	34952.903207
637.444762	34382.879777
637.789829	34511.368706
638.134845	34126.103564
638.479808	34042.213723
638.824719	34000.921632
639.169577	33484.742766
639.514383	33600.684264
639.859137	33211.852506
640.203839	33379.158320
640.548489	33098.955865
640.893086	33092.972016
641.237632	32797.656182
641.582125	32872.693757
641.926566	32664.564680
642.270955	32698.489124
642.615292	32643.480054
642.959576	32517.993132
643.303809	32520.107896
643.647990	32616.882926
643.992118	32593.282764
644.336195	32414.528490
644.680219	32494.070336
645.024192	32673.243026
645.368112	33198.327090
645.711981	33218.143866
646.055797	33897.187289
646.399562	33691.956875
646.743274	34553.096857
647.086935	34956.767251
647.430544	34954.516376
647.774101	34971.328624
648.117606	35286.446110
648.461059	35422.403508
648.804460	35057.812139
649.147810	34546.351793
649.491108	34240.711677
649.834354	34138.293074
650.177548	33329.263499
650.520690	32811.045487
650.863781	32798.689619
651.206820	32616.139356
651.549807	32197.779039
651.892742	31613.466459
652.235626	31544.505995
652.578458	31387.839536
652.921238	30681.677226
653.263967	30969.670783
653.606644	30647.263789
653.949269	30575.455073
654.291843	30174.547231
654.634365	30538.473168
654.976836	30078.445195
655.319255	30164.648926
655.661622	30038.695697
656.003938	29917.975186
656.346203	29721.087881
656.688416	29984.503293
657.030577	29758.601627
657.372687	29574.652444
657.714746	29723.875639
658.056753	29900.822660
658.398708	29284.110583
658.740612	29347.366982
659.082465	29553.482118
659.424266	29445.518247
659.766016	29446.014801
660.107715	29293.426636
660.449362	29392.767613
660.790958	29368.978408
661.132503	29291.226172
661.473996	29365.764673
661.815438	29446.702918
662.156829	29573.694625
662.498168	29374.357319
662.839456	29347.210706
663.180693	29467.311155
663.521879	29523.225113
663.863013	29475.021600
664.204097	29455.986203
664.545129	29854.718787
664.886110	29794.625713
665.227040	29904.301056
665.567918	29908.167621
665.908746	29954.883993
666.249522	30040.099658
666.590248	30089.346690
666.930922	30185.804128
667.271545	30192.042556
667.612118	30238.920245
667.952639	30050.323118
668.293109	30100.439749
668.633528	29953.303592
668.973896	29903.991025
669.314213	29900.706713
669.654480	29704.048781
669.994695	29693.411946
670.334859	29590.811863
670.674973	29407.076928
671.015035	29604.112947
671.355047	29530.960764
671.695008	29445.729976
672.034918	29356.632623
672.374777	29447.144019
672.714585	29329.090278
673.054342	29448.628639
673.394049	29324.628857
673.733705	29531.754745
674.073310	29245.497865
674.412864	29295.511153
674.752368	29028.947540
675.091820	29263.567881
675.431223	28872.891061
675.770574	28681.302009
676.109875	28510.064095
676.449125	28303.298650
676.788324	28208.061171
677.127473	27731.624242
677.466571	27627.277398
677.805619	27343.994799
678.144616	27273.905117
678.483562	27220.426036
678.822458	26900.431234
679.161303	26849.954161
679.500098	26775.957584
679.838842	26692.034975
680.177535	26736.573569
680.516179	26957.182023
680.854771	27030.414865
681.193314	27712.099853
681.531805	28659.481375
681.870247	29400.331865
682.208638	30211.128364
682.546978	30571.666646
682.885268	30750.458729
683.223508	30330.603710
683.561697	30082.604147
683.899836	29914.269937
684.237925	29509.238432
684.575963	29343.205509
684.913951	28956.506159
685.251889	29093.227293
685.589776	29094.175030
685.927614	29082.739172
686.265401	29255.466747
686.603137	29357.265287
686.940824	29814.245883
687.278460	30143.070267
687.616046	30337.557982
687.953582	31004.008603
688.291068	30934.367583
688.628504	31302.054221
688.965889	31331.005568
689.303224	31077.407803
689.640510	30816.460036
689.977745	30232.258360
690.314930	29499.017492
690.652065	29083.485263
690.989150	28409.750175
691.326185	27573.359737
691.663170	26965.787273
692.000105	26261.475066
692.336990	25647.278526
692.673825	25228.030966
693.010610	24733.531583
693.347345	24223.230702
693.684030	23598.992183
694.020665	23411.887237
694.357251	22747.168253
694.693786	22747.947111
695.030272	22504.028362
695.366707	22014.003002
695.703093	21737.200806
696.039429	21798.637348
696.375716	21561.531718
696.711952	21549.039739
697.048139	21420.144997
697.384276	21245.708471
697.720363	21369.642718
698.056400	21270.833582
698.392388	21098.877303
698.728326	21098.375709
699.064214	20943.085485
699.400053	20956.779779
699.735842	20581.183571
700.071581	20389.375229
700.407270	20158.248407
700.742910	19975.705706
701.078501	19725.641790
701.414042	19529.182983
701.749533	19231.243229
702.084974	18920.879552
702.420366	19146.163676
702.755709	18745.938910
703.091002	18437.853834
703.426246	18505.453187
703.761440	18439.792158
704.096584	18194.068675
704.431679	18134.908214
704.766725	18083.455678
705.101721	17995.308582
705.436668	18113.402652
705.771565	17833.205239
706.106413	18136.965005
706.441212	18201.411116
706.775961	18288.300444
707.110661	18360.840127
707.445311	18715.520588
707.779913	18607.566799
708.114465	18898.413650
708.448967	19192.524647
708.783421	19807.510128
709.117825	20136.536158
709.452180	20357.774756
709.786485	20784.331989
710.120742	21514.165037
710.454949	21618.763938
710.789107	22131.280405
711.123216	22812.443634
711.457275	23050.287793
711.791286	23618.924905
712.125247	23785.865236
712.459159	23569.579571
712.793023	24331.733977
713.126837	23343.100693
713.460602	23609.523153
713.794318	23299.093941
714.127985	23029.437580
714.461602	22151.689517
714.795171	22141.289616
715.128691	21157.742857
715.462162	20652.125208
715.795584	20227.765919
716.128957	19952.718044
716.462281	19587.357899
716.795556	19309.043357
717.128782	18844.672429
717.461960	18243.338392
717.795088	18202.089151
718.128167	17864.208335
718.461198	17419.107218
718.794180	17295.309082
719.127113	16968.579299
719.459997	16787.087678
719.792833	16413.898621
720.125619	16453.539734
720.458357	16117.188908
720.791046	15978.388299
721.123686	15833.482852
721.456278	15603.084477
721.788821	15595.210195
722.121315	15342.088819
722.453761	15432.887562
722.786158	15316.157124
723.118506	15395.721655
723.450805	15282.588080
723.783056	15463.754547
724.115259	15332.051882
724.447412	15320.116950
724.779518	15525.279309
725.111574	15574.813686
725.443582	15829.651575
725.775542	15782.947805
726.107453	16277.374092
726.439315	16181.945050
726.771129	16586.923623
727.102895	16982.220661
727.434612	17259.176612
727.766281	17441.666382
728.097901	17762.949198
728.429473	17868.546248
728.760996	17885.875214
729.092471	18014.175100
729.423897	17894.288900
729.755276	17740.291733
730.086606	17820.599834
730.417887	18360.416670
730.749120	18905.105781
731.080305	19122.792887
731.411442	19541.780827
731.742530	19646.190685
732.073570	19789.460277
732.404562	20100.108780
732.735506	20021.597850
733.066401	19895.720238
733.397249	19455.894689
733.728048	18867.922231
734.058798	18022.455196
734.389501	17277.796114
734.720156	16756.041732
735.050762	16168.573389
735.381320	15773.029335
735.711831	15483.465458
736.042293	15105.129382
736.372707	15121.848369
736.703073	14902.348969
737.033391	15080.818418
737.363661	15075.681482
737.693883	15178.886504
738.024056	15363.082704
738.354182	15562.109979
738.684260	15915.552837
739.014290	16179.089236
739.344272	16402.351858
739.674207	16754.224396
740.004093	16935.063187
740.333931	17005.830905
740.663722	17090.434070
740.993464	17150.350704
741.323159	17023.787495
741.652806	16731.456025
741.982405	16585.991010
742.311956	16235.199799
742.641460	16134.749768
742.970915	15799.452543
743.300323	15462.577437
743.629683	15258.443474
743.958996	14947.437049
744.288260	14635.954235
744.617477	14332.751517
744.946647	14297.292040
745.275768	13975.253050
745.604842	13775.182257
745.933869	13598.802366
746.262847	13565.649218
746.591778	13473.292759
746.920662	13349.998739
747.249498	13346.406917
747.578286	13483.269202
747.907027	13645.188543
748.235720	13896.278334
748.564365	13983.182785
748.892963	13919.918825
749.221514	14031.751782
749.550017	13922.089042
749.878473	13886.911870
750.206881	13676.355477
750.535242	13605.796967
750.863555	13526.608002
751.191821	13419.859049
751.520039	13443.930558
751.848210	13352.186600
752.176334	13398.754258
752.504411	13322.169049
752.832440	13158.966734
753.160421	13275.266154
753.488356	13167.382941
753.816243	13083.407400
754.144082	12897.789595
754.471875	12843.274557
754.799620	12811.487562
755.127318	12788.555353
755.454969	12773.308383
755.782572	12744.956934
756.110129	12750.255186
756.437638	12662.776044
756.765100	12676.036799
757.092515	12686.368644
757.419882	12716.799569
757.747203	12733.102660
758.074477	12812.311790
758.401703	12788.366309
758.728882	12970.717447
759.056014	13010.827387
759.383099	13179.302749
759.710138	13309.656905
760.037129	13438.559209
760.364073	13507.655784
760.690970	13524.949462
761.017820	13536.871791
761.344623	13726.411614
761.671379	14047.853228
761.998088	14588.947996
762.324751	15982.819473
762.651366	18917.756557
762.977935	23198.434701
763.304456	26472.467519
763.630931	28056.642554
763.957359	27273.390919
764.283740	25250.610294
764.610074	23101.392490
764.936362	20494.478245
765.262602	18606.596377
765.588796	16643.175339
765.914943	15320.016127
766.241044	14172.689841
766.567097	13350.492772
766.893104	12612.571193
767.219064	12141.377063
767.544978	11660.831593
767.870845	11261.660429
768.196665	11036.744309
768.522438	10808.990019
768.848165	10602.922773
769.173846	10391.978211
769.499479	10265.354509
769.825066	10103.967010
770.150607	9876.318584
770.476101	9803.652872
770.801548	9682.675262
771.126949	9519.452783
771.452303	9410.359693
771.777611	9209.021050
772.102872	9199.891520
772.428087	9071.082478
772.753256	8926.391280
773.078378	8835.917692
773.403453	8655.998911
773.728482	8542.323412
774.053465	8458.105896
774.378401	8359.422789
774.703291	8238.296465
775.028135	8128.767316
775.352932	8090.900688
775.677683	7988.552662
776.002388	7877.191053
776.327046	7889.115903
776.651658	7794.831202
776.976224	7694.265224
777.300743	7685.697783
777.625216	7605.218283
777.949643	7561.153557
778.274024	7576.766011
778.598359	7495.472364
778.922647	7506.225145
779.246889	7461.298382
779.571086	7463.748382
779.895236	7471.592418
780.219339	7478.791186
780.543397	7479.146587
780.867409	7559.807569
781.191374	7574.013541
781.515294	7540.326030
781.839167	7630.991182
782.162995	7606.879343
782.486776	7548.810292
782.810511	7509.217070
783.134201	7426.448885
783.457844	7417.833553
783.781441	7362.156530
784.104993	7295.348638
784.428498	7281.747605
784.751958	7259.266580
785.075372	7232.130048
785.398739	7176.362284
785.722061	7217.414920
786.045337	7213.336627
786.368568	7354.554470
786.691752	7358.688216
787.014891	7650.742423
787.337983	7953.201571
787.661030	8504.177001
787.984031	9119.497719
788.306987	9558.451149
788.629897	9813.588987
788.952760	9814.413215
789.275579	9633.476121
789.598351	9261.446529
789.921078	8932.697763
790.243759	8528.873614
790.566395	8236.970642
790.888984	7985.419585
791.211529	7773.126515
791.534027	7548.124695
791.856480	7340.192222
792.178888	7265.862929
792.501249	7165.964904
792.823566	7009.910946
793.145836	7004.189236
793.468062	6971.973742
793.790241	6917.940135
794.112375	6974.935420
794.434464	7109.105730
794.756507	7143.080586
795.078505	7279.143849
795.400457	7562.164308
795.722364	7901.723829
796.044226	8182.591715
796.366042	8472.684913
796.687812	8441.099564
797.009538	8544.339874
797.331218	8454.952655
797.652852	8376.555151
797.974442	8236.358142
798.295986	8152.647261
798.617484	7968.967780
798.938938	7831.674475
799.260346	7725.706901
799.581709	7534.528703
799.903026	7453.945859
800.224299	7352.560693
800.545526	7183.974426
800.866708	7085.200578
801.187845	7013.711976
801.508936	6913.708086
801.829983	6871.785851
802.150984	6727.061886
802.471940	6680.607653
802.792851	6671.377300
803.113717	6634.997814
803.434538	6602.033709
803.755314	6549.716614
804.076045	6548.105965
804.396731	6485.083981
804.717372	6516.853332
805.037967	6515.708990
805.358518	6548.536984
805.679024	6630.175950
805.999485	6640.500233
806.319901	6680.395925
806.640272	6697.931578
806.960598	6783.966430
807.280879	6789.436082
807.601115	6864.445931
807.921306	6806.550800
808.241453	6826.894376
808.561554	6850.580237
808.881611	6815.430792
809.201623	6822.652245
809.521590	6775.172138
809.841513	6754.886534
810.161390	6790.330887
810.481223	6659.543192
810.801011	6648.518188
811.120755	6628.736701
811.440453	6546.976747
811.760107	6515.756881
812.079716	6487.387788
812.399281	6422.263642
812.718801	6410.384163
813.038276	6373.245982
813.357707	6311.275078
813.677093	6344.662640
813.996434	6252.916161
814.315731	6292.816893
814.634983	6278.545387
814.954191	6286.001253
815.273354	6383.333331
815.592473	6439.456497
815.911547	6553.144599
816.230577	6631.736187
816.549562	6774.466376
816.868502	6870.603700
817.187399	6961.709953
817.506250	7105.798733
817.825058	7132.748742
818.143821	7370.499639
818.462539	7605.581246
818.781213	7932.797501
819.099843	8406.088750
819.418429	9312.115167
819.736970	10201.170538
820.055466	11294.261571
820.373919	12657.094663
820.692327	14648.428570
821.010691	17947.130275
821.329011	25349.515212
821.647286	36976.301373
821.965517	50881.782333
822.283704	58385.018074
822.601847	61548.357236
822.919945	59366.369411
823.237999	55499.403639
823.556010	49524.270179
823.873976	42900.070517
824.191897	36442.733047
824.509775	31618.517695
824.827609	26976.434190
825.145398	24165.297762
825.463144	22512.792408
825.780845	22405.481366
826.098502	23643.621518
826.416116	26907.836689
826.733685	30618.279675
827.051210	32430.317384
827.368692	31507.486281
827.686129	28011.239402
828.003522	24025.340208
828.320872	20307.365738
828.638177	17412.238646
828.955439	15234.480349
829.272656	13409.207091
829.589830	11933.000969
829.906960	10636.388473
830.224046	9671.430969
830.541088	8895.567145
830.858086	8412.294411
831.175041	8008.180395
831.491952	7853.308587
831.808819	7835.669590
832.125642	8130.224209
832.442421	8825.800096
832.759157	10297.209560
833.075849	12853.906351
833.392497	15964.976309
833.709101	18438.128577
834.025662	18800.227096
834.342179	17473.970095
834.658653	15418.996662
834.975083	13500.988858
835.291469	11874.334541
835.607811	10540.876252
835.924110	9630.443867
836.240366	8770.251622
836.556578	7967.379816
836.872746	7318.303532
837.188871	6799.142824
837.504952	6373.311517
837.820990	6054.241767
838.136984	5821.905069
838.452935	5705.850145
838.768842	5685.113359
839.084706	5963.112829
839.400526	6920.715290
839.716303	8418.530318
840.032037	9649.408688
840.347727	9874.803718
840.663373	9090.450591
840.978977	8058.039927
841.294537	7226.609985
841.610054	6612.118537
841.925527	6180.406724
842.240957	5824.697868
842.556344	5499.432539
842.871687	5213.664651
843.186987	4936.547383
843.502244	4708.435172
843.817458	4538.913771
844.132629	4396.997728
844.447756	4304.747133
844.762840	4221.116912
845.077881	4147.846261
845.392879	4088.257302
845.707833	4035.070608
846.022745	3996.152901
846.337613	3967.582161
846.652438	3923.930810
846.967221	3906.700146
847.281960	3875.208058
847.596656	3859.290615
847.911309	3836.451668
848.225919	3811.818069
848.540485	3795.918270
848.855009	3787.509625
849.169490	3763.299484
849.483928	3754.689193
849.798323	3741.483891
850.112675	3727.257755
850.426984	3730.161459
850.741251	3717.430025
851.055474	3711.504149
851.369654	3716.416753
851.683792	3713.346691
851.997887	3718.972618
852.311938	3720.505129
852.625947	3721.120150
852.939914	3714.291907
853.253837	3723.456725
853.567718	3723.736509
853.881555	3713.664283
854.195350	3727.978640
854.509103	3721.069738
854.822812	3721.707444
855.136479	3711.461299
855.450103	3720.109398
855.763685	3704.862429
856.077224	3713.417267
856.390720	3725.193402
856.704173	3741.740990
857.017584	3757.734050
857.330953	3764.942900
857.644278	3787.628092
857.957561	3795.207467
858.270802	3793.248979
858.584000	3797.218888
858.897155	3790.360398
859.210268	3777.835651
859.523339	3755.639451
859.836367	3755.732712
860.149352	3746.598141
860.462295	3740.037080
860.775195	3729.780852
861.088054	3726.219277
861.400869	3724.359091
861.713642	3720.530335
862.026373	3730.068198
862.339062	3732.755133
862.651708	3749.829521
862.964312	3782.039973
863.276873	3788.359060
863.589392	3839.733459
863.901869	3884.108215
864.214303	3931.923560
864.526696	3960.665698
864.839045	4005.814272
865.151353	4033.981719
865.463619	4041.409859
865.775842	4049.954615
866.088023	4069.852049
866.400162	4060.472983
866.712258	4068.070002
867.024313	4074.812545
867.336325	4070.842636
867.648296	4075.919078
867.960224	4076.410591
868.272110	4080.335129
868.583954	4086.742435
868.895755	4100.073767
869.207515	4091.024896
869.519233	4133.121051
869.830909	4144.834172
870.142542	4166.775794
870.454134	4178.597300
870.765684	4208.027556
871.077191	4241.886466
871.388657	4263.470166
871.700081	4295.267244
872.011463	4335.765353
872.322803	4368.865569
872.634101	4398.094179
872.945357	4437.831074
873.256571	4488.771934
873.567744	4520.117829
873.878874	4537.784552
874.189963	4574.302671
874.501010	4582.570163
874.812015	4582.096295
875.122979	4624.890650
875.433900	4623.942913
875.744780	4636.873472
876.055618	4663.145446
876.366415	4661.670908
876.677169	4676.023073
876.987882	4717.292479
877.298554	4760.482565
877.609183	4827.098892
877.919771	4926.016413
878.230317	5048.539137
878.540822	5231.102002
878.851285	5505.739023
879.161707	5895.881481
879.472087	6535.465272
879.782425	7543.529683
880.092722	9355.179223
880.402977	12190.006554
880.713191	15679.730180
881.023363	19366.073930
881.333494	21832.680260
881.643583	23298.478920
881.953631	23518.958825
882.263637	22865.640410
882.573602	21582.394533
882.883526	20149.801954
883.193408	18580.705011
883.503248	16977.119013
883.813048	15506.196021
884.122806	14147.221932
884.432522	12716.398797
884.742197	11493.795481
885.051831	10422.368807
885.361424	9424.784955
885.670975	8608.808670
885.980485	7917.358967
886.289954	7347.733788
886.599382	6878.528394
886.908768	6505.057032
887.218113	6142.015817
887.527417	5856.822621
887.836680	5588.406384
888.145901	5376.098190
888.455082	5218.105908
888.764221	5062.198143
889.073319	4924.020116
889.382376	4855.689796
889.691392	4790.081699
890.000366	4760.270836
890.309300	4743.206530
890.618193	4740.733844
890.927044	4726.817739
891.235855	4745.497735
891.544625	4768.835757
891.853353	4813.863343
892.162041	4910.650976
892.470687	5066.667126
892.779293	5278.592192
893.087858	5597.561120
893.396381	6085.635553
893.704864	6761.263594
894.013306	7784.413658
894.321707	8911.192201
894.630068	9796.300349
894.938387	10136.545467
895.246665	10028.581595
895.554903	9500.550977
895.863100	8855.752112
896.171256	8331.845157
896.479371	7844.630241
896.787446	7364.412446
897.095480	6944.345699
897.403473	6632.998996
897.711425	6325.261760
898.019336	6067.308438
898.327207	5807.971319
898.635038	5583.385395
898.942827	5339.701059
899.250576	5144.210154
899.558284	4956.764931
899.865952	4836.485521
900.173579	4689.392213
900.481165	4590.699024
900.788711	4495.161597
901.096216	4420.890277
901.403681	4355.975339
901.711105	4320.082323
902.018489	4304.598419
902.325832	4351.181202
902.633135	4436.802679
902.940397	4694.675342
903.247619	5306.658816
903.554800	6489.003478
903.861941	8240.983400
904.169041	9809.435076
904.476101	10645.830554
904.783121	10520.124342
905.090100	9893.579495
905.397039	9114.259960
905.703938	8395.958552
906.010796	7730.062458
906.317614	7199.100408
906.624391	6681.870462
906.931129	6271.094562
907.237826	5890.747066
907.544483	5528.570409
907.851099	5168.543804
908.157675	4824.235517
908.464211	4498.907174
908.770707	4258.456738
909.077163	4053.480902
909.383578	3909.356834
909.689954	3789.347126
909.996289	3714.677555
910.302584	3650.165909
910.608839	3612.619396
910.915054	3579.937595
911.221229	3566.220616
911.527363	3571.677665
911.833458	3581.762493
912.139513	3604.029269
912.445527	3626.822847
912.751502	3695.029658
913.057436	3783.748925
913.363331	3899.594640
913.669186	4072.049992
913.975000	4284.156541
914.280775	4641.788597
914.586510	5142.672602
914.892205	5822.194935
915.197859	6742.671819
915.503475	7870.851802
915.809050	8922.381042
916.114585	9627.976222
916.420081	9994.435340
916.725536	10048.448783
917.030952	9676.338532
917.336328	9323.160335
917.641665	8951.965053
917.946961	8499.854212
918.252218	8105.492308
918.557435	7621.307125
918.862612	7215.907615
919.167750	6860.662545
919.472848	6464.369879
919.777906	6104.849911
920.082925	5755.797898
920.387904	5398.952261
920.692843	5129.754646
920.997743	4880.124269
921.302603	4648.369824
921.607423	4489.830576
921.912204	4328.165814
922.216946	4215.869071
922.521647	4096.862552
922.826310	3996.737675
923.130932	3904.577821
923.435516	3813.627843
923.740059	3745.216865
924.044564	3668.351872
924.349028	3613.945219
924.653454	3551.084551
924.957840	3481.705671
925.262186	3437.507355
925.566493	3377.416801
925.870761	3324.003256
926.174989	3290.111578
926.479178	3253.795106
926.783328	3212.838252
927.087438	3189.558203
927.391509	3155.807678
927.695541	3128.444295
927.999533	3099.094697
928.303486	3078.940164
928.607400	3064.585479
928.911275	3052.448901
929.215110	3032.974923
929.518906	3026.212216
929.822663	3022.796834
930.126381	3019.210053
930.430060	3027.079294
930.733699	3029.040303
931.037299	3038.936088
931.340861	3035.543391
931.644383	3046.951523
931.947866	3043.977242
932.251309	3039.760317
932.554714	3040.007333
932.858080	3033.053061
933.161407	3026.877648
933.464694	3016.543283
933.767943	3014.456245
934.071153	3010.433404
934.374323	3003.353103
934.677455	2995.998060
934.980548	2986.253510
935.283602	2978.971563
935.586617	2974.532827
935.889593	2983.808550
936.192530	2986.066987
936.495428	2999.839419
936.798287	3016.855834
937.101108	3040.682848
937.403890	3087.527770
937.706632	3142.700678
938.009336	3214.975701
938.312002	3286.580250
938.614628	3349.433356
938.917216	3399.857498
939.219765	3433.149278
939.522275	3465.677323
939.824747	3477.077892
940.127179	3475.787357
940.429573	3468.737303
940.731929	3469.276707
941.034246	3459.252372
941.336524	3444.562450
941.638763	3431.954524
941.940964	3422.073863
942.243126	3383.012482
942.545250	3366.341386
942.847335	3328.242866
943.149381	3292.664923
943.451389	3264.371447
943.753359	3228.178483
944.055290	3204.023794
944.357182	3180.199301
944.659036	3163.571055
944.960851	3156.400014
945.262628	3139.877632
945.564367	3142.546923
945.866067	3138.186325
946.167729	3132.734317
946.469352	3131.448823
946.770937	3126.750467
947.072484	3110.341512
947.373992	3115.148252
947.675462	3107.175667
947.976893	3093.627566
948.278286	3086.257399
948.579641	3077.967222
948.880958	3071.748958
949.182236	3075.333219
949.483476	3068.010943
949.784678	3065.208061
950.085841	3067.216961
950.386967	3073.437745
950.688054	3093.597319
950.989103	3106.747169
951.290114	3126.372381
951.591087	3152.440187
951.892021	3177.698889
952.192917	3203.741489
952.493776	3229.826940
952.794596	3242.359248
953.095378	3248.209507
953.396122	3244.050556
953.696828	3240.110894
953.997496	3228.175962
954.298126	3208.790205
954.598718	3191.793955
954.899272	3168.783608
955.199788	3144.656646
955.500266	3115.952316
955.800706	3083.976277
956.101108	3048.703323
956.401472	3016.180319
956.701798	2987.004642
957.002087	2944.827828
957.302337	2920.776483
957.602550	2892.445198
957.902724	2865.782536
958.202861	2842.885615
958.502960	2819.711431
958.803022	2800.207206
959.103045	2781.244906
959.403031	2763.109355
959.702979	2752.107037
960.002889	2739.214286
960.302762	2723.155690
960.602596	2714.288301
960.902393	2706.729091
961.202153	2698.123841
961.501875	2689.261492
961.801559	2685.604135
962.101205	2678.322189
962.400814	2673.379337
962.700385	2665.873059
962.999918	2661.852739
963.299414	2657.207316
963.598873	2653.106337
963.898293	2645.532003
964.197677	2646.704072
964.497022	2645.471510
964.796331	2642.194760
965.095601	2640.274080
965.394835	2639.578401
965.694030	2636.001702
965.993189	2635.122021
966.292309	2632.845940
966.591393	2632.341824
966.890439	2632.009108
967.189447	2633.826444
967.488419	2633.216465
967.787353	2635.159829
968.086249	2634.963224
968.385108	2638.154275
968.683930	2636.795684
968.982714	2638.744090
969.281462	2642.603093
969.580172	2651.601553
969.878844	2655.972233
970.177480	2660.844508
970.476078	2670.064779
970.774639	2676.048628
971.073162	2683.086079
971.371649	2688.825433
971.670098	2692.492872
971.968510	2698.837164
972.266885	2706.547609
972.565223	2709.085830
972.863524	2710.278063
973.161788	2713.839638
973.460014	2716.750904
973.758204	2719.185782
974.056356	2720.234342
974.354471	2726.094683
974.652550	2723.238869
974.950591	2721.938252
975.248595	2720.935062
975.546563	2718.149825
975.844493	2714.200081
976.142386	2709.100953
976.440243	2708.735470
976.738062	2700.130220
977.035845	2697.997812
977.333590	2690.980526
977.631299	2685.765452
977.928971	2679.587518
978.226606	2675.002589
978.524204	2670.715087
978.821765	2665.245436
979.119290	2667.125786
979.416777	2664.297699
979.714228	2665.845333
980.011642	2671.955211
980.309020	2676.398988
980.606360	2688.333920
980.903664	2708.473330
981.200931	2737.901065
981.498162	2778.426901
981.795356	2839.886128
982.092513	2922.162800
982.389633	3013.596728
982.686717	3107.168105
982.983764	3182.850948
983.280775	3242.848240
983.577749	3257.631424
983.874686	3250.621700
984.171587	3224.102710
984.468451	3190.258923
984.765279	3152.205774
985.062070	3109.779423
985.358824	3068.046231
985.655543	3017.364991
985.952224	2968.765747
986.248869	2912.541758
986.545478	2851.206039
986.842050	2796.058337
987.138586	2755.802203
987.435086	2716.118240
987.731549	2682.075328
988.027975	2659.070022
988.324366	2640.687455
988.620719	2627.759416
988.917037	2619.590226
989.213318	2607.859461
989.509563	2600.176742
989.805772	2595.306988
990.101944	2590.638879
990.398080	2586.230390
990.694180	2585.116295
990.990244	2583.477920
991.286271	2585.489341
991.582262	2584.105544
991.878217	2586.999166
992.174136	2591.949579
992.470019	2593.615681
992.765865	2596.411000
993.061676	2598.268666
993.357450	2607.846858
993.653188	2612.043618
993.948890	2627.797224
994.244556	2643.634009
994.540186	2664.206958
994.835780	2691.688808
995.131337	2724.307594
995.426859	2763.048861
995.722345	2806.359935
996.017795	2856.879858
996.313208	2891.898233
996.608586	2919.795978
996.903928	2938.092846
997.199234	2942.650049
997.494504	2941.208279
997.789738	2928.789397
998.084936	2908.556726
998.380099	2881.878940
998.675225	2855.065043
998.970316	2827.379026
999.265371	2790.349230
999.560390	2758.426123
999.855373	2730.072153
1000.150320	2700.198276
1000.445232	2676.764472
1000.740108	2655.513488
1001.034948	2639.263329
1001.329752	2623.033334
1001.624521	2612.043618
1001.919254	2597.036103
1002.213951	2590.764908
1002.508613	2584.735688
1002.803239	2576.042218
1003.097829	2568.972000
1003.392384	2567.051320
1003.686903	2561.377502
1003.981386	2558.972871
1004.275834	2556.054043
1004.570246	2552.275698
1004.864623	2550.521377
1005.158964	2548.159596
1005.453270	2545.959133
1005.747540	2547.761345
1006.041775	2543.110881
1006.335974	2541.419574
1006.630138	2541.694317
1006.924266	2542.878988
1007.218359	2539.577032
1007.512416	2535.153419
1007.806438	2531.453213
1008.100425	2533.764582
1008.394376	2530.389529
1008.688292	2538.699871
1008.982172	2535.972607
1009.276017	2533.948584
1009.569827	2533.366330
1009.863602	2533.401618
1010.157341	2532.358100
1010.451045	2532.733666
1010.744714	2531.861546
1011.038347	2532.577390
1011.331945	2528.065557
1011.625508	2528.930115
1011.919036	2527.316946
1012.212528	2528.594878
1012.505986	2526.235618
1012.799408	2526.931298
1013.092795	2526.578417
1013.386147	2526.959024
1013.679464	2524.607326
1013.972745	2523.694877
1014.265992	2521.476769
1014.559204	2524.509023
1014.852380	2522.805113
1015.145521	2527.576565
1015.438628	2522.361492
1015.731699	2524.146060
1016.024736	2525.239990
1016.317737	2525.759229
1016.610703	2527.848787
1016.903635	2531.125538
1017.196531	2528.952800
1017.489393	2530.419776
1017.782219	2533.310878
1018.075011	2533.777184
1018.367768	2537.069058
1018.660490	2535.070240
1018.953177	2535.070240
1019.245829	2535.070240
