Dividing Wavelength (nm)	Counts (n)	Blue Motor Position (mm): 16.500000	Red Motor Position (mm): 0.000000	
326.493990	2068.060269
326.888308	2068.060269
327.282561	2068.060269
327.676750	2047.252906
328.070874	2045.801054
328.464933	2051.459749
328.858929	2058.529967
329.252859	2067.122614
329.646726	2082.190623
330.040528	2098.481112
330.434265	2115.459718
330.827938	2135.929323
331.221547	2157.263486
331.615091	2176.349294
332.008571	2197.633046
332.401986	2219.189020
332.795338	2239.910683
333.188625	2256.929618
333.581847	2277.653802
333.975006	2293.460339
334.368100	2313.287198
334.761129	2327.523416
335.154095	2343.012361
335.546996	2386.842673
335.939833	2469.207565
336.332606	2479.468834
336.725315	2493.553818
337.117960	2502.890035
337.510540	2512.632065
337.903056	2518.794875
338.295508	2527.412728
338.687896	2535.115611
339.080220	2540.451672
339.472480	2544.824873
339.864676	2547.514329
340.256807	2552.469783
340.648875	2552.971378
341.040879	2550.803682
341.432818	2555.988508
341.824694	2556.099414
342.216506	2555.731409
342.608253	2552.933569
342.999937	2553.024310
343.391557	2555.267623
343.783113	2551.461552
344.174605	2550.899463
344.566033	2548.951058
344.957397	2548.073897
345.348697	2546.468289
345.739934	2542.957126
346.131106	2541.837989
346.522215	2540.287835
346.913260	2539.705581
347.304241	2536.643080
347.695159	2534.984541
348.086012	2534.505631
348.476802	2533.343645
348.867528	2528.718387
349.258191	2524.801410
349.648789	2528.186545
350.039324	2522.205216
350.429796	2527.843746
350.820203	2526.326359
351.210548	2525.204702
351.600828	2526.021369
351.991045	2523.324352
352.381198	2524.382994
352.771288	2525.237470
353.161314	2520.269413
353.551276	2523.057171
353.941175	2518.131963
354.331010	2524.075484
354.720782	2525.517254
355.110490	2525.547501
355.500135	2520.834022
355.889717	2524.723272
356.279235	2524.549352
356.668689	2524.577079
357.058080	2523.513395
357.447408	2522.946265
357.836672	2523.188241
358.225873	2523.697397
358.615010	2522.880730
359.004084	2523.861235
359.393095	2526.938859
359.782043	2522.850483
360.170927	2526.759898
360.559748	2529.295599
360.948505	2530.548325
361.337199	2529.013294
361.725830	2526.812830
362.114398	2530.210568
362.502903	2530.334076
362.891344	2531.314581
363.279722	2527.916843
363.668037	2528.224353
364.056289	2532.529499
364.444478	2531.236443
364.832603	2531.894313
365.220665	2533.076464
365.608665	2533.386495
365.996601	2532.277441
366.384474	2533.883049
366.772284	2535.763399
367.160031	2535.786084
367.547715	2533.172246
367.935336	2534.440096
368.322893	2532.847092
368.710388	2529.847605
369.097820	2533.046217
369.485189	2531.485980
369.872495	2538.084850
370.259738	2534.956814
370.646918	2537.641229
371.034035	2536.955632
371.421090	2536.043183
371.808081	2537.484953
372.195010	2535.723070
372.581875	2537.938657
372.968678	2538.107536
373.355418	2537.469830
373.742096	2537.285827
374.128710	2535.798687
374.515262	2539.748431
374.901751	2541.008720
375.288177	2540.315561
375.674540	2537.600900
376.060841	2541.144831
376.447079	2537.386651
376.833254	2542.344625
377.219367	2541.429656
377.605417	2542.205994
377.991404	2541.956457
378.377329	2540.307999
378.763191	2540.650798
379.148991	2541.729605
379.534727	2544.230017
379.920402	2544.056097
380.306013	2544.492157
380.691563	2543.123484
381.077049	2540.318082
381.462474	2544.867723
381.847835	2542.568957
382.233134	2544.156920
382.618371	2546.377548
383.003545	2544.663556
383.388657	2543.158772
383.773706	2543.554502
384.158693	2543.746066
384.543618	2547.219421
384.928480	2543.665408
385.313280	2545.802857
385.698017	2545.386962
386.082692	2546.473330
386.467305	2543.413350
386.851856	2549.223280
387.236344	2545.144986
387.620770	2544.270346
388.005133	2542.415202
388.389435	2542.906714
388.773674	2540.449152
389.157851	2546.490974
389.541965	2546.949719
389.926018	2548.769576
390.310008	2549.477858
390.693936	2548.658671
391.077802	2549.223280
391.461606	2547.564740
391.845348	2550.244113
392.229027	2549.109854
392.612645	2547.289997
392.996200	2548.825029
393.379694	2550.939793
393.763125	2551.877447
394.146494	2549.843342
394.529801	2549.674463
394.913047	2550.929710
395.296230	2553.566234
395.679351	2551.698486
396.062410	2550.223949
396.445408	2553.755277
396.828343	2550.284443
397.211217	2551.388455
397.594028	2553.452808
397.976778	2552.996583
398.359466	2552.086655
398.742092	2552.873075
399.124656	2552.684032
399.507158	2552.467262
399.889598	2551.859803
400.271977	2552.827705
400.654294	2553.190668
401.036549	2551.012889
401.418742	2555.096224
401.800874	2550.793599
402.182944	2554.453477
402.564952	2554.816440
402.946898	2554.211502
403.328783	2556.747202
403.710606	2554.889537
404.092367	2556.175031
404.474067	2555.078580
404.855705	2557.097562
405.237282	2553.241079
405.618797	2553.389793
406.000250	2556.817778
406.381642	2557.694939
406.762972	2552.333672
407.144240	2551.827036
407.525447	2554.604712
407.906593	2549.813095
408.287677	2556.243087
408.668700	2555.252500
409.049661	2556.578323
409.430560	2560.875907
409.811399	2559.655948
410.192176	2554.128322
410.572891	2557.243756
410.953545	2556.800134
411.334138	2556.091852
411.714669	2557.483210
412.095139	2558.085628
412.475547	2558.483879
412.855894	2559.323232
413.236180	2557.720145
413.616405	2562.126113
413.996568	2558.441030
414.376670	2558.675443
414.756711	2558.493962
415.136691	2558.932542
415.516609	2561.526216
415.896466	2559.177038
416.276262	2559.817265
416.655997	2561.213664
417.035670	2559.492110
417.415283	2559.746688
417.794834	2561.722821
418.174324	2558.982954
418.553753	2557.785680
418.933121	2558.372974
419.312428	2558.418344
419.691674	2560.671740
420.070859	2562.415979
420.449983	2557.715103
420.829045	2561.059909
421.208047	2559.938252
421.586988	2560.949004
421.965867	2559.955896
422.344686	2561.763150
422.723444	2563.010836
423.102141	2562.703325
423.480777	2562.300033
423.859352	2562.300033
424.237866	2563.872873
424.616319	2561.427913
424.994712	2562.322718
425.373044	2561.770712
425.751314	2559.202244
426.129524	2558.143602
426.507673	2557.342058
426.885762	2554.559341
427.263789	2561.105279
427.641756	2563.245249
428.019662	2563.025959
428.397508	2561.470763
428.775292	2560.596123
429.153016	2562.599982
429.530679	2561.564024
429.908282	2563.162070
430.285824	2563.986299
430.663305	2562.559652
431.040726	2564.596278
431.418086	2564.061916
431.795385	2566.317832
432.172624	2562.922615
432.549802	2562.110990
432.926920	2564.187945
433.303977	2565.233984
433.680974	2563.048644
434.057910	2562.925136
434.434786	2562.015208
434.811601	2565.047462
435.188355	2566.834551
435.565050	2563.131823
435.941683	2561.551422
436.318257	2563.504869
436.694770	2565.133161
437.071222	2565.203737
437.447614	2565.697771
437.823946	2566.837071
438.200218	2565.735579
438.576429	2563.572924
438.952580	2567.820096
439.328670	2566.090981
439.704700	2563.532595
440.080670	2564.034190
440.456580	2566.476629
440.832429	2564.525702
441.208218	2566.176680
441.583947	2563.036041
441.959616	2562.559652
442.335224	2566.106104
442.710773	2563.409087
443.086261	2565.591906
443.461689	2564.447564
443.837057	2568.097360
444.212365	2566.978224
444.587612	2564.326577
444.962800	2561.465722
445.337927	2562.506720
445.712995	2563.265414
446.088002	2563.693912
446.462949	2567.931002
446.837837	2564.497976
447.212664	2568.099880
447.587431	2565.400342
447.962139	2566.053172
448.336786	2567.903275
448.711374	2564.986968
449.085901	2566.451423
449.460369	2566.829510
449.834776	2566.529561
450.209124	2569.198852
450.583412	2566.451423
450.957640	2569.183728
451.331808	2568.908986
451.705917	2566.305230
452.079965	2568.079716
452.453954	2566.779098
452.827883	2568.256156
453.201752	2566.801783
453.575562	2566.073337
453.949311	2566.262380
454.323001	2567.747000
454.696632	2568.856053
455.070202	2565.405384
455.443713	2568.346897
455.817164	2568.049469
456.190556	2566.398491
456.563888	2571.386713
456.937160	2569.027453
457.310373	2570.509552
457.683526	2569.697926
458.056619	2565.423028
458.429653	2567.867987
458.802628	2566.632905
459.175542	2568.339335
459.548398	2571.016188
459.921194	2566.133830
460.293930	2569.375292
460.666607	2570.260015
461.039224	2569.713050
461.411782	2570.476784
461.784280	2568.825807
462.156719	2571.147258
462.529099	2569.776064
462.901419	2568.170457
463.273680	2570.076013
463.645882	2565.977555
464.018024	2568.402350
464.390106	2566.572411
464.762130	2571.008626
465.134094	2569.108111
465.505999	2570.174315
465.877845	2572.949470
466.249631	2574.597928
466.621358	2573.367886
466.993026	2574.749162
467.364634	2578.991293
467.736184	2572.926785
468.107674	2575.127249
468.479105	2573.501477
468.850477	2573.241857
469.221790	2575.243195
469.593043	2571.364027
469.964238	2575.946436
470.335373	2575.643967
470.706449	2575.323854
471.077467	2573.332598
471.448425	2575.371745
471.819324	2575.749831
472.190164	2579.165213
472.560945	2577.032805
472.931667	2573.468709
473.302330	2576.644636
473.672934	2575.457444
474.043479	2580.450707
474.413965	2577.405850
474.784393	2577.962898
475.154761	2576.105233
475.525070	2578.739236
475.895321	2577.257136
476.265513	2579.049267
476.635645	2579.497929
477.005719	2577.967939
477.375734	2576.125397
477.745691	2578.887950
478.115588	2580.458269
478.485427	2579.061869
478.855207	2582.142014
479.224928	2583.387179
479.594591	2581.519432
479.964194	2585.701069
480.333739	2584.216449
480.703226	2585.771645
481.072653	2586.179979
481.442022	2586.343816
481.811333	2585.983374
482.180584	2582.880543
482.549777	2585.265009
482.918912	2580.818712
483.287988	2587.997315
483.657005	2587.233580
484.025964	2587.543611
484.394864	2589.686101
484.763706	2590.893458
485.132489	2588.405648
485.501213	2590.467480
485.869879	2589.696183
486.238487	2590.210381
486.607036	2591.367326
486.975527	2592.138623
487.343959	2595.175918
487.712333	2591.644589
488.080648	2593.885382
488.448905	2595.627101
488.817104	2594.684405
489.185244	2597.399067
489.553326	2596.889910
489.921350	2602.651949
490.289315	2604.832248
490.657222	2609.326437
491.025070	2609.187805
491.392861	2607.556992
491.760593	2607.549430
492.128267	2609.190325
492.495883	2608.731580
492.863440	2606.952053
493.230939	2606.699995
493.598380	2609.941457
493.965763	2609.182764
494.333088	2606.246292
494.700354	2609.520521
495.067563	2609.409616
495.434713	2610.495984
495.801805	2609.180243
496.168839	2611.597476
496.535815	2613.654267
496.902733	2614.176027
497.269593	2615.607714
497.636395	2616.043774
498.003139	2618.413116
498.369825	2618.967643
498.736453	2621.883951
499.103023	2619.607870
499.469535	2619.819598
499.835989	2622.637603
500.202385	2619.844804
500.568723	2620.835391
500.935003	2620.903446
501.301226	2618.113168
501.667390	2625.443005
502.033497	2630.108593
502.399546	2632.767802
502.765537	2630.889972
503.131470	2634.088584
503.497345	2632.349386
503.863163	2631.545322
504.228923	2634.033132
504.594625	2640.266518
504.960269	2638.534882
505.325856	2642.212404
505.691385	2638.746610
506.056856	2641.688124
506.422270	2646.749442
506.787625	2648.014772
507.152924	2648.198774
507.518164	2647.039308
507.883347	2648.826397
508.248472	2651.793117
508.613540	2651.518374
508.978550	2655.286636
509.343503	2654.563231
509.708398	2657.242604
510.073236	2663.604540
510.438016	2661.104128
510.802738	2665.149654
511.167403	2668.910354
511.532010	2670.768020
511.896561	2675.153823
512.261053	2678.637261
512.625488	2681.568692
512.989866	2680.631037
513.354186	2680.923424
513.718449	2687.345854
514.082655	2690.859538
514.446803	2690.998170
514.810894	2695.169725
515.174927	2698.975796
515.538904	2701.778677
515.902822	2706.504759
516.266684	2707.386961
516.630488	2712.476006
516.994235	2716.367777
517.357925	2722.160062
517.721558	2725.678788
518.085133	2731.060220
518.448651	2736.058524
518.812112	2738.175808
519.175516	2745.732498
519.538863	2751.124012
519.902152	2759.429313
520.265385	2765.675302
520.628560	2774.204935
520.991678	2778.580656
521.354739	2785.628189
521.717743	2793.227729
522.080690	2799.261990
522.443580	2813.011737
522.806413	2822.552121
523.169189	2827.109324
523.531908	2839.664318
523.894569	2847.992304
524.257174	2859.783562
524.619722	2870.609440
524.982213	2881.526059
525.344647	2891.658778
525.707025	2906.013464
526.069345	2922.369488
526.431608	2933.618822
526.793815	2949.831173
527.155964	2960.833491
527.518057	2972.932261
527.880093	2988.658140
528.242072	3008.091788
528.603995	3022.910260
528.965860	3036.261756
529.327669	3055.014848
529.689421	3073.241140
530.051117	3093.884665
530.412755	3116.960547
530.774337	3135.713639
531.135862	3158.192144
531.497331	3178.775175
531.858743	3202.758464
532.220098	3232.128227
532.581396	3247.816297
532.942638	3272.969135
533.303824	3300.876962
533.664953	3328.799913
534.026025	3352.553830
534.387040	3391.504306
534.747999	3418.653440
535.108902	3458.493678
535.469748	3477.340032
535.830537	3512.998634
536.191270	3554.005900
536.551947	3577.883325
536.912567	3620.007207
537.273131	3662.569668
537.633638	3687.548586
537.994089	3737.085484
538.354483	3770.042027
538.714821	3832.312880
539.075103	3883.349522
539.435328	3925.627158
539.795497	3962.858600
540.155609	4013.048328
540.515665	4080.887135
540.875665	4105.165332
541.235609	4161.636338
541.595496	4219.750759
541.955328	4295.103406
542.315102	4328.377542
542.674821	4374.088205
543.034483	4428.583078
543.394090	4488.240092
543.753640	4546.667065
544.113134	4653.108508
544.472571	4679.171274
544.831953	4793.466834
545.191278	4822.934899
545.550548	4872.033217
545.909761	4973.761181
546.268918	5045.373292
546.628019	5141.954238
546.987064	5184.892266
547.346053	5213.788160
547.704986	5342.413200
548.063863	5396.035953
548.422684	5489.929964
548.781449	5541.604312
549.140158	5655.347866
549.498811	5725.006530
549.857408	5761.401140
550.215949	5908.665847
550.574434	5982.233926
550.932864	6065.541513
551.291237	6212.039965
551.649555	6289.681296
552.007817	6390.582511
552.366022	6464.143027
552.724173	6570.765952
553.082267	6700.313523
553.440305	6839.073804
553.798288	6872.058073
554.156215	7009.091758
554.514086	7137.989021
554.871902	7206.140380
555.229661	7332.292734
555.587365	7407.252171
555.945014	7543.587657
556.302606	7658.175604
556.660143	7789.394318
557.017625	7932.835310
557.375050	8015.290943
557.732421	8190.511368
558.089735	8319.738826
558.446994	8427.692615
558.804197	8624.529508
559.161345	8735.097136
559.518437	8776.792519
559.875474	8929.136188
560.232455	9096.600798
560.589381	9237.516172
560.946251	9342.349487
561.303065	9593.043547
561.659825	9673.669241
562.016528	9793.381521
562.373177	9869.021514
562.729770	10118.296490
563.086307	10178.858391
563.442789	10421.345453
563.799216	10543.974041
564.155587	10681.496718
564.511904	10824.257154
564.868164	10986.388223
565.224370	11204.186234
565.580520	11315.089098
565.936615	11511.066474
566.292654	11603.289343
566.648638	11839.568223
567.004567	11997.419353
567.360441	12184.110924
567.716260	12288.946760
568.072023	12559.296279
568.427732	12710.077190
568.783385	12786.790949
569.138982	13062.652970
569.494525	13283.362247
569.850013	13354.283720
570.205445	13560.260225
570.560823	13685.999204
570.916145	13832.059075
571.271412	14064.063058
571.626625	14162.484025
571.981782	14355.809754
572.336884	14438.875367
572.691931	14703.334298
573.046923	14801.788032
573.401860	14932.900882
573.756743	15136.140040
574.111570	15356.004924
574.466342	15527.895667
574.821059	15756.915287
575.175722	15787.784792
575.530330	16008.224368
575.884882	16091.383242
576.239380	16241.637352
576.593823	16469.081611
576.948211	16645.806821
577.302544	16680.336204
577.656823	16871.965585
578.011047	17167.170513
578.365216	17299.268909
578.719330	17400.626348
579.073389	17578.054799
579.427394	17810.356209
579.781344	17975.635479
580.135239	18078.502744
580.489080	18305.498340
580.842866	18308.828022
581.196597	18699.330922
581.550273	18894.610099
581.903895	19061.169822
582.257463	19441.978584
582.610975	19412.815509
582.964434	19744.732640
583.317837	19730.413242
583.671186	19923.706204
584.024481	20233.076774
584.377721	20238.770758
584.730906	20546.959177
585.084037	20797.696088
585.437113	20861.075994
585.790135	21113.589911
586.143103	21111.621340
586.496016	21389.278012
586.848874	21636.350003
587.201679	21848.557374
587.554428	21800.132050
587.907124	22128.873254
588.259765	22200.843287
588.612352	22479.117500
588.964884	22418.490063
589.317362	22743.263879
589.669786	22939.286626
590.022155	23068.572058
590.374470	23510.454398
590.726731	23481.515654
591.078937	23317.378206
591.431090	23694.063303
591.783188	23624.397078
592.135232	23710.696591
592.487222	24041.781931
592.839157	24318.505989
593.191038	24300.730881
593.542866	24375.294587
593.894639	24197.399830
594.246358	24567.659977
594.598022	24757.184676
594.949633	24662.161447
595.301190	24848.487534
595.652692	24989.813762
596.004141	25453.995646
596.355535	24981.021989
596.706876	25154.861139
597.058162	25159.751058
597.409395	25621.157787
597.760573	25942.463289
598.111698	25874.223710
598.462768	25986.585988
598.813785	26166.895458
599.164748	26081.513436
599.515657	26402.473619
599.866511	26252.945434
600.217312	26860.633845
600.568060	26345.561512
600.918753	27032.489300
601.269392	27125.516233
601.619978	27113.989634
601.970510	27416.007682
602.320988	27661.736206
602.671412	27974.842271
603.021783	28033.211271
603.372100	27900.563390
603.722363	28126.144942
604.072572	28299.512743
604.422728	28453.658625
604.772830	28435.845708
605.122878	28707.536174
605.472872	28744.213089
605.822813	29064.313755
606.172701	29024.685245
606.522534	29399.505115
606.872314	29684.252170
607.222041	29710.662775
607.571714	30091.834499
607.921333	29852.558653
608.270899	30133.524842
608.620411	30536.265143
608.969870	30504.541162
609.319276	30642.154580
609.668627	30787.579265
610.017926	31205.571577
610.367171	31441.258123
610.716362	31596.878542
611.065500	31658.741061
611.414585	31944.413167
611.763616	32182.426205
612.112594	32251.200147
612.461518	32459.417444
612.810389	32865.739486
613.159207	32813.155210
613.507971	32909.804211
613.856682	33433.839715
614.205340	33411.530089
614.553945	34050.400557
614.902496	33652.472037
615.250994	34097.686580
615.599439	34271.752581
615.947830	34454.748987
616.296169	34563.030451
616.644454	34697.984660
616.992686	34931.745484
617.340864	35387.758179
617.688990	35078.584213
618.037063	35710.429833
618.385082	35655.569477
618.733048	36064.107105
619.080961	36057.626702
619.428821	36189.493204
619.776628	36325.453123
620.124382	36284.163553
620.472083	36478.197564
620.819731	36653.541498
621.167326	36411.684580
621.514868	36513.251228
621.862357	36163.871540
622.209793	36348.034972
622.557176	36101.096571
622.904506	35983.816648
623.251783	35790.513603
623.599007	35607.396211
623.946179	35652.814486
624.293297	35523.153489
624.640363	35124.751100
624.987376	35088.734577
625.334336	35025.510946
625.681243	34738.230711
626.028097	34733.091255
626.374899	34665.360832
626.721647	34707.943459
627.068343	34553.570725
627.414987	34381.438007
627.761577	34238.223867
628.108115	34589.446097
628.454600	33983.370855
628.801032	34267.379380
629.147412	34229.689194
629.493739	34186.501629
629.840014	33875.641397
630.186236	34302.425482
630.532405	33867.449522
630.878521	34144.914630
631.224585	33989.692462
631.570597	33754.104219
631.916556	33940.765543
632.262462	33915.723612
632.608316	33922.887091
632.954117	33840.917930
633.299866	33851.186760
633.645562	33841.099411
633.991206	33449.981490
634.336797	33137.228305
634.682336	33092.296501
635.027823	32936.494600
635.373257	32895.288209
635.718639	32639.411842
636.063968	32603.917078
636.409245	32082.984404
636.754470	32082.870978
637.099642	31916.187747
637.444762	31440.133945
637.789829	31615.866048
638.134845	31294.447120
638.479808	31256.898085
638.824719	31265.215989
639.169577	30843.750322
639.514383	30988.827168
639.859137	30660.332980
640.203839	30851.574193
640.548489	30633.380451
640.893086	30662.470430
641.237632	30420.797514
641.582125	30532.075944
641.926566	30365.243999
642.270955	30436.430132
642.615292	30419.779201
642.959576	30338.656953
643.303809	30381.978109
643.647990	30500.409936
643.992118	30512.019714
644.336195	30369.471006
644.680219	30456.110797
645.024192	30666.616779
645.368112	31178.172906
645.711981	31217.834184
646.055797	31889.285630
646.399562	31727.915774
646.743274	32542.591442
647.086935	32954.594863
647.430544	32957.359936
647.774101	33015.237423
648.117606	33333.964375
648.461059	33502.036445
648.804460	33187.468445
649.147810	32733.631008
649.491108	32482.735302
649.834354	32401.587848
650.177548	31671.240602
650.520690	31216.215974
650.863781	31228.337428
651.206820	31083.237897
651.549807	30716.221732
651.892742	30171.421716
652.235626	30108.112385
652.578458	29992.022174
652.921238	29350.484935
653.263967	29635.642844
653.606644	29369.578306
653.949269	29302.210846
654.291843	28957.418608
654.634365	29301.830239
654.976836	28890.542661
655.319255	28996.709361
655.661622	28880.465395
656.003938	28780.542164
656.346203	28615.630898
656.688416	28877.259221
657.030577	28683.988944
657.372687	28519.097843
657.714746	28668.525205
658.056753	28883.230468
658.398708	28307.412231
658.740612	28377.378406
659.082465	28603.685884
659.424266	28505.650565
659.766016	28532.633341
660.107715	28379.228509
660.449362	28484.016453
660.790958	28480.137286
661.132503	28416.054138
661.473996	28517.504838
661.815438	28615.835065
662.156829	28735.070956
662.498168	28552.245950
662.839456	28541.324290
663.180693	28692.553865
663.521879	28754.144162
663.863013	28713.446927
664.204097	28701.693477
664.545129	29117.165212
664.886110	29062.216635
665.227040	29185.084678
665.567918	29178.334573
665.908746	29250.894421
666.249522	29354.936274
666.590248	29396.230886
666.930922	29505.878503
667.271545	29528.631751
667.612118	29584.369268
667.952639	29422.031511
668.293109	29456.467633
668.633528	29325.808487
668.973896	29300.980805
669.314213	29280.271745
669.654480	29109.550549
669.994695	29106.540980
670.334859	29028.398054
670.674973	28872.356699
671.015035	29063.895339
671.355047	28993.251130
671.695008	28927.380893
672.034918	28840.584827
672.374777	28939.446895
672.714585	28823.875922
673.054342	28970.603746
673.394049	28842.616412
673.733705	29047.960252
674.073310	28769.383570
674.412864	28851.932464
674.752368	28580.698222
675.091820	28827.906325
675.431223	28439.702191
675.770574	28243.094670
676.109875	28093.594212
676.449125	27891.234734
676.788324	27791.702193
677.127473	27342.570673
677.466571	27255.646057
677.805619	26985.445252
678.144616	26928.843177
678.483562	26871.041307
678.822458	26562.187455
679.161303	26506.064289
679.500098	26447.196215
679.838842	26361.509203
680.177535	26414.637923
680.516179	26630.517775
680.854771	26710.185650
681.193314	27388.241007
681.531805	28327.067690
681.870247	29067.207377
682.208638	29867.004079
682.546978	30225.281403
682.885268	30400.133825
683.223508	30017.810196
683.561697	29759.425856
683.899836	29602.512381
684.237925	29188.389154
684.575963	29030.792603
684.913951	28647.954777
685.251889	28794.677559
685.589776	28784.020560
685.927614	28798.196285
686.265401	28968.388159
686.603137	29055.509380
686.940824	29523.487253
687.278460	29856.132831
687.616046	30039.570337
687.953582	30696.452848
688.291068	30650.386784
688.628504	31010.425992
688.965889	31039.316844
689.303224	30792.028083
689.640510	30526.901200
689.977745	29939.475707
690.314930	29241.076773
690.652065	28829.879937
690.989150	28167.615994
691.326185	27345.245005
691.663170	26743.870640
692.000105	26036.732866
692.336990	25444.225890
692.673825	25012.811506
693.010610	24532.933989
693.347345	24022.675958
693.684030	23408.358430
694.020665	23229.175657
694.357251	22564.728895
694.693786	22569.591088
695.030272	22333.770953
695.366707	21854.067355
695.703093	21569.947925
696.039429	21629.443622
696.375716	21397.237994
696.711952	21384.297352
697.048139	21244.014643
697.384276	21099.041141
697.720363	21209.419725
698.056400	21114.149479
698.392388	20946.755445
698.728326	20945.903490
699.064214	20792.733072
699.400053	20821.218111
699.735842	20428.509706
700.071581	20248.961450
700.407270	20005.287197
700.742910	19836.400981
701.078501	19601.992368
701.414042	19405.266381
701.749533	19111.215877
702.084974	18795.987486
702.420366	19017.122740
702.755709	18618.947204
703.091002	18316.782963
703.426246	18384.057161
703.761440	18317.466039
704.096584	18085.300740
704.431679	18015.160646
704.766725	17961.411864
705.101721	17883.528557
705.436668	18007.087238
705.771565	17727.472078
706.106413	18020.602572
706.441212	18089.850381
706.775961	18169.540941
707.110661	18242.831757
707.445311	18616.529971
707.779913	18489.465167
708.114465	18779.150032
708.448967	19079.277647
708.783421	19682.098824
709.117825	20023.533653
709.452180	20231.919830
709.786485	20664.798669
710.120742	21391.354967
710.454949	21498.557624
710.789107	22001.735354
711.123216	22693.439635
711.457275	22914.350559
711.791286	23481.901303
712.125247	23655.238857
712.459159	23435.925980
712.793023	24185.417007
713.126837	23196.284649
713.460602	23481.326611
713.794318	23163.539834
714.127985	22898.397827
714.461602	22025.688397
714.795171	22013.393023
715.128691	21046.033408
715.462162	20531.268586
715.795584	20124.669282
716.128957	19850.070070
716.462281	19482.330500
716.795556	19199.897335
717.128782	18740.920442
717.461960	18148.501686
717.795088	18118.796687
718.128167	17770.044622
718.461198	17323.128690
718.794180	17204.031430
719.127113	16879.015639
719.459997	16697.816405
719.792833	16323.742625
720.125619	16359.988521
720.458357	16031.910229
720.791046	15887.801285
721.123686	15737.821917
721.456278	15523.981212
721.788821	15521.107754
722.121315	15265.120482
722.453761	15360.892323
722.786158	15236.857253
723.118506	15330.093393
723.450805	15201.095308
723.783056	15377.560898
724.115259	15261.450522
724.447412	15244.539972
724.779518	15451.307938
725.111574	15496.043137
725.443582	15742.545478
725.775542	15710.206476
726.107453	16196.730754
726.439315	16104.671723
726.771129	16496.921383
727.102895	16903.712252
727.434612	17183.312288
727.766281	17349.705653
728.097901	17674.943255
728.429473	17765.855424
728.760996	17795.618396
729.092471	17921.982479
729.423897	17803.351526
729.755276	17647.635325
730.086606	17734.633037
730.417887	18270.605994
730.749120	18816.033634
731.080305	19033.622437
731.411442	19441.323234
731.742530	19560.458302
732.073570	19688.221305
732.404562	20014.598208
732.735506	19923.033210
733.066401	19781.134812
733.397249	19360.926912
733.728048	18781.448798
734.058798	17937.597453
734.389501	17196.394082
734.720156	16674.105338
735.050762	16094.642348
735.381320	15699.549477
735.711831	15409.962914
736.042293	15029.582651
736.372707	15053.714654
736.703073	14832.899513
737.033391	15026.721796
737.363661	15002.715822
737.693883	15110.273880
738.024056	15291.498320
738.354182	15498.054557
738.684260	15838.045096
739.014290	16121.047911
739.344272	16330.142370
739.674207	16670.067374
740.004093	16855.970004
740.333931	16927.821570
740.663722	17029.980553
740.993464	17078.415959
741.323159	16953.468440
741.652806	16661.973801
741.982405	16514.008374
742.311956	16158.304559
742.641460	16058.812347
742.970915	15746.031436
743.300323	15397.488579
743.629683	15183.494119
743.958996	14883.308531
744.288260	14574.361418
744.617477	14262.636628
744.946647	14226.710845
745.275768	13915.404472
745.604842	13716.435171
745.933869	13535.936657
746.262847	13507.401206
746.591778	13407.190629
746.920662	13290.548412
747.249498	13282.661526
747.578286	13414.359150
747.907027	13580.339140
748.235720	13832.255680
748.564365	13914.534873
748.892963	13858.467160
749.221514	13971.099140
749.550017	13855.951624
749.878473	13831.214682
750.206881	13613.729223
750.535242	13543.614335
750.863555	13465.196666
751.191821	13364.693702
751.520039	13378.478737
751.848210	13284.725879
752.176334	13331.822859
752.504411	13260.339297
752.832440	13092.065582
753.160421	13216.443450
753.488356	13107.839352
753.816243	13012.352337
754.144082	12843.771111
754.471875	12788.877987
754.799620	12751.674271
755.127318	12723.796690
755.454969	12712.325545
755.782572	12673.856500
756.110129	12688.677492
756.437638	12609.100358
756.765100	12605.470727
757.092515	12629.406126
757.419882	12657.538285
757.747203	12663.295282
758.074477	12750.771905
758.401703	12725.573697
758.728882	12905.734453
759.056014	12949.859673
759.383099	13120.724541
759.710138	13245.218356
760.037129	13380.112071
760.364073	13440.716823
760.690970	13471.243530
761.017820	13470.429384
761.344623	13660.589268
761.671379	13979.832939
761.998088	14517.499723
762.324751	15915.179791
762.651366	18833.657508
762.977935	23091.189194
763.304456	26339.386099
763.630931	27931.115302
763.957359	27150.311148
764.283740	25113.276661
764.610074	22997.091017
764.936362	20400.478370
765.262602	18511.242952
765.588796	16553.682255
765.914943	15237.699126
766.241044	14103.134521
766.567097	13291.964976
766.893104	12548.367057
767.219064	12080.469842
767.544978	11604.000145
767.870845	11213.068747
768.196665	10985.309416
768.522438	10755.274004
768.848165	10558.689169
769.173846	10346.839720
769.499479	10222.421522
769.825066	10049.600686
770.150607	9828.099948
770.476101	9741.180373
770.801548	9623.255182
771.126949	9475.866967
771.452303	9365.203558
771.777611	9175.056276
772.102872	9161.198144
772.428087	9024.671095
772.753256	8874.651397
773.078378	8795.308677
773.403453	8611.518290
773.728482	8490.825505
774.053465	8416.002179
774.378401	8321.732603
774.703291	8199.930764
775.028135	8085.267199
775.352932	8054.559010
775.677683	7953.204092
776.002388	7838.482554
776.327046	7850.137701
776.651658	7753.271930
776.976224	7652.705952
777.300743	7655.274420
777.625216	7569.889877
777.949643	7518.749892
778.274024	7536.416615
778.598359	7450.540559
778.922647	7475.022923
779.246889	7419.202227
779.571086	7426.005264
779.895236	7433.854340
780.219339	7437.630164
780.543397	7444.145856
780.867409	7514.522884
781.191374	7531.756068
781.515294	7494.859863
781.839167	7583.508554
782.162995	7560.435193
782.486776	7514.175044
782.810511	7472.182233
783.134201	7387.221147
783.457844	7375.603807
783.781441	7324.786456
784.104993	7267.544154
784.428498	7240.858806
784.751958	7232.372024
785.075372	7196.456323
785.398739	7143.705689
785.722061	7178.028385
786.045337	7178.754312
786.368568	7316.128274
786.691752	7317.108779
787.014891	7611.131556
787.337983	7918.062208
787.661030	8461.296947
787.984031	9075.614475
788.306987	9505.314867
788.629897	9764.034444
788.952760	9759.227704
789.275579	9585.068442
789.598351	9214.268891
789.921078	8883.110454
790.243759	8478.898135
790.566395	8191.512037
790.888984	7940.762524
791.211529	7729.908703
791.534027	7504.654825
791.856480	7307.162582
792.178888	7231.290696
792.501249	7129.633308
792.823566	6968.321427
793.145836	6968.717157
793.468062	6937.464524
793.790241	6877.429423
794.112375	6933.217352
794.434464	7076.580205
794.756507	7098.849502
795.078505	7238.766727
795.400457	7518.805344
795.722364	7857.109617
796.044226	8143.295921
796.366042	8432.174201
796.687812	8395.091473
797.009538	8496.027976
797.331218	8412.077641
797.652852	8335.328594
797.974442	8189.742592
798.295986	8108.035570
798.617484	7925.752488
798.938938	7786.664533
799.260346	7686.955551
799.581709	7490.015315
799.903026	7405.061790
800.224299	7304.122767
800.545526	7144.106461
800.866708	7043.565689
801.187845	6977.571944
801.508936	6872.458845
801.829983	6838.267219
802.150984	6686.914137
802.471940	6651.177397
802.792851	6631.274922
803.113717	6599.848368
803.434538	6563.952833
803.755314	6504.046281
804.076045	6515.270410
804.396731	6451.343538
804.717372	6482.696994
805.037967	6477.907898
805.358518	6511.860069
805.679024	6593.887204
805.999485	6599.992041
806.319901	6644.712117
806.640272	6661.799108
806.960598	6749.094249
807.280879	6749.487459
807.601115	6828.318502
807.921306	6770.496467
808.241453	6786.436596
808.561554	6812.968188
808.881611	6780.399814
809.201623	6781.067767
809.521590	6736.130922
809.841513	6715.767181
810.161390	6753.739672
810.481223	6624.920547
810.801011	6612.063084
811.120755	6592.868891
811.440453	6513.080028
811.760107	6478.412013
812.079716	6448.081911
812.399281	6390.189301
812.718801	6373.987032
813.038276	6336.264078
813.357707	6272.085148
813.677093	6309.107382
813.996434	6215.551128
814.315731	6255.446820
814.634983	6243.474080
814.954191	6251.174442
815.273354	6346.749678
815.592473	6403.828142
815.911547	6516.974320
816.230577	6594.933243
816.549562	6733.403657
816.868502	6830.622309
817.187399	6922.512462
817.506250	7060.002371
817.825058	7088.000939
818.143821	7324.204203
818.462539	7561.834113
818.781213	7880.538380
819.099843	8362.467646
819.418429	9257.199357
819.736970	10142.753648
820.055466	11229.709596
820.373919	12565.685941
820.692327	14555.031113
821.010691	17834.914190
821.329011	25194.645925
821.647286	36734.794816
821.965517	50541.834644
822.283704	58089.409854
822.601847	61291.744861
822.919945	59077.039948
823.237999	55174.977663
823.556010	49151.360905
823.873976	42563.099629
824.191897	36168.756418
824.509775	31365.880270
824.827609	26780.411443
825.145398	24008.527960
825.463144	22354.679138
825.780845	22248.898086
826.098502	23474.921825
826.416116	26718.528759
826.733685	30413.762584
827.051210	32181.879240
827.368692	31258.836409
827.686129	27795.150342
828.003522	23839.452701
828.320872	20158.044241
828.638177	17296.150955
828.955439	15120.930879
829.272656	13316.591012
829.589830	11852.118176
829.906960	10569.205016
830.224046	9605.016287
830.541088	8836.804935
830.858086	8352.261830
831.175041	7951.374153
831.491952	7794.437992
831.808819	7785.689070
832.125642	8077.740756
832.442421	8772.371427
832.759157	10238.502803
833.075849	12768.804112
833.392497	15866.951072
833.709101	18303.456673
834.025662	18666.754986
834.342179	17341.702821
834.658653	15311.063038
834.975083	13403.689548
835.291469	11783.298864
835.607811	10461.281474
835.924110	9565.168487
836.240366	8715.068631
836.556578	7912.206908
836.872746	7266.845954
837.188871	6750.412510
837.504952	6330.456669
837.820990	6013.516806
838.136984	5786.591786
838.452935	5668.618704
838.768842	5652.199666
839.084706	5929.954640
839.400526	6883.125927
839.716303	8360.294909
840.032037	9586.416950
840.347727	9806.271752
840.663373	9025.560858
840.978977	7996.971389
841.294537	7172.455390
841.610054	6575.156797
841.925527	6136.904087
842.240957	5780.819665
842.556344	5460.865192
842.871687	5186.460065
843.186987	4903.008587
843.502244	4673.941077
843.817458	4510.990820
844.132629	4370.002349
844.447756	4279.296868
844.762840	4193.385524
845.077881	4123.605873
845.392879	4062.993560
845.707833	4013.396167
846.022745	3968.716421
846.337613	3941.932771
846.652438	3899.219074
846.967221	3886.258267
847.281960	3850.022454
847.596656	3833.646265
847.911309	3815.926610
848.225919	3792.732261
848.540485	3773.495218
848.855009	3762.765122
849.169490	3743.414653
849.483928	3726.788927
849.798323	3722.680387
850.112675	3706.336966
850.426984	3709.326370
850.741251	3694.349102
851.055474	3686.066487
851.369654	3691.720141
851.683792	3693.534956
851.997887	3695.150646
852.311938	3697.335986
852.625947	3704.875032
852.939914	3692.267106
853.253837	3700.431254
853.567718	3698.487890
853.881555	3688.672763
854.195350	3701.885627
854.509103	3700.708518
854.822812	3697.527550
855.136479	3687.903987
855.450103	3697.187272
855.763685	3683.805529
856.077224	3686.192515
856.390720	3700.963096
856.704173	3721.977146
857.017584	3733.080287
857.330953	3742.834920
857.644278	3765.590688
857.957561	3770.525978
858.270802	3773.270886
858.584000	3775.201648
858.897155	3768.237294
859.210268	3752.629882
859.523339	3732.593816
859.836367	3732.687077
860.149352	3725.669791
860.462295	3718.627299
860.775195	3708.232440
861.088054	3701.615926
861.400869	3700.915205
861.713642	3694.195347
862.026373	3708.204714
862.339062	3709.974159
862.651708	3729.914443
862.964312	3759.357302
863.276873	3767.909619
863.589392	3819.520952
863.901869	3859.930842
864.214303	3905.296185
864.526696	3937.758695
864.839045	3982.582115
865.151353	4010.719315
865.463619	4020.146272
865.775842	4021.373793
866.088023	4042.750806
866.400162	4037.802914
866.712258	4041.770302
867.024313	4044.159809
867.336325	4040.961197
867.648296	4046.892114
867.960224	4047.555026
868.272110	4057.813774
868.583954	4056.901325
868.895755	4071.871032
869.207515	4060.856110
869.519233	4101.717183
869.830909	4113.904172
870.142542	4135.714724
870.454134	4147.947084
870.765684	4178.362886
871.077191	4213.668607
871.388657	4235.332966
871.700081	4268.546608
872.011463	4305.470539
872.322803	4337.020600
872.634101	4369.712483
872.945357	4405.963420
873.256571	4457.854537
873.567744	4487.786388
873.878874	4507.424203
874.189963	4547.576994
874.501010	4557.031678
874.812015	4555.078231
875.122979	4593.822018
875.433900	4591.611472
875.744780	4600.796455
876.055618	4628.583295
876.366415	4626.725630
876.677169	4643.890758
876.987882	4679.529196
877.298554	4728.589705
877.609183	4793.832318
877.919771	4889.589035
878.230317	5008.978682
878.540822	5193.494995
878.851285	5466.407941
879.161707	5852.167115
879.472087	6480.665409
879.782425	7483.877710
880.092722	9282.959653
880.402977	12089.039804
880.713191	15526.211922
881.023363	19164.268980
881.333494	21582.308834
881.643583	23015.297144
881.953631	23243.260641
882.263637	22588.762596
882.573602	21320.925007
882.883526	19914.647251
883.193408	18368.268267
883.503248	16791.859130
883.813048	15345.579818
884.122806	13987.893744
884.432522	12568.698031
884.742197	11374.063036
885.051831	10312.950563
885.361424	9327.344492
885.670975	8526.158953
885.980485	7845.078903
886.289954	7280.583099
886.599382	6815.725700
886.908768	6448.371778
887.218113	6092.617551
887.527417	5808.165404
887.836680	5544.893665
888.145901	5335.703424
888.455082	5176.012273
888.764221	5024.843193
889.073319	4891.408892
889.382376	4817.180422
889.691392	4751.862192
890.000366	4726.606011
890.309300	4704.019121
890.618193	4706.942990
890.927044	4691.701062
891.235855	4708.785532
891.544625	4729.282863
891.853353	4777.771202
892.162041	4867.317217
892.470687	5029.806209
892.779293	5239.165328
893.087858	5551.381630
893.396381	6033.973808
893.704864	6703.000458
894.013306	7714.757515
894.321707	8826.384870
894.630068	9709.809273
894.938387	10043.889059
895.246665	9924.254916
895.554903	9405.568077
895.863100	8775.738918
896.171256	8254.609639
896.479371	7765.491687
896.787446	7297.289482
897.095480	6883.824126
897.403473	6573.047074
897.711425	6266.043325
898.019336	6017.733731
898.327207	5755.049286
898.635038	5536.918559
898.942827	5292.120129
899.250576	5104.052323
899.558284	4916.740690
899.865952	4797.852638
900.173579	4653.801667
900.481165	4547.382909
900.788711	4457.640288
901.096216	4385.788723
901.403681	4319.883198
901.711105	4289.333806
902.018489	4268.181124
902.325832	4320.553671
902.633135	4408.652876
902.940397	4661.111340
903.247619	5261.772382
903.554800	6433.979283
903.861941	8166.104622
904.169041	9707.538233
904.476101	10541.231653
904.783121	10400.848122
905.090100	9789.300707
905.397039	9019.377883
905.703938	8311.970408
906.010796	7651.339799
906.317614	7127.586600
906.624391	6617.656244
906.931129	6211.467794
907.237826	5829.028219
907.544483	5475.192151
907.851099	5120.204180
908.157675	4781.118528
908.464211	4461.761432
908.770707	4224.035740
909.077163	4025.603322
909.383578	3878.436917
909.689954	3758.827981
909.996289	3686.752083
910.302584	3622.444604
910.608839	3587.300200
910.915054	3554.086558
911.221229	3543.389230
911.527363	3547.585990
911.833458	3558.278278
912.139513	3576.365938
912.445527	3603.099177
912.751502	3669.276924
913.057436	3756.917383
913.363331	3869.042727
913.669186	4039.307698
913.975000	4254.237293
914.280775	4606.220736
914.586510	5096.646868
914.892205	5771.052429
915.197859	6682.969434
915.503475	7794.175853
915.809050	8826.473090
916.114585	9531.201192
916.420081	9882.199090
916.725536	9925.704248
917.030952	9570.154188
917.336328	9217.485147
917.641665	8851.084003
917.946961	8417.602746
918.252218	8016.266406
918.557435	7536.023405
918.862612	7136.446428
919.167750	6784.546163
919.472848	6398.582822
919.777906	6041.921187
920.082925	5697.499474
920.387904	5346.914950
920.692843	5082.324950
920.997743	4841.171273
921.302603	4610.667034
921.607423	4453.241882
921.912204	4292.769352
922.216946	4183.565357
922.521647	4064.931883
922.826310	3967.614929
923.130932	3873.085733
923.435516	3783.010396
923.740059	3712.714026
924.044564	3640.295330
924.349028	3583.481526
924.653454	3523.552289
924.957840	3459.454018
925.262186	3415.164961
925.566493	3355.853266
925.870761	3303.372333
926.174989	3270.539298
926.479178	3234.137127
926.783328	3191.536856
927.087438	3168.755882
927.391509	3135.262456
927.695541	3104.440841
927.999533	3082.224476
928.303486	3058.520971
928.607400	3044.488919
928.911275	3033.141282
929.215110	3014.902387
929.518906	3009.513393
929.822663	3004.991478
930.126381	3001.734893
930.430060	3009.518435
930.733699	3007.461644
931.037299	3021.087883
931.340861	3017.269209
931.644383	3024.435209
931.947866	3024.568799
932.251309	3023.013603
932.554714	3019.154600
932.858080	3013.485823
933.161407	3007.862416
933.464694	3001.601303
933.767943	2994.614263
934.071153	2989.689056
934.374323	2983.581698
934.677455	2973.585090
934.980548	2967.439923
935.283602	2962.184521
935.586617	2961.090590
935.889593	2968.415387
936.192530	2972.067703
936.495428	2981.217397
936.798287	2996.487052
937.101108	3024.646937
937.403890	3067.935325
937.706632	3125.606125
938.009336	3194.496013
938.312002	3263.451436
938.614628	3323.468893
938.917216	3376.743807
939.219765	3411.991555
939.522275	3445.560598
939.824747	3455.471507
940.127179	3448.900363
940.429573	3447.693006
940.731929	3442.472892
941.034246	3433.804628
941.336524	3423.137546
941.638763	3405.256573
941.940964	3392.714183
942.243126	3358.015921
942.545250	3338.552026
942.847335	3304.075574
943.149381	3268.772374
943.451389	3239.694999
943.753359	3211.104095
944.055290	3183.574353
944.357182	3159.981753
944.659036	3144.623878
944.960851	3133.692136
945.262628	3120.819550
945.564367	3120.590177
945.866067	3117.114302
946.167729	3112.191615
946.469352	3113.204887
946.770937	3108.221706
947.072484	3093.156218
947.373992	3094.661002
947.675462	3088.420054
947.976893	3072.931109
948.278286	3069.293916
948.579641	3059.990467
948.880958	3052.579971
949.182236	3052.993345
949.483476	3047.352294
949.784678	3046.843138
950.085841	3047.800957
950.386967	3055.627348
950.688054	3072.721901
950.989103	3087.426947
951.290114	3106.190121
951.591087	3130.662403
951.892021	3157.257010
952.192917	3183.904549
952.493776	3210.017726
952.794596	3217.685321
953.095378	3225.476424
953.396122	3222.310580
953.696828	3217.471072
953.997496	3210.789022
954.298126	3187.430836
954.598718	3171.284020
954.899272	3149.526400
955.199788	3126.178296
955.500266	3097.184100
955.800706	3059.337637
956.101108	3027.717000
956.401472	3000.177177
956.701798	2967.056796
957.002087	2930.969696
957.302337	2905.995820
957.602550	2878.788713
957.902724	2848.539269
958.202861	2825.952379
958.502960	2805.392033
958.803022	2787.874023
959.103045	2765.967689
959.403031	2748.951275
959.702979	2736.834861
960.002889	2725.396483
960.302762	2714.023640
960.602596	2703.285982
960.902393	2692.349199
961.202153	2682.992818
961.501875	2679.930317
961.801559	2671.032680
962.101205	2665.363903
962.400814	2661.429282
962.700385	2654.759836
962.999918	2649.917807
963.299414	2643.593680
963.598873	2640.483288
963.898293	2633.072792
964.197677	2636.042031
964.497022	2633.435755
964.796331	2629.228912
965.095601	2627.285547
965.394835	2626.047944
965.694030	2623.769342
965.993189	2621.757922
966.292309	2622.193982
966.591393	2620.633745
966.890439	2620.258179
967.189447	2621.052160
967.488419	2620.510236
967.787353	2620.737088
968.086249	2622.756070
968.385108	2622.476286
968.683930	2625.473252
968.982714	2630.685805
969.281462	2630.882410
969.580172	2639.180150
969.878844	2643.076962
970.177480	2648.223980
970.476078	2656.877120
970.774639	2663.412976
971.073162	2673.555778
971.371649	2677.818073
971.670098	2683.093641
971.968510	2688.278467
972.266885	2688.114630
972.565223	2696.939170
972.863524	2696.808100
973.161788	2700.238605
973.460014	2704.611806
973.758204	2705.040304
974.056356	2708.806046
974.354471	2711.671942
974.652550	2712.231510
974.950591	2708.264122
975.248595	2707.893597
975.546563	2706.590459
975.844493	2702.857484
976.142386	2697.617205
976.440243	2692.762574
976.738062	2689.682429
977.035845	2685.420133
977.333590	2677.185408
977.631299	2673.727177
977.928971	2667.299706
978.226606	2660.403407
978.524204	2660.930208
978.821765	2655.974754
979.119290	2656.125988
979.416777	2656.385608
979.714228	2659.632111
980.011642	2660.045485
980.309020	2668.902793
980.606360	2677.112312
980.903664	2696.465301
981.200931	2724.826833
981.498162	2763.290837
981.795356	2827.252997
982.092513	2903.659245
982.389633	3000.577948
982.686717	3090.658326
982.983764	3164.342352
983.280775	3218.885116
983.577749	3238.404463
983.874686	3232.962538
984.171587	3203.849874
984.468451	3170.328722
984.765279	3129.946559
985.062070	3091.943821
985.358824	3053.182389
985.655543	2997.452433
985.952224	2951.835032
986.248869	2895.742113
986.545478	2836.962259
986.842050	2784.047788
987.138586	2740.005747
987.435086	2703.769933
987.731549	2672.403874
988.027975	2649.141470
988.324366	2631.205044
988.620719	2616.830194
988.917037	2604.436517
989.213318	2594.722214
989.509563	2590.749785
989.805772	2588.088055
990.101944	2583.016655
990.398080	2581.595049
990.694180	2578.754359
990.990244	2577.572208
991.286271	2575.601117
991.582262	2577.136149
991.878217	2579.513053
992.174136	2583.311562
992.470019	2586.595874
992.765865	2586.807602
993.061676	2591.914291
993.357450	2596.660537
993.653188	2604.406270
993.948890	2620.210288
994.244556	2634.564973
994.540186	2655.400062
994.835780	2681.336799
995.131337	2716.965153
995.426859	2748.885740
995.722345	2793.605815
996.017795	2840.707836
996.313208	2878.675287
996.608586	2906.421797
996.903928	2923.329827
997.199234	2927.279571
997.494504	2927.367792
997.789738	2915.647109
998.084936	2894.040723
998.380099	2866.924357
998.675225	2840.657425
998.970316	2814.710606
999.265371	2781.890174
999.560390	2746.579412
999.855373	2717.905329
1000.150320	2691.638397
1000.445232	2668.111332
1000.740108	2646.399082
1001.034948	2627.880403
1001.329752	2613.634102
1001.624521	2602.341918
1001.919254	2591.387491
1002.213951	2584.496233
1002.508613	2577.115984
1002.803239	2568.775395
1003.097829	2564.404715
1003.392384	2558.957748
1003.686903	2555.938097
1003.981386	2550.546583
1004.275834	2549.906356
1004.570246	2547.247147
1004.864623	2545.969215
1005.158964	2539.312371
1005.453270	2540.481919
1005.747540	2540.499563
1006.041775	2537.288348
1006.335974	2532.957997
1006.630138	2536.668286
1006.924266	2533.026053
1007.218359	2534.261135
1007.512416	2530.465146
1007.806438	2527.385001
1008.100425	2528.912471
1008.394376	2525.103879
1008.688292	2529.469518
1008.982172	2530.084539
1009.276017	2531.770805
1009.569827	2524.768643
1009.863602	2529.887934
1010.157341	2528.519261
1010.451045	2527.110258
1010.744714	2527.127903
1011.038347	2526.217974
1011.331945	2524.302336
1011.625508	2523.901564
1011.919036	2522.704290
1012.212528	2520.874351
1012.505986	2522.096831
1012.799408	2521.597757
1013.092795	2519.795544
1013.386147	2519.656913
1013.679464	2519.873682
1013.972745	2520.337468
1014.265992	2519.588857
1014.559204	2520.037520
1014.852380	2519.178003
1015.145521	2521.012983
1015.438628	2518.144566
1015.731699	2517.337982
1016.024736	2521.905267
1016.317737	2520.244207
1016.610703	2524.327542
1016.903635	2522.681605
1017.196531	2524.168745
1017.489393	2525.313087
1017.782219	2525.668488
1018.075011	2529.625794
1018.367768	2527.553880
1018.660490	2530.387008
1018.953177	2530.387008
1019.245829	2530.387008
