Dividing Wavelength (nm)	Counts (n)	Blue Motor Position (mm): 48.000000	Red Motor Position (mm): 0.000000	
326.493990	2066.505073
326.888308	2066.505073
327.282561	2066.505073
327.676750	2038.982893
328.070874	2039.660928
328.464933	2045.586805
328.858929	2055.167518
329.252859	2065.436348
329.646726	2079.889336
330.040528	2096.225195
330.434265	2113.796137
330.827938	2132.077881
331.221547	2152.071098
331.615091	2172.860816
332.008571	2194.535257
332.401986	2213.815150
332.795338	2234.118397
333.188625	2252.437950
333.581847	2273.951074
333.975006	2288.255348
334.368100	2310.106229
334.761129	2324.798672
335.154095	2341.126970
335.546996	2393.915412
335.939833	2498.605054
336.332606	2507.593431
336.725315	2519.556089
337.117960	2530.293747
337.510540	2540.507125
337.903056	2552.063970
338.295508	2557.551266
338.687896	2567.431927
339.080220	2571.462330
339.472480	2574.373596
339.864676	2577.365521
340.256807	2579.087075
340.648875	2582.005903
341.040879	2583.535893
341.432818	2586.094279
341.824694	2587.316759
342.216506	2588.012438
342.608253	2587.972109
342.999937	2585.559917
343.391557	2584.324834
343.783113	2582.910790
344.174605	2580.128073
344.566033	2583.099834
344.957397	2579.989442
345.348697	2576.064903
345.739934	2575.202866
346.131106	2572.823442
346.522215	2570.527196
346.913260	2571.946281
347.304241	2571.336301
347.695159	2564.026628
348.086012	2564.787842
348.476802	2562.899930
348.867528	2561.004456
349.258191	2557.271482
349.648789	2556.152346
350.039324	2554.947510
350.429796	2562.022769
350.820203	2558.027655
351.210548	2558.635114
351.600828	2556.885834
351.991045	2558.191492
352.381198	2552.336192
352.771288	2554.919784
353.161314	2554.236707
353.551276	2553.054557
353.941175	2550.506253
354.331010	2555.912891
354.720782	2558.564538
355.110490	2557.359702
355.500135	2556.197716
355.889717	2556.485062
356.279235	2555.807027
356.668689	2556.575803
357.058080	2556.099414
357.447408	2556.779969
357.836672	2560.114693
358.225873	2557.188303
358.615010	2560.001267
359.004084	2557.294167
359.393095	2561.692574
359.782043	2562.239539
360.170927	2559.545042
360.559748	2560.530588
360.948505	2561.876576
361.337199	2564.681978
361.725830	2563.867832
362.114398	2562.093346
362.502903	2565.022256
362.891344	2566.605178
363.279722	2566.098542
363.668037	2565.899417
364.056289	2567.315981
364.444478	2569.438307
364.832603	2567.837740
365.220665	2569.985272
365.608665	2569.372772
365.996601	2569.193811
366.384474	2569.808832
366.772284	2570.267577
367.160031	2572.152968
367.547715	2574.166909
367.935336	2569.357648
368.322893	2568.533420
368.710388	2565.571742
369.097820	2570.426373
369.485189	2568.987123
369.872495	2576.705130
370.259738	2573.781261
370.646918	2573.347722
371.034035	2575.129769
371.421090	2575.575912
371.808081	2576.173288
372.195010	2575.969122
372.581875	2576.841241
372.968678	2576.269070
373.355418	2578.436766
373.742096	2579.364339
374.128710	2578.857703
374.515262	2582.830132
374.901751	2581.509350
375.288177	2584.602097
375.674540	2584.463466
376.060841	2589.023189
376.447079	2589.355906
376.833254	2592.035279
377.219367	2592.811617
377.605417	2599.612133
377.991404	2602.626743
378.377329	2608.713936
378.763191	2608.698813
379.148991	2614.639813
379.534727	2622.138529
379.920402	2628.281175
380.306013	2632.548512
380.691563	2640.810963
381.077049	2645.955460
381.462474	2652.508960
381.847835	2664.060764
382.233134	2672.096364
382.618371	2681.614062
383.003545	2691.126719
383.388657	2703.926209
383.773706	2716.629917
384.158693	2726.462687
384.543618	2742.420460
384.928480	2753.175762
385.313280	2769.136055
385.698017	2786.006276
386.082692	2805.127372
386.467305	2817.218580
386.851856	2835.192814
387.236344	2859.012266
387.620770	2874.607075
388.005133	2891.943603
388.389435	2917.348498
388.773674	2935.128648
389.157851	2965.186528
389.541965	2989.817605
389.926018	3001.031652
390.310008	3030.897968
390.693936	3056.282698
391.077802	3084.533324
391.461606	3116.300155
391.845348	3131.282465
392.229027	3163.051816
392.612645	3202.239226
392.996200	3231.278792
393.379694	3271.701284
393.763125	3310.167809
394.146494	3340.747448
394.529801	3376.960577
394.913047	3426.366405
395.296230	3433.872683
395.679351	3463.151705
396.062410	3515.912421
396.445408	3500.756192
396.828343	3543.386709
397.211217	3582.992534
397.594028	3565.386305
397.976778	3615.855816
398.359466	3648.998882
398.742092	3664.273578
399.124656	3684.874254
399.507158	3739.346442
399.889598	3758.825460
400.271977	3824.131087
400.654294	3817.819563
401.036549	3878.187380
401.418742	3877.907596
401.800874	3946.051393
402.182944	3979.998523
402.564952	4064.455494
402.946898	4065.367943
403.328783	4061.486255
403.710606	4111.912917
404.092367	4182.390768
404.474067	4248.034153
404.855705	4235.685846
405.237282	4210.265828
405.618797	4307.103873
406.000250	4386.562540
406.381642	4465.542297
406.762972	4469.171928
407.144240	4438.322587
407.525447	4501.457998
407.906593	4519.792674
408.287677	4603.939614
408.668700	4625.258654
409.049661	4671.080222
409.430560	4706.932908
409.811399	4690.498746
410.192176	4743.009925
410.572891	4821.414991
410.953545	4928.005148
411.334138	4825.843645
411.714669	4929.343574
412.095139	4845.189073
412.475547	4954.065393
412.855894	4958.000013
413.236180	5059.995159
413.616405	4990.114684
413.996568	5092.172844
414.376670	5097.705510
414.756711	5089.551444
415.136691	5159.333616
415.516609	5247.163119
415.896466	5278.856853
416.276262	5357.705540
416.655997	5470.317355
417.035670	5564.173558
417.415283	5702.833015
417.794834	5774.961844
418.174324	5728.668928
418.553753	5735.136729
418.933121	5897.875257
419.312428	5909.162401
419.691674	5836.484086
420.070859	6057.760493
420.449983	5932.520587
420.829045	6130.108612
421.208047	6057.614299
421.586988	6212.619697
421.965867	6282.855573
422.344686	6369.177771
422.723444	6530.247678
423.102141	6154.870760
423.480777	6543.631941
423.859352	6355.642273
424.237866	6723.734724
424.616319	6714.350616
424.994712	6875.944803
425.373044	6790.613192
425.751314	7103.540296
426.129524	6826.738100
426.507673	7091.292813
426.885762	7129.381251
427.263789	7170.118815
427.641756	7254.830364
428.019662	7338.367325
428.397508	7374.845114
428.775292	7356.805345
429.153016	7526.979575
429.530679	7459.954914
429.908282	7512.672781
430.285824	7450.709438
430.663305	7732.847695
431.040726	7616.724717
431.418086	7627.250646
431.795385	7752.024245
432.172624	7941.072555
432.549802	7827.389495
432.926920	7963.374620
433.303977	7900.939929
433.680974	7945.506250
434.057910	8145.362794
434.434786	8196.371709
434.811601	8148.637023
435.188355	8486.958940
435.565050	8371.014923
435.941683	8389.737768
436.318257	8715.106440
436.694770	8674.757045
437.071222	8904.520234
437.447614	8673.151437
437.823946	8639.892425
438.200218	8785.208725
438.576429	8666.834871
438.952580	8833.951642
439.328670	8845.206018
439.704700	8920.921628
440.080670	8808.745873
440.456580	9077.767048
440.832429	9053.851814
441.208218	8798.149367
441.583947	8911.156913
441.959616	9026.183441
442.335224	9052.906598
442.710773	9138.785174
443.086261	9318.051125
443.461689	9038.509062
443.837057	9208.199342
444.212365	9418.092823
444.587612	9400.834433
444.962800	9292.724368
445.337927	9428.359133
445.712995	8971.083629
446.088002	9641.529365
446.462949	9694.227066
446.837837	9684.006127
447.212664	9703.858191
447.587431	10537.218895
447.962139	11549.301106
448.336786	12455.380454
448.711374	12232.679921
449.085901	11029.192660
449.460369	10952.209200
449.834776	10737.511499
450.209124	11645.698049
450.583412	11464.161058
450.957640	11779.260900
451.331808	11366.980215
451.705917	10804.548763
452.079965	10683.321616
452.453954	10881.532223
452.827883	10823.546351
453.201752	10794.234562
453.575562	10802.005501
453.949311	11132.049843
454.323001	11201.315297
454.696632	11123.379058
455.070202	11709.932432
455.443713	11767.837645
455.817164	11936.922987
456.190556	12243.997311
456.563888	12113.686005
456.937160	12364.059952
457.310373	11854.401819
457.683526	11859.879032
458.056619	11880.247814
458.429653	11948.953700
458.802628	12084.686768
459.175542	12135.882205
459.548398	12691.263604
459.921194	13255.116662
460.293930	13549.701528
460.666607	14409.336726
461.039224	15200.704618
461.411782	15528.490524
461.784280	15198.330235
462.156719	15127.716272
462.529099	15031.039544
462.901419	14397.837854
463.273680	14006.362011
463.645882	14210.556468
464.018024	14106.239871
464.390106	14475.385923
464.762130	15548.017433
465.134094	17090.741580
465.505999	19402.564322
465.877845	21650.772744
466.249631	22839.741482
466.621358	22360.637782
466.993026	21529.817819
467.364634	20761.001529
467.736184	19960.776329
468.107674	19357.335090
468.479105	19229.151151
468.850477	18944.336041
469.221790	18512.740175
469.593043	17844.625973
469.964238	17472.974467
470.335373	17519.897527
470.706449	18234.382783
471.077467	19112.307287
471.448425	21574.323646
471.819324	23443.790180
472.190164	23311.679181
472.560945	21574.928585
472.931667	20020.022489
473.302330	19678.806950
473.672934	19145.682246
474.043479	19540.444921
474.413965	19346.776393
474.784393	19164.248815
475.154761	19825.227264
475.525070	19952.670153
475.895321	19780.938207
476.265513	20300.522372
476.635645	20885.535673
477.005719	20952.767021
477.375734	21323.808547
477.745691	21942.214451
478.115588	22574.191141
478.485427	23770.086424
478.855207	25569.700209
479.224928	27379.434111
479.594591	28787.859399
479.964194	28402.969823
480.333739	28833.751543
480.703226	29055.491736
481.072653	29490.384516
481.442022	30011.279382
481.811333	30413.165207
482.180584	29970.211622
482.549777	29746.044113
482.918912	29507.748771
483.287988	29434.740260
483.657005	29295.574167
484.025964	28925.994576
484.394864	29097.494630
484.763706	29030.805205
485.132489	28498.255193
485.501213	28573.393591
485.869879	28738.133457
486.238487	28663.675615
486.607036	28932.515308
486.975527	28616.858419
487.343959	28967.710124
487.712333	29325.415277
488.080648	29265.168448
488.448905	29714.305008
488.817104	29579.653269
489.185244	30393.446734
489.553326	31353.622704
489.921350	33246.676797
490.289315	35748.480463
490.657222	36652.258524
491.025070	37210.001703
491.392861	36924.067457
491.760593	36131.782075
492.128267	35128.801667
492.495883	34130.897702
492.863440	33237.151536
493.230939	32280.905146
493.598380	31709.974308
493.965763	31559.087532
494.333088	31061.366851
494.700354	30865.664218
495.067563	30824.084781
495.434713	30708.246627
495.801805	30987.839102
496.168839	30813.158080
496.535815	30676.373932
496.902733	30797.021346
497.269593	30619.960900
497.636395	30770.814908
498.003139	31029.726049
498.369825	30789.147064
498.736453	31171.858861
499.103023	31012.316424
499.469535	31109.504829
499.835989	31219.611191
500.202385	31083.104307
500.568723	31118.712497
500.935003	31420.055030
501.301226	31299.982307
501.667390	32012.965298
502.033497	32223.025138
502.399546	32018.079549
502.765537	31612.695162
503.131470	32075.115163
503.497345	32495.693588
503.863163	31446.170727
504.228923	32209.981152
504.594625	32605.797429
504.960269	32069.753896
505.325856	32741.346494
505.691385	32396.713052
506.056856	32706.386092
506.422270	33206.735735
506.787625	32721.418813
507.152924	33169.973120
507.518164	33331.602595
507.883347	32923.410286
508.248472	33045.343194
508.613540	33702.223184
508.978550	33929.241466
509.343503	33793.110147
509.708398	34133.589678
510.073236	34704.397007
510.438016	34813.618647
510.802738	34471.780525
511.167403	35015.630284
511.532010	35258.994507
511.896561	35762.131907
512.261053	36507.829467
512.625488	36288.146064
512.989866	36204.248661
513.354186	36234.011634
513.718449	36209.930042
514.082655	37056.564104
514.446803	36745.590447
514.810894	37365.546505
515.174927	37379.457569
515.538904	37380.143166
515.902822	38001.641818
516.266684	37691.378964
516.630488	38033.690954
516.994235	38030.746920
517.357925	38593.674926
517.721558	38848.437197
518.085133	39228.149508
518.448651	39387.409640
518.812112	39294.367584
519.175516	39439.741858
519.538863	39877.261080
519.902152	39932.761663
520.265385	40479.227781
520.628560	40487.916210
520.991678	40450.478081
521.354739	40648.711374
521.717743	41003.906032
522.080690	40905.432133
522.443580	41592.380086
522.806413	41586.718870
523.169189	41711.109341
523.531908	41950.937194
523.894569	41787.019036
524.257174	41969.037457
524.619722	42307.603870
524.982213	42457.305974
525.344647	42503.591328
525.707025	42615.227680
526.069345	43042.730129
526.431608	42968.083244
526.793815	43336.773072
527.155964	42890.247828
527.518057	43159.705063
527.880093	43000.172709
528.242072	43645.226152
528.603995	43355.647152
528.965860	43271.520376
529.327669	43483.662212
529.689421	43549.658478
530.051117	43514.584650
530.412755	43770.740800
530.774337	43833.447713
531.135862	43748.201802
531.497331	43927.903813
531.858743	43912.805557
532.220098	44330.472715
532.581396	44052.032144
532.942638	43818.591433
533.303824	44061.544801
533.664953	44124.929749
534.026025	43798.915809
534.387040	44359.683681
534.747999	44422.435964
535.108902	44748.036529
535.469748	44067.006891
535.830537	44348.479716
536.191270	44593.104227
536.551947	44322.154811
536.912567	44599.216626
537.273131	44747.650881
537.633638	44363.421696
537.994089	44535.806473
538.354483	44318.830170
538.714821	44944.621364
539.075103	45240.312764
539.435328	45093.907574
539.795497	44848.867168
540.155609	44981.078989
540.515665	45550.520166
540.875665	44848.302558
541.235609	45134.667823
541.595496	45260.989056
541.955328	45833.127250
542.315102	45261.919149
542.674821	45166.215364
543.034483	45060.280557
543.394090	45095.437564
543.753640	45068.784984
544.113134	46113.483460
544.472571	45252.865237
544.831953	46357.548403
545.191278	45631.773483
545.550548	45320.436863
545.909761	45941.292768
546.268918	46094.344719
546.628019	46471.004611
546.987064	45923.474810
547.346053	45262.821516
547.704986	46139.934394
548.063863	45809.632953
548.422684	45999.555903
548.781449	45571.486325
549.140158	46098.397807
549.498811	45853.057452
549.857408	45261.722544
550.215949	46095.305059
550.574434	45939.137675
550.932864	45891.642444
551.291237	46586.696571
551.649555	46347.899634
552.007817	46495.202150
552.366022	46223.562095
552.724173	46276.600075
553.082267	46685.619133
553.440305	47041.300263
553.798288	46297.031871
554.156215	46683.388423
554.514086	46878.511323
554.871902	46477.706825
555.229661	46630.647871
555.587365	46343.541557
555.945014	46465.184599
556.302606	46488.850296
556.660143	46584.055007
557.017625	46820.283476
557.375050	46512.107659
557.732421	46914.187569
558.089735	46967.641444
558.446994	46837.383070
558.804197	47303.110068
559.161345	47165.272319
559.518437	46534.729837
559.875474	46755.166892
560.232455	46968.163203
560.589381	47036.856486
560.946251	46866.611680
561.303065	47505.376284
561.659825	47183.047427
562.016528	46995.024992
562.373177	46585.559791
562.729770	47227.434787
563.086307	46729.731750
563.442789	47266.833925
563.799216	47112.299874
564.155587	47010.972682
564.511904	46976.904564
564.868164	47038.925880
565.224370	47339.476952
565.580520	47096.674818
565.936615	47270.476158
566.292654	46913.794359
566.648638	47281.014691
567.004567	47222.048314
567.360441	47296.304510
567.716260	47022.869805
568.072023	47396.928462
568.427732	47327.504211
568.783385	46874.584265
569.138982	47274.516643
569.494525	47410.980678
569.850013	47031.490178
570.205445	47153.145823
570.560823	46938.133050
570.916145	46810.942218
571.271412	47054.409784
571.626625	46680.414142
571.981782	46748.999040
572.336884	46378.713687
572.691931	46675.534305
573.046923	46352.363576
573.401860	46180.314036
573.756743	46189.814091
574.111570	46347.367793
574.466342	46270.039013
574.821059	46418.387568
575.175722	45909.654486
575.530330	45987.187433
575.884882	45672.846284
576.239380	45562.911322
576.593823	45663.305901
576.948211	45614.762110
577.302544	45160.808727
577.656823	45158.192368
578.011047	45432.184120
578.365216	45245.285862
578.719330	44963.031658
579.073389	44948.727384
579.427394	45001.785528
579.781344	44907.276497
580.135239	44651.279143
580.489080	44729.386780
580.842866	44238.254887
581.196597	44727.697994
581.550273	44710.427001
581.903895	44655.049926
582.257463	45099.813286
582.610975	44513.300241
582.964434	44842.303585
583.317837	44366.466553
583.671186	44316.627186
584.024481	44611.123832
584.377721	44153.442515
584.730906	44372.921751
585.084037	44507.797822
585.437113	44222.004728
585.790135	44345.223131
586.143103	43911.305814
586.496016	44088.401548
586.848874	44169.405329
587.201679	44215.322679
587.554428	43706.682858
587.907124	43969.326974
588.259765	43752.340589
588.612352	43914.232203
588.964884	43380.469793
589.317362	43670.073999
589.669786	43680.436091
590.022155	43563.446034
590.374470	44010.591339
590.726731	43603.283752
591.078937	42956.226450
591.431090	43308.015809
591.783188	42799.605362
592.135232	42631.883653
592.487222	42901.953388
592.839157	43039.307186
593.191038	42682.327959
593.542866	42513.313194
593.894639	41891.043245
594.246358	42202.359701
594.598022	42196.849720
594.949633	41760.439552
595.301190	41751.468819
595.652692	41708.152704
596.004141	42206.382542
596.355535	41113.372168
596.706876	41113.089863
597.058162	40820.087919
597.409395	41328.586587
597.760573	41560.162071
598.111698	41168.595488
598.462768	41083.848650
598.813785	41103.403286
599.164748	40716.073792
599.515657	40985.072282
599.866511	40505.903047
600.217312	41173.278719
600.568060	40143.060958
600.918753	40950.132044
601.269392	40869.488706
601.619978	40597.127767
601.970510	40806.234828
602.320988	40930.947933
602.671412	41204.564120
603.021783	41070.905488
603.372100	40639.511268
603.722363	40751.792888
604.072572	40776.297936
604.422728	40785.429987
604.772830	40547.938708
605.122878	40730.937634
605.472872	40577.368964
605.822813	40855.580163
606.172701	40598.624990
606.522534	40922.191449
606.872314	41136.614408
607.222041	40974.075005
607.571714	41300.038533
607.921333	40797.435494
608.270899	40992.467654
608.620411	41360.219827
608.969870	41148.982878
609.319276	41134.247586
609.668627	41179.756602
610.017926	41558.185939
610.367171	41702.599873
610.716362	41762.153544
611.065500	41646.164156
611.414585	41871.793599
611.763616	42042.807182
612.112594	41953.094808
612.461518	42073.817840
612.810389	42445.688635
613.159207	42230.892632
613.507971	42207.554610
613.856682	42721.129720
614.205340	42555.235429
614.553945	43225.812234
614.902496	42577.787031
615.250994	42994.158612
615.599439	43072.959408
615.947830	43194.347872
616.296169	43190.745968
616.644454	43220.950041
616.992686	43372.855130
617.340864	43831.305223
617.688990	43312.885564
618.037063	43995.669523
618.385082	43814.021627
618.733048	44153.550900
619.080961	44042.290114
619.428821	44082.548769
619.776628	44126.721879
620.124382	43954.052278
620.472083	44085.427267
620.819731	44190.673957
621.167326	43761.112197
621.514868	43767.038073
621.862357	43197.349880
622.209793	43292.773881
622.557176	42864.560629
622.904506	42646.694563
623.251783	42284.427165
623.599007	41947.302522
623.946179	41869.361243
624.293297	41610.245935
624.640363	41074.126785
624.987376	40937.627462
625.334336	40750.449420
625.681243	40319.758441
626.028097	40231.409699
626.374899	40066.019524
626.721647	40039.571110
627.068343	39797.389038
627.414987	39515.896049
627.761577	39276.216910
628.108115	39594.815312
628.454600	38846.879481
628.801032	39070.358872
629.147412	38974.440838
629.493739	38856.654278
629.840014	38425.680995
630.186236	38850.786375
630.532405	38285.330230
630.878521	38528.797797
631.224585	38293.743916
631.570597	37976.093251
631.916556	38140.344125
632.262462	38048.665701
632.608316	37970.190059
632.954117	37851.627162
633.299866	37811.365987
633.645562	37725.719304
633.991206	37205.809984
634.336797	36795.729763
634.682336	36676.186361
635.027823	36455.565304
635.373257	36343.041709
635.718639	36009.783631
636.063968	35902.603659
636.409245	35241.816775
636.754470	35202.412596
637.099642	34983.046786
637.444762	34404.529012
637.789829	34546.518151
638.134845	34176.426883
638.479808	34085.343315
638.824719	34032.597722
639.169577	33532.905950
639.514383	33647.682941
639.859137	33261.409569
640.203839	33416.059566
640.548489	33135.070692
640.893086	33119.586787
641.237632	32828.356809
641.582125	32932.224743
641.926566	32708.982286
642.270955	32739.259456
642.615292	32686.206353
642.959576	32571.351224
643.303809	32560.220357
643.647990	32662.293640
643.992118	32628.747282
644.336195	32452.014510
644.680219	32525.953113
645.024192	32706.469271
645.368112	33222.070925
645.711981	33247.266612
646.055797	33946.565391
646.399562	33745.902262
646.743274	34600.319866
647.086935	35014.944687
647.430544	34994.906101
647.774101	35032.145104
648.117606	35340.094069
648.461059	35472.169779
648.804460	35098.353098
649.147810	34603.261379
649.491108	34275.493117
649.834354	34168.361037
650.177548	33366.313460
650.520690	32844.944726
650.863781	32798.934115
651.206820	32631.305667
651.549807	32233.997209
651.892742	31665.092915
652.235626	31567.047514
652.578458	31418.000759
652.921238	30725.227754
653.263967	31017.685253
653.606644	30713.307946
653.949269	30614.710538
654.291843	30237.932179
654.634365	30571.570864
654.976836	30110.058271
655.319255	30218.369982
655.661622	30078.447715
656.003938	29948.796800
656.346203	29770.718041
656.688416	30012.043116
657.030577	29795.066814
657.372687	29592.823283
657.714746	29752.975700
658.056753	29937.648288
658.398708	29319.065944
658.740612	29376.983761
659.082465	29577.714945
659.424266	29488.113477
659.766016	29463.154724
660.107715	29298.092223
660.449362	29408.561548
660.790958	29380.779749
661.132503	29322.390585
661.473996	29396.495547
661.815438	29498.016823
662.156829	29606.515057
662.498168	29393.836338
662.839456	29374.256496
663.180693	29500.718882
663.521879	29568.605580
663.863013	29528.036894
664.204097	29499.428346
664.545129	29899.910211
664.886110	29857.057883
665.227040	29960.018409
665.567918	29931.278791
665.908746	29988.853809
666.249522	30097.057135
666.590248	30123.576125
666.930922	30225.682175
667.271545	30230.199049
667.612118	30291.723811
667.952639	30100.399420
668.293109	30141.227725
668.633528	29993.907565
668.973896	29945.509968
669.314213	29932.415571
669.654480	29749.149464
669.994695	29733.317720
670.334859	29654.708488
670.674973	29456.603744
671.015035	29649.619443
671.355047	29575.174203
671.695008	29507.521919
672.034918	29413.852239
672.374777	29494.969446
672.714585	29373.306239
673.054342	29503.173924
673.394049	29370.528563
673.733705	29575.890047
674.073310	29288.430852
674.412864	29369.595950
674.752368	29109.573234
675.091820	29315.781632
675.431223	28913.074098
675.770574	28719.236692
676.109875	28565.118537
676.449125	28341.306429
676.788324	28254.984231
677.127473	27761.175486
677.466571	27681.253033
677.805619	27411.480726
678.144616	27337.479108
678.483562	27277.330581
678.822458	26956.864431
679.161303	26900.511892
679.500098	26815.628944
679.838842	26733.531233
680.177535	26787.617773
680.516179	27002.706163
680.854771	27073.793994
681.193314	27758.745650
681.531805	28693.516725
681.870247	29467.137235
682.208638	30267.894277
682.546978	30618.211619
682.885268	30807.322944
683.223508	30394.180222
683.561697	30145.222839
683.899836	29984.309208
684.237925	29571.461394
684.575963	29409.400900
684.913951	29027.760348
685.251889	29170.987091
685.589776	29166.727316
685.927614	29140.909047
686.265401	29313.992023
686.603137	29418.389278
686.940824	29892.431659
687.278460	30208.837160
687.616046	30408.514743
687.953582	31082.227146
688.291068	31002.844096
688.628504	31365.056041
688.965889	31394.725752
689.303224	31150.948155
689.640510	30888.248587
689.977745	30288.469746
690.314930	29559.082840
690.652065	29160.317489
690.989150	28479.038314
691.326185	27632.510116
691.663170	27012.455755
692.000105	26297.471425
692.336990	25700.472781
692.673825	25272.065445
693.010610	24772.943323
693.347345	24286.988695
693.684030	23663.319827
694.020665	23456.521614
694.357251	22784.061938
694.693786	22793.219193
695.030272	22553.620713
695.366707	22049.127242
695.703093	21781.978855
696.039429	21826.640958
696.375716	21586.198084
696.711952	21585.414185
697.048139	21447.972166
697.384276	21285.959564
697.720363	21407.945405
698.056400	21302.580248
698.392388	21130.722272
698.728326	21154.597177
699.064214	20992.813947
699.400053	21004.786687
699.735842	20626.879110
700.071581	20447.134249
700.407270	20206.182219
700.742910	20028.413490
701.078501	19762.106976
701.414042	19565.514579
701.749533	19278.191495
702.084974	18968.473085
702.420366	19185.547690
702.755709	18782.623387
703.091002	18484.671030
703.426246	18542.709834
703.761440	18467.319378
704.096584	18240.381756
704.431679	18171.159152
704.766725	18117.541439
705.101721	18038.569244
705.436668	18151.284403
705.771565	17863.726905
706.106413	18165.253440
706.441212	18243.010718
706.775961	18335.450356
707.110661	18415.390453
707.445311	18775.480072
707.779913	18655.344335
708.114465	18939.332695
708.448967	19240.738243
708.783421	19846.737867
709.117825	20191.018428
709.452180	20402.330994
709.786485	20843.588232
710.120742	21582.654153
710.454949	21680.845747
710.789107	22201.327238
711.123216	22887.645046
711.457275	23127.377117
711.791286	23671.562113
712.125247	23859.002296
712.459159	23618.566983
712.793023	24376.925401
713.126837	23397.676225
713.460602	23661.815042
713.794318	23348.419111
714.127985	23084.262649
714.461602	22200.969316
714.795171	22181.361748
715.128691	21215.310313
715.462162	20699.915347
715.795584	20276.130749
716.128957	20006.113946
716.462281	19641.588111
716.795556	19355.318628
717.128782	18882.733141
717.461960	18287.813972
717.795088	18251.701667
718.128167	17918.781346
718.461198	17473.155949
718.794180	17345.690374
719.127113	17018.837082
719.459997	16825.886919
719.792833	16446.315760
720.125619	16493.813512
720.458357	16151.660318
720.791046	16016.617889
721.123686	15860.639548
721.456278	15629.658920
721.788821	15631.206554
722.121315	15369.510175
722.453761	15471.638911
722.786158	15351.609038
723.118506	15429.683908
723.450805	15317.167875
723.783056	15494.145142
724.115259	15377.570980
724.447412	15365.809968
724.779518	15571.128603
725.111574	15624.277488
725.443582	15867.301432
725.775542	15811.843699
726.107453	16324.481154
726.439315	16236.127371
726.771129	16618.622399
727.102895	17025.163730
727.434612	17303.526163
727.766281	17493.980956
728.097901	17819.999937
728.429473	17915.670954
728.760996	17944.718083
729.092471	18072.289522
729.423897	17940.826312
729.755276	17782.987785
730.086606	17870.396352
730.417887	18416.310463
730.749120	18962.890007
731.080305	19195.864412
731.411442	19599.418859
731.742530	19707.700323
732.073570	19860.255721
732.404562	20169.205355
732.735506	20067.273224
733.066401	19942.164389
733.397249	19508.884777
733.728048	18924.390715
734.058798	18074.953772
734.389501	17309.999005
734.720156	16788.594983
735.050762	16217.606172
735.381320	15803.162832
735.711831	15517.667166
736.042293	15145.060362
736.372707	15159.389842
736.703073	14947.540393
737.033391	15122.231497
737.363661	15120.769562
737.693883	15221.600201
738.024056	15410.525003
738.354182	15610.424397
738.684260	15957.333920
739.014290	16233.639562
739.344272	16462.288656
739.674207	16804.565358
740.004093	16978.129765
740.333931	17048.658028
740.663722	17147.293244
740.993464	17194.601952
741.323159	17071.466728
741.652806	16789.043646
741.982405	16628.271167
742.311956	16265.570230
742.641460	16168.094480
742.970915	15835.148953
743.300323	15501.033879
743.629683	15297.484690
743.958996	14980.149096
744.288260	14673.062169
744.617477	14362.267472
744.946647	14325.343541
745.275768	14015.355429
745.604842	13825.739989
745.933869	13645.397751
746.262847	13608.902318
746.591778	13507.529755
746.920662	13379.766752
747.249498	13379.996125
747.578286	13514.922607
747.907027	13681.056353
748.235720	13942.959419
748.564365	14030.496535
748.892963	13969.596876
749.221514	14077.031426
749.550017	13959.875011
749.878473	13930.865691
750.206881	13716.457856
750.535242	13645.370025
750.863555	13564.391450
751.191821	13471.167913
751.520039	13474.507677
751.848210	13394.796953
752.176334	13441.213377
752.504411	13364.595400
752.832440	13189.274151
753.160421	13316.379284
753.488356	13210.787275
753.816243	13115.678346
754.144082	12944.596708
754.471875	12895.742886
754.799620	12856.845343
755.127318	12822.315960
755.454969	12822.071464
755.782572	12772.902570
756.110129	12794.478708
756.437638	12695.251157
756.765100	12704.373125
757.092515	12732.381775
757.419882	12763.546188
757.747203	12764.995520
758.074477	12847.524250
758.401703	12824.143378
758.728882	13022.104449
759.056014	13064.251015
759.383099	13228.154050
759.710138	13347.387421
760.037129	13480.655364
760.364073	13550.082135
760.690970	13571.580136
761.017820	13581.286877
761.344623	13766.158592
761.671379	14094.947687
761.998088	14628.405107
762.324751	16038.740993
762.651366	18972.831163
762.977935	23284.068782
763.304456	26568.327580
763.630931	28181.945474
763.957359	27401.050578
764.283740	25350.964544
764.610074	23200.567109
764.936362	20575.754248
765.262602	18667.243978
765.588796	16694.408585
765.914943	15365.033631
766.241044	14228.150095
766.567097	13399.258374
766.893104	12653.369251
767.219064	12186.843230
767.544978	11694.503980
767.870845	11294.072527
768.196665	11064.057280
768.522438	10832.605304
768.848165	10629.988728
769.173846	10420.906873
769.499479	10298.583275
769.825066	10128.935845
770.150607	9905.290096
770.476101	9820.623917
770.801548	9698.912819
771.126949	9548.804901
771.452303	9431.489690
771.777611	9237.332170
772.102872	9226.922187
772.428087	9093.548380
772.753256	8937.542312
773.078378	8854.209519
773.403453	8673.607662
773.728482	8562.319149
774.053465	8480.725554
774.378401	8381.490440
774.703291	8264.097091
775.028135	8146.953278
775.352932	8113.243082
775.677683	8008.248451
776.002388	7905.625682
776.327046	7910.991990
776.651658	7812.122360
776.976224	7715.312042
777.300743	7707.951957
777.625216	7626.774257
777.949643	7582.437309
778.274024	7597.291068
778.598359	7510.409303
778.922647	7530.846140
779.246889	7478.682801
779.571086	7489.044892
779.895236	7489.543967
780.219339	7496.674679
780.543397	7496.087384
780.867409	7584.572237
781.191374	7597.210410
781.515294	7559.676499
781.839167	7649.398955
782.162995	7627.802652
782.486776	7577.270126
782.810511	7533.807818
783.134201	7445.993439
783.457844	7439.457583
783.781441	7383.142853
784.104993	7321.444171
784.428498	7299.689072
784.751958	7280.782224
785.075372	7250.505054
785.398739	7199.914555
785.722061	7238.522232
786.045337	7231.000830
786.368568	7374.673715
786.691752	7377.491720
787.014891	7668.104157
787.337983	7979.904563
787.661030	8529.531485
787.984031	9151.577102
788.306987	9600.317932
788.629897	9851.327064
788.952760	9847.367238
789.275579	9672.600516
789.598351	9304.729876
789.921078	8961.817989
790.243759	8554.031492
790.566395	8265.493490
790.888984	8009.067638
791.211529	7797.871018
791.534027	7574.134528
791.856480	7366.512087
792.178888	7282.919673
792.501249	7193.010695
792.823566	7033.014554
793.145836	7021.959303
793.468062	6996.433421
793.790241	6940.791685
794.112375	7000.887280
794.434464	7139.110678
794.756507	7167.406674
795.078505	7299.547919
795.400457	7583.553924
795.722364	7928.812469
796.044226	8214.272847
796.366042	8509.485336
796.687812	8477.133732
797.009538	8576.676355
797.331218	8483.936769
797.652852	8410.774503
797.974442	8262.746061
798.295986	8178.311776
798.617484	7999.232347
798.938938	7848.597629
799.260346	7757.763598
799.581709	7553.702732
799.903026	7482.801423
800.224299	7373.231945
800.545526	7205.197684
800.866708	7107.774865
801.187845	7037.123094
801.508936	6942.150276
801.829983	6895.159161
802.150984	6751.080463
802.471940	6708.979267
802.792851	6691.446134
803.113717	6654.713766
803.434538	6620.711184
803.755314	6561.918727
804.076045	6567.897535
804.396731	6507.040726
804.717372	6541.484410
805.037967	6536.977618
805.358518	6576.280974
805.679024	6655.767368
805.999485	6658.514796
806.319901	6704.245623
806.640272	6727.185394
806.960598	6802.699358
807.280879	6815.395504
807.601115	6890.828810
807.921306	6835.199677
808.241453	6852.364806
808.561554	6873.482199
808.881611	6839.761921
809.201623	6846.882551
809.521590	6799.425129
809.841513	6778.950482
810.161390	6814.082283
810.481223	6686.115114
810.801011	6671.644482
811.120755	6646.849566
811.440453	6568.600776
811.760107	6545.164452
812.079716	6507.940572
812.399281	6446.990502
812.718801	6438.717968
813.038276	6395.908490
813.357707	6330.030691
813.677093	6369.916300
813.996434	6271.767556
814.315731	6306.576723
814.634983	6302.251413
814.954191	6307.773997
815.273354	6410.943731
815.592473	6464.392565
815.911547	6579.502272
816.230577	6653.387943
816.549562	6794.237781
816.868502	6896.701754
817.187399	6989.784139
817.506250	7129.053576
817.825058	7149.737430
818.143821	7395.712970
818.462539	7638.643653
818.781213	7959.465205
819.099843	8438.780633
819.418429	9356.308442
819.736970	10252.297921
820.055466	11354.173164
820.373919	12729.246178
820.692327	14726.712648
821.010691	18038.823822
821.329011	25486.261551
821.647286	37185.378188
821.965517	51231.020869
822.283704	58668.388893
822.601847	61832.703519
822.919945	59687.488390
823.237999	55843.381731
823.556010	49859.469101
823.873976	43197.924571
824.191897	36680.730961
824.509775	31821.872800
824.827609	27175.927771
825.145398	24340.233362
825.463144	22660.717506
825.780845	22541.234598
826.098502	23771.361836
826.416116	27100.529754
826.733685	30850.712155
827.051210	32720.937382
827.368692	31764.907761
827.686129	28239.376819
828.003522	24203.018196
828.320872	20453.697831
828.638177	17546.252680
828.955439	15334.998436
829.272656	13496.804701
829.589830	12009.248421
829.906960	10709.006294
830.224046	9731.937418
830.541088	8945.174619
830.858086	8450.854197
831.175041	8041.225158
831.491952	7884.828402
831.808819	7873.763069
832.125642	8170.324067
832.442421	8872.584524
832.759157	10341.813689
833.075849	12920.177359
833.392497	16057.095834
833.709101	18558.571825
834.025662	18946.329817
834.342179	17602.393490
834.658653	15529.045051
834.975083	13601.670783
835.291469	11939.398193
835.607811	10599.943452
835.924110	9685.952012
836.240366	8817.063777
836.556578	8007.250302
836.872746	7354.430961
837.188871	6836.220511
837.504952	6401.620117
837.820990	6078.908133
838.136984	5846.826013
838.452935	5728.263115
838.768842	5706.263520
839.084706	5988.603423
839.400526	6951.884744
839.716303	8449.540976
840.032037	9704.763078
840.347727	9937.404766
840.663373	9141.961101
840.978977	8102.417204
841.294537	7261.744307
841.610054	6646.554659
841.925527	6210.144491
842.240957	5842.838460
842.556344	5518.462895
842.871687	5236.964864
843.186987	4953.735197
843.502244	4722.852872
843.817458	4555.698293
844.132629	4411.682609
844.447756	4316.505625
844.762840	4235.143922
845.077881	4158.470493
845.392879	4099.395732
845.707833	4052.268505
846.022745	4006.714118
846.337613	3976.162205
846.652438	3936.185855
846.967221	3917.004265
847.281960	3884.735839
847.596656	3867.802603
847.911309	3846.733101
848.225919	3823.828618
848.540485	3806.620640
848.855009	3792.606232
849.169490	3775.488994
849.483928	3758.656581
849.798323	3753.184409
850.112675	3734.406111
850.426984	3740.052203
850.741251	3728.785224
851.055474	3719.385993
851.369654	3727.177096
851.683792	3722.012434
851.997887	3725.276581
852.311938	3728.202971
852.625947	3732.649269
852.939914	3719.648133
853.253837	3731.943507
853.567718	3733.740678
853.881555	3718.846589
854.195350	3733.428127
854.509103	3728.381932
854.822812	3731.086511
855.136479	3722.014955
855.450103	3727.230028
855.763685	3714.473388
856.077224	3718.027402
856.390720	3730.582396
856.704173	3750.436980
857.017584	3765.336110
857.330953	3776.204838
857.644278	3796.578661
857.957561	3802.897748
858.270802	3805.607368
858.584000	3809.027791
858.897155	3802.091163
859.210268	3786.897125
859.523339	3767.536574
859.836367	3764.932818
860.149352	3755.226076
860.462295	3751.851024
860.775195	3737.168663
861.088054	3737.856781
861.400869	3731.250348
861.713642	3729.506109
862.026373	3737.012387
862.339062	3739.787543
862.651708	3764.524484
862.964312	3787.575160
863.276873	3800.979588
863.589392	3849.924151
863.901869	3897.157242
864.214303	3942.000826
864.526696	3977.737566
864.839045	4017.441693
865.151353	4047.066034
865.463619	4058.363260
865.775842	4065.246955
866.088023	4083.211107
866.400162	4076.672731
866.712258	4083.858895
867.024313	4085.409050
867.336325	4082.354111
867.648296	4090.505657
867.960224	4087.450717
868.272110	4097.406996
868.583954	4099.955300
868.895755	4113.553812
869.207515	4106.864201
869.519233	4146.719563
869.830909	4159.400586
870.142542	4178.251981
870.454134	4194.887788
870.765684	4221.978949
871.077191	4259.381790
871.388657	4278.059265
871.700081	4313.183504
872.011463	4357.585987
872.322803	4386.814597
872.634101	4417.316099
872.945357	4455.306234
873.256571	4510.779091
873.567744	4536.120972
873.878874	4557.187953
874.189963	4597.592802
874.501010	4606.397177
874.812015	4605.814923
875.122979	4648.281603
875.433900	4650.194721
875.744780	4656.140762
876.055618	4680.872663
876.366415	4681.298641
876.677169	4698.282288
876.987882	4738.281323
877.298554	4783.913848
877.609183	4857.446638
877.919771	4949.099856
878.230317	5074.664916
878.540822	5257.676445
878.851285	5539.524836
879.161707	5936.006545
879.472087	6572.910963
879.782425	7595.292251
880.092722	9429.964741
880.402977	12303.253554
880.713191	15870.585744
881.023363	19630.943715
881.333494	22143.527889
881.643583	23630.121308
881.953631	23840.221477
882.263637	23169.889168
882.573602	21841.560253
882.883526	20389.450846
883.193408	18793.688720
883.503248	17170.081780
883.813048	15680.090623
884.122806	14295.394046
884.432522	12855.108666
884.742197	11610.767894
885.051831	10520.174754
885.361424	9510.683696
885.670975	8677.701078
885.980485	7986.367322
886.289954	7408.961123
886.599382	6931.006806
886.908768	6556.827162
887.218113	6188.003743
887.527417	5899.927007
887.836680	5628.632271
888.145901	5413.571607
888.455082	5247.498355
888.764221	5094.091003
889.073319	4957.402637
889.382376	4883.123755
889.691392	4818.486081
890.000366	4788.284528
890.309300	4765.359881
890.618193	4768.508082
890.927044	4753.392182
891.235855	4769.770891
891.544625	4795.294252
891.853353	4841.695553
892.162041	4936.300367
892.470687	5104.488383
892.779293	5314.104601
893.087858	5634.240555
893.396381	6132.997193
893.704864	6817.863149
894.013306	7850.674584
894.321707	8990.194644
894.630068	9886.214369
894.938387	10242.797866
895.246665	10121.081727
895.554903	9603.929919
895.863100	8944.594887
896.171256	8411.145028
896.479371	7920.166890
896.787446	7430.804442
897.095480	7005.552868
897.403473	6690.337080
897.711425	6375.932917
898.019336	6120.948835
898.327207	5854.057548
898.635038	5626.358711
898.942827	5374.338827
899.250576	5178.540412
899.558284	4987.931864
899.865952	4869.081621
900.173579	4719.697109
900.481165	4609.699132
900.788711	4515.396788
901.096216	4444.888690
901.403681	4378.985686
901.711105	4346.876056
902.018489	4323.696831
902.325832	4375.756827
902.633135	4463.417451
902.940397	4725.111309
903.247619	5342.017469
903.554800	6540.592126
903.861941	8319.338054
904.169041	9913.524820
904.476101	10768.277661
904.783121	10642.442899
905.090100	10006.062761
905.397039	9212.305362
905.703938	8485.602870
906.010796	7803.411246
906.317614	7266.147755
906.624391	6740.292394
906.931129	6327.003478
907.237826	5937.037461
907.544483	5568.269495
907.851099	5205.566038
908.157675	4859.783213
908.464211	4528.040002
908.770707	4285.678969
909.077163	4077.449068
909.383578	3926.489196
909.689954	3805.388077
909.996289	3728.384453
910.302584	3658.125891
910.608839	3627.518526
910.915054	3593.599122
911.221229	3579.191504
911.527363	3584.235179
911.833458	3596.084411
912.139513	3613.730970
912.445527	3641.495125
912.751502	3710.732852
913.057436	3800.041934
913.363331	3915.406219
913.669186	4091.859207
913.975000	4310.176456
914.280775	4672.746323
914.586510	5173.688301
914.892205	5872.067070
915.197859	6808.257230
915.503475	7954.671067
915.809050	9027.620170
916.114585	9752.263350
916.420081	10113.330953
916.725536	10166.570579
917.030952	9803.715887
917.336328	9441.377913
917.641665	9058.857680
917.946961	8605.627702
918.252218	8205.758338
918.557435	7707.369704
918.862612	7294.174049
919.167750	6934.255829
919.472848	6521.627305
919.777906	6165.300907
920.082925	5813.110776
920.387904	5444.143685
920.692843	5171.815513
920.997743	4921.570115
921.302603	4684.262839
921.607423	4522.076317
921.912204	4361.639075
922.216946	4239.706167
922.521647	4122.577478
922.826310	4015.059748
923.130932	3926.794186
923.435516	3827.811130
923.740059	3761.509874
924.044564	3685.267464
924.349028	3631.904330
924.653454	3565.222467
924.957840	3494.016169
925.262186	3449.525466
925.566493	3393.833319
925.870761	3337.337108
926.174989	3300.672796
926.479178	3264.739451
926.783328	3222.111454
927.087438	3196.184800
927.391509	3163.833195
927.695541	3131.708442
927.999533	3107.919237
928.303486	3086.017944
928.607400	3072.684092
928.911275	3059.670354
929.215110	3040.347611
929.518906	3030.847557
929.822663	3030.552649
930.126381	3027.596012
930.430060	3033.826878
930.733699	3034.598175
931.037299	3045.504711
931.340861	3043.889022
931.644383	3050.301369
931.947866	3051.440670
932.251309	3045.678631
932.554714	3045.824825
932.858080	3039.586397
933.161407	3032.622043
933.464694	3026.184489
933.767943	3018.789117
934.071153	3016.830628
934.374323	3005.404853
934.677455	2997.666682
934.980548	2992.035713
935.283602	2988.141422
935.586617	2981.963488
935.889593	2991.665188
936.192530	2991.224087
936.495428	3003.332939
936.798287	3022.093593
937.101108	3050.003941
937.403890	3093.052874
937.706632	3148.011534
938.009336	3225.415930
938.312002	3298.860501
938.614628	3360.259234
938.917216	3415.870723
939.219765	3448.723922
939.522275	3483.036536
939.824747	3490.812516
940.127179	3492.415603
940.429573	3486.449397
940.731929	3483.833038
941.034246	3470.400884
941.336524	3462.657672
941.638763	3449.195270
941.940964	3436.824279
942.243126	3396.376581
942.545250	3373.709033
942.847335	3338.184021
943.149381	3303.644556
943.451389	3275.383847
943.753359	3239.939495
944.055290	3215.815053
944.357182	3190.435364
944.659036	3175.427849
944.960851	3167.399811
945.262628	3150.595125
945.564367	3151.139570
945.866067	3146.289980
946.167729	3141.505925
946.469352	3136.303454
946.770937	3138.526603
947.072484	3123.191413
947.373992	3123.103192
947.675462	3118.477934
947.976893	3101.038062
948.278286	3093.060436
948.579641	3085.687749
948.880958	3079.600555
949.182236	3085.972574
949.483476	3078.451172
949.784678	3075.431521
950.085841	3075.912951
950.386967	3083.479723
950.688054	3099.853391
950.989103	3118.180506
951.290114	3136.096767
951.591087	3159.028975
951.892021	3191.806558
952.192917	3215.842779
952.493776	3240.975452
952.794596	3252.759149
953.095378	3259.615118
953.396122	3258.006990
953.696828	3252.083634
953.997496	3241.993765
954.298126	3222.224880
954.598718	3201.725028
954.899272	3177.436749
955.199788	3153.934889
955.500266	3122.089921
955.800706	3093.257041
956.101108	3054.427554
956.401472	3023.764735
956.701798	2993.313646
957.002087	2955.081535
957.302337	2925.434509
957.602550	2899.265879
957.902724	2868.620705
958.202861	2842.885615
958.502960	2822.874755
958.803022	2803.541930
959.103045	2784.050308
959.403031	2765.778646
959.702979	2753.437902
960.002889	2740.681262
960.302762	2728.413614
960.602596	2718.515308
960.902393	2708.475850
961.202153	2699.439582
961.501875	2691.386339
961.801559	2685.218487
962.101205	2677.003927
962.400814	2672.524862
962.700385	2665.721825
962.999918	2659.427944
963.299414	2654.971564
963.598873	2653.713796
963.898293	2643.795326
964.197677	2648.738177
964.497022	2643.066879
964.796331	2644.443114
965.095601	2643.336581
965.394835	2635.275776
965.694030	2636.094963
965.993189	2634.940539
966.292309	2632.712349
966.591393	2634.325518
966.890439	2632.757720
967.189447	2630.794190
967.488419	2633.284520
967.787353	2631.787297
968.086249	2631.686474
968.385108	2637.287196
968.683930	2637.362814
968.982714	2639.827938
969.281462	2644.627116
969.580172	2648.201294
969.878844	2654.343940
970.177480	2665.384067
970.476078	2668.544871
970.774639	2674.773216
971.073162	2684.963909
971.371649	2691.575382
971.670098	2695.628470
971.968510	2700.674665
972.266885	2705.214224
972.565223	2709.204297
972.863524	2712.551623
973.161788	2715.074721
973.460014	2717.988508
973.758204	2720.435988
974.056356	2721.600494
974.354471	2725.381360
974.652550	2724.930177
974.950591	2723.750547
975.248595	2722.006307
975.546563	2718.805175
975.844493	2717.433981
976.142386	2711.142621
976.440243	2707.510469
976.738062	2704.339584
977.035845	2698.874973
977.333590	2692.780218
977.631299	2685.145390
977.928971	2678.886798
978.226606	2673.258350
978.524204	2672.091322
978.821765	2665.184942
979.119290	2667.960097
979.416777	2665.348779
979.714228	2667.017401
980.011642	2672.570232
980.309020	2679.907632
980.606360	2690.713345
980.903664	2708.266642
981.200931	2740.610686
981.498162	2781.796912
981.795356	2847.271419
982.092513	2925.825198
982.389633	3027.167514
982.686717	3119.642440
982.983764	3201.866180
983.280775	3255.887185
983.577749	3274.514248
983.874686	3266.208947
984.171587	3239.261459
984.468451	3204.202755
984.765279	3164.929646
985.062070	3121.681587
985.358824	3081.168354
985.655543	3025.438398
985.952224	2978.653970
986.248869	2918.029054
986.545478	2857.918336
986.842050	2803.874646
987.138586	2758.869745
987.435086	2716.183775
987.731549	2684.779907
988.027975	2657.832419
988.324366	2640.490850
988.620719	2627.154477
988.917037	2616.739453
989.213318	2608.845006
989.509563	2600.819489
989.805772	2596.786566
990.101944	2590.016297
990.398080	2589.789445
990.694180	2582.981367
990.990244	2586.058991
991.286271	2585.796851
991.582262	2586.399269
991.878217	2587.094948
992.174136	2591.493355
992.470019	2591.838674
992.765865	2593.645928
993.061676	2598.707246
993.357450	2608.245109
993.653188	2613.349277
993.948890	2629.186062
994.244556	2646.809936
994.540186	2666.813234
994.835780	2694.189220
995.131337	2729.068964
995.426859	2765.060282
995.722345	2812.608445
996.017795	2859.322297
996.313208	2898.945766
996.608586	2930.412648
996.903928	2950.955350
997.199234	2951.552727
997.494504	2947.305555
997.789738	2936.134358
998.084936	2919.115423
998.380099	2889.516288
998.675225	2862.861187
998.970316	2831.908502
999.265371	2798.533543
999.560390	2760.102307
999.855373	2734.147926
1000.150320	2704.475695
1000.445232	2679.892508
1000.740108	2657.550114
1001.034948	2637.816517
1001.329752	2624.023921
1001.624521	2613.578650
1001.919254	2597.998964
1002.213951	2591.760536
1002.508613	2582.920873
1002.803239	2579.011458
1003.097829	2568.172977
1003.392384	2566.753892
1003.686903	2560.182748
1003.981386	2557.150494
1004.275834	2553.853580
1004.570246	2553.593960
1004.864623	2551.421223
1005.158964	2544.376210
1005.453270	2543.564585
1005.747540	2544.678680
1006.041775	2542.521066
1006.335974	2542.175747
1006.630138	2537.253060
1006.924266	2537.101825
1007.218359	2538.944367
1007.512416	2532.625281
1007.806438	2532.264838
1008.100425	2533.162164
1008.394376	2531.296937
1008.688292	2536.562422
1008.982172	2533.948584
1009.276017	2534.412370
1009.569827	2535.534027
1009.863602	2532.721063
1010.157341	2529.656041
1010.451045	2530.192924
1010.744714	2528.955321
1011.038347	2531.969931
1011.331945	2527.022038
1011.625508	2528.536905
1011.919036	2525.862573
1012.212528	2524.088087
1012.505986	2523.914167
1012.799408	2525.837367
1013.092795	2524.236801
1013.386147	2525.577748
1013.679464	2520.445853
1013.972745	2523.112623
1014.265992	2521.693539
1014.559204	2523.354599
1014.852380	2519.949299
1015.145521	2522.353930
1015.438628	2524.539270
1015.731699	2523.848632
1016.024736	2520.299660
1016.317737	2521.688497
1016.610703	2525.126564
1016.903635	2526.275947
1017.196531	2530.109745
1017.489393	2529.277955
1017.782219	2529.116638
1018.075011	2532.978162
1018.367768	2531.523789
1018.660490	2531.959848
1018.953177	2531.959848
1019.245829	2531.959848
