Dividing Wavelength (nm)	Counts (n)	Blue Motor Position (mm): 1.000000	Red Motor Position (mm): 0.000000	
326.493990	2067.142779
326.888308	2067.142779
327.282561	2067.142779
327.676750	2041.810981
328.070874	2042.327699
328.464933	2050.759029
328.858929	2058.650955
329.252859	2068.309806
329.646726	2080.373287
330.040528	2097.135123
330.434265	2113.135746
330.827938	2135.873870
331.221547	2155.000008
331.615091	2174.950374
332.008571	2198.122038
332.401986	2217.578371
332.795338	2233.889024
333.188625	2255.157653
333.581847	2272.801691
333.975006	2292.999074
334.368100	2308.467854
334.761129	2324.846563
335.154095	2342.893894
335.546996	2356.111799
335.939833	2370.456403
336.332606	2386.976264
336.725315	2394.590927
337.117960	2408.020561
337.510540	2417.271078
337.903056	2425.571338
338.295508	2431.512337
338.687896	2438.698502
339.080220	2444.969698
339.472480	2448.939606
339.864676	2453.728702
340.256807	2457.411265
340.648875	2460.496452
341.040879	2459.470577
341.432818	2463.130454
341.824694	2459.644497
342.216506	2462.429734
342.608253	2457.665844
342.999937	2460.975361
343.391557	2458.721965
343.783113	2456.854218
344.174605	2457.103755
344.566033	2451.208126
344.957397	2455.785493
345.348697	2449.536983
345.739934	2451.979422
346.131106	2448.042281
346.522215	2450.376335
346.913260	2443.220417
347.304241	2444.795778
347.695159	2440.195725
348.086012	2441.718153
348.476802	2435.983841
348.867528	2437.110539
349.258191	2429.576534
349.648789	2432.235743
350.039324	2427.741554
350.429796	2430.612492
350.820203	2430.249528
351.210548	2430.844385
351.600828	2431.298088
351.991045	2429.692481
352.381198	2427.683581
352.771288	2428.338931
353.161314	2429.919333
353.551276	2429.195927
353.941175	2429.957142
354.331010	2429.931936
354.720782	2428.898499
355.110490	2428.497727
355.500135	2428.175094
355.889717	2430.662903
356.279235	2428.326328
356.668689	2431.545105
357.058080	2430.854467
357.447408	2432.699529
357.836672	2432.691967
358.225873	2430.504107
358.615010	2430.272214
359.004084	2433.286824
359.393095	2434.761361
359.782043	2434.506783
360.170927	2435.764551
360.559748	2433.992585
360.948505	2436.233378
361.337199	2437.649942
361.725830	2435.532658
362.114398	2439.127000
362.502903	2437.498708
362.891344	2438.267484
363.279722	2434.378233
363.668037	2439.467278
364.056289	2437.924685
364.444478	2440.175560
364.832603	2442.065993
365.220665	2438.983328
365.608665	2440.261260
365.996601	2437.980138
366.384474	2440.147834
366.772284	2441.196394
367.160031	2439.794953
367.547715	2442.423915
367.935336	2443.681683
368.322893	2440.215890
368.710388	2438.832093
369.097820	2441.362752
369.485189	2437.123142
369.872495	2444.016920
370.259738	2442.653288
370.646918	2441.950047
371.034035	2444.369800
371.421090	2445.224276
371.808081	2443.255705
372.195010	2444.624379
372.581875	2446.295521
372.968678	2444.934410
373.355418	2445.551951
373.742096	2444.878957
374.128710	2445.574636
374.515262	2445.083124
374.901751	2447.258382
375.288177	2446.615634
375.674540	2448.261571
376.060841	2445.854420
376.447079	2446.275357
376.833254	2447.422219
377.219367	2447.891046
377.605417	2450.101592
377.991404	2450.028496
378.377329	2448.934565
378.763191	2448.503547
379.148991	2450.945986
379.534727	2449.693259
379.920402	2447.868361
380.306013	2447.187805
380.691563	2450.698969
381.077049	2448.884154
381.462474	2448.851386
381.847835	2449.330296
382.233134	2451.694597
382.618371	2451.739967
383.003545	2452.138218
383.388657	2450.882971
383.773706	2452.634772
384.158693	2449.438681
384.543618	2449.872220
384.928480	2452.972529
385.313280	2450.895574
385.698017	2450.378856
386.082692	2452.546552
386.467305	2452.556634
386.851856	2455.853549
387.236344	2455.006635
387.620770	2450.025975
388.005133	2450.310800
388.389435	2452.854062
388.773674	2446.454318
389.157851	2453.905143
389.541965	2453.769032
389.926018	2454.971347
390.310008	2455.125102
390.693936	2455.745164
391.077802	2457.481842
391.461606	2456.377829
391.845348	2456.856738
392.229027	2454.298353
392.612645	2455.397324
392.996200	2456.224074
393.379694	2457.617953
393.763125	2454.991512
394.146494	2459.717593
394.529801	2457.197016
394.913047	2457.282716
395.296230	2457.643158
395.679351	2456.881944
396.062410	2458.545525
396.445408	2458.916050
396.828343	2457.063426
397.211217	2457.570062
397.594028	2459.261369
397.976778	2457.297839
398.359466	2459.173149
398.742092	2460.718262
399.124656	2456.735751
399.507158	2460.526698
399.889598	2460.751030
400.271977	2457.378498
400.654294	2458.074177
401.036549	2460.166256
401.418742	2459.465536
401.800874	2459.011832
402.182944	2461.119034
402.564952	2459.770525
402.946898	2458.709363
403.328783	2459.652058
403.710606	2461.345886
404.092367	2461.466874
404.474067	2462.555763
404.855705	2463.790846
405.237282	2460.924950
405.618797	2460.004939
406.000250	2463.095166
406.381642	2460.917388
406.762972	2460.844291
407.144240	2461.655917
407.525447	2461.003088
407.906593	2456.768518
408.287677	2462.767491
408.668700	2462.288582
409.049661	2461.557614
409.430560	2463.964765
409.811399	2464.423510
410.192176	2462.321349
410.572891	2464.862091
410.953545	2463.468212
411.334138	2465.351083
411.714669	2464.534416
412.095139	2464.809159
412.475547	2463.264045
412.855894	2462.200362
413.236180	2465.169601
413.616405	2465.015846
413.996568	2464.509210
414.376670	2463.773202
414.756711	2468.171608
415.136691	2464.410908
415.516609	2464.920064
415.896466	2468.335446
416.276262	2468.872329
416.655997	2465.711525
417.035670	2468.350569
417.415283	2466.686988
417.794834	2467.475929
418.174324	2466.407204
418.553753	2465.187245
418.933121	2468.491722
419.312428	2467.027266
419.691674	2466.031638
420.070859	2466.611371
420.449983	2467.569190
420.829045	2467.836372
421.208047	2466.192955
421.586988	2467.808645
421.965867	2465.177163
422.344686	2469.222689
422.723444	2469.091619
423.102141	2469.338635
423.480777	2468.796711
423.859352	2469.149592
424.237866	2467.838892
424.616319	2469.293265
424.994712	2469.510035
425.373044	2468.471557
425.751314	2468.635394
426.129524	2467.281845
426.507673	2466.936526
426.885762	2467.743110
427.263789	2468.343008
427.641756	2469.207565
428.019662	2467.939715
428.397508	2471.178657
428.775292	2467.309571
429.153016	2470.845940
429.530679	2471.375262
429.908282	2471.866774
430.285824	2470.752679
430.663305	2471.783595
431.040726	2471.458441
431.418086	2469.593214
431.795385	2473.343832
432.172624	2468.741259
432.549802	2474.790643
432.926920	2470.898872
433.303977	2472.713688
433.680974	2471.866774
434.057910	2473.737042
434.434786	2469.646146
434.811601	2473.737042
435.188355	2471.859212
435.565050	2471.357618
435.941683	2473.691672
436.318257	2471.965077
436.694770	2471.821404
437.071222	2473.661425
437.447614	2473.091774
437.823946	2472.091105
438.200218	2473.900880
438.576429	2472.890128
438.952580	2470.513224
439.328670	2473.290900
439.704700	2474.772999
440.080670	2471.433235
440.456580	2473.981538
440.832429	2472.660756
441.208218	2474.641929
441.583947	2475.428349
441.959616	2474.752835
442.335224	2474.581435
442.710773	2474.558750
443.086261	2472.948102
443.461689	2474.175623
443.837057	2476.499594
444.212365	2473.986579
444.587612	2472.786785
444.962800	2472.509521
445.337927	2472.534727
445.712995	2469.774695
446.088002	2472.875005
446.462949	2474.306692
446.837837	2475.130921
447.212664	2475.821559
447.587431	2475.952629
447.962139	2476.071096
448.336786	2477.144862
448.711374	2477.303658
449.085901	2475.221662
449.460369	2477.336426
449.834776	2472.817032
450.209124	2477.308700
450.583412	2474.682258
450.957640	2475.965232
451.331808	2475.624954
451.705917	2478.904225
452.079965	2473.966415
452.453954	2477.853144
452.827883	2476.313072
453.201752	2477.432208
453.575562	2477.969091
453.949311	2476.111426
454.323001	2477.870788
454.696632	2474.891466
455.070202	2476.655870
455.443713	2476.519759
455.817164	2475.899697
456.190556	2478.148052
456.563888	2475.264512
456.937160	2476.996148
457.310373	2475.284676
457.683526	2477.429687
458.056619	2477.696868
458.429653	2478.024543
458.802628	2478.233751
459.175542	2476.670994
459.548398	2477.429687
459.921194	2481.858341
460.293930	2481.268526
460.666607	2477.964050
461.039224	2477.928762
461.411782	2475.909779
461.784280	2478.175778
462.156719	2476.421457
462.529099	2479.073103
462.901419	2477.391879
463.273680	2475.554378
463.645882	2473.951291
464.018024	2477.369193
464.390106	2473.628657
464.762130	2478.483288
465.134094	2477.764924
465.505999	2481.200470
465.877845	2480.587970
466.249631	2481.024030
466.621358	2479.211735
466.993026	2480.285501
467.364634	2483.370687
467.736184	2479.057980
468.107674	2478.876498
468.479105	2477.490181
468.850477	2477.928762
469.221790	2481.752477
469.593043	2477.278453
469.964238	2479.950264
470.335373	2480.993783
470.706449	2479.862044
471.077467	2479.186529
471.448425	2479.698207
471.819324	2479.244503
472.190164	2479.922538
472.560945	2479.501602
472.931667	2482.228866
473.302330	2481.419761
473.672934	2479.173927
474.043479	2480.345995
474.413965	2479.559575
474.784393	2479.700727
475.154761	2478.821046
475.525070	2479.786427
475.895321	2485.150214
476.265513	2480.119143
476.635645	2483.864720
477.005719	2479.345326
477.375734	2482.271716
477.745691	2482.198619
478.115588	2479.894812
478.485427	2482.372539
478.855207	2481.202991
479.224928	2480.093937
479.594591	2481.376911
479.964194	2481.833135
480.333739	2480.676190
480.703226	2479.909935
481.072653	2480.605614
481.442022	2481.528145
481.811333	2480.393886
482.180584	2476.711323
482.549777	2478.836169
482.918912	2476.237454
483.287988	2480.905563
483.657005	2483.045533
484.025964	2481.386993
484.394864	2482.856489
484.763706	2481.260964
485.132489	2482.170893
485.501213	2483.282467
485.869879	2481.540748
486.238487	2485.077118
486.607036	2481.734833
486.975527	2483.839514
487.343959	2483.002683
487.712333	2483.138794
488.080648	2482.586788
488.448905	2483.274905
488.817104	2479.935141
489.185244	2482.594349
489.553326	2482.677528
489.921350	2483.983187
490.289315	2481.187868
490.657222	2480.025882
491.025070	2483.073259
491.392861	2482.697693
491.760593	2483.917652
492.128267	2484.020996
492.495883	2482.042343
492.863440	2483.100985
493.230939	2484.409165
493.598380	2483.032930
493.965763	2483.164000
494.333088	2480.466983
494.700354	2482.077631
495.067563	2483.484113
495.434713	2481.893629
495.801805	2485.740029
496.168839	2481.923876
496.535815	2486.831439
496.902733	2482.710296
497.269593	2483.658033
497.636395	2481.500419
498.003139	2483.917652
498.369825	2482.158290
498.736453	2484.426809
499.103023	2486.037458
499.469535	2486.496202
499.835989	2484.063846
500.202385	2484.003352
500.568723	2480.202322
500.935003	2482.707775
501.301226	2474.742752
501.667390	2483.229535
502.033497	2483.637868
502.399546	2485.480410
502.765537	2482.417909
503.131470	2482.433033
503.497345	2482.304483
503.863163	2481.344143
504.228923	2483.395893
504.594625	2484.424288
504.960269	2482.133084
505.325856	2484.789772
505.691385	2484.686428
506.056856	2485.311531
506.422270	2484.015955
506.787625	2486.234063
507.152924	2486.763384
507.518164	2485.487972
507.883347	2484.406644
508.248472	2486.733137
508.613540	2484.147025
508.978550	2484.169710
509.343503	2485.586274
509.708398	2486.339927
510.073236	2486.818836
510.438016	2487.073415
510.802738	2489.639362
511.167403	2481.926397
511.532010	2484.053763
511.896561	2486.428147
512.261053	2484.048722
512.625488	2486.395379
512.989866	2483.451346
513.354186	2485.351861
513.718449	2482.082672
514.082655	2481.888588
514.446803	2483.814309
514.810894	2488.202633
515.174927	2485.041830
515.538904	2485.399752
515.902822	2485.261120
516.266684	2487.083497
516.630488	2483.181644
516.994235	2484.759525
517.357925	2485.190544
517.721558	2485.878661
518.085133	2486.047540
518.448651	2482.304483
518.812112	2479.746098
519.175516	2482.906901
519.538863	2481.578557
519.902152	2484.179792
520.265385	2484.446973
520.628560	2483.950420
520.991678	2486.198774
521.354739	2485.240955
521.717743	2485.094762
522.080690	2484.814978
522.443580	2483.514360
522.806413	2486.130719
523.169189	2485.891264
523.531908	2486.168528
523.894569	2486.365132
524.257174	2486.750781
524.619722	2487.017962
524.982213	2485.558548
525.344647	2486.007211
525.707025	2486.498723
526.069345	2486.017293
526.431608	2488.235401
526.793815	2487.232211
527.155964	2484.714155
527.518057	2483.988228
527.880093	2484.504947
528.242072	2484.288177
528.603995	2486.188692
528.965860	2485.992087
529.327669	2484.509988
529.689421	2485.853455
530.051117	2484.560399
530.412755	2484.610811
530.774337	2485.130050
531.135862	2484.827581
531.497331	2485.256079
531.858743	2488.376553
532.220098	2485.311531
532.581396	2485.387149
532.942638	2487.864876
533.303824	2485.321614
533.664953	2485.056953
534.026025	2485.737509
534.387040	2485.999649
534.747999	2485.876141
535.108902	2487.141470
535.469748	2488.154742
535.830537	2488.958806
536.191270	2487.766573
536.551947	2483.340440
536.912567	2481.961685
537.273131	2486.443270
537.633638	2482.664926
537.994089	2485.752632
538.354483	2483.791623
538.714821	2486.314721
539.075103	2487.622900
539.435328	2484.749443
539.795497	2482.818681
540.155609	2488.772283
540.515665	2485.571151
540.875665	2488.507623
541.235609	2486.372694
541.595496	2484.550317
541.955328	2487.522077
542.315102	2488.270689
542.674821	2487.640544
543.034483	2487.413693
543.394090	2487.156594
543.753640	2485.336737
544.113134	2485.556027
544.472571	2485.954278
544.831953	2484.905718
545.191278	2488.139619
545.550548	2487.300267
545.909761	2485.893785
546.268918	2486.423106
546.628019	2489.452839
546.987064	2486.327324
547.346053	2488.666419
547.704986	2486.995277
548.063863	2488.167345
548.422684	2487.506954
548.781449	2486.551655
549.140158	2487.522077
549.498811	2485.573671
549.857408	2485.477889
550.215949	2489.031903
550.574434	2487.355719
550.932864	2487.610298
551.291237	2489.669609
551.649555	2486.347488
552.007817	2487.580051
552.366022	2486.899495
552.724173	2487.312869
553.082267	2487.267499
553.440305	2489.553662
553.798288	2485.682056
554.156215	2489.006697
554.514086	2486.816316
554.871902	2483.216932
555.229661	2484.159628
555.587365	2482.649802
555.945014	2487.123826
556.302606	2484.492344
556.660143	2490.093066
557.017625	2485.465287
557.375050	2485.447643
557.732421	2489.034423
558.089735	2487.080976
558.446994	2489.031903
558.804197	2488.061481
559.161345	2486.556696
559.518437	2486.327324
559.875474	2487.375884
560.232455	2485.805564
560.589381	2485.654330
560.946251	2487.416213
561.303065	2488.860504
561.659825	2486.904536
562.016528	2486.896974
562.373177	2487.310349
562.729770	2484.336068
563.086307	2488.532829
563.442789	2488.225318
563.799216	2488.323621
564.155587	2485.712303
564.511904	2487.897643
564.868164	2486.604587
565.224370	2488.870586
565.580520	2486.297077
565.936615	2490.776142
566.292654	2488.706748
566.648638	2486.629793
567.004567	2487.023003
567.360441	2485.800523
567.716260	2488.651296
568.072023	2486.297077
568.427732	2487.075935
568.783385	2487.708600
569.138982	2489.094917
569.494525	2488.202633
569.850013	2487.683394
570.205445	2487.907726
570.560823	2485.850935
570.916145	2486.682725
571.271412	2484.590646
571.626625	2488.409320
571.981782	2485.835811
572.336884	2484.537714
572.691931	2485.147694
573.046923	2485.624083
573.401860	2481.339102
573.756743	2487.186841
574.111570	2487.862355
574.466342	2486.085348
574.821059	2487.025524
575.175722	2489.833446
575.530330	2489.689773
575.884882	2486.211377
576.239380	2489.548621
576.593823	2487.748929
576.948211	2486.781028
577.302544	2485.568630
577.656823	2488.757160
578.011047	2485.840852
578.365216	2485.911429
578.719330	2486.496202
579.073389	2485.818167
579.427394	2489.500730
579.781344	2486.549135
580.135239	2487.277581
580.489080	2487.612818
580.842866	2489.306646
581.196597	2489.188179
581.550273	2484.575523
581.903895	2488.000987
582.257463	2485.503095
582.610975	2489.367140
582.964434	2486.528970
583.317837	2486.896974
583.671186	2486.723054
584.024481	2486.092910
584.377721	2485.671974
584.730906	2489.069712
585.084037	2485.064515
585.437113	2487.804382
585.790135	2486.158445
586.143103	2490.082983
586.496016	2485.704741
586.848874	2486.581902
587.201679	2487.259937
587.554428	2486.148363
587.907124	2486.410503
588.259765	2484.641058
588.612352	2490.128354
588.964884	2489.462922
589.317362	2486.591984
589.669786	2485.818167
590.022155	2485.404793
590.374470	2483.879844
590.726731	2485.359422
591.078937	2482.337251
591.431090	2488.190030
591.783188	2485.447642
592.135232	2485.757673
592.487222	2489.132726
592.839157	2488.656337
593.191038	2486.856645
593.542866	2486.022334
593.894639	2486.067704
594.246358	2487.993425
594.598022	2490.370329
594.949633	2488.868065
595.301190	2487.396048
595.652692	2490.360247
596.004141	2485.099803
596.355535	2487.277581
596.706876	2489.243631
597.058162	2490.057778
597.409395	2487.436378
597.760573	2487.890082
598.111698	2484.618373
598.462768	2487.522077
598.813785	2487.035606
599.164748	2487.925370
599.515657	2487.857314
599.866511	2488.951244
600.217312	2487.945534
600.568060	2487.534680
600.918753	2489.967037
601.269392	2488.903353
601.619978	2487.615339
601.970510	2488.794969
602.320988	2486.128198
602.671412	2485.740029
603.021783	2486.229021
603.372100	2486.806233
603.722363	2487.585092
604.072572	2487.806902
604.422728	2487.943014
604.772830	2485.563589
605.122878	2488.280771
605.472872	2487.711121
605.822813	2487.703559
606.172701	2487.451501
606.522534	2486.743219
606.872314	2489.553662
607.222041	2484.731799
607.571714	2486.826398
607.921333	2484.527632
608.270899	2485.651809
608.620411	2482.433033
608.969870	2488.303456
609.319276	2485.530822
609.668627	2487.388487
610.017926	2487.484269
610.367171	2487.587612
610.716362	2484.043681
611.065500	2486.213898
611.414585	2487.804382
611.763616	2487.113744
612.112594	2489.278919
612.461518	2487.451501
612.810389	2486.992756
613.159207	2488.399238
613.507971	2487.731285
613.856682	2489.324290
614.205340	2487.264978
614.553945	2488.177427
614.902496	2486.970071
615.250994	2487.615339
615.599439	2484.946048
615.947830	2486.314721
616.296169	2489.097438
616.644454	2489.795638
616.992686	2485.949237
617.340864	2486.982674
617.688990	2487.680874
618.037063	2489.130205
618.385082	2488.336224
618.733048	2488.434526
619.080961	2487.471666
619.428821	2489.311687
619.776628	2486.166007
620.124382	2489.846049
620.472083	2485.898826
620.819731	2486.975112
621.167326	2488.568117
621.514868	2486.385297
621.862357	2486.307159
622.209793	2487.242293
622.557176	2486.130719
622.904506	2487.065853
623.251783	2485.863538
623.599007	2489.160452
623.946179	2488.676502
624.293297	2487.118785
624.640363	2487.146511
624.987376	2486.375215
625.334336	2481.797847
625.681243	2486.498723
626.028097	2484.141984
626.374899	2487.897643
626.721647	2485.152735
627.068343	2488.003507
627.414987	2482.833804
627.761577	2487.779176
628.108115	2484.809937
628.454600	2486.990236
628.801032	2486.733137
629.147412	2489.470483
629.493739	2488.064001
629.840014	2487.537201
630.186236	2486.496202
630.532405	2487.625421
630.878521	2486.995277
631.224585	2488.464773
631.570597	2486.334886
631.916556	2487.622900
632.262462	2490.095586
632.608316	2487.963178
632.954117	2486.758343
633.299866	2486.526449
633.645562	2487.234732
633.991206	2485.838332
634.336797	2486.135760
634.682336	2486.327324
635.027823	2485.795482
635.373257	2486.927221
635.718639	2487.564927
636.063968	2487.943014
636.409245	2485.165338
636.754470	2486.839001
637.099642	2488.217757
637.444762	2486.007211
637.789829	2486.302118
638.134845	2486.201295
638.479808	2488.316059
638.824719	2486.254227
639.169577	2486.811275
639.514383	2488.285812
639.859137	2485.210708
640.203839	2488.232880
640.548489	2486.637355
640.893086	2486.745740
641.237632	2485.079638
641.582125	2484.550317
641.926566	2484.525111
642.270955	2486.896974
642.615292	2482.402786
642.959576	2486.014772
643.303809	2481.611324
643.647990	2487.275061
643.992118	2486.808754
644.336195	2484.552838
644.680219	2487.771614
645.024192	2484.804895
645.368112	2487.781697
645.711981	2487.411172
646.055797	2486.483600
646.399562	2487.010400
646.743274	2490.012407
647.086935	2488.424444
647.430544	2487.496872
647.774101	2486.559217
648.117606	2487.552324
648.461059	2487.685915
648.804460	2485.170379
649.147810	2487.315390
649.491108	2487.600215
649.834354	2486.123157
650.177548	2488.525267
650.520690	2488.870586
650.863781	2489.556183
651.206820	2485.271202
651.549807	2484.903198
651.892742	2486.667602
652.235626	2484.106696
652.578458	2486.959989
652.921238	2486.949906
653.263967	2486.460914
653.606644	2484.139463
653.949269	2485.545945
654.291843	2486.039978
654.634365	2485.349340
654.976836	2485.699700
655.319255	2486.987715
655.661622	2487.975781
656.003938	2483.189206
656.346203	2489.253714
656.688416	2487.522077
657.030577	2483.317755
657.372687	2485.707262
657.714746	2486.765904
658.056753	2487.829588
658.398708	2485.545945
658.740612	2485.714824
659.082465	2485.031747
659.424266	2482.889257
659.766016	2481.744915
660.107715	2484.567961
660.449362	2481.976808
660.790958	2487.063332
661.132503	2485.392190
661.473996	2487.070894
661.815438	2485.729947
662.156829	2486.281953
662.498168	2486.163486
662.839456	2486.725575
663.180693	2486.034937
663.521879	2489.508292
663.863013	2485.155256
664.204097	2485.223311
664.545129	2486.057622
664.886110	2490.357726
665.227040	2485.505616
665.567918	2487.088538
665.908746	2487.627942
666.249522	2486.249186
666.590248	2486.110554
666.930922	2487.426295
667.271545	2484.847745
667.612118	2485.893785
667.952639	2487.375884
668.293109	2486.549135
668.633528	2486.239104
668.973896	2485.563589
669.314213	2487.040647
669.654480	2485.004021
669.994695	2484.608290
670.334859	2487.690956
670.674973	2486.150883
671.015035	2487.333034
671.355047	2486.077787
671.695008	2486.639875
672.034918	2485.185503
672.374777	2487.401090
672.714585	2487.028044
673.054342	2487.302787
673.394049	2486.198774
673.733705	2486.536532
674.073310	2486.377735
674.412864	2485.853455
674.752368	2485.525780
675.091820	2485.092241
675.431223	2488.762201
675.770574	2485.508136
676.109875	2482.906901
676.449125	2485.825729
676.788324	2480.633341
677.127473	2487.179279
677.466571	2481.097127
677.805619	2486.160966
678.144616	2486.203816
678.483562	2485.714824
678.822458	2487.708600
679.161303	2489.140288
679.500098	2485.233393
679.838842	2487.091059
680.177535	2486.730616
680.516179	2486.549135
680.854771	2484.464617
681.193314	2486.586943
681.531805	2484.782210
681.870247	2485.049391
682.208638	2485.281284
682.546978	2488.379073
682.885268	2487.703559
683.223508	2485.896305
683.561697	2485.225832
683.899836	2484.293218
684.237925	2485.117447
684.575963	2486.007211
684.913951	2486.312200
685.251889	2485.029227
685.589776	2482.735502
685.927614	2487.360760
686.265401	2485.747591
686.603137	2486.632314
686.940824	2487.605256
687.278460	2489.203302
687.616046	2486.438229
687.953582	2487.017962
688.291068	2486.276912
688.628504	2490.483755
688.965889	2486.491161
689.303224	2488.152222
689.640510	2485.591315
689.977745	2489.354537
690.314930	2486.148363
690.652065	2487.501913
690.989150	2486.052581
691.326185	2487.252376
691.663170	2486.138281
692.000105	2482.773310
692.336990	2486.365133
692.673825	2487.403610
693.010610	2487.648106
693.347345	2483.010245
693.684030	2483.274905
694.020665	2485.843373
694.357251	2481.989411
694.693786	2485.614001
695.030272	2480.754328
695.366707	2485.644248
695.703093	2486.344968
696.039429	2486.360091
696.375716	2489.052068
696.711952	2483.842035
697.048139	2486.486120
697.384276	2483.252220
697.720363	2485.714824
698.056400	2487.007880
698.392388	2487.975781
698.728326	2484.547797
699.064214	2486.632314
699.400053	2485.835811
699.735842	2485.792962
700.071581	2487.471666
700.407270	2486.271871
700.742910	2484.560399
701.078501	2484.467138
701.414042	2487.895123
701.749533	2485.427478
702.084974	2485.979484
702.420366	2482.740543
702.755709	2488.384115
703.091002	2484.719196
703.426246	2487.955617
703.761440	2486.413023
704.096584	2487.706079
704.431679	2485.399752
704.766725	2483.758856
705.101721	2483.012765
705.436668	2488.679022
705.771565	2486.045019
706.106413	2484.817498
706.441212	2482.715337
706.775961	2488.699187
707.110661	2485.162817
707.445311	2488.865545
707.779913	2487.443939
708.114465	2485.094762
708.448967	2485.984525
708.783421	2484.678867
709.117825	2484.961171
709.452180	2487.643065
709.786485	2486.244145
710.120742	2486.168527
710.454949	2482.077631
710.789107	2484.217601
711.123216	2482.017137
711.457275	2485.533342
711.791286	2487.728765
712.125247	2486.929742
712.459159	2483.811788
712.793023	2484.096613
713.126837	2487.312869
713.460602	2487.764053
713.794318	2486.377735
714.127985	2484.111737
714.461602	2484.489823
714.795171	2484.855307
715.128691	2489.014259
715.462162	2486.380256
715.795584	2485.724906
716.128957	2483.864720
716.462281	2484.585605
716.795556	2482.475882
717.128782	2484.020996
717.461960	2481.515542
717.795088	2486.004690
718.128167	2487.345637
718.461198	2485.125009
718.794180	2484.459576
719.127113	2483.879844
719.459997	2486.707931
719.792833	2483.224494
720.125619	2483.229535
720.458357	2484.260451
720.791046	2485.918990
721.123686	2484.399083
721.456278	2485.671974
721.788821	2485.225832
722.121315	2483.771459
722.453761	2485.165338
722.786158	2487.290184
723.118506	2485.805564
723.450805	2488.573158
723.783056	2484.704072
724.115259	2486.743219
724.447412	2485.041830
724.779518	2486.513847
725.111574	2486.241624
725.443582	2482.206181
725.775542	2485.566110
726.107453	2485.366984
726.439315	2484.676346
726.771129	2484.567961
727.102895	2477.596045
727.434612	2483.932776
727.766281	2480.381283
728.097901	2483.244658
728.429473	2483.882364
728.760996	2484.446973
729.092471	2485.412354
729.423897	2484.666264
729.755276	2483.078300
730.086606	2485.059474
730.417887	2485.210708
730.749120	2488.121975
731.080305	2485.636686
731.411442	2486.251707
731.742530	2483.799185
732.073570	2487.204485
732.404562	2484.429329
732.735506	2485.840853
733.066401	2486.171048
733.397249	2485.881182
733.728048	2484.482262
734.058798	2486.614670
734.389501	2483.713486
734.720156	2486.662561
735.050762	2486.622231
735.381320	2484.484782
735.711831	2484.870430
736.042293	2485.220791
736.372707	2485.803044
736.703073	2484.847745
737.033391	2483.970584
737.363661	2483.746253
737.693883	2485.530822
738.024056	2480.507312
738.354182	2483.496716
738.684260	2484.015955
739.014290	2481.258444
739.344272	2486.286995
739.674207	2485.009062
740.004093	2485.707262
740.333931	2482.485965
740.663722	2484.356233
740.993464	2483.264823
741.323159	2483.771459
741.652806	2482.667446
741.982405	2484.192395
742.311956	2485.805564
742.641460	2488.207674
742.970915	2480.547641
743.300323	2483.272385
743.629683	2480.693834
743.958996	2483.940338
744.288260	2479.799030
744.617477	2484.391521
744.946647	2486.032416
745.275768	2484.159628
745.604842	2484.101654
745.933869	2483.753815
746.262847	2482.864051
746.591778	2484.883033
746.920662	2482.223825
747.249498	2485.230873
747.578286	2485.339258
747.907027	2484.005873
748.235720	2484.530153
748.564365	2485.349340
748.892963	2484.215080
749.221514	2484.880513
749.550017	2484.424288
749.878473	2485.445122
750.206881	2483.816829
750.535242	2483.461428
750.863555	2484.968733
751.191821	2484.638537
751.520039	2482.853969
751.848210	2481.344143
752.176334	2485.576192
752.504411	2487.254896
752.832440	2483.365646
753.160421	2483.877323
753.488356	2485.641727
753.816243	2483.368167
754.144082	2484.993939
754.471875	2485.805564
754.799620	2484.968733
755.127318	2485.392190
755.454969	2483.201808
755.782572	2485.677015
756.110129	2483.975626
756.437638	2484.716675
756.765100	2485.054432
757.092515	2484.547797
757.419882	2483.847076
757.747203	2485.283805
758.074477	2483.799185
758.401703	2483.131232
758.728882	2483.451346
759.056014	2484.225163
759.383099	2483.786582
759.710138	2482.057467
760.037129	2480.958495
760.364073	2482.470841
760.690970	2476.975983
761.017820	2483.592498
761.344623	2482.422950
761.671379	2482.780872
761.998088	2485.961840
762.324751	2485.813126
762.651366	2484.197436
762.977935	2482.065028
763.304456	2483.937817
763.630931	2483.869761
763.957359	2482.675008
764.283740	2484.172231
764.610074	2485.558548
764.936362	2482.896819
765.262602	2486.239104
765.588796	2480.101499
765.914943	2485.820688
766.241044	2482.942189
766.567097	2483.660553
766.893104	2484.545276
767.219064	2483.917652
767.544978	2482.470841
767.870845	2481.815491
768.196665	2486.118116
768.522438	2482.004534
768.848165	2487.020483
769.173846	2483.564772
769.499479	2480.603094
769.825066	2483.680718
770.150607	2486.160966
770.476101	2484.547797
770.801548	2485.404793
771.126949	2482.405306
771.452303	2485.069556
771.777611	2481.301293
772.102872	2485.470328
772.428087	2481.553351
772.753256	2485.079638
773.078378	2483.937817
773.403453	2482.541417
773.728482	2484.356233
774.053465	2484.023517
774.378401	2483.920173
774.703291	2484.557879
775.028135	2485.699700
775.352932	2484.620893
775.677683	2485.634165
776.002388	2481.833135
776.327046	2478.400109
776.651658	2480.545120
776.976224	2479.100830
777.300743	2484.608290
777.625216	2484.056284
777.949643	2481.830615
778.274024	2481.694503
778.598359	2483.068218
778.922647	2485.354381
779.246889	2483.015286
779.571086	2482.075111
779.895236	2482.927066
780.219339	2483.085862
780.543397	2483.801706
780.867409	2483.350523
781.191374	2484.668784
781.515294	2485.256079
781.839167	2484.351192
782.162995	2484.731799
782.486776	2483.186685
782.810511	2481.192909
783.134201	2484.189875
783.457844	2480.237610
783.781441	2484.847745
784.104993	2482.405306
784.428498	2481.586119
784.751958	2482.705255
785.075372	2484.736840
785.398739	2483.952940
785.722061	2480.792137
786.045337	2481.991932
786.368568	2485.283805
786.691752	2483.549648
787.014891	2481.303814
787.337983	2480.131746
787.661030	2482.100316
787.984031	2481.770121
788.306987	2485.792962
788.629897	2482.997642
788.952760	2482.664926
789.275579	2482.085193
789.598351	2484.404124
789.921078	2483.879844
790.243759	2483.158959
790.566395	2482.178454
790.888984	2481.543269
791.211529	2482.047384
791.534027	2485.427478
791.856480	2481.603763
792.178888	2480.235089
792.501249	2479.736015
792.823566	2479.095789
793.145836	2476.837352
793.468062	2483.413537
793.790241	2482.117960
794.112375	2483.652992
794.434464	2482.717858
794.756507	2483.032930
795.078505	2484.051243
795.400457	2482.249030
795.722364	2484.598208
796.044226	2481.293732
796.366042	2483.123671
796.687812	2482.153248
797.009538	2481.865903
797.331218	2485.298928
797.652852	2480.245172
797.974442	2484.152066
798.295986	2481.364308
798.617484	2484.464617
798.938938	2481.200470
799.260346	2484.580564
799.581709	2483.010245
799.903026	2482.180975
800.224299	2481.891108
800.545526	2484.590646
800.866708	2481.364308
801.187845	2482.349853
801.508936	2484.225163
801.829983	2481.339102
802.150984	2483.100985
802.471940	2484.351192
802.792851	2483.703403
803.113717	2481.714668
803.434538	2481.979329
803.755314	2482.712817
804.076045	2483.229535
804.396731	2484.303301
804.717372	2480.870275
805.037967	2480.774493
805.358518	2482.059987
805.679024	2484.784731
805.999485	2482.246510
806.319901	2484.325986
806.640272	2483.179123
806.960598	2482.226345
807.280879	2482.871613
807.601115	2483.753815
807.921306	2481.815491
808.241453	2480.953454
808.561554	2480.063690
808.881611	2481.628968
809.201623	2477.424646
809.521590	2484.880513
809.841513	2481.805409
810.161390	2481.477734
810.481223	2480.109061
810.801011	2482.760708
811.120755	2481.228197
811.440453	2481.220635
811.760107	2486.637355
812.079716	2480.172075
812.399281	2481.830615
812.718801	2483.290029
813.038276	2481.366828
813.357707	2482.584267
813.677093	2481.742394
813.996434	2482.758187
814.315731	2481.742394
814.634983	2482.823722
814.954191	2480.114102
815.273354	2482.831284
815.592473	2482.359936
815.911547	2482.677528
816.230577	2482.249030
816.549562	2482.937148
816.868502	2481.034112
817.187399	2482.939668
817.506250	2482.186016
817.825058	2483.108547
818.143821	2485.608959
818.462539	2481.208032
818.781213	2482.249030
819.099843	2482.992601
819.418429	2483.060656
819.736970	2478.407671
820.055466	2482.516212
820.373919	2482.478403
820.692327	2481.790285
821.010691	2484.971253
821.329011	2481.770121
821.647286	2483.884885
821.965517	2481.157621
822.283704	2482.773310
822.601847	2482.445635
822.919945	2481.737353
823.237999	2484.162148
823.556010	2482.927066
823.873976	2483.479072
824.191897	2481.386993
824.509775	2478.765593
824.827609	2480.855151
825.145398	2478.188381
825.463144	2482.601911
825.780845	2484.837663
826.098502	2483.136273
826.416116	2480.134266
826.733685	2482.057467
827.051210	2479.917497
827.368692	2483.300111
827.686129	2483.766418
828.003522	2481.513022
828.320872	2480.204842
828.638177	2482.276757
828.955439	2481.429843
829.272656	2482.007055
829.589830	2481.843218
829.906960	2485.182982
830.224046	2483.395893
830.541088	2481.238279
830.858086	2482.795996
831.175041	2481.812971
831.491952	2482.417909
831.808819	2482.196098
832.125642	2482.337251
832.442421	2480.167034
832.759157	2479.057980
833.075849	2482.438074
833.392497	2481.979329
833.709101	2482.604432
834.025662	2483.471510
834.342179	2481.084524
834.658653	2480.666108
834.975083	2483.108547
835.291469	2483.721047
835.607811	2484.389000
835.924110	2482.160810
836.240366	2480.255254
836.556578	2479.461272
836.872746	2479.811632
837.188871	2480.855151
837.504952	2483.650471
837.820990	2481.959164
838.136984	2483.978146
838.452935	2478.014461
838.768842	2483.685759
839.084706	2482.753146
839.400526	2480.436736
839.716303	2480.219966
840.032037	2481.235758
840.347727	2477.351549
840.663373	2481.268526
840.978977	2478.609317
841.294537	2481.288691
841.610054	2480.093937
841.925527	2483.070738
842.240957	2481.760038
842.556344	2480.593011
842.871687	2482.027220
843.186987	2480.472024
843.502244	2479.418423
843.817458	2482.576705
844.132629	2480.282980
844.447756	2480.973618
844.762840	2481.502940
845.077881	2480.598053
845.392879	2483.993270
845.707833	2480.265336
846.022745	2484.739360
846.337613	2481.510501
846.652438	2482.710296
846.967221	2481.376911
847.281960	2480.232569
847.596656	2478.639564
847.911309	2480.096458
848.225919	2480.514873
848.540485	2482.753146
848.855009	2480.771972
849.169490	2479.846921
849.483928	2478.750470
849.798323	2481.477734
850.112675	2483.249699
850.426984	2479.657877
850.741251	2483.620224
851.055474	2478.788278
851.369654	2480.698876
851.683792	2482.783393
851.997887	2481.888588
852.311938	2479.773824
852.625947	2482.584267
852.939914	2481.379431
853.253837	2480.487147
853.567718	2485.566110
853.881555	2479.884729
854.195350	2481.480254
854.509103	2479.947744
854.822812	2482.027220
855.136479	2481.583598
855.450103	2481.588639
855.763685	2479.799030
856.077224	2479.403299
856.390720	2478.705099
856.704173	2478.553865
857.017584	2479.400778
857.330953	2479.839359
857.644278	2480.323310
857.957561	2486.181130
858.270802	2480.315748
858.584000	2482.889257
858.897155	2480.862713
859.210268	2481.565954
859.523339	2481.394555
859.836367	2482.148207
860.149352	2479.131077
860.462295	2480.713999
860.775195	2480.018320
861.088054	2481.896150
861.400869	2481.102168
861.713642	2479.073103
862.026373	2477.044039
862.339062	2479.786427
862.651708	2480.898001
862.964312	2481.933958
863.276873	2479.809112
863.589392	2479.360449
863.901869	2480.426653
864.214303	2480.514873
864.526696	2481.442446
864.839045	2481.583598
865.151353	2479.977991
865.463619	2482.475882
865.775842	2481.613845
866.088023	2478.735346
866.400162	2479.216776
866.712258	2478.271560
867.024313	2482.218783
867.336325	2482.178454
867.648296	2478.934472
867.960224	2481.334061
868.272110	2483.106027
868.583954	2481.737353
868.895755	2480.653505
869.207515	2481.129894
869.519233	2479.632672
869.830909	2480.736684
870.142542	2479.977991
870.454134	2479.980511
870.765684	2480.797178
871.077191	2481.523104
871.388657	2478.760552
871.700081	2476.328195
872.011463	2479.690645
872.322803	2474.833493
872.634101	2479.022692
872.945357	2481.495378
873.256571	2481.908752
873.567744	2479.627630
873.878874	2481.956643
874.189963	2480.290542
874.501010	2476.983545
874.812015	2480.794658
875.122979	2481.205512
875.433900	2479.894812
875.744780	2481.417240
876.055618	2477.827938
876.366415	2481.671818
876.677169	2477.447331
876.987882	2480.910604
877.298554	2480.151910
877.609183	2480.409009
877.919771	2478.274081
878.230317	2480.464462
878.540822	2481.853300
878.851285	2482.498568
879.161707	2482.072590
879.472087	2479.060501
879.782425	2480.782055
880.092722	2485.286326
880.402977	2480.177116
880.713191	2480.497229
881.023363	2481.462610
881.333494	2481.273567
881.643583	2480.507312
881.953631	2479.332723
882.263637	2481.051756
882.573602	2481.853300
882.883526	2478.669811
883.193408	2479.690645
883.503248	2478.183340
883.813048	2480.411530
884.122806	2480.472024
884.432522	2478.823566
884.742197	2478.513535
885.051831	2479.451190
885.361424	2479.599904
885.670975	2479.259626
885.980485	2482.087713
886.289954	2478.301807
886.599382	2479.746097
886.908768	2477.336426
887.218113	2476.393730
887.527417	2477.825418
887.836680	2474.452886
888.145901	2483.249699
888.455082	2480.842548
888.764221	2481.465131
889.073319	2478.448000
889.382376	2478.780717
889.691392	2480.184678
890.000366	2482.037302
890.309300	2480.429174
890.618193	2478.858854
890.927044	2481.971767
891.235855	2480.812302
891.544625	2482.276757
891.853353	2480.799699
892.162041	2480.146869
892.470687	2479.264667
892.779293	2479.708289
893.087858	2480.744246
893.396381	2478.253916
893.704864	2480.033443
894.013306	2478.425315
894.321707	2479.718371
894.630068	2480.459421
894.938387	2481.623927
895.246665	2479.604945
895.554903	2482.183495
895.863100	2478.294245
896.171256	2479.506643
896.479371	2480.988742
896.787446	2480.126705
897.095480	2481.457569
897.403473	2476.073617
897.711425	2482.017137
898.019336	2479.284832
898.327207	2478.695017
898.635038	2477.104533
898.942827	2477.838021
899.250576	2481.802888
899.558284	2478.148052
899.865952	2478.495891
900.173579	2479.347846
900.481165	2480.497229
900.788711	2479.874647
901.096216	2478.838690
901.403681	2478.581591
901.711105	2480.451859
902.018489	2478.082517
902.325832	2477.621251
902.633135	2473.701754
902.940397	2479.075624
903.247619	2476.068576
903.554800	2476.418936
903.861941	2478.155613
904.169041	2480.252733
904.476101	2478.599235
904.783121	2481.175265
905.090100	2477.540593
905.397039	2482.100316
905.703938	2479.829277
906.010796	2480.194760
906.317614	2478.634523
906.624391	2478.808443
906.931129	2477.596045
907.237826	2480.666108
907.544483	2480.955974
907.851099	2479.970429
908.157675	2480.509832
908.464211	2479.040336
908.770707	2479.678042
909.077163	2477.139821
909.383578	2480.650985
909.689954	2478.841210
909.996289	2477.056642
910.302584	2480.832466
910.608839	2477.472537
910.915054	2480.187198
911.221229	2478.979842
911.527363	2479.451190
911.833458	2478.800881
912.139513	2479.292394
912.445527	2479.032774
912.751502	2479.756180
913.057436	2478.344657
913.363331	2480.870275
913.669186	2480.038484
913.975000	2480.540079
914.280775	2478.775675
914.586510	2478.135449
914.892205	2481.145018
915.197859	2478.165696
915.503475	2482.027220
915.809050	2482.760707
916.114585	2480.225007
916.420081	2479.864565
916.725536	2477.427167
917.030952	2480.393886
917.336328	2475.723257
917.641665	2478.468165
917.946961	2478.410192
918.252218	2478.979842
918.557435	2474.173102
918.862612	2476.441621
919.167750	2476.154275
919.472848	2480.088896
919.777906	2478.286683
920.082925	2476.282825
920.387904	2479.511684
920.692843	2480.381283
920.997743	2480.245172
921.302603	2478.808443
921.607423	2480.827425
921.912204	2480.328351
922.216946	2477.938844
922.521647	2479.846921
922.826310	2475.733339
923.130932	2479.925058
923.435516	2478.957157
923.740059	2480.361118
924.044564	2476.454224
924.349028	2482.150728
924.653454	2478.364821
924.957840	2481.059318
925.262186	2479.209215
925.566493	2479.841879
925.870761	2478.011941
926.174989	2481.253403
926.479178	2478.720223
926.783328	2477.618731
927.087438	2478.692496
927.391509	2482.624596
927.695541	2481.820532
927.999533	2480.063690
928.303486	2479.877168
928.607400	2478.148052
928.911275	2479.529328
929.215110	2480.865234
929.518906	2478.082517
929.822663	2479.839359
930.126381	2481.061839
930.430060	2478.654688
930.733699	2476.973463
931.037299	2478.621920
931.340861	2479.042857
931.644383	2478.500933
931.947866	2478.621920
932.251309	2478.816005
932.554714	2479.312558
932.858080	2478.979842
933.161407	2476.146714
933.464694	2479.506643
933.767943	2472.474233
934.071153	2479.625110
934.374323	2477.044039
934.677455	2480.222487
934.980548	2479.713330
935.283602	2479.080665
935.586617	2478.765593
935.889593	2475.861888
936.192530	2480.242651
936.495428	2479.085706
936.798287	2478.503453
937.101108	2477.376755
937.403890	2478.082517
937.706632	2479.965388
938.009336	2478.911787
938.312002	2481.724750
938.614628	2479.390696
938.917216	2479.315079
939.219765	2478.427836
939.522275	2477.989255
939.824747	2477.255768
940.127179	2478.969760
940.429573	2479.872126
940.731929	2479.557054
941.034246	2479.615027
941.336524	2477.979173
941.638763	2480.270377
941.940964	2479.758700
942.243126	2477.167547
942.545250	2479.617548
942.847335	2475.435911
943.149381	2478.112764
943.451389	2478.856334
943.753359	2477.648977
944.055290	2477.742239
944.357182	2479.264667
944.659036	2476.025726
944.960851	2478.657208
945.262628	2481.407158
945.564367	2478.226190
945.866067	2480.267857
946.167729	2476.764255
946.469352	2477.835500
946.770937	2477.069245
947.072484	2479.428505
947.373992	2478.546303
947.675462	2476.562609
947.976893	2475.909779
948.278286	2474.921713
948.579641	2475.889615
948.880958	2474.652012
949.182236	2476.953298
949.483476	2477.079327
949.784678	2478.294245
950.085841	2480.913125
950.386967	2479.597383
950.688054	2479.524287
950.989103	2477.449852
951.290114	2477.711992
951.591087	2480.845069
951.892021	2480.948413
952.192917	2479.191571
952.493776	2476.484471
952.794596	2477.424646
953.095378	2479.241982
953.396122	2480.093937
953.696828	2481.661736
953.997496	2480.076293
954.298126	2477.044039
954.598718	2477.349029
954.899272	2478.362301
955.199788	2480.104019
955.500266	2477.331385
955.800706	2476.970942
956.101108	2476.492033
956.401472	2478.213587
956.701798	2475.945067
957.002087	2476.076138
957.302337	2478.513535
957.602550	2478.750470
957.902724	2479.496560
958.202861	2476.935654
958.502960	2476.562609
958.803022	2478.400109
959.103045	2480.998824
959.403031	2477.318782
959.702979	2477.343988
960.002889	2478.921869
960.302762	2479.453711
960.602596	2478.979842
960.902393	2478.200984
961.202153	2478.173257
961.501875	2479.773824
961.801559	2479.410861
962.101205	2476.978504
962.400814	2477.343988
962.700385	2478.606797
962.999918	2480.282980
963.299414	2475.607310
963.598873	2476.550006
963.898293	2474.604121
964.197677	2476.943216
964.497022	2479.438587
964.796331	2477.666622
965.095601	2479.516725
965.394835	2477.785089
965.694030	2477.182671
965.993189	2478.185860
966.292309	2475.677886
966.591393	2477.545634
966.890439	2476.721405
967.189447	2479.942703
967.488419	2479.304997
967.787353	2476.103864
968.086249	2478.778196
968.385108	2478.397589
968.683930	2476.063535
968.982714	2480.318268
969.281462	2475.511528
969.580172	2476.670994
969.878844	2476.973463
970.177480	2475.811477
970.476078	2476.020685
970.774639	2478.831128
971.073162	2475.156127
971.371649	2479.922538
971.670098	2477.996817
971.968510	2477.959008
972.266885	2479.239462
972.565223	2477.429687
972.863524	2477.318782
973.161788	2478.679893
973.460014	2474.982207
973.758204	2480.948413
974.056356	2476.411374
974.354471	2478.773155
974.652550	2477.787609
974.950591	2477.893473
975.248595	2478.826087
975.546563	2475.501446
975.844493	2476.247537
976.142386	2475.783751
976.440243	2477.931282
976.738062	2477.139821
977.035845	2479.431025
977.333590	2477.210397
977.631299	2474.359625
977.928971	2476.955819
978.226606	2473.303503
978.524204	2476.996148
978.821765	2471.750828
979.119290	2478.006899
979.416777	2477.560757
979.714228	2478.548823
980.011642	2477.497743
980.309020	2477.822897
980.606360	2478.735346
980.903664	2477.782568
981.200931	2477.308700
981.498162	2478.155613
981.795356	2477.089409
982.092513	2477.633854
982.389633	2476.136631
982.686717	2475.753504
982.983764	2476.426498
983.280775	2478.306848
983.577749	2476.585294
983.874686	2476.028247
984.171587	2476.222331
984.468451	2475.614872
984.765279	2476.905407
985.062070	2478.332054
985.358824	2476.005561
985.655543	2477.747280
985.952224	2477.318782
986.248869	2475.113277
986.545478	2475.640078
986.842050	2477.016313
987.138586	2475.917341
987.435086	2475.647639
987.731549	2476.366004
988.027975	2478.644605
988.324366	2475.491364
988.620719	2478.803402
988.917037	2476.832311
989.213318	2477.026395
989.509563	2476.660911
989.805772	2478.369862
990.101944	2475.745942
990.398080	2478.125367
990.694180	2478.410192
990.990244	2476.529841
991.286271	2477.797692
991.582262	2477.386837
991.878217	2476.776858
992.174136	2479.541931
992.470019	2478.432877
992.765865	2476.043370
993.061676	2474.767958
993.357450	2474.243678
993.653188	2472.854840
993.948890	2480.083855
994.244556	2478.206025
994.540186	2476.164358
994.835780	2475.715695
995.131337	2477.220479
995.426859	2477.386837
995.722345	2475.355253
996.017795	2477.349029
996.313208	2478.795840
996.608586	2476.769296
996.903928	2476.237454
997.199234	2475.014975
997.494504	2477.336426
997.789738	2476.945737
998.084936	2477.853144
998.380099	2475.821559
998.675225	2476.734008
998.970316	2476.212249
999.265371	2475.975314
999.560390	2477.273412
999.855373	2479.365490
1000.150320	2476.560088
1000.445232	2474.140334
1000.740108	2473.981538
1001.034948	2476.161837
1001.329752	2475.753504
1001.624521	2476.550006
1001.919254	2477.149903
1002.213951	2476.963381
1002.508613	2476.222331
1002.803239	2473.777371
1003.097829	2476.676035
1003.392384	2476.398771
1003.686903	2477.848103
1003.981386	2478.218628
1004.275834	2475.481281
1004.570246	2479.143680
1004.864623	2474.508339
1005.158964	2478.579070
1005.453270	2477.885912
1005.747540	2475.617393
1006.041775	2478.352218
1006.335974	2476.741570
1006.630138	2476.325675
1006.924266	2478.516056
1007.218359	2474.309213
1007.512416	2477.096971
1007.806438	2473.351394
1008.100425	2475.153606
1008.394376	2470.256125
1008.688292	2476.950778
1008.982172	2477.293576
1009.276017	2473.316106
1009.569827	2476.663432
1009.863602	2477.570840
1010.157341	2476.187043
1010.451045	2476.950778
1010.744714	2477.217959
1011.038347	2477.792650
1011.331945	2477.364152
1011.625508	2476.519759
1011.919036	2476.943216
1012.212528	2476.224852
1012.505986	2476.451703
1012.799408	2477.585963
1013.092795	2474.583956
1013.386147	2476.292907
1013.679464	2475.466158
1013.972745	2475.473720
1014.265992	2476.302989
1014.559204	2476.045891
1014.852380	2476.486992
1015.145521	2476.582773
1015.438628	2475.385499
1015.731699	2476.875160
1016.024736	2478.846252
1016.317737	2475.675366
1016.610703	2473.243009
1016.903635	2478.231231
1017.196531	2474.646970
1017.489393	2476.005561
1017.782219	2478.614358
1018.075011	2477.361632
1018.367768	2475.894656
1018.660490	2474.621765
1018.953177	2474.621765
1019.245829	2474.621765
