Dividing Wavelength (nm)	Counts (n)	Blue Motor Position (mm): 15.500000	Red Motor Position (mm): 0.000000	
326.493990	2069.446586
326.888308	2069.446586
327.282561	2069.446586
327.676750	2042.380631
328.070874	2045.954809
328.464933	2050.353216
328.858929	2059.119782
329.252859	2069.892728
329.646726	2084.655747
330.040528	2098.944898
330.434265	2115.847887
330.827938	2136.887142
331.221547	2158.095276
331.615091	2178.136383
332.008571	2198.479960
332.401986	2219.652806
332.795338	2237.581670
333.188625	2256.801069
333.581847	2278.301590
333.975006	2292.757098
334.368100	2314.055973
334.761129	2329.592810
335.154095	2343.576970
335.546996	2386.378887
335.939833	2465.358644
336.332606	2476.486992
336.725315	2492.258241
337.117960	2498.103459
337.510540	2508.158041
337.903056	2518.628517
338.295508	2524.118334
338.687896	2533.270548
339.080220	2536.713657
339.472480	2540.832279
339.864676	2546.314534
340.256807	2549.477858
340.648875	2552.003476
341.040879	2552.956254
341.432818	2552.341233
341.824694	2556.374157
342.216506	2551.756460
342.608253	2554.675288
342.999937	2552.207643
343.391557	2549.263609
343.783113	2550.571788
344.174605	2546.450645
344.566033	2547.584905
344.957397	2545.782692
345.348697	2543.236910
345.739934	2541.656508
346.131106	2539.337577
346.522215	2536.683410
346.913260	2535.783564
347.304241	2536.307844
347.695159	2531.443130
348.086012	2534.422452
348.476802	2528.781401
348.867528	2526.207892
349.258191	2526.374250
349.648789	2525.000536
350.039324	2519.886285
350.429796	2524.892151
350.820203	2524.579599
351.210548	2525.557583
351.600828	2520.327386
351.991045	2520.468538
352.381198	2519.835873
352.771288	2517.920235
353.161314	2517.572395
353.551276	2516.554082
353.941175	2517.337982
354.331010	2519.125071
354.720782	2523.034486
355.110490	2522.603467
355.500135	2520.627335
355.889717	2518.318486
356.279235	2522.157325
356.668689	2523.410052
357.058080	2520.370236
357.447408	2522.374094
357.836672	2520.216481
358.225873	2521.938035
358.615010	2525.381143
359.004084	2521.388549
359.393095	2526.023890
359.782043	2521.358302
360.170927	2523.987264
360.559748	2525.000536
360.948505	2524.171266
361.337199	2527.924405
361.725830	2526.981709
362.114398	2527.942049
362.502903	2526.114631
362.891344	2528.017666
363.279722	2530.414735
363.668037	2530.087060
364.056289	2528.390712
364.444478	2526.134795
364.832603	2528.509179
365.220665	2530.069416
365.608665	2530.719725
365.996601	2529.782070
366.384474	2529.744261
366.772284	2531.238963
367.160031	2534.346835
367.547715	2530.878521
367.935336	2532.547143
368.322893	2530.437420
368.710388	2525.534898
369.097820	2531.909437
369.485189	2526.873324
369.872495	2533.346166
370.259738	2534.046886
370.646918	2535.453368
371.034035	2534.656866
371.421090	2534.563604
371.808081	2535.304654
372.195010	2534.314067
372.581875	2533.371372
372.968678	2534.455220
373.355418	2534.777853
373.742096	2535.327339
374.128710	2533.983872
374.515262	2536.751465
374.901751	2535.597041
375.288177	2540.060983
375.674540	2535.667617
376.060841	2536.159130
376.447079	2537.830272
376.833254	2537.865560
377.219367	2540.817156
377.605417	2539.221631
377.991404	2537.651311
378.377329	2536.756506
378.763191	2539.813966
379.148991	2539.667773
379.534727	2538.624254
379.920402	2538.863709
380.306013	2538.939326
380.691563	2539.435880
381.077049	2538.898997
381.462474	2539.196425
381.847835	2537.928575
382.233134	2540.605427
382.618371	2538.732639
383.003545	2540.497042
383.388657	2542.639533
383.773706	2539.892104
384.158693	2540.287835
384.543618	2541.666590
384.928480	2541.011240
385.313280	2543.115922
385.698017	2542.117773
386.082692	2544.734132
386.467305	2542.523586
386.851856	2542.750438
387.236344	2542.679862
387.620770	2542.989893
388.005133	2540.013092
388.389435	2542.548792
388.773674	2538.238606
389.157851	2545.107178
389.541965	2545.046684
389.926018	2545.293700
390.310008	2544.971067
390.693936	2544.817311
391.077802	2546.382590
391.461606	2546.778320
391.845348	2546.727909
392.229027	2544.648433
392.612645	2546.143135
392.996200	2546.760676
393.379694	2547.642878
393.763125	2545.288659
394.146494	2544.570295
394.529801	2546.037271
394.913047	2545.407126
395.296230	2548.895605
395.679351	2549.036757
396.062410	2547.030378
396.445408	2547.436191
396.828343	2549.719833
397.211217	2551.143959
397.594028	2549.339226
397.976778	2550.619679
398.359466	2548.618341
398.742092	2548.348640
399.124656	2549.465255
399.507158	2548.666232
399.889598	2552.560524
400.271977	2550.395348
400.654294	2550.768393
401.036549	2551.176727
401.418742	2550.463404
401.800874	2550.768393
402.182944	2552.207643
402.564952	2550.211346
402.946898	2551.280071
403.328783	2551.259906
403.710606	2550.612118
404.092367	2552.971378
404.474067	2553.208312
404.855705	2551.794268
405.237282	2552.404248
405.618797	2551.801830
406.000250	2555.413817
406.381642	2555.025648
406.762972	2552.759649
407.144240	2549.122457
407.525447	2550.783517
407.906593	2550.271840
408.287677	2551.592622
408.668700	2553.039433
409.049661	2552.104299
409.430560	2556.094372
409.811399	2554.062787
410.192176	2554.498847
410.572891	2553.987170
410.953545	2556.399362
411.334138	2554.924825
411.714669	2555.396173
412.095139	2558.105793
412.475547	2553.296532
412.855894	2553.281409
413.236180	2557.914229
413.616405	2557.853735
413.996568	2557.800803
414.376670	2554.564382
414.756711	2554.670247
415.136691	2556.429609
415.516609	2558.199054
415.896466	2558.075546
416.276262	2555.428940
416.655997	2559.378684
417.035670	2556.049002
417.415283	2556.250648
417.794834	2556.414486
418.174324	2555.048333
418.553753	2558.839281
418.933121	2558.904816
419.312428	2557.984805
419.691674	2559.527398
420.070859	2559.184600
420.449983	2560.666699
420.829045	2556.081770
421.208047	2557.324414
421.586988	2556.565720
421.965867	2559.908005
422.344686	2559.124106
422.723444	2559.371122
423.102141	2557.092521
423.480777	2560.568397
423.859352	2556.364074
424.237866	2561.619477
424.616319	2559.940773
424.994712	2557.987326
425.373044	2558.405742
425.751314	2557.498334
426.129524	2555.340720
426.507673	2558.403221
426.885762	2555.091183
427.263789	2557.231153
427.641756	2557.455484
428.019662	2561.160732
428.397508	2560.061761
428.775292	2558.945145
429.153016	2560.218036
429.530679	2559.913047
429.908282	2559.905485
430.285824	2561.944632
430.663305	2561.647203
431.040726	2562.128634
431.418086	2561.276679
431.795385	2561.523695
432.172624	2560.389436
432.549802	2561.233829
432.926920	2560.364230
433.303977	2561.228788
433.680974	2558.599826
434.057910	2561.896741
434.434786	2560.699467
434.811601	2562.375650
435.188355	2561.100238
435.565050	2561.556463
435.941683	2559.368602
436.318257	2562.116031
436.694770	2560.076884
437.071222	2563.025959
437.447614	2559.877758
437.823946	2561.690053
438.200218	2559.920608
438.576429	2561.100238
438.952580	2561.364899
439.328670	2561.531257
439.704700	2558.897254
440.080670	2558.645196
440.456580	2561.203582
440.832429	2559.693756
441.208218	2558.834240
441.583947	2561.165773
441.959616	2560.696946
442.335224	2560.840619
442.710773	2561.133006
443.086261	2560.739796
443.461689	2560.901113
443.837057	2562.731052
444.212365	2560.797769
444.587612	2559.149312
444.962800	2557.203426
445.337927	2559.567727
445.712995	2556.601008
446.088002	2564.944118
446.462949	2560.528067
446.837837	2561.679971
447.212664	2561.100238
447.587431	2561.301884
447.962139	2562.312636
448.336786	2560.858263
448.711374	2565.312122
449.085901	2563.996381
449.460369	2564.008984
449.834776	2562.163922
450.209124	2561.969837
450.583412	2565.871690
450.957640	2563.741803
451.331808	2564.563511
451.705917	2561.758109
452.079965	2562.020249
452.453954	2564.019066
452.827883	2565.123079
453.201752	2562.758778
453.575562	2566.073337
453.949311	2562.819272
454.323001	2562.163922
454.696632	2563.429251
455.070202	2566.978224
455.443713	2565.990158
455.817164	2564.835733
456.190556	2561.332131
456.563888	2566.108625
456.937160	2563.887996
457.310373	2568.523337
457.683526	2564.626525
458.056619	2563.262893
458.429653	2562.559652
458.802628	2564.477811
459.175542	2565.085270
459.548398	2566.529561
459.921194	2565.226423
460.293930	2564.472770
460.666607	2566.189283
461.039224	2564.729869
461.411782	2567.275652
461.784280	2565.879252
462.156719	2567.802452
462.529099	2565.962431
462.901419	2567.522668
463.273680	2565.327246
463.645882	2560.018911
464.018024	2565.458316
464.390106	2563.698953
464.762130	2567.270611
465.134094	2568.462843
465.505999	2568.692216
465.877845	2568.200703
466.249631	2570.227247
466.621358	2570.161712
466.993026	2570.466702
467.364634	2571.837896
467.736184	2569.655076
468.107674	2569.327401
468.479105	2569.347566
468.850477	2568.152812
469.221790	2568.525858
469.593043	2567.832699
469.964238	2572.014336
470.335373	2570.063410
470.706449	2568.092319
471.077467	2568.987123
471.448425	2573.277145
471.819324	2570.610375
472.190164	2572.568863
472.560945	2568.714901
472.931667	2570.007957
473.302330	2571.784964
473.672934	2571.288410
474.043479	2569.060220
474.413965	2570.333112
474.784393	2569.433266
475.154761	2570.859912
475.525070	2573.430901
475.895321	2574.736559
476.265513	2572.339491
476.635645	2571.532906
477.005719	2572.783112
477.375734	2575.233113
477.745691	2570.149109
478.115588	2572.868812
478.485427	2575.389389
478.855207	2574.378637
479.224928	2574.852506
479.594591	2575.850654
479.964194	2577.665470
480.333739	2578.129256
480.703226	2576.019533
481.072653	2582.373907
481.442022	2579.082034
481.811333	2576.768144
482.180584	2574.083730
482.549777	2579.190419
482.918912	2575.233113
483.287988	2578.656057
483.657005	2580.594380
484.025964	2576.684965
484.394864	2581.330389
484.763706	2580.019689
485.132489	2580.811150
485.501213	2581.579926
485.869879	2581.985739
486.238487	2585.476738
486.607036	2584.155955
486.975527	2581.963053
487.343959	2583.704772
487.712333	2584.400451
488.080648	2582.658733
488.448905	2586.605956
488.817104	2585.529670
489.185244	2583.833322
489.553326	2590.774990
489.921350	2590.228025
490.289315	2591.468149
490.657222	2593.640886
491.025070	2594.311360
491.392861	2595.922008
491.760593	2593.560228
492.128267	2595.997626
492.495883	2595.183479
492.863440	2592.932604
493.230939	2594.936463
493.598380	2592.370516
493.965763	2593.981164
494.333088	2595.732965
494.700354	2595.533840
495.067563	2595.496031
495.434713	2596.453850
495.801805	2596.912595
496.168839	2598.311515
496.535815	2599.206320
496.902733	2600.010384
497.269593	2601.623553
497.636395	2600.317895
498.003139	2603.826538
498.369825	2603.360231
498.736453	2602.775457
499.103023	2606.216045
499.469535	2604.207145
499.835989	2603.781167
500.202385	2605.180087
500.568723	2604.731425
500.935003	2605.860643
501.301226	2603.385437
501.667390	2610.223762
502.033497	2611.519338
502.399546	2611.327775
502.765537	2610.594287
503.131470	2615.746346
503.497345	2616.137035
503.863163	2616.845317
504.228923	2617.682149
504.594625	2619.756584
504.960269	2618.609721
505.325856	2620.719444
505.691385	2622.133488
506.056856	2622.196502
506.422270	2625.445526
506.787625	2624.855711
507.152924	2626.809158
507.518164	2628.457615
507.883347	2627.764457
508.248472	2628.187914
508.613540	2631.815024
508.978550	2633.375261
509.343503	2635.656383
509.708398	2635.437093
510.073236	2640.483288
510.438016	2639.288534
510.802738	2642.761889
511.167403	2642.832466
511.532010	2645.582415
511.896561	2647.689617
512.261053	2651.057108
512.625488	2649.564927
512.989866	2649.665750
513.354186	2654.724547
513.718449	2652.939979
514.082655	2659.352327
514.446803	2659.559014
514.810894	2663.171001
515.174927	2662.918943
515.538904	2665.144613
515.902822	2670.500838
516.266684	2669.313647
516.630488	2669.290962
516.994235	2674.921930
517.357925	2678.750687
517.721558	2678.745646
518.085133	2685.664629
518.448651	2683.171779
518.812112	2682.448373
519.175516	2687.111440
519.538863	2686.806451
519.902152	2694.106041
520.265385	2700.805735
520.628560	2699.946218
520.991678	2701.100642
521.354739	2705.408308
521.717743	2713.590101
522.080690	2713.675801
522.443580	2718.114537
522.806413	2721.020762
523.169189	2724.791545
523.531908	2729.653738
523.894569	2728.196844
524.257174	2735.614902
524.619722	2742.249061
524.982213	2747.862385
525.344647	2750.448497
525.707025	2753.253899
526.069345	2763.399222
526.431608	2764.750251
526.793815	2771.361724
527.155964	2774.061262
527.518057	2780.629885
527.880093	2783.178189
528.242072	2795.120682
528.603995	2798.059675
528.965860	2804.981179
529.327669	2810.397899
529.689421	2816.686738
530.051117	2825.584375
530.412755	2834.371106
530.774337	2840.927127
531.135862	2845.842252
531.497331	2854.558407
531.858743	2864.234901
532.220098	2876.512632
532.581396	2884.520504
532.942638	2890.229611
533.303824	2902.174625
533.664953	2916.670463
534.026025	2921.520053
534.387040	2937.616457
534.747999	2948.888477
535.108902	2963.895992
535.469748	2968.443113
535.830537	2985.971205
536.191270	3001.450068
536.551947	3011.083713
536.912567	3024.510826
537.273131	3042.439690
537.633638	3052.020403
537.994089	3071.449010
538.354483	3085.465938
538.714821	3111.609362
539.075103	3132.696508
539.435328	3149.629744
539.795497	3169.421314
540.155609	3189.583409
540.515665	3216.757749
540.875665	3226.759398
541.235609	3251.077924
541.595496	3275.401491
541.955328	3311.024805
542.315102	3328.237825
542.674821	3344.765248
543.034483	3370.263404
543.394090	3395.963206
543.753640	3423.729882
544.113134	3474.990854
544.472571	3487.064418
544.831953	3540.266235
545.191278	3552.425498
545.550548	3579.836772
545.909761	3626.061632
546.268918	3663.290553
546.628019	3710.614385
546.987064	3730.839494
547.346053	3751.535952
547.704986	3809.806649
548.063863	3845.480374
548.422684	3887.551323
548.781449	3919.174482
549.140158	3974.181032
549.498811	4013.368441
549.857408	4041.137637
550.215949	4114.821662
550.574434	4155.511336
550.932864	4204.120662
551.291237	4279.639667
551.649555	4325.113395
552.007817	4381.975090
552.366022	4425.500412
552.724173	4484.645750
553.082267	4559.403541
553.440305	4640.689626
553.798288	4659.977080
554.156215	4739.002208
554.514086	4812.028363
554.871902	4856.468654
555.229661	4930.485396
555.587365	4977.607581
555.945014	5058.757555
556.302606	5129.323627
556.660143	5206.589392
557.017625	5291.174912
557.375050	5348.472667
557.732421	5449.464622
558.089735	5528.192322
558.446994	5594.024750
558.804197	5708.786617
559.161345	5785.023987
559.518437	5818.779553
559.875474	5919.849647
560.232455	6017.559811
560.589381	6111.723524
560.946251	6185.344535
561.303065	6322.925185
561.659825	6389.692747
562.016528	6464.642102
562.373177	6525.975300
562.729770	6678.356778
563.086307	6725.226906
563.442789	6873.787189
563.799216	6958.725590
564.155587	7054.741927
564.511904	7150.269272
564.868164	7258.268431
565.224370	7402.092550
565.580520	7479.149108
565.936615	7613.122812
566.292654	7680.336516
566.648638	7839.417688
567.004567	7945.745705
567.360441	8070.710867
567.716260	8150.013258
568.072023	8320.638672
568.427732	8429.346114
568.783385	8490.051688
569.138982	8667.424686
569.494525	8817.083941
569.850013	8884.905104
570.205445	9023.103296
570.560823	9115.915979
570.916145	9233.868897
571.271412	9390.134584
571.626625	9469.187438
571.981782	9605.278427
572.336884	9679.035549
572.691931	9863.211584
573.046923	9947.522362
573.401860	10049.504904
573.756743	10184.564978
574.111570	10352.500936
574.466342	10475.409307
574.821059	10647.514300
575.175722	10686.825218
575.530330	10849.339415
575.884882	10925.070148
576.239380	11044.182531
576.593823	11211.810979
576.948211	11345.111690
577.302544	11399.019268
577.656823	11540.597553
578.011047	11753.893814
578.365216	11866.480423
578.719330	11948.769698
579.073389	12090.169022
579.427394	12265.714602
579.781344	12398.841393
580.135239	12500.173626
580.489080	12671.149400
580.842866	12716.814692
581.196597	12999.159637
581.550273	13152.632525
581.903895	13312.737050
582.257463	13584.132609
582.610975	13600.473509
582.964434	13842.821939
583.317837	13875.390313
583.671186	14033.866546
584.024481	14266.898924
584.377721	14311.117405
584.730906	14533.044121
585.084037	14752.982101
585.437113	14822.713862
585.790135	15041.557912
586.143103	15071.588065
586.496016	15282.832576
586.848874	15485.875130
587.201679	15678.154820
587.554428	15681.429049
587.907124	15934.066474
588.259765	16027.612645
588.612352	16254.804846
588.964884	16243.396715
589.317362	16520.579518
589.669786	16696.142742
590.022155	16821.491032
590.374470	17172.882141
590.726731	17180.048141
591.078937	17112.620188
591.431090	17419.697033
591.783188	17406.912667
592.135232	17504.101072
592.487222	17785.672199
592.839157	18019.241460
593.191038	18052.306388
593.542866	18146.911202
593.894639	18064.929437
594.246358	18373.359832
594.598022	18542.241007
594.949633	18529.088637
595.301190	18692.837916
595.652692	18833.022322
596.004141	19217.029696
596.355535	18922.565818
596.706876	19077.349405
597.058162	19118.628894
597.409395	19504.728346
597.760573	19769.751886
598.111698	19765.459344
598.462768	19891.238653
598.813785	20057.034641
599.164748	20041.157527
599.515657	20335.371868
599.866511	20250.960268
600.217312	20749.759756
600.568060	20398.429141
600.918753	20952.618307
601.269392	21067.707849
601.619978	21100.339238
601.970510	21364.538549
602.320988	21582.835634
602.671412	21870.128472
603.021783	21961.474179
603.372100	21912.113721
603.722363	22113.222992
604.072572	22291.828552
604.422728	22440.391356
604.772830	22479.929126
605.122878	22717.238923
605.472872	22793.940078
605.822813	23084.199635
606.172701	23095.280091
606.522534	23425.321913
606.872314	23704.929511
607.222041	23748.560697
607.571714	24089.388067
607.921333	23947.252735
608.270899	24220.952101
608.620411	24589.911630
608.969870	24592.913637
609.319276	24739.482665
609.668627	24912.522791
610.017926	25288.965913
610.367171	25517.307497
610.716362	25676.655850
611.065500	25766.602637
611.414585	26047.097478
611.763616	26296.208616
612.112594	26366.363834
612.461518	26586.639572
612.810389	26961.252755
613.159207	26959.493392
613.507971	27087.538700
613.856682	27546.553402
614.205340	27582.030522
614.553945	28157.468151
614.902496	27858.532769
615.250994	28264.464121
615.599439	28456.330437
615.947830	28657.427105
616.296169	28791.983063
616.644454	28954.885428
616.992686	29190.128352
617.340864	29616.625091
617.688990	29401.985363
618.037063	29972.432250
618.385082	29987.797687
618.733048	30358.884583
619.080961	30402.241027
619.428821	30559.157023
619.776628	30704.503570
620.124382	30708.302080
620.472083	30916.474007
620.819731	31112.844594
621.167326	30947.693873
621.514868	31072.323799
621.862357	30817.627063
622.209793	31018.471673
622.557176	30846.127226
622.904506	30784.499120
623.251783	30677.460301
623.599007	30568.168085
623.946179	30626.559770
624.293297	30566.542313
624.640363	30270.689597
624.987376	30284.585537
625.334336	30262.454872
625.681243	30053.531812
626.028097	30096.084192
626.374899	30063.044470
626.721647	30141.860390
627.068343	30059.119932
627.414987	29960.225096
627.761577	29861.650374
628.108115	30189.711022
628.454600	29721.279445
628.801032	29992.589304
629.147412	30006.704534
629.493739	30000.387969
629.840014	29756.565001
630.186236	30172.772745
630.532405	29820.857357
630.878521	30096.492526
631.224585	30002.023823
631.570597	29825.749797
631.916556	30031.164213
632.262462	30029.039367
632.608316	30060.992720
632.954117	30040.225687
633.299866	30080.282695
633.645562	30101.815984
633.991206	29780.281109
634.336797	29536.022082
634.682336	29530.930517
635.027823	29418.837940
635.373257	29424.688199
635.718639	29220.034997
636.063968	29228.131090
636.409245	28787.836713
636.754470	28820.379882
637.099642	28710.540702
637.444762	28307.901223
637.789829	28481.543767
638.134845	28232.800634
638.479808	28229.964985
638.824719	28264.600232
639.169577	27907.305933
639.514383	28065.767042
639.859137	27797.905333
640.203839	27981.909969
640.548489	27825.745105
640.893086	27863.964613
641.237632	27685.311162
641.582125	27822.634713
641.926566	27691.161421
642.270955	27760.711700
642.615292	27780.052086
642.959576	27737.799655
643.303809	27792.564230
643.647990	27924.655064
643.992118	27935.667464
644.336195	27854.111677
644.680219	27952.058776
645.024192	28175.530606
645.368112	28673.725155
645.711981	28718.399860
646.055797	29352.667755
646.399562	29219.724966
646.743274	29998.815129
647.086935	30395.952188
647.430544	30410.437943
647.774101	30491.782002
648.117606	30824.586376
648.461059	30985.396663
648.804460	30712.410620
649.147810	30324.990385
649.491108	30112.951893
649.834354	30061.620344
650.177548	29401.309848
650.520690	29016.011939
650.863781	29036.181596
651.206820	28929.445246
651.549807	28609.049672
651.892742	28117.953067
652.235626	28072.920440
652.578458	27991.939344
652.921238	27404.808759
653.263967	27702.370426
653.606644	27448.439945
653.949269	27406.578204
654.291843	27103.166277
654.634365	27455.089227
654.976836	27084.882012
655.319255	27200.939456
655.661622	27117.616745
656.003938	27022.051591
656.346203	26897.255307
656.688416	27149.771744
657.030577	27003.432089
657.372687	26860.575872
657.714746	27021.507147
658.056753	27229.585813
658.398708	26700.615019
658.740612	26798.463815
659.082465	27005.924940
659.424266	26952.899563
659.766016	26971.940001
660.107715	26859.386159
660.449362	26964.312736
660.790958	26972.038304
661.132503	26939.066637
661.473996	27028.035441
661.815438	27138.177091
662.156829	27274.986444
662.498168	27116.900901
662.839456	27119.189585
663.180693	27268.309436
663.521879	27337.111104
663.863013	27326.219691
664.204097	27334.787132
664.545129	27739.637156
664.886110	27695.075877
665.227040	27827.564961
665.567918	27838.025356
665.908746	27913.937571
666.249522	28023.761628
666.590248	28079.831862
666.930922	28207.090749
667.271545	28231.434481
667.612118	28302.446695
667.952639	28148.724270
668.293109	28206.533702
668.633528	28093.513553
668.973896	28092.553213
669.314213	28088.288397
669.654480	27933.091435
669.994695	27951.589949
670.334859	27878.132776
670.674973	27740.257218
671.015035	27945.653990
671.355047	27880.963383
671.695008	27837.725407
672.034918	27767.013142
672.374777	27875.337456
672.714585	27788.559033
673.054342	27929.837370
673.394049	27810.346900
673.733705	28025.841104
674.073310	27771.542619
674.412864	27863.405045
674.752368	27615.075286
675.091820	27867.173307
675.431223	27494.322007
675.770574	27323.852869
676.109875	27187.061159
676.449125	27009.662956
676.788324	26929.969875
677.127473	26494.482238
677.466571	26430.938494
677.805619	26183.390114
678.144616	26135.121066
678.483562	26090.816885
678.822458	25810.916900
679.161303	25765.773367
679.500098	25703.424377
679.838842	25642.055890
680.177535	25715.364350
680.516179	25918.961430
680.854771	25996.857339
681.193314	26663.837281
681.531805	27587.172499
681.870247	28312.430700
682.208638	29112.403842
682.546978	29441.397104
682.885268	29650.231943
683.223508	29263.767007
683.561697	29038.750064
683.899836	28893.567354
684.237925	28487.951074
684.575963	28335.730913
684.913951	27976.967117
685.251889	28127.248955
685.589776	28136.391087
685.927614	28138.006777
686.265401	28311.404825
686.603137	28409.319156
686.940824	28883.669048
687.278460	29205.327431
687.616046	29381.152795
687.953582	30031.673369
688.291068	29985.745937
688.628504	30333.903145
688.965889	30369.163496
689.303224	30152.305660
689.640510	29917.360165
689.977745	29336.185703
690.314930	28646.815476
690.652065	28267.713145
690.989150	27617.311037
691.326185	26836.136358
691.663170	26244.990493
692.000105	25579.706900
692.336990	25004.770865
692.673825	24582.861576
693.010610	24117.840340
693.347345	23625.811122
693.684030	23027.095964
694.020665	22856.152958
694.357251	22199.502340
694.693786	22215.084547
695.030272	21992.668839
695.366707	21513.640757
695.703093	21240.939539
696.039429	21312.836476
696.375716	21082.201167
696.711952	21073.026267
697.048139	20949.691917
697.384276	20794.467228
697.720363	20902.846995
698.056400	20816.466824
698.392388	20655.681742
698.728326	20663.651807
699.064214	20520.006648
699.400053	20541.255112
699.735842	20171.834317
700.071581	19995.081381
700.407270	19759.495659
700.742910	19597.931719
701.078501	19360.011943
701.414042	19178.779941
701.749533	18885.593995
702.084974	18572.419874
702.420366	18798.548392
702.755709	18413.668899
703.091002	18120.309033
703.426246	18167.993307
703.761440	18112.263351
704.096584	17888.617602
704.431679	17822.782653
704.766725	17783.300337
705.101721	17703.019962
705.436668	17813.212023
705.771565	17538.252369
706.106413	17852.240636
706.441212	17913.296571
706.775961	18003.369387
707.110661	18073.874965
707.445311	18426.370086
707.779913	18315.522674
708.114465	18600.458772
708.448967	18905.183919
708.783421	19501.144086
709.117825	19838.843420
709.452180	20047.935358
709.786485	20485.542800
710.120742	21213.888708
710.454949	21310.963687
710.789107	21811.129327
711.123216	22488.244509
711.457275	22709.283982
711.791286	23263.440380
712.125247	23441.554428
712.459159	23218.886662
712.793023	23967.130004
713.126837	23001.698631
713.460602	23270.810547
713.794318	22961.248413
714.127985	22708.064023
714.461602	21837.315601
714.795171	21818.416315
715.128691	20867.316943
715.462162	20375.007940
715.795584	19962.202975
716.128957	19687.094607
716.462281	19322.858639
716.795556	19048.738337
717.128782	18593.436445
717.461960	17995.190115
717.795088	17983.981109
718.128167	17642.531157
718.461198	17194.884257
718.794180	17074.201554
719.127113	16753.831186
719.459997	16575.089515
719.792833	16211.834051
720.125619	16246.817138
720.458357	15916.329174
720.791046	15780.616272
721.123686	15624.910153
721.456278	15406.973510
721.788821	15408.238840
722.121315	15156.977650
722.453761	15240.789353
722.786158	15137.380164
723.118506	15219.460231
723.450805	15104.146357
723.783056	15273.461071
724.115259	15165.668599
724.447412	15143.933664
724.779518	15351.195663
725.111574	15394.746192
725.443582	15651.121632
725.775542	15608.907010
726.107453	16096.260558
726.439315	16011.909451
726.771129	16398.560910
727.102895	16782.769930
727.434612	17062.662353
727.766281	17233.161738
728.097901	17556.440852
728.429473	17662.237027
728.760996	17685.378444
729.092471	17805.962844
729.423897	17679.918874
729.755276	17533.669960
730.086606	17618.603320
730.417887	18165.472730
730.749120	18693.881435
731.080305	18916.808820
731.411442	19317.633483
731.742530	19430.323436
732.073570	19575.803574
732.404562	19894.396936
732.735506	19800.520569
733.066401	19672.923924
733.397249	19249.870293
733.728048	18669.159617
734.058798	17837.515426
734.389501	17088.972135
734.720156	16578.207468
735.050762	16002.207751
735.381320	15600.949548
735.711831	15318.302135
736.042293	14944.833293
736.372707	14967.266428
736.703073	14758.035858
737.033391	14935.643270
737.363661	14918.357153
737.693883	15030.124575
738.024056	15200.692015
738.354182	15404.064764
738.684260	15753.363794
739.014290	16027.002666
739.344272	16244.508290
739.674207	16580.289465
740.004093	16765.209070
740.333931	16837.758836
740.663722	16935.408507
740.993464	16989.066548
741.323159	16862.029471
741.652806	16576.480873
741.982405	16426.657781
742.311956	16082.546099
742.641460	15976.097094
742.970915	15657.919628
743.300323	15313.984386
743.629683	15106.019146
743.958996	14802.241736
744.288260	14503.797867
744.617477	14194.260938
744.946647	14156.721986
745.275768	13846.103730
745.604842	13643.678718
745.933869	13467.679434
746.262847	13439.181792
746.591778	13346.709386
746.920662	13218.585940
747.249498	13219.049727
747.578286	13353.217516
747.907027	13509.899098
748.235720	13767.300413
748.564365	13846.953164
748.892963	13797.111276
749.221514	13915.553186
749.550017	13784.006797
749.878473	13762.241615
750.206881	13553.053895
750.535242	13482.734840
750.863555	13401.121080
751.191821	13299.332622
751.520039	13307.292604
751.848210	13228.048186
752.176334	13279.417544
752.504411	13206.890463
752.832440	13026.727187
753.160421	13153.769305
753.488356	13050.599571
753.816243	12964.698309
754.144082	12778.765432
754.471875	12728.459758
754.799620	12688.967358
755.127318	12673.455728
755.454969	12662.758400
755.782572	12620.589148
756.110129	12638.618834
756.437638	12548.961913
756.765100	12550.005432
757.092515	12571.911766
757.419882	12600.837907
757.747203	12610.615225
758.074477	12696.103112
758.401703	12665.742763
758.728882	12855.259900
759.056014	12896.108370
759.383099	13065.972569
759.710138	13186.511599
760.037129	13322.148884
760.364073	13388.717321
760.690970	13415.105241
761.017820	13416.897371
761.344623	13605.935599
761.671379	13918.358588
761.998088	14454.999497
762.324751	15850.088413
762.651366	18748.525022
762.977935	23000.879444
763.304456	26248.741112
763.630931	27810.324215
763.957359	27022.790120
764.283740	25020.131261
764.610074	22886.452813
764.936362	20310.894546
765.262602	18431.801929
765.588796	16492.341495
765.914943	15173.270659
766.241044	14035.094067
766.567097	13239.665525
766.893104	12501.378462
767.219064	12033.322451
767.544978	11557.868547
767.870845	11165.765080
768.196665	10934.751684
768.522438	10712.300688
768.848165	10514.178301
769.173846	10304.539398
769.499479	10179.266725
769.825066	10010.541826
770.150607	9789.436818
770.476101	9714.704233
770.801548	9590.495244
771.126949	9445.859499
771.452303	9334.573507
771.777611	9139.264083
772.102872	9121.209191
772.428087	8992.516095
772.753256	8843.376079
773.078378	8761.825333
773.403453	8588.422244
773.728482	8462.587482
774.053465	8391.066112
774.378401	8289.587685
774.703291	8172.161568
775.028135	8055.627735
775.352932	8026.628497
775.677683	7924.174607
776.002388	7813.851476
776.327046	7819.522774
776.651658	7724.199596
776.976224	7627.860625
777.300743	7621.138247
777.625216	7539.605145
777.949643	7495.598393
778.274024	7509.224631
778.598359	7426.227074
778.922647	7443.780372
779.246889	7392.186683
779.571086	7397.953763
779.895236	7407.559682
780.219339	7408.434322
780.543397	7416.706855
780.867409	7494.648135
781.191374	7500.362283
781.515294	7471.307593
781.839167	7561.211530
782.162995	7542.604632
782.486776	7495.381623
782.810511	7444.798685
783.134201	7362.380861
783.457844	7353.763008
783.781441	7300.999772
784.104993	7241.196564
784.428498	7218.186217
784.751958	7205.968981
785.075372	7168.029257
785.398739	7114.046061
785.722061	7157.997361
786.045337	7156.452247
786.368568	7290.836806
786.691752	7301.251829
787.014891	7585.857732
787.337983	7892.052375
787.661030	8434.732587
787.984031	9047.084065
788.306987	9476.953336
788.629897	9736.666020
788.952760	9728.897602
789.275579	9550.019819
789.598351	9185.589767
789.921078	8851.013427
790.243759	8449.944268
790.566395	8162.275865
790.888984	7917.172445
791.211529	7703.488015
791.534027	7478.939900
791.856480	7283.287678
792.178888	7201.515121
792.501249	7106.292766
792.823566	6948.111441
793.145836	6949.535567
793.468062	6911.565596
793.790241	6859.104828
794.112375	6915.505258
794.434464	7050.983747
794.756507	7091.504541
795.078505	7217.528346
795.400457	7491.535223
795.722364	7824.747930
796.044226	8114.546221
796.366042	8398.259838
796.687812	8370.793112
797.009538	8461.543963
797.331218	8384.668888
797.652852	8310.826066
797.974442	8160.077922
798.295986	8084.904236
798.617484	7895.487921
798.938938	7763.442458
799.260346	7664.262797
799.581709	7463.110677
799.903026	7392.378247
800.224299	7286.919829
800.545526	7117.582430
800.866708	7026.793770
801.187845	6953.765095
801.508936	6852.969744
801.829983	6814.104969
802.150984	6670.885788
802.471940	6626.001875
802.792851	6609.328258
803.113717	6577.657209
803.434538	6549.469597
803.755314	6494.359704
804.076045	6490.672100
804.396731	6435.163955
804.717372	6454.101049
805.037967	6460.475588
805.358518	6495.892214
805.679024	6579.650986
805.999485	6585.735658
806.319901	6621.013653
806.640272	6641.964688
806.960598	6727.636577
807.280879	6729.121197
807.601115	6803.281611
807.921306	6749.101810
808.241453	6764.003461
808.561554	6791.308871
808.881611	6757.775116
809.201623	6765.747700
809.521590	6717.705504
809.841513	6696.971238
810.161390	6734.288380
810.481223	6602.215190
810.801011	6593.123469
811.120755	6570.367701
811.440453	6491.370299
811.760107	6461.277132
812.079716	6435.910045
812.399281	6371.239603
812.718801	6358.039342
813.038276	6314.264482
813.357707	6251.434062
813.677093	6293.673890
813.996434	6197.707964
814.315731	6235.367904
814.634983	6221.988682
814.954191	6227.070165
815.273354	6327.794939
815.592473	6384.298712
815.911547	6498.609396
816.230577	6578.478917
816.549562	6713.125616
816.868502	6812.607746
817.187399	6899.996148
817.506250	7041.370266
817.825058	7064.446148
818.143821	7303.797612
818.462539	7535.148765
818.781213	7859.219340
819.099843	8334.080909
819.418429	9226.652485
819.736970	10109.736610
820.055466	11186.212000
820.373919	12525.611289
820.692327	14497.254449
821.010691	17763.423067
821.329011	25102.047490
821.647286	36598.338343
821.965517	50379.610314
822.283704	57947.622361
822.601847	61172.375379
822.919945	58937.004256
823.237999	54999.641291
823.556010	48967.930961
823.873976	42389.978844
824.191897	35996.023802
824.509775	31239.390158
824.827609	26672.233323
825.145398	23910.041458
825.463144	22252.310947
825.780845	22158.916011
826.098502	23379.109655
826.416116	26620.690045
826.733685	30285.765167
827.051210	32047.434187
827.368692	31132.711781
827.686129	27685.996758
828.003522	23730.266350
828.320872	20070.953267
828.638177	17223.792753
828.955439	15064.033896
829.272656	13268.556378
829.589830	11803.458438
829.906960	10534.836950
830.224046	9566.804341
830.541088	8803.228330
830.858086	8318.864186
831.175041	7924.643435
831.491952	7771.248685
831.808819	7758.212261
832.125642	8053.336531
832.442421	8740.208866
832.759157	10199.118789
833.075849	12721.939025
833.392497	15802.230219
833.709101	18230.465806
834.025662	18591.825796
834.342179	17275.512471
834.658653	15243.103243
834.975083	13361.926109
835.291469	11730.810370
835.607811	10422.434342
835.924110	9529.721613
836.240366	8675.482971
836.556578	7884.243628
836.872746	7240.097592
837.188871	6734.782413
837.504952	6302.856351
837.820990	5993.163147
838.136984	5767.861379
838.452935	5652.413915
838.768842	5635.914218
839.084706	5908.622997
839.400526	6862.951229
839.716303	8336.672062
840.032037	9555.305469
840.347727	9772.085167
840.663373	8986.817071
840.978977	7969.456772
841.294537	7146.475803
841.610054	6548.917591
841.925527	6116.497497
842.240957	5764.844248
842.556344	5441.688643
842.871687	5169.032796
843.186987	4893.236310
843.502244	4662.296011
843.817458	4494.201257
844.132629	4357.696893
844.447756	4265.897481
844.762840	4189.445863
845.077881	4108.991568
845.392879	4049.480747
845.707833	4004.458202
846.022745	3962.082262
846.337613	3933.824075
846.652438	3890.596180
846.967221	3874.149416
847.281960	3842.024663
847.596656	3827.831294
847.911309	3807.273469
848.225919	3783.335550
848.540485	3765.472221
848.855009	3753.070983
849.169490	3737.776122
849.483928	3721.727609
849.798323	3711.700754
850.112675	3693.217363
850.426984	3702.077191
850.741251	3689.688556
851.055474	3681.607586
851.369654	3685.968184
851.683792	3681.814273
851.997887	3687.598997
852.311938	3690.875747
852.625947	3693.892878
852.939914	3680.904345
853.253837	3694.245759
853.567718	3691.039585
853.881555	3683.117412
854.195350	3694.747353
854.509103	3691.321889
854.822812	3688.597146
855.136479	3681.927699
855.450103	3689.827187
855.763685	3677.340249
856.077224	3680.009540
856.390720	3694.840615
856.704173	3710.337122
857.017584	3722.004872
857.330953	3731.930904
857.644278	3756.519132
857.957561	3759.566510
858.270802	3764.292591
858.584000	3763.735544
858.897155	3759.972323
859.210268	3743.301227
859.523339	3721.309193
859.836367	3725.286663
860.149352	3714.052452
860.462295	3708.459292
860.775195	3695.558979
861.088054	3691.740305
861.400869	3689.610418
861.713642	3688.385417
862.026373	3696.320193
862.339062	3701.021069
862.651708	3717.971949
862.964312	3751.437649
863.276873	3761.459463
863.589392	3807.948984
863.901869	3852.543031
864.214303	3897.142119
864.526696	3928.782921
864.839045	3970.831185
865.151353	3997.370339
865.463619	4007.508100
865.775842	4015.715098
866.088023	4031.748488
866.400162	4026.097355
866.712258	4032.401317
867.024313	4034.944580
867.336325	4034.163201
867.648296	4040.373902
867.960224	4035.791493
868.272110	4046.851785
868.583954	4045.556208
868.895755	4059.759659
869.207515	4054.748752
869.519233	4092.539762
869.830909	4104.812451
870.142542	4125.821460
870.454134	4137.942914
870.765684	4168.661185
871.077191	4201.237122
871.388657	4219.786047
871.700081	4259.217953
872.011463	4293.999393
872.322803	4326.416533
872.634101	4355.226728
872.945357	4395.934045
873.256571	4443.971200
873.567744	4473.504800
873.878874	4491.617665
874.189963	4527.122512
874.501010	4541.361251
874.812015	4536.892268
875.122979	4580.397426
875.433900	4575.714194
875.744780	4586.121656
876.055618	4610.339359
876.366415	4612.827168
876.677169	4628.353922
876.987882	4667.606867
877.298554	4712.377354
877.609183	4777.791366
877.919771	4871.236715
878.230317	4993.721630
878.540822	5171.979350
878.851285	5447.370023
879.161707	5833.860165
879.472087	6458.691020
879.782425	7455.858977
880.092722	9244.911545
880.402977	12038.605580
880.713191	15476.727956
881.023363	19093.821376
881.333494	21510.933657
881.643583	22927.112240
881.953631	23149.170025
882.263637	22500.108865
882.573602	21235.590875
882.883526	19825.872531
883.193408	18282.455226
883.503248	16713.202007
883.813048	15270.365803
884.122806	13935.006999
884.432522	12511.969926
884.742197	11324.702578
885.051831	10270.955231
885.361424	9295.595305
885.670975	8486.540525
885.980485	7815.033627
886.289954	7255.624346
886.599382	6790.114118
886.908768	6419.657365
887.218113	6064.742491
887.527417	5786.044821
887.836680	5526.165778
888.145901	5315.311957
888.455082	5158.514428
888.764221	5001.578268
889.073319	4871.720665
889.382376	4802.603926
889.691392	4737.593206
890.000366	4710.209658
890.309300	4688.636040
890.618193	4691.880022
890.927044	4675.899565
891.235855	4691.786761
891.544625	4712.790729
891.853353	4759.776803
892.162041	4855.505794
892.470687	5011.443806
892.779293	5224.049428
893.087858	5531.106109
893.396381	6012.798441
893.704864	6678.329052
894.013306	7680.515477
894.321707	8787.641082
894.630068	9667.508951
894.938387	10003.637966
895.246665	9883.547599
895.554903	9372.382161
895.863100	8735.387002
896.171256	8217.726037
896.479371	7734.239054
896.787446	7265.378979
897.095480	6851.076791
897.403473	6544.642693
897.711425	6245.440130
898.019336	5996.447459
898.327207	5736.888530
898.635038	5518.518348
898.942827	5279.118993
899.250576	5091.530097
899.558284	4899.545314
899.865952	4781.423518
900.173579	4638.622753
900.481165	4533.880179
900.788711	4447.182415
901.096216	4372.364130
901.403681	4305.924243
901.711105	4279.826189
902.018489	4257.854320
902.325832	4306.377947
902.633135	4392.662336
902.940397	4643.197600
903.247619	5246.656483
903.554800	6414.134781
903.861941	8129.503324
904.169041	9673.530609
904.476101	10492.700465
904.783121	10361.388490
905.090100	9747.590200
905.397039	8983.883119
905.703938	8272.788040
906.010796	7614.032740
906.317614	7100.802950
906.624391	6592.435352
906.931129	6186.055337
907.237826	5806.970650
907.544483	5460.943330
907.851099	5105.715903
908.157675	4764.460035
908.464211	4448.046973
908.770707	4211.329512
909.077163	4014.285931
909.383578	3864.684650
909.689954	3745.806680
909.996289	3674.287831
910.302584	3608.210907
910.608839	3577.626226
910.915054	3546.108932
911.221229	3530.143598
911.527363	3538.123745
911.833458	3548.090106
912.139513	3569.494845
912.445527	3590.662650
912.751502	3657.679749
913.057436	3744.536309
913.363331	3857.445553
913.669186	4027.665153
913.975000	4240.200200
914.280775	4589.748766
914.586510	5078.216409
914.892205	5752.531230
915.197859	6660.364900
915.503475	7763.744927
915.809050	8798.164491
916.114585	9496.767591
916.420081	9848.572074
916.725536	9889.269309
917.030952	9527.468218
917.336328	9178.048201
917.641665	8812.499012
917.946961	8373.049028
918.252218	7986.079977
918.557435	7505.405957
918.862612	7116.007070
919.167750	6764.215190
919.472848	6370.899325
919.777906	6022.457292
920.082925	5673.420403
920.387904	5322.218338
920.692843	5063.413061
920.997743	4822.493798
921.302603	4592.365125
921.607423	4436.079273
921.912204	4276.771250
922.216946	4168.812420
922.521647	4052.235737
922.826310	3952.312506
923.130932	3863.678939
923.435516	3771.904734
923.740059	3705.898386
924.044564	3631.243938
924.349028	3576.955753
924.653454	3514.904190
924.957840	3448.590332
925.262186	3405.790936
925.566493	3347.931092
925.870761	3295.886220
926.174989	3259.302567
926.479178	3226.930797
926.783328	3186.397400
927.087438	3160.122906
927.391509	3129.926394
927.695541	3099.528237
927.999533	3073.606623
928.303486	3052.380845
928.607400	3038.946170
928.911275	3028.130375
929.215110	3008.903414
929.518906	3001.714728
929.822663	3000.502331
930.126381	2998.284223
930.430060	3004.525172
930.733699	3003.355624
931.037299	3014.738549
931.340861	3010.607324
931.644383	3020.787934
931.947866	3019.205012
932.251309	3014.801564
932.554714	3014.587315
932.858080	3011.335771
933.161407	2998.959738
933.464694	2996.240035
933.767943	2988.496823
934.071153	2984.209322
934.374323	2976.266984
934.677455	2970.540233
934.980548	2962.492031
935.283602	2958.176803
935.586617	2953.153293
935.889593	2963.717031
936.192530	2965.521764
936.495428	2974.787405
936.798287	2991.327431
937.101108	3017.238962
937.403890	3063.776373
937.706632	3114.213118
938.009336	3187.629962
938.312002	3255.854417
938.614628	3321.212977
938.917216	3370.228116
939.219765	3403.479567
939.522275	3436.806635
939.824747	3443.201338
940.127179	3439.395267
940.429573	3432.766150
940.731929	3437.724125
941.034246	3423.346754
941.336524	3414.756628
941.638763	3398.554359
941.940964	3388.348543
942.243126	3350.950743
942.545250	3332.953824
942.847335	3296.491158
943.149381	3262.380191
943.451389	3233.874987
943.753359	3202.004812
944.055290	3177.366173
944.357182	3151.268119
944.659036	3138.319915
944.960851	3128.252731
945.262628	3113.124228
945.564367	3117.850310
945.866067	3108.723301
946.167729	3105.386057
946.469352	3104.148454
946.770937	3099.238370
947.072484	3085.249168
947.373992	3087.598346
947.675462	3087.124477
947.976893	3069.510686
948.278286	3060.323183
948.579641	3054.684653
948.880958	3044.004968
949.182236	3052.998387
949.483476	3039.445244
949.784678	3039.888866
950.085841	3042.336346
950.386967	3050.109805
950.688054	3064.028431
950.989103	3080.994434
951.290114	3098.318360
951.591087	3123.934983
951.892021	3147.895587
952.192917	3176.579752
952.493776	3201.283927
952.794596	3210.317675
953.095378	3218.867472
953.396122	3215.925958
953.696828	3211.373796
953.997496	3200.245449
954.298126	3183.649971
954.598718	3163.389573
954.899272	3143.908034
955.199788	3119.037502
955.500266	3088.692276
955.800706	3058.251269
956.101108	3021.299611
956.401472	2995.088132
956.701798	2962.166877
957.002087	2924.562389
957.302337	2899.185221
957.602550	2872.426776
957.902724	2846.285873
958.202861	2821.546411
958.502960	2802.679892
958.803022	2777.945471
959.103045	2762.141454
959.403031	2744.099164
959.702979	2734.833523
960.002889	2720.360371
960.302762	2710.958619
960.602596	2698.786753
960.902393	2689.200999
961.202153	2681.659432
961.501875	2674.001920
961.801559	2667.153512
962.101205	2662.966834
962.400814	2657.592964
962.700385	2650.426964
962.999918	2645.668115
963.299414	2639.467495
963.598873	2639.036477
963.898293	2629.092801
964.197677	2632.825775
964.497022	2633.047586
964.796331	2627.177162
965.095601	2625.632049
965.394835	2624.235649
965.694030	2621.999897
965.993189	2618.060236
966.292309	2619.791872
966.591393	2618.955040
966.890439	2617.755246
967.189447	2620.071656
967.488419	2616.308435
967.787353	2617.805657
968.086249	2619.254989
968.385108	2620.434619
968.683930	2622.962758
968.982714	2626.103397
969.281462	2631.184880
969.580172	2632.997174
969.878844	2637.645118
970.177480	2645.479071
970.476078	2654.994249
970.774639	2661.041113
971.073162	2667.944973
971.371649	2672.663493
971.670098	2677.094668
971.968510	2684.585822
972.266885	2687.494568
972.565223	2692.268541
972.863524	2696.954293
973.161788	2699.553008
973.460014	2701.763554
973.758204	2703.427135
974.056356	2705.683051
974.354471	2709.368135
974.652550	2708.526262
974.950591	2705.277238
975.248595	2704.271528
975.546563	2705.100798
975.844493	2700.962011
976.142386	2695.971268
976.440243	2689.916842
976.738062	2685.102541
977.035845	2681.054494
977.333590	2675.113494
977.631299	2670.916734
977.928971	2665.837771
978.226606	2657.219919
978.524204	2655.987357
978.821765	2651.571306
979.119290	2654.928714
979.416777	2653.403765
979.714228	2656.839312
980.011642	2657.139260
980.309020	2664.123779
980.606360	2675.234482
980.903664	2691.882892
981.200931	2721.625700
981.498162	2763.593306
981.795356	2823.454487
982.092513	2897.970303
982.389633	2991.017400
982.686717	3084.598859
982.983764	3160.919408
983.280775	3215.318499
983.577749	3229.887434
983.874686	3221.108264
984.171587	3199.983309
984.468451	3165.060716
984.765279	3127.307515
985.062070	3085.027357
985.358824	3046.883467
985.655543	2992.043275
985.952224	2949.702624
986.248869	2887.381359
986.545478	2834.986127
986.842050	2781.000410
987.138586	2734.916702
987.435086	2699.542926
987.731549	2670.967145
988.027975	2646.804895
988.324366	2629.463326
988.620719	2614.654936
988.917037	2603.037597
989.213318	2594.961669
989.509563	2589.567634
989.805772	2580.581777
990.101944	2579.565985
990.398080	2576.047259
990.694180	2577.385686
990.990244	2575.512897
991.286271	2576.558937
991.582262	2576.349729
991.878217	2576.112794
992.174136	2580.158320
992.470019	2582.542786
992.765865	2585.098651
993.061676	2586.469845
993.357450	2596.521906
993.653188	2602.183122
993.948890	2619.345730
994.244556	2634.784263
994.540186	2652.924856
994.835780	2678.851510
995.131337	2714.769731
995.426859	2748.563106
995.722345	2791.231432
996.017795	2839.472754
996.313208	2875.446428
996.608586	2903.533216
996.903928	2920.773962
997.199234	2924.912750
997.494504	2922.835794
997.789738	2911.354566
998.084936	2888.921432
998.380099	2863.148533
998.675225	2836.364882
998.970316	2810.108032
999.265371	2776.644853
999.560390	2743.859709
999.855373	2717.035730
1000.150320	2688.008766
1000.445232	2665.779798
1000.740108	2644.831283
1001.034948	2626.625156
1001.329752	2612.149483
1001.624521	2603.461054
1001.919254	2588.473704
1002.213951	2580.780903
1002.508613	2572.707495
1002.803239	2568.888821
1003.097829	2564.071998
1003.392384	2557.354661
1003.686903	2554.254351
1003.981386	2548.943496
1004.275834	2547.645399
1004.570246	2546.969884
1004.864623	2541.563247
1005.158964	2539.766075
1005.453270	2536.683410
1005.747540	2537.018646
1006.041775	2536.043183
1006.335974	2534.392205
1006.630138	2534.251053
1006.924266	2534.493028
1007.218359	2531.632173
1007.512416	2528.962883
1007.806438	2525.348375
1008.100425	2528.584796
1008.394376	2525.144208
1008.688292	2530.213089
1008.982172	2530.016484
1009.276017	2527.609333
1009.569827	2525.197141
1009.863602	2527.158149
1010.157341	2526.182686
1010.451045	2524.786287
1010.744714	2524.146060
1011.038347	2525.618077
1011.331945	2524.645134
1011.625508	2522.825278
1011.919036	2518.426871
1012.212528	2522.611029
1012.505986	2520.382839
1012.799408	2520.150946
1013.092795	2520.108096
1013.386147	2519.309073
1013.679464	2518.497447
1013.972745	2517.516943
1014.265992	2518.570544
1014.559204	2517.111130
1014.852380	2517.564834
1015.145521	2519.009124
1015.438628	2517.910153
1015.731699	2518.822602
1016.024736	2518.726820
1016.317737	2519.104906
1016.610703	2521.736388
1016.903635	2520.891995
1017.196531	2523.931811
1017.489393	2524.972809
1017.782219	2525.487007
1018.075011	2527.569003
1018.367768	2527.621936
1018.660490	2529.840043
1018.953177	2529.840043
1019.245829	2529.840043
