Dividing Wavelength (nm)	Counts (n)	Blue Motor Position (mm): 5.000000	Red Motor Position (mm): 0.000000	
326.493990	2067.604044
326.888308	2067.604044
327.282561	2067.604044
327.676750	2043.482123
328.070874	2044.049253
328.464933	2051.164842
328.858929	2060.591799
329.252859	2070.134703
329.646726	2081.873030
330.040528	2098.718046
330.434265	2114.390993
330.827938	2136.108284
331.221547	2156.708959
331.615091	2178.237207
332.008571	2197.915351
332.401986	2216.255068
332.795338	2237.768192
333.188625	2257.229567
333.581847	2273.353697
333.975006	2293.621656
334.368100	2311.525314
334.761129	2329.005515
335.154095	2344.370952
335.546996	2358.778570
335.939833	2369.755682
336.332606	2385.751263
336.725315	2398.129817
337.117960	2408.479306
337.510540	2417.686973
337.903056	2427.555032
338.295508	2434.748758
338.687896	2440.467947
339.080220	2446.361056
339.472480	2452.468414
339.864676	2454.454629
340.256807	2457.723817
340.648875	2458.240535
341.040879	2458.787500
341.432818	2460.536781
341.824694	2462.951493
342.216506	2460.327573
342.608253	2459.702470
342.999937	2460.650207
343.391557	2462.061730
343.783113	2459.780608
344.174605	2459.984774
344.566033	2454.389094
344.957397	2456.944959
345.348697	2455.914043
345.739934	2450.356171
346.131106	2449.864658
346.522215	2446.356015
346.913260	2447.621345
347.304241	2443.981632
347.695159	2441.856785
348.086012	2441.733277
348.476802	2438.080961
348.867528	2435.779674
349.258191	2435.446958
349.648789	2433.785898
350.039324	2429.947059
350.429796	2433.372523
350.820203	2434.647935
351.210548	2432.465116
351.600828	2432.278593
351.991045	2431.136772
352.381198	2429.057296
352.771288	2430.678027
353.161314	2429.221133
353.551276	2432.087029
353.941175	2429.218613
354.331010	2429.271545
354.720782	2427.852460
355.110490	2434.317740
355.500135	2428.245670
355.889717	2431.408994
356.279235	2430.640218
356.668689	2434.151382
357.058080	2433.483429
357.447408	2435.565425
357.836672	2433.042328
358.225873	2431.308171
358.615010	2432.109714
359.004084	2435.993923
359.393095	2434.852102
359.782043	2434.794129
360.170927	2436.939140
360.559748	2436.366969
360.948505	2435.280600
361.337199	2437.793615
361.725830	2437.947370
362.114398	2437.286979
362.502903	2438.151537
362.891344	2438.093564
363.279722	2439.711774
363.668037	2438.635488
364.056289	2440.183122
364.444478	2441.024995
364.832603	2440.183122
365.220665	2442.663370
365.608665	2442.693617
365.996601	2442.282763
366.384474	2440.352001
366.772284	2438.942998
367.160031	2443.520366
367.547715	2445.778803
367.935336	2443.028853
368.322893	2446.015737
368.710388	2438.746393
369.097820	2443.359049
369.485189	2442.365942
369.872495	2446.439194
370.259738	2444.417691
370.646918	2446.144287
371.034035	2445.851900
371.421090	2445.473813
371.808081	2443.900973
372.195010	2445.942640
372.581875	2444.130346
372.968678	2447.165120
373.355418	2445.156220
373.742096	2447.349122
374.128710	2447.112188
374.515262	2449.090841
374.901751	2448.037240
375.288177	2448.145625
375.674540	2449.111006
376.060841	2449.892384
376.447079	2449.176541
376.833254	2447.817950
377.219367	2450.025975
377.605417	2449.554627
377.991404	2447.182764
378.377329	2448.251489
378.763191	2449.466407
379.148991	2450.235183
379.534727	2449.206787
379.920402	2450.209977
380.306013	2452.097889
380.691563	2451.760132
381.077049	2451.354319
381.462474	2449.342899
381.847835	2450.267950
382.233134	2453.597633
382.618371	2450.774586
383.003545	2449.791561
383.388657	2452.110492
383.773706	2450.585543
384.158693	2452.647375
384.543618	2453.640482
384.928480	2452.080245
385.313280	2451.056891
385.698017	2456.400514
386.082692	2452.586881
386.467305	2455.606532
386.851856	2454.971347
387.236344	2456.768518
387.620770	2452.700307
388.005133	2450.910697
388.389435	2452.574278
388.773674	2450.976232
389.157851	2456.844136
389.541965	2458.883282
389.926018	2459.158025
390.310008	2457.446553
390.693936	2453.620318
391.077802	2456.584516
391.461606	2456.198868
391.845348	2459.715073
392.229027	2458.144753
392.612645	2459.410083
392.996200	2458.311111
393.379694	2457.686008
393.763125	2460.201544
394.146494	2460.428396
394.529801	2458.825309
394.913047	2458.684157
395.296230	2457.857408
395.679351	2460.927470
396.062410	2458.830350
396.445408	2459.344548
396.828343	2459.009311
397.211217	2457.985957
397.594028	2456.997891
397.976778	2457.756584
398.359466	2459.982254
398.742092	2460.256997
399.124656	2459.856225
399.507158	2459.833540
399.889598	2462.313788
400.271977	2458.444702
400.654294	2462.575927
401.036549	2459.306739
401.418742	2460.488890
401.800874	2461.897892
402.182944	2461.368571
402.564952	2461.822275
402.946898	2462.875876
403.328783	2462.664148
403.710606	2463.248922
404.092367	2461.988633
404.474067	2464.433593
404.855705	2464.332770
405.237282	2463.684981
405.618797	2465.645990
406.000250	2465.197327
406.381642	2463.992492
406.762972	2460.723303
407.144240	2460.861935
407.525447	2464.022739
407.906593	2459.314301
408.287677	2466.470219
408.668700	2466.208079
409.049661	2465.950980
409.430560	2465.414097
409.811399	2466.089612
410.192176	2465.111628
410.572891	2467.155816
410.953545	2464.426031
411.334138	2464.751185
411.714669	2463.727831
412.095139	2464.872173
412.475547	2463.017028
412.855894	2464.166412
413.236180	2465.885445
413.616405	2467.244036
413.996568	2465.898048
414.376670	2467.138172
414.756711	2464.902420
415.136691	2468.196814
415.516609	2467.337297
415.896466	2468.617750
416.276262	2468.358131
416.655997	2468.781588
417.035670	2467.632205
417.415283	2469.956177
417.794834	2465.434262
418.174324	2467.284365
418.553753	2467.007102
418.933121	2469.532720
419.312428	2468.244705
419.691674	2467.914509
420.070859	2471.002216
420.449983	2471.508852
420.829045	2470.664459
421.208047	2470.911475
421.586988	2468.365693
421.965867	2471.604634
422.344686	2471.024901
422.723444	2471.529017
423.102141	2470.117494
423.480777	2468.426187
423.859352	2469.956177
424.237866	2470.603965
424.616319	2469.237812
424.994712	2473.464820
425.373044	2470.661938
425.751314	2469.353759
426.129524	2465.088943
426.507673	2469.252936
426.885762	2468.985755
427.263789	2471.743266
427.641756	2468.186732
428.019662	2471.123204
428.397508	2470.808132
428.775292	2473.888277
429.153016	2473.984059
429.530679	2472.212093
429.908282	2472.708647
430.285824	2472.325519
430.663305	2472.345684
431.040726	2470.561115
431.418086	2473.250571
431.795385	2471.060189
432.172624	2474.026908
432.549802	2474.382310
432.926920	2471.536578
433.303977	2472.998513
433.680974	2473.333750
434.057910	2471.420632
434.434786	2473.515231
434.811601	2475.501446
435.188355	2472.418780
435.565050	2475.130921
435.941683	2473.384161
436.318257	2474.959522
436.694770	2473.127062
437.071222	2471.541620
437.447614	2474.457927
437.823946	2474.588997
438.200218	2472.731332
438.576429	2477.626292
438.952580	2474.422639
439.328670	2474.616723
439.704700	2471.997844
440.080670	2473.250571
440.456580	2474.931796
440.832429	2473.303503
441.208218	2475.672845
441.583947	2473.658904
441.959616	2473.759727
442.335224	2477.197794
442.710773	2475.824080
443.086261	2474.455407
443.461689	2477.843062
443.837057	2476.368524
444.212365	2476.113946
444.587612	2473.104377
444.962800	2473.651343
445.337927	2474.387351
445.712995	2467.642287
446.088002	2477.555716
446.462949	2471.244192
446.837837	2476.918010
447.212664	2475.443473
447.587431	2475.332567
447.962139	2477.230562
448.336786	2478.899184
448.711374	2476.131590
449.085901	2478.644605
449.460369	2475.254429
449.834776	2476.817187
450.209124	2477.074286
450.583412	2476.378607
450.957640	2479.433546
451.331808	2478.654688
451.705917	2477.520428
452.079965	2477.555716
452.453954	2475.624954
452.827883	2479.441108
453.201752	2477.192753
453.575562	2478.430356
453.949311	2480.628299
454.323001	2476.287866
454.696632	2479.685604
455.070202	2475.856847
455.443713	2478.750470
455.817164	2479.793988
456.190556	2479.491519
456.563888	2481.238279
456.937160	2479.670480
457.310373	2479.347846
457.683526	2475.090592
458.056619	2479.178968
458.429653	2478.440439
458.802628	2481.230717
459.175542	2478.558906
459.548398	2479.630151
459.921194	2479.015130
460.293930	2479.640233
460.666607	2480.025882
461.039224	2480.277939
461.411782	2480.247692
461.784280	2479.211735
462.156719	2480.129225
462.529099	2482.216263
462.901419	2479.531848
463.273680	2480.633341
463.645882	2476.459265
464.018024	2477.381796
464.390106	2475.871971
464.762130	2481.132415
465.134094	2480.098978
465.505999	2480.260295
465.877845	2478.727784
466.249631	2480.401448
466.621358	2478.105202
466.993026	2480.656026
467.364634	2482.949751
467.736184	2481.266005
468.107674	2481.318938
468.479105	2479.630151
468.850477	2482.377580
469.221790	2481.263485
469.593043	2478.475727
469.964238	2480.209884
470.335373	2482.054946
470.706449	2482.125522
471.077467	2482.962354
471.448425	2482.793475
471.819324	2481.281129
472.190164	2482.170893
472.560945	2481.112250
472.931667	2480.610655
473.302330	2481.069400
473.672934	2484.530153
474.043479	2479.773824
474.413965	2479.935141
474.784393	2479.010089
475.154761	2483.224494
475.525070	2479.857003
475.895321	2482.208701
476.265513	2480.809781
476.635645	2482.100316
477.005719	2484.928404
477.375734	2480.706437
477.745691	2484.149545
478.115588	2482.591829
478.485427	2482.067549
478.855207	2484.008393
479.224928	2482.138125
479.594591	2483.985708
479.964194	2480.577888
480.333739	2483.836994
480.703226	2481.681901
481.072653	2482.405306
481.442022	2485.084679
481.811333	2479.914976
482.180584	2481.659215
482.549777	2479.683083
482.918912	2478.226190
483.287988	2483.753815
483.657005	2483.456387
484.025964	2486.062663
484.394864	2481.538228
484.763706	2485.339258
485.132489	2483.002683
485.501213	2483.592498
485.869879	2482.695173
486.238487	2484.691469
486.607036	2482.727940
486.975527	2485.329175
487.343959	2483.327837
487.712333	2483.567292
488.080648	2486.062663
488.448905	2482.364977
488.817104	2483.816829
489.185244	2484.661222
489.553326	2484.046202
489.921350	2485.740029
490.289315	2485.147694
490.657222	2484.368836
491.025070	2485.031747
491.392861	2486.037458
491.760593	2484.923363
492.128267	2485.674494
492.495883	2483.773979
492.863440	2486.697849
493.230939	2484.764566
493.598380	2484.706593
493.965763	2484.893116
494.333088	2483.216932
494.700354	2482.246510
495.067563	2486.108034
495.434713	2484.575523
495.801805	2485.881182
496.168839	2482.548979
496.535815	2487.184320
496.902733	2485.866058
497.269593	2485.495533
497.636395	2482.811119
498.003139	2485.346819
498.369825	2484.706593
498.736453	2483.040492
499.103023	2486.849083
499.469535	2484.111737
499.835989	2485.853455
500.202385	2483.068218
500.568723	2480.913125
500.935003	2483.605101
501.301226	2478.964719
501.667390	2486.639875
502.033497	2484.109216
502.399546	2485.959320
502.765537	2484.023517
503.131470	2484.573002
503.497345	2485.054432
503.863163	2485.697180
504.228923	2486.070225
504.594625	2482.730461
504.960269	2485.838332
505.325856	2487.665750
505.691385	2486.289515
506.056856	2485.732468
506.422270	2485.760194
506.787625	2487.363281
507.152924	2484.593167
507.518164	2486.609628
507.883347	2486.186172
508.248472	2486.629793
508.613540	2484.807416
508.978550	2488.595843
509.343503	2484.930924
509.708398	2486.675163
510.073236	2486.770945
510.438016	2485.508136
510.802738	2486.710452
511.167403	2485.253558
511.532010	2485.170379
511.896561	2486.241624
512.261053	2483.710965
512.625488	2485.813126
512.989866	2489.599033
513.354186	2486.047540
513.718449	2485.838332
514.082655	2487.985863
514.446803	2489.462922
514.810894	2484.638537
515.174927	2486.609628
515.538904	2489.772953
515.902822	2487.494351
516.266684	2483.393372
516.630488	2485.230873
516.994235	2488.842860
517.357925	2486.745740
517.721558	2487.867396
518.085133	2485.661892
518.448651	2484.792293
518.812112	2483.433702
519.175516	2483.529483
519.538863	2481.634010
519.902152	2485.233393
520.265385	2485.369505
520.628560	2488.260606
520.991678	2485.959320
521.354739	2486.269351
521.717743	2486.286995
522.080690	2487.527118
522.443580	2485.971922
522.806413	2488.454691
523.169189	2485.132570
523.531908	2486.501244
523.894569	2486.002169
524.257174	2485.762715
524.619722	2485.989567
524.982213	2486.995277
525.344647	2486.786069
525.707025	2486.055102
526.069345	2489.407469
526.431608	2487.136429
526.793815	2488.910915
527.155964	2485.404793
527.518057	2489.470483
527.880093	2485.762715
528.242072	2486.609628
528.603995	2489.485607
528.965860	2488.963847
529.327669	2488.769763
529.689421	2484.636017
530.051117	2485.944196
530.412755	2488.363950
530.774337	2488.152222
531.135862	2485.677015
531.497331	2485.999649
531.858743	2486.455873
532.220098	2485.848414
532.581396	2485.518219
532.942638	2488.671460
533.303824	2487.174238
533.664953	2490.098107
534.026025	2488.487458
534.387040	2487.000318
534.747999	2486.380256
535.108902	2484.154587
535.469748	2487.184320
535.830537	2490.120792
536.191270	2484.593167
536.551947	2486.241624
536.912567	2483.146356
537.273131	2484.308342
537.633638	2484.583085
537.994089	2488.631131
538.354483	2487.353199
538.714821	2487.585092
539.075103	2488.585761
539.435328	2484.961171
539.795497	2489.082314
540.155609	2487.638024
540.515665	2488.643734
540.875665	2486.934783
541.235609	2488.006028
541.595496	2486.657519
541.955328	2487.015441
542.315102	2489.122644
542.674821	2490.690442
543.034483	2487.317911
543.394090	2489.752788
543.753640	2489.306646
544.113134	2487.537201
544.472571	2489.266317
544.831953	2487.670791
545.191278	2487.307828
545.550548	2488.147180
545.909761	2485.561068
546.268918	2487.910246
546.628019	2488.764722
546.987064	2489.911584
547.346053	2484.469659
547.704986	2487.879999
548.063863	2490.395535
548.422684	2490.110710
548.781449	2487.965699
549.140158	2486.856645
549.498811	2488.973930
549.857408	2485.102323
550.215949	2489.420072
550.574434	2487.285143
550.932864	2490.632469
551.291237	2488.459732
551.649555	2490.423261
552.007817	2491.239928
552.366022	2488.230359
552.724173	2488.729434
553.082267	2488.527787
553.440305	2488.464773
553.798288	2488.648775
554.156215	2488.673981
554.514086	2485.321614
554.871902	2484.784731
555.229661	2488.608446
555.587365	2482.438074
555.945014	2488.913436
556.302606	2489.523415
556.660143	2487.466625
557.017625	2488.374032
557.375050	2487.317911
557.732421	2487.511995
558.089735	2490.196409
558.446994	2486.730616
558.804197	2487.980822
559.161345	2487.156594
559.518437	2490.377891
559.875474	2486.259268
560.232455	2489.354537
560.589381	2485.172900
560.946251	2487.829588
561.303065	2488.361429
561.659825	2487.612818
562.016528	2488.595843
562.373177	2489.127685
562.729770	2486.470997
563.086307	2490.380412
563.442789	2486.816316
563.799216	2488.666419
564.155587	2488.860504
564.511904	2486.607108
564.868164	2487.300267
565.224370	2486.400421
565.580520	2488.903353
565.936615	2489.314208
566.292654	2488.361429
566.648638	2489.740185
567.004567	2487.093579
567.360441	2489.904022
567.716260	2490.957624
568.072023	2487.325472
568.427732	2490.221615
568.783385	2488.774804
569.138982	2490.002325
569.494525	2489.493168
569.850013	2489.926708
570.205445	2488.565596
570.560823	2489.838487
570.916145	2488.182468
571.271412	2489.601553
571.626625	2491.149187
571.981782	2488.366471
572.336884	2489.657006
572.691931	2485.152735
573.046923	2485.061994
573.401860	2485.437560
573.756743	2488.326141
574.111570	2488.303456
574.466342	2491.580206
574.821059	2488.507623
575.175722	2487.466625
575.530330	2486.370174
575.884882	2489.730103
576.239380	2490.022490
576.593823	2489.205823
576.948211	2487.511995
577.302544	2489.147849
577.656823	2487.554845
578.011047	2488.661378
578.365216	2489.228508
578.719330	2490.143477
579.073389	2488.008549
579.427394	2487.416213
579.781344	2489.233549
580.135239	2489.155411
580.489080	2489.934269
580.842866	2489.349496
581.196597	2492.734630
581.550273	2488.941162
581.903895	2488.772283
582.257463	2486.450832
582.610975	2490.627428
582.964434	2489.488127
583.317837	2485.740029
583.671186	2491.164311
584.024481	2489.629280
584.377721	2487.645586
584.730906	2489.493168
585.084037	2489.016779
585.437113	2487.993425
585.790135	2489.815802
586.143103	2487.143991
586.496016	2489.188179
586.848874	2489.631800
587.201679	2491.134064
587.554428	2486.889413
587.907124	2488.946203
588.259765	2489.576348
588.612352	2488.152222
588.964884	2489.790597
589.317362	2488.333703
589.669786	2488.689104
590.022155	2486.763384
590.374470	2485.745071
590.726731	2488.187510
591.078937	2483.867241
591.431090	2488.870586
591.783188	2487.678353
592.135232	2488.973930
592.487222	2488.532829
592.839157	2488.840339
593.191038	2488.626090
593.542866	2489.165493
593.894639	2489.546101
594.246358	2490.299753
594.598022	2489.314208
594.949633	2489.591471
595.301190	2489.810761
595.652692	2488.207674
596.004141	2488.253045
596.355535	2491.008035
596.706876	2487.786738
597.058162	2487.953096
597.409395	2487.201964
597.760573	2489.384784
598.111698	2486.158445
598.462768	2487.630462
598.813785	2485.734988
599.164748	2490.309835
599.515657	2487.925370
599.866511	2488.363950
600.217312	2487.713641
600.568060	2488.174907
600.918753	2488.752119
601.269392	2490.468632
601.619978	2490.093066
601.970510	2486.634834
602.320988	2486.975112
602.671412	2490.093066
603.021783	2487.562407
603.372100	2487.201964
603.722363	2489.132726
604.072572	2489.636841
604.422728	2489.364619
604.772830	2490.161121
605.122878	2489.780514
605.472872	2489.730103
605.822813	2488.424444
606.172701	2488.474855
606.522534	2489.417551
606.872314	2488.064001
607.222041	2488.512664
607.571714	2489.717500
607.921333	2483.393372
608.270899	2486.576861
608.620411	2485.157776
608.969870	2490.826554
609.319276	2488.099289
609.668627	2489.094917
610.017926	2487.890082
610.367171	2489.387304
610.716362	2490.148518
611.065500	2485.843373
611.414585	2489.011738
611.763616	2491.451657
612.112594	2488.832777
612.461518	2488.762201
612.810389	2486.828919
613.159207	2488.931080
613.507971	2488.326141
613.856682	2489.750267
614.205340	2484.497385
614.553945	2491.411328
614.902496	2487.872438
615.250994	2487.423775
615.599439	2489.576348
615.947830	2489.488127
616.296169	2485.987046
616.644454	2490.387973
616.992686	2489.876296
617.340864	2487.622900
617.688990	2489.556183
618.037063	2488.593322
618.385082	2487.582571
618.733048	2489.830926
619.080961	2486.491161
619.428821	2488.366471
619.776628	2487.748929
620.124382	2487.232211
620.472083	2488.510143
620.819731	2489.828405
621.167326	2488.411841
621.514868	2490.120792
621.862357	2487.171717
622.209793	2488.560555
622.557176	2488.517705
622.904506	2485.099803
623.251783	2487.023003
623.599007	2487.428816
623.946179	2487.043168
624.293297	2489.523415
624.640363	2487.607777
624.987376	2486.697849
625.334336	2484.174751
625.681243	2488.552993
626.028097	2482.727940
626.374899	2488.966368
626.721647	2490.229177
627.068343	2489.848570
627.414987	2489.992243
627.761577	2487.249855
628.108115	2486.501244
628.454600	2492.495176
628.801032	2490.461070
629.147412	2489.777994
629.493739	2489.649444
629.840014	2487.474186
630.186236	2487.602736
630.532405	2487.375884
630.878521	2488.621049
631.224585	2488.429485
631.570597	2488.603405
631.916556	2487.789258
632.262462	2491.023159
632.608316	2486.859166
632.954117	2488.842860
633.299866	2488.910915
633.645562	2487.433857
633.991206	2488.381594
634.336797	2488.124495
634.682336	2489.914105
635.027823	2487.665750
635.373257	2486.720534
635.718639	2488.177427
636.063968	2489.142808
636.409245	2489.019300
636.754470	2491.519712
637.099642	2489.213384
637.444762	2491.345792
637.789829	2486.350009
638.134845	2489.084835
638.479808	2489.611636
638.824719	2490.178765
639.169577	2487.282623
639.514383	2488.938642
639.859137	2487.897643
640.203839	2489.014259
640.548489	2486.523929
640.893086	2492.336379
641.237632	2485.818167
641.582125	2489.878817
641.926566	2488.636172
642.270955	2486.478558
642.615292	2485.011583
642.959576	2488.598364
643.303809	2482.826242
643.647990	2490.844198
643.992118	2489.473004
644.336195	2487.965699
644.680219	2485.646768
645.024192	2489.641883
645.368112	2487.247334
645.711981	2488.527788
646.055797	2486.806233
646.399562	2488.815133
646.743274	2486.365133
647.086935	2487.539721
647.430544	2487.690956
647.774101	2491.255052
648.117606	2489.478045
648.461059	2488.618528
648.804460	2492.759836
649.147810	2489.082314
649.491108	2489.321769
649.834354	2489.160452
650.177548	2489.203302
650.520690	2491.789414
650.863781	2487.902684
651.206820	2488.878148
651.549807	2488.542911
651.892742	2489.435195
652.235626	2491.257572
652.578458	2487.544763
652.921238	2489.354537
653.263967	2489.228508
653.606644	2488.492499
653.949269	2487.718682
654.291843	2487.910246
654.634365	2487.101141
654.976836	2488.863024
655.319255	2487.658188
655.661622	2487.363281
656.003938	2486.256748
656.346203	2487.922849
656.688416	2489.052067
657.030577	2486.400421
657.372687	2486.806233
657.714746	2489.150370
658.056753	2488.139619
658.398708	2485.704741
658.740612	2488.926039
659.082465	2489.432675
659.424266	2484.739360
659.766016	2484.265492
660.107715	2487.723723
660.449362	2481.795327
660.790958	2488.386635
661.132503	2487.748929
661.473996	2489.662047
661.815438	2489.415031
662.156829	2484.517550
662.498168	2487.738847
662.839456	2487.280102
663.180693	2488.389156
663.521879	2488.646255
663.863013	2487.983343
664.204097	2487.925370
664.545129	2486.597026
664.886110	2489.702376
665.227040	2487.711121
665.567918	2488.938642
665.908746	2488.391676
666.249522	2487.292705
666.590248	2491.345792
666.930922	2488.542911
667.271545	2487.741368
667.612118	2486.730616
667.952639	2489.745226
668.293109	2489.152891
668.633528	2488.162304
668.973896	2488.522746
669.314213	2488.605925
669.654480	2486.297077
669.994695	2488.366471
670.334859	2488.119454
670.674973	2489.523415
671.015035	2488.006028
671.355047	2489.420072
671.695008	2490.103148
672.034918	2488.331183
672.374777	2490.057778
672.714585	2488.512664
673.054342	2488.260606
673.394049	2489.856132
673.733705	2489.987202
674.073310	2490.876965
674.412864	2487.960658
674.752368	2488.973930
675.091820	2488.840339
675.431223	2489.788076
675.770574	2489.236070
676.109875	2488.550473
676.449125	2486.929742
676.788324	2483.360605
677.127473	2487.426295
677.466571	2481.744915
677.805619	2489.107520
678.144616	2487.930411
678.483562	2490.665237
678.822458	2486.307159
679.161303	2488.656337
679.500098	2486.113075
679.838842	2486.864207
680.177535	2488.139619
680.516179	2489.004177
680.854771	2488.152222
681.193314	2489.727582
681.531805	2490.773622
681.870247	2489.669609
682.208638	2489.946872
682.546978	2486.987715
682.885268	2489.102479
683.223508	2489.291522
683.561697	2490.821513
683.899836	2487.960658
684.237925	2489.833446
684.575963	2489.861173
684.913951	2489.243631
685.251889	2489.306646
685.589776	2490.506440
685.927614	2486.435709
686.265401	2487.317911
686.603137	2489.936790
686.940824	2489.044506
687.278460	2487.998466
687.616046	2489.949393
687.953582	2487.922849
688.291068	2488.673981
688.628504	2486.649958
688.965889	2490.546770
689.303224	2490.047695
689.640510	2490.524084
689.977745	2490.123313
690.314930	2490.997953
690.652065	2492.366626
690.989150	2490.725731
691.326185	2491.562562
691.663170	2488.593322
692.000105	2487.796820
692.336990	2488.835298
692.673825	2490.176245
693.010610	2488.116933
693.347345	2487.244814
693.684030	2484.424288
694.020665	2485.566110
694.357251	2482.594349
694.693786	2488.777325
695.030272	2485.724906
695.366707	2490.070381
695.703093	2487.784217
696.039429	2490.549290
696.375716	2492.152377
696.711952	2487.514516
697.048139	2489.425113
697.384276	2487.270020
697.720363	2489.939311
698.056400	2489.193220
698.392388	2489.122644
698.728326	2489.861173
699.064214	2488.527788
699.400053	2487.300267
699.735842	2487.622900
700.071581	2488.071563
700.407270	2490.292191
700.742910	2489.117603
701.078501	2487.491830
701.414042	2491.928046
701.749533	2488.074084
702.084974	2485.971922
702.420366	2489.808241
702.755709	2485.011583
703.091002	2487.370843
703.426246	2487.093579
703.761440	2490.818992
704.096584	2488.381594
704.431679	2486.705410
704.766725	2487.176758
705.101721	2484.472179
705.436668	2491.807058
705.771565	2488.815133
706.106413	2487.902684
706.441212	2488.550473
706.775961	2491.708756
707.110661	2489.654485
707.445311	2488.295894
707.779913	2490.045175
708.114465	2487.595174
708.448967	2488.474855
708.783421	2489.914105
709.117825	2488.994094
709.452180	2488.951244
709.786485	2489.480566
710.120742	2488.230359
710.454949	2485.487972
710.789107	2487.000318
711.123216	2485.384628
711.457275	2487.645586
711.791286	2487.461583
712.125247	2490.095586
712.459159	2487.534680
712.793023	2488.263127
713.126837	2489.150370
713.460602	2489.828405
713.794318	2489.462922
714.127985	2488.474855
714.461602	2489.898981
714.795171	2490.171204
715.128691	2488.711790
715.462162	2486.375215
715.795584	2487.963178
716.128957	2488.313538
716.462281	2489.404948
716.795556	2490.519043
717.128782	2486.685246
717.461960	2488.971409
717.795088	2489.367140
718.128167	2488.429485
718.461198	2489.702376
718.794180	2489.588950
719.127113	2489.415031
719.459997	2488.134577
719.792833	2486.493682
720.125619	2487.653147
720.458357	2485.815647
720.791046	2492.754795
721.123686	2485.641727
721.456278	2488.278250
721.788821	2489.548621
722.121315	2488.003508
722.453761	2487.612818
722.786158	2487.224649
723.118506	2490.340082
723.450805	2487.693477
723.783056	2489.185658
724.115259	2487.859835
724.447412	2486.387818
724.779518	2490.450988
725.111574	2489.470483
725.443582	2489.830926
725.775542	2488.721872
726.107453	2489.150370
726.439315	2486.223980
726.771129	2490.234218
727.102895	2485.429998
727.434612	2486.440750
727.766281	2482.274236
728.097901	2488.600884
728.429473	2488.999135
728.760996	2487.353199
729.092471	2484.880513
729.423897	2488.684063
729.755276	2487.542242
730.086606	2489.709938
730.417887	2487.101141
730.749120	2488.742037
731.080305	2487.189361
731.411442	2488.016110
731.742530	2487.980822
732.073570	2488.293374
732.404562	2489.389825
732.735506	2489.019300
733.066401	2488.459732
733.397249	2489.571306
733.728048	2490.120792
734.058798	2489.160452
734.389501	2488.273209
734.720156	2488.636172
735.050762	2488.686584
735.381320	2486.155925
735.711831	2487.675832
736.042293	2490.806389
736.372707	2489.180617
736.703073	2486.692808
737.033391	2489.465442
737.363661	2489.543580
737.693883	2491.116420
738.024056	2491.025679
738.354182	2487.023003
738.684260	2488.487458
739.014290	2491.106338
739.344272	2490.309835
739.674207	2489.586430
740.004093	2491.640700
740.333931	2489.583909
740.663722	2490.929897
740.993464	2488.144660
741.323159	2487.068373
741.652806	2490.312356
741.982405	2487.383446
742.311956	2490.294712
742.641460	2489.694815
742.970915	2489.994763
743.300323	2485.982005
743.629683	2486.085348
743.958996	2486.710452
744.288260	2483.756335
744.617477	2489.629280
744.946647	2487.665750
745.275768	2488.855463
745.604842	2486.322283
745.933869	2490.508961
746.262847	2489.906543
746.591778	2487.350678
746.920662	2489.609115
747.249498	2489.341934
747.578286	2487.154073
747.907027	2490.347644
748.235720	2488.285812
748.564365	2489.271358
748.892963	2488.492499
749.221514	2490.188848
749.550017	2489.150370
749.878473	2488.643734
750.206881	2485.303970
750.535242	2488.522746
750.863555	2488.580720
751.191821	2489.173055
751.520039	2489.606594
751.848210	2490.264465
752.176334	2488.411841
752.504411	2488.689104
752.832440	2488.414362
753.160421	2489.518374
753.488356	2489.314208
753.816243	2491.459218
754.144082	2486.239104
754.471875	2486.775987
754.799620	2489.331852
755.127318	2489.465442
755.454969	2489.455360
755.782572	2488.177427
756.110129	2488.600884
756.437638	2487.559886
756.765100	2489.498210
757.092515	2486.685246
757.419882	2488.182468
757.747203	2486.163486
758.074477	2488.149701
758.401703	2490.130874
758.728882	2487.264978
759.056014	2490.153560
759.383099	2487.103662
759.710138	2484.961171
760.037129	2482.390183
760.364073	2489.541059
760.690970	2484.053763
761.017820	2489.377222
761.344623	2486.581902
761.671379	2488.724392
761.998088	2488.081645
762.324751	2488.631131
762.651366	2489.657006
762.977935	2489.649444
763.304456	2491.733961
763.630931	2494.912409
763.957359	2491.116420
764.283740	2493.384939
764.610074	2488.951244
764.936362	2492.782521
765.262602	2491.728920
765.588796	2489.152891
765.914943	2488.074084
766.241044	2490.030051
766.567097	2488.966368
766.893104	2486.665081
767.219064	2487.915287
767.544978	2488.235401
767.870845	2487.335555
768.196665	2488.535349
768.522438	2487.602736
768.848165	2490.135916
769.173846	2487.179279
769.499479	2489.636841
769.825066	2487.965699
770.150607	2489.493168
770.476101	2487.766573
770.801548	2488.346306
771.126949	2487.012921
771.452303	2486.839001
771.777611	2486.919659
772.102872	2486.526449
772.428087	2487.111223
772.753256	2487.295225
773.078378	2487.935452
773.403453	2486.891933
773.728482	2487.254896
774.053465	2485.261120
774.378401	2486.970071
774.703291	2487.401090
775.028135	2484.593167
775.352932	2486.886892
775.677683	2485.397231
776.002388	2484.615852
776.327046	2482.143166
776.651658	2484.404124
776.976224	2482.372539
777.300743	2484.648620
777.625216	2489.704897
777.949643	2487.166676
778.274024	2488.515185
778.598359	2488.253045
778.922647	2486.942345
779.246889	2486.818836
779.571086	2486.443270
779.895236	2484.993939
780.219339	2486.798672
780.543397	2488.119454
780.867409	2485.677015
781.191374	2488.074084
781.515294	2486.420585
781.839167	2486.876810
782.162995	2486.652478
782.486776	2486.405462
782.810511	2488.230359
783.134201	2486.712972
783.457844	2484.754484
783.781441	2485.409834
784.104993	2486.166007
784.428498	2487.123826
784.751958	2486.954948
785.075372	2486.236583
785.398739	2484.754484
785.722061	2487.340596
786.045337	2489.530977
786.368568	2486.859166
786.691752	2488.222798
787.014891	2485.034268
787.337983	2488.031234
787.661030	2487.690956
787.984031	2487.232211
788.306987	2486.276912
788.629897	2485.198105
788.952760	2486.443270
789.275579	2486.534011
789.598351	2485.994608
789.921078	2485.689618
790.243759	2486.781028
790.566395	2486.954947
790.888984	2486.632314
791.211529	2486.677684
791.534027	2485.067035
791.856480	2483.789103
792.178888	2483.927735
792.501249	2479.859523
792.823566	2484.913280
793.145836	2480.260295
793.468062	2485.281284
793.790241	2485.954278
794.112375	2485.722385
794.434464	2485.291367
794.756507	2487.927890
795.078505	2485.752632
795.400457	2487.864876
795.722364	2482.009576
796.044226	2486.173569
796.366042	2488.757160
796.687812	2487.113744
797.009538	2487.842191
797.331218	2486.276912
797.652852	2486.970071
797.974442	2488.948724
798.295986	2486.672643
798.617484	2488.069042
798.938938	2487.809423
799.260346	2485.987046
799.581709	2488.641213
799.903026	2486.614670
800.224299	2487.030565
800.545526	2485.956799
800.866708	2488.119454
801.187845	2485.745071
801.508936	2486.246665
801.829983	2486.602067
802.150984	2485.354381
802.471940	2487.741368
802.792851	2486.755822
803.113717	2486.591984
803.434538	2485.999649
803.755314	2487.045688
804.076045	2486.907057
804.396731	2484.956130
804.717372	2489.057109
805.037967	2486.244145
805.358518	2487.771614
805.679024	2485.702221
805.999485	2488.711790
806.319901	2485.984525
806.640272	2484.061325
806.960598	2486.463435
807.280879	2485.329175
807.601115	2488.472335
807.921306	2489.067191
808.241453	2485.112406
808.561554	2482.836325
808.881611	2484.366315
809.201623	2482.196098
809.521590	2488.230359
809.841513	2487.847232
810.161390	2485.094762
810.481223	2486.319762
810.801011	2488.931080
811.120755	2486.662561
811.440453	2485.924032
811.760107	2486.150883
812.079716	2488.532829
812.399281	2486.173569
812.718801	2488.784886
813.038276	2485.039309
813.357707	2486.798672
813.677093	2486.748260
813.996434	2483.342961
814.315731	2488.273209
814.634983	2486.483600
814.954191	2485.427478
815.273354	2487.073415
815.592473	2485.722385
815.911547	2487.796820
816.230577	2486.551655
816.549562	2487.612818
816.868502	2483.597539
817.187399	2487.219608
817.506250	2487.879999
817.825058	2485.677015
818.143821	2486.236583
818.462539	2487.227170
818.781213	2488.033754
819.099843	2487.824547
819.418429	2489.233549
819.736970	2489.611636
820.055466	2486.594505
820.373919	2491.418889
820.692327	2489.488127
821.010691	2495.676144
821.329011	2498.030362
821.647286	2505.587052
821.965517	2512.705161
822.283704	2521.680936
822.601847	2524.725793
822.919945	2521.348220
823.237999	2518.925945
823.556010	2512.621982
823.873976	2509.335150
824.191897	2500.878614
824.509775	2497.856443
824.827609	2499.376351
825.145398	2495.613129
825.463144	2495.348469
825.780845	2495.182111
826.098502	2496.918788
826.416116	2499.126813
826.733685	2503.885663
827.051210	2502.953049
827.368692	2504.896414
827.686129	2499.174704
828.003522	2497.828716
828.320872	2495.867708
828.638177	2495.378716
828.955439	2491.928046
829.272656	2490.413179
829.589830	2490.574496
829.906960	2491.537356
830.224046	2487.217088
830.541088	2485.717344
830.858086	2488.293374
831.175041	2487.249855
831.491952	2486.211377
831.808819	2490.781183
832.125642	2487.292705
832.442421	2484.671305
832.759157	2489.432675
833.075849	2490.279588
833.392497	2490.781183
833.709101	2495.771926
834.025662	2496.177738
834.342179	2493.815958
834.658653	2490.912253
834.975083	2491.159270
835.291469	2491.302943
835.607811	2487.038127
835.924110	2487.343116
836.240366	2489.674650
836.556578	2486.957468
836.872746	2487.620380
837.188871	2485.258599
837.504952	2488.033754
837.820990	2486.032416
838.136984	2484.822539
838.452935	2486.090390
838.768842	2484.625934
839.084706	2483.532004
839.400526	2488.366471
839.716303	2487.489310
840.032037	2486.032416
840.347727	2483.600060
840.663373	2485.034268
840.978977	2481.568475
841.294537	2485.823208
841.610054	2486.407982
841.925527	2485.321614
842.240957	2487.035606
842.556344	2485.538383
842.871687	2482.390183
843.186987	2482.738022
843.502244	2482.869092
843.817458	2484.835142
844.132629	2484.683908
844.447756	2483.728609
844.762840	2483.186685
845.077881	2481.964205
845.392879	2485.593836
845.707833	2486.332365
846.022745	2485.576192
846.337613	2485.936634
846.652438	2485.167858
846.967221	2481.911273
847.281960	2482.967395
847.596656	2482.899339
847.911309	2484.701552
848.225919	2481.165182
848.540485	2483.325317
848.855009	2483.592498
849.169490	2484.399082
849.483928	2481.626448
849.798323	2481.243320
850.112675	2483.431181
850.426984	2482.614514
850.741251	2483.902529
851.055474	2485.092241
851.369654	2482.564103
851.683792	2484.119298
851.997887	2482.044864
852.311938	2484.966212
852.625947	2484.210039
852.939914	2482.750625
853.253837	2485.162817
853.567718	2485.041830
853.881555	2483.247179
854.195350	2483.584936
854.509103	2482.319607
854.822812	2484.701552
855.136479	2484.767087
855.450103	2485.513177
855.763685	2482.919504
856.077224	2479.322641
856.390720	2482.798516
856.704173	2476.063535
857.017584	2485.545945
857.330953	2483.383290
857.644278	2484.499906
857.957561	2486.153404
858.270802	2485.515698
858.584000	2484.260451
858.897155	2484.136942
859.210268	2483.854638
859.523339	2483.791623
859.836367	2481.397075
860.149352	2482.954792
860.462295	2485.152735
860.775195	2482.816160
861.088054	2485.001500
861.400869	2483.151397
861.713642	2482.735502
862.026373	2485.261120
862.339062	2482.634679
862.651708	2483.713486
862.964312	2481.911273
863.276873	2484.348671
863.589392	2481.417240
863.901869	2482.876654
864.214303	2479.854482
864.526696	2484.656181
864.839045	2480.255254
865.151353	2485.248517
865.463619	2484.378918
865.775842	2483.332878
866.088023	2485.130050
866.400162	2482.637199
866.712258	2481.500419
867.024313	2483.290029
867.336325	2481.835656
867.648296	2484.399082
867.960224	2481.815491
868.272110	2487.264978
868.583954	2484.189875
868.895755	2485.165338
869.207515	2480.950933
869.519233	2482.410347
869.830909	2481.465131
870.142542	2485.127529
870.454134	2483.385811
870.765684	2486.637355
871.077191	2483.224494
871.388657	2480.290542
871.700081	2482.294401
872.011463	2481.825573
872.322803	2479.310038
872.634101	2483.209370
872.945357	2482.886736
873.256571	2484.862869
873.567744	2485.729947
873.878874	2483.302632
874.189963	2484.482262
874.501010	2483.610142
874.812015	2483.965543
875.122979	2483.095944
875.433900	2483.879844
875.744780	2482.165851
876.055618	2484.888074
876.366415	2484.472179
876.677169	2484.774648
876.987882	2485.281284
877.298554	2486.264309
877.609183	2485.606439
877.919771	2483.017806
878.230317	2487.476707
878.540822	2489.909064
878.851285	2484.751963
879.161707	2485.578713
879.472087	2484.207519
879.782425	2487.222129
880.092722	2488.215236
880.402977	2493.954590
880.713191	2493.992398
881.023363	2496.321411
881.333494	2501.786022
881.643583	2500.782832
881.953631	2501.738131
882.263637	2502.275014
882.573602	2502.050683
882.883526	2499.078923
883.193408	2497.400218
883.503248	2497.647235
883.813048	2496.278562
884.122806	2492.964003
884.432522	2491.111379
884.742197	2491.469301
885.051831	2492.046513
885.361424	2489.490648
885.670975	2489.099958
885.980485	2486.198774
886.289954	2487.713641
886.599382	2484.386480
886.908768	2482.591829
887.218113	2482.720378
887.527417	2485.092241
887.836680	2481.860862
888.145901	2484.560399
888.455082	2483.927735
888.764221	2482.801037
889.073319	2485.485451
889.382376	2485.982005
889.691392	2483.456387
890.000366	2485.056953
890.309300	2483.889926
890.618193	2483.592498
890.927044	2484.416727
891.235855	2483.794144
891.544625	2487.486789
891.853353	2483.655512
892.162041	2485.629124
892.470687	2484.346150
892.779293	2484.033599
893.087858	2484.172231
893.396381	2487.396048
893.704864	2487.620380
894.013306	2485.624083
894.321707	2490.672798
894.630068	2490.919815
894.938387	2489.225987
895.246665	2491.292860
895.554903	2489.294043
895.863100	2488.336224
896.171256	2487.816985
896.479371	2488.530308
896.787446	2488.631131
897.095480	2487.466625
897.403473	2486.135760
897.711425	2488.031234
898.019336	2487.784217
898.327207	2485.397231
898.635038	2486.579382
898.942827	2483.574854
899.250576	2486.473517
899.558284	2481.316417
899.865952	2484.830101
900.173579	2483.695842
900.481165	2484.504947
900.788711	2484.562920
901.096216	2484.537714
901.403681	2482.059987
901.711105	2483.779021
902.018489	2483.227014
902.325832	2480.351036
902.633135	2479.756180
902.940397	2480.593011
903.247619	2481.797847
903.554800	2487.539721
903.861941	2485.462766
904.169041	2489.493168
904.476101	2490.501399
904.783121	2492.568272
905.090100	2491.754126
905.397039	2489.276399
905.703938	2485.556027
906.010796	2488.018631
906.317614	2487.375884
906.624391	2485.702221
906.931129	2486.352530
907.237826	2486.158445
907.544483	2484.230204
907.851099	2483.368167
908.157675	2483.595018
908.464211	2481.979329
908.770707	2479.274750
909.077163	2485.979484
909.383578	2481.513022
909.689954	2482.564102
909.996289	2484.517550
910.302584	2482.788434
910.608839	2481.321458
910.915054	2483.587457
911.221229	2482.649802
911.527363	2483.511839
911.833458	2480.638382
912.139513	2485.157776
912.445527	2483.242138
912.751502	2482.954792
913.057436	2482.117960
913.363331	2483.978146
913.669186	2484.434371
913.975000	2481.676859
914.280775	2484.699031
914.586510	2489.639362
914.892205	2483.673156
915.197859	2487.882520
915.503475	2485.747591
915.809050	2489.946872
916.114585	2490.710607
916.420081	2491.340751
916.725536	2489.604074
917.030952	2492.840495
917.336328	2492.006184
917.641665	2489.954434
917.946961	2486.662561
918.252218	2488.285812
918.557435	2482.017137
918.862612	2485.382108
919.167750	2486.269351
919.472848	2483.058136
919.777906	2485.833291
920.082925	2486.181130
920.387904	2485.548466
920.692843	2484.570482
920.997743	2484.880513
921.302603	2484.288177
921.607423	2483.751294
921.912204	2483.058136
922.216946	2481.996973
922.521647	2481.510501
922.826310	2483.358084
923.130932	2484.535194
923.435516	2482.627117
923.740059	2482.639720
924.044564	2479.466313
924.349028	2481.691983
924.653454	2480.759369
924.957840	2482.622076
925.262186	2479.282311
925.566493	2481.845738
925.870761	2480.419092
926.174989	2482.019658
926.479178	2482.433032
926.783328	2484.883033
927.087438	2482.395224
927.391509	2481.893629
927.695541	2481.961685
927.999533	2480.605614
928.303486	2481.071921
928.607400	2479.085706
928.911275	2482.700214
929.215110	2482.639720
929.518906	2477.659060
929.822663	2482.407827
930.126381	2479.705768
930.430060	2481.323979
930.733699	2480.270378
931.037299	2480.502271
931.340861	2482.218783
931.644383	2478.896663
931.947866	2479.057980
932.251309	2484.953609
932.554714	2480.282980
932.858080	2479.804071
933.161407	2478.485809
933.464694	2479.478916
933.767943	2476.726446
934.071153	2482.259113
934.374323	2479.131077
934.677455	2479.269708
934.980548	2479.864565
935.283602	2478.909266
935.586617	2479.186529
935.889593	2481.316417
936.192530	2479.425984
936.495428	2481.795327
936.798287	2480.545120
937.101108	2479.889770
937.403890	2481.991932
937.706632	2481.528145
938.009336	2482.125522
938.312002	2480.683752
938.614628	2480.587970
938.917216	2483.048053
939.219765	2479.269708
939.522275	2483.363125
939.824747	2480.076293
940.127179	2481.157621
940.429573	2481.162662
940.731929	2483.345481
941.034246	2482.007055
941.336524	2481.626448
941.638763	2480.978660
941.940964	2479.012610
942.243126	2482.075111
942.545250	2480.373721
942.847335	2480.013279
943.149381	2481.883547
943.451389	2482.319607
943.753359	2480.414050
944.055290	2479.652836
944.357182	2480.671149
944.659036	2480.219966
944.960851	2481.218114
945.262628	2482.876654
945.564367	2479.904894
945.866067	2483.254741
946.167729	2479.297435
946.469352	2482.594349
946.770937	2482.332209
947.072484	2481.747436
947.373992	2483.748774
947.675462	2480.890439
947.976893	2475.806436
948.278286	2477.810294
948.579641	2480.509832
948.880958	2477.797692
949.182236	2481.956643
949.483476	2479.433546
949.784678	2478.407671
950.085841	2479.854482
950.386967	2481.379431
950.688054	2481.686942
950.989103	2480.429174
951.290114	2482.070069
951.591087	2480.335912
951.892021	2481.722230
952.192917	2481.167703
952.493776	2480.938330
952.794596	2481.830615
953.095378	2482.105358
953.396122	2479.572178
953.696828	2482.753146
953.997496	2481.623927
954.298126	2479.541931
954.598718	2481.787765
954.899272	2481.003865
955.199788	2479.791468
955.500266	2482.314565
955.800706	2480.240131
956.101108	2480.416571
956.401472	2480.091417
956.701798	2481.497898
957.002087	2481.145018
957.302337	2481.329020
957.602550	2479.224338
957.902724	2481.276088
958.202861	2482.884216
958.502960	2479.060501
958.803022	2481.306335
959.103045	2480.270377
959.403031	2480.986221
959.702979	2479.279791
960.002889	2480.192240
960.302762	2481.139977
960.602596	2482.755666
960.902393	2479.078145
961.202153	2481.253402
961.501875	2478.705099
961.801559	2478.455562
962.101205	2480.164513
962.400814	2478.657208
962.700385	2478.160655
962.999918	2475.503967
963.299414	2476.918010
963.598873	2477.538072
963.898293	2475.798874
964.197677	2478.997486
964.497022	2478.513535
964.796331	2478.637044
965.095601	2478.425315
965.394835	2478.649647
965.694030	2476.701241
965.993189	2480.071252
966.292309	2477.817856
966.591393	2479.231900
966.890439	2480.517394
967.189447	2479.181488
967.488419	2478.458083
967.787353	2480.703917
968.086249	2479.897332
968.385108	2479.872126
968.683930	2479.496560
968.982714	2478.823566
969.281462	2479.383134
969.580172	2479.650316
969.878844	2475.942547
970.177480	2480.068731
970.476078	2478.531179
970.774639	2479.055459
971.073162	2477.099492
971.371649	2479.254585
971.670098	2477.472537
971.968510	2478.105202
972.266885	2480.197281
972.565223	2480.996304
972.863524	2479.264667
973.161788	2479.904894
973.460014	2478.662249
973.758204	2480.305666
974.056356	2479.005048
974.354471	2482.193578
974.652550	2479.753659
974.950591	2481.424802
975.248595	2480.512353
975.546563	2479.108392
975.844493	2479.844400
976.142386	2479.257106
976.440243	2477.966570
976.738062	2480.242651
977.035845	2476.607979
977.333590	2479.887250
977.631299	2479.546972
977.928971	2478.198463
978.226606	2476.093782
978.524204	2478.016982
978.821765	2476.668473
979.119290	2479.597383
979.416777	2476.814667
979.714228	2480.610655
980.011642	2479.491519
980.309020	2479.544451
980.606360	2476.519759
980.903664	2479.816674
981.200931	2480.598052
981.498162	2481.024030
981.795356	2479.141159
982.092513	2478.473206
982.389633	2480.638382
982.686717	2482.153248
982.983764	2481.223156
983.280775	2479.758700
983.577749	2480.784575
983.874686	2480.711478
984.171587	2479.360449
984.468451	2480.582929
984.765279	2479.105871
985.062070	2481.515542
985.358824	2481.404637
985.655543	2479.224338
985.952224	2480.961016
986.248869	2479.320120
986.545478	2476.688638
986.842050	2478.425315
987.138586	2476.544965
987.435086	2483.164000
987.731549	2478.105202
988.027975	2477.432208
988.324366	2478.019502
988.620719	2479.549493
988.917037	2479.483958
989.213318	2478.843731
989.509563	2479.020171
989.805772	2479.695686
990.101944	2477.830459
990.398080	2479.579739
990.694180	2478.004379
990.990244	2478.256437
991.286271	2480.376242
991.582262	2477.739718
991.878217	2480.363639
992.174136	2479.806591
992.470019	2478.553865
992.765865	2474.140334
993.061676	2474.036991
993.357450	2477.464975
993.653188	2471.614716
993.948890	2480.593011
994.244556	2476.610500
994.540186	2479.320120
994.835780	2479.126036
995.131337	2480.668629
995.426859	2477.873309
995.722345	2479.730974
996.017795	2478.342136
996.313208	2479.688124
996.608586	2479.733495
996.903928	2481.472693
997.199234	2479.398258
997.494504	2477.361632
997.789738	2478.024543
998.084936	2478.163175
998.380099	2480.842548
998.675225	2476.981025
998.970316	2478.016982
999.265371	2476.454224
999.560390	2478.334574
999.855373	2479.128556
1000.150320	2477.550675
1000.445232	2476.071096
1000.740108	2480.678711
1001.034948	2480.870275
1001.329752	2480.439256
1001.624521	2478.836169
1001.919254	2478.936992
1002.213951	2480.136787
1002.508613	2477.270891
1002.803239	2476.300469
1003.097829	2478.198463
1003.392384	2479.874647
1003.686903	2477.033957
1003.981386	2479.362970
1004.275834	2476.673514
1004.570246	2477.691827
1004.864623	2479.892291
1005.158964	2480.041005
1005.453270	2479.481437
1005.747540	2478.016982
1006.041775	2476.373566
1006.335974	2477.185191
1006.630138	2475.335088
1006.924266	2477.293576
1007.218359	2476.857516
1007.512416	2475.395582
1007.806438	2472.214614
1008.100425	2474.881384
1008.394376	2473.399285
1008.688292	2475.710654
1008.982172	2478.924389
1009.276017	2479.441108
1009.569827	2478.783237
1009.863602	2479.554534
1010.157341	2479.685604
1010.451045	2476.209728
1010.744714	2478.362301
1011.038347	2479.221817
1011.331945	2478.059832
1011.625508	2479.673001
1011.919036	2480.071252
1012.212528	2475.483802
1012.505986	2476.524800
1012.799408	2477.159986
1013.092795	2480.449338
1013.386147	2476.575212
1013.679464	2477.626292
1013.972745	2479.526807
1014.265992	2478.939513
1014.559204	2479.935141
1014.852380	2477.303658
1015.145521	2477.875829
1015.438628	2477.233082
1015.731699	2478.939513
1016.024736	2476.025726
1016.317737	2478.750470
1016.610703	2479.791468
1016.903635	2475.950109
1017.196531	2480.351036
1017.489393	2477.354070
1017.782219	2477.238123
1018.075011	2478.810963
1018.367768	2476.706282
1018.660490	2477.555716
1018.953177	2477.555716
1019.245829	2477.555716
