Dividing Wavelength (nm)	Counts (n)	Blue Motor Position (mm): 5.500000	Red Motor Position (mm): 0.000000	
326.493990	2067.367110
326.888308	2067.367110
327.282561	2067.367110
327.676750	2039.514735
328.070874	2043.340971
328.464933	2051.273226
328.858929	2056.064843
329.252859	2066.734445
329.646726	2080.206929
330.040528	2097.737541
330.434265	2112.331682
330.827938	2134.948818
331.221547	2157.056799
331.615091	2175.240241
332.008571	2197.098684
332.401986	2218.289174
332.795338	2235.560167
333.188625	2256.496079
333.581847	2275.440735
333.975006	2291.806841
334.368100	2310.242341
334.761129	2327.404949
335.154095	2346.387414
335.546996	2357.528364
335.939833	2369.506145
336.332606	2384.289329
336.725315	2397.179559
337.117960	2405.799932
337.510540	2417.036664
337.903056	2425.846081
338.295508	2429.148036
338.687896	2440.530962
339.080220	2444.173195
339.472480	2450.721654
339.864676	2453.010338
340.256807	2457.209619
340.648875	2459.037037
341.040879	2459.082408
341.432818	2462.535598
341.824694	2463.911833
342.216506	2459.997377
342.608253	2460.972841
342.999937	2460.942594
343.391557	2460.471246
343.783113	2459.342027
344.174605	2456.710545
344.566033	2457.005453
344.957397	2453.784155
345.348697	2452.014710
345.739934	2451.384566
346.131106	2446.698813
346.522215	2447.013886
346.913260	2446.353494
347.304241	2448.168310
347.695159	2441.710592
348.086012	2443.091868
348.476802	2441.463575
348.867528	2435.018460
349.258191	2432.112235
349.648789	2431.935794
350.039324	2431.189704
350.429796	2433.914447
350.820203	2432.636515
351.210548	2434.413522
351.600828	2431.005702
351.991045	2431.459405
352.381198	2432.475198
352.771288	2430.786411
353.161314	2428.568304
353.551276	2430.902358
353.941175	2428.795156
354.331010	2431.348500
354.720782	2429.500917
355.110490	2430.284817
355.500135	2432.175249
355.889717	2430.680547
356.279235	2433.294385
356.668689	2433.107863
357.058080	2432.160126
357.447408	2434.950404
357.836672	2431.595517
358.225873	2433.097780
358.615010	2432.142482
359.004084	2433.634663
359.393095	2436.046855
359.782043	2435.983841
360.170927	2436.908893
360.559748	2435.877977
360.948505	2436.866043
361.337199	2439.154727
361.725830	2436.866043
362.114398	2435.643563
362.502903	2438.723708
362.891344	2434.068202
363.279722	2441.834100
363.668037	2437.571804
364.056289	2440.094902
364.444478	2442.721343
364.832603	2442.741508
365.220665	2440.599017
365.608665	2440.662032
365.996601	2441.634974
366.384474	2441.980293
366.772284	2442.973401
367.160031	2443.472475
367.547715	2447.482713
367.935336	2440.669593
368.322893	2441.098092
368.710388	2440.556168
369.097820	2439.532813
369.485189	2441.934923
369.872495	2444.387444
370.259738	2443.865685
370.646918	2446.247630
371.034035	2442.169337
371.421090	2445.347784
371.808081	2445.640171
372.195010	2446.363577
372.581875	2448.748043
372.968678	2445.892229
373.355418	2447.744853
373.742096	2446.648402
374.128710	2446.131684
374.515262	2446.459359
374.901751	2446.320727
375.288177	2450.522529
375.674540	2447.805347
376.060841	2450.865327
376.447079	2447.651592
376.833254	2450.262909
377.219367	2447.429781
377.605417	2449.050512
377.991404	2449.763835
378.377329	2449.355502
378.763191	2449.710903
379.148991	2451.440019
379.534727	2454.028651
379.920402	2450.973712
380.306013	2450.935903
380.691563	2452.813733
381.077049	2453.073352
381.462474	2450.701490
381.847835	2452.455811
382.233134	2454.338682
382.618371	2450.330965
383.003545	2450.958588
383.388657	2452.511264
383.773706	2453.378342
384.158693	2454.058898
384.543618	2451.440019
384.928480	2452.120574
385.313280	2454.938579
385.698017	2454.333641
386.082692	2452.312138
386.467305	2454.315997
386.851856	2455.621656
387.236344	2455.283898
387.620770	2452.438167
388.005133	2454.184927
388.389435	2451.666871
388.773674	2450.278033
389.157851	2455.919084
389.541965	2452.065122
389.926018	2458.225412
390.310008	2454.063939
390.693936	2457.728858
391.077802	2456.829012
391.461606	2453.731223
391.845348	2454.868003
392.229027	2456.531584
392.612645	2455.223405
392.996200	2459.168107
393.379694	2458.376646
393.763125	2457.459156
394.146494	2456.776080
394.529801	2459.231122
394.913047	2459.218519
395.296230	2459.016873
395.679351	2461.597944
396.062410	2457.927984
396.445408	2458.706842
396.828343	2460.105762
397.211217	2459.077367
397.594028	2458.792542
397.976778	2462.074333
398.359466	2461.663479
398.742092	2457.809517
399.124656	2459.006791
399.507158	2460.173818
399.889598	2462.018880
400.271977	2458.739609
400.654294	2460.970320
401.036549	2460.693057
401.418742	2459.553756
401.800874	2460.798921
402.182944	2463.528706
402.564952	2461.996195
402.946898	2460.569548
403.328783	2461.973510
403.710606	2460.650207
404.092367	2464.657924
404.474067	2460.229270
404.855705	2463.624487
405.237282	2460.990485
405.618797	2462.407049
406.000250	2463.087605
406.381642	2462.676751
406.762972	2463.773202
407.144240	2458.238015
407.525447	2464.617595
407.906593	2456.163580
408.287677	2461.282872
408.668700	2463.566514
409.049661	2465.099025
409.430560	2463.253963
409.811399	2464.511731
410.192176	2466.434931
410.572891	2464.456278
410.953545	2464.173973
411.334138	2467.274283
411.714669	2466.371916
412.095139	2466.540795
412.475547	2465.915692
412.855894	2467.841413
413.236180	2467.932153
413.616405	2466.548357
413.996568	2465.714046
414.376670	2465.736731
414.756711	2467.571711
415.136691	2467.614561
415.516609	2470.724953
415.896466	2468.350569
416.276262	2467.773357
416.655997	2467.564149
417.035670	2467.017184
417.415283	2468.786629
417.794834	2466.661783
418.174324	2466.956690
418.553753	2469.545323
418.933121	2467.899386
419.312428	2466.298820
419.691674	2470.203193
420.070859	2469.489870
420.449983	2471.972638
420.829045	2470.087247
421.208047	2467.884263
421.586988	2465.996350
421.965867	2471.624799
422.344686	2467.846454
422.723444	2473.434573
423.102141	2467.549026
423.480777	2468.869808
423.859352	2471.060189
424.237866	2472.829634
424.616319	2470.813173
424.994712	2471.914665
425.373044	2468.413584
425.751314	2469.983903
426.129524	2467.523820
426.507673	2470.669500
426.885762	2465.585496
427.263789	2470.969449
427.641756	2472.012968
428.019662	2472.708647
428.397508	2470.087247
428.775292	2472.512042
429.153016	2471.844089
429.530679	2471.725622
429.908282	2470.888790
430.285824	2469.323512
430.663305	2470.545992
431.040726	2472.754017
431.418086	2472.259984
431.795385	2473.502628
432.172624	2474.183184
432.549802	2473.076651
432.926920	2472.723770
433.303977	2474.160499
433.680974	2471.551702
434.057910	2471.690334
434.434786	2472.892649
434.811601	2471.942391
435.188355	2472.864923
435.565050	2473.500108
435.941683	2472.930457
436.318257	2471.763430
436.694770	2474.581435
437.071222	2473.255612
437.447614	2470.813173
437.823946	2474.077320
438.200218	2472.685962
438.576429	2473.618575
438.952580	2475.251909
439.328670	2473.235447
439.704700	2474.891466
440.080670	2471.765951
440.456580	2474.669656
440.832429	2473.739563
441.208218	2476.045891
441.583947	2473.116980
441.959616	2475.476240
442.335224	2475.035139
442.710773	2474.301651
443.086261	2476.892804
443.461689	2473.290900
443.837057	2480.890439
444.212365	2475.735860
444.587612	2472.683441
444.962800	2471.201342
445.337927	2472.053297
445.712995	2472.209573
446.088002	2476.366004
446.462949	2475.186374
446.837837	2476.287866
447.212664	2478.150572
447.587431	2476.209728
447.962139	2476.494553
448.336786	2474.594038
448.711374	2476.348360
449.085901	2477.094451
449.460369	2477.636375
449.834776	2474.253760
450.209124	2477.245685
450.583412	2476.378607
450.957640	2476.623103
451.331808	2478.735346
451.705917	2478.498412
452.079965	2477.661580
452.453954	2478.420274
452.827883	2479.615028
453.201752	2480.010758
453.575562	2479.660398
453.949311	2473.815180
454.323001	2477.235603
454.696632	2477.618731
455.070202	2478.110243
455.443713	2477.449852
455.817164	2478.790799
456.190556	2477.454893
456.563888	2479.468834
456.937160	2476.297948
457.310373	2478.508494
457.683526	2478.143011
458.056619	2478.505974
458.429653	2477.177630
458.802628	2479.115953
459.175542	2480.938330
459.548398	2477.971611
459.921194	2479.660398
460.293930	2479.083186
460.666607	2479.509163
461.039224	2478.531179
461.411782	2480.000676
461.784280	2479.400778
462.156719	2480.598052
462.529099	2480.043526
462.901419	2477.197794
463.273680	2477.162506
463.645882	2474.483133
464.018024	2476.509677
464.390106	2473.689151
464.762130	2477.971611
465.134094	2482.301962
465.505999	2481.694503
465.877845	2478.579070
466.249631	2479.894812
466.621358	2477.051601
466.993026	2481.442446
467.364634	2483.022847
467.736184	2481.460090
468.107674	2480.625779
468.479105	2482.062508
468.850477	2478.422795
469.221790	2481.891108
469.593043	2480.393886
469.964238	2482.271716
470.335373	2480.630820
470.706449	2480.013279
471.077467	2481.886067
471.448425	2482.059987
471.819324	2481.165182
472.190164	2482.896819
472.560945	2483.398413
472.931667	2481.074442
473.302330	2483.211891
473.672934	2481.961685
474.043479	2480.593011
474.413965	2479.912456
474.784393	2482.017137
475.154761	2480.061170
475.525070	2480.739205
475.895321	2481.802888
476.265513	2482.611993
476.635645	2479.141159
477.005719	2481.112250
477.375734	2484.472179
477.745691	2482.687611
478.115588	2479.897332
478.485427	2481.578557
478.855207	2480.996304
479.224928	2481.903711
479.594591	2482.987559
479.964194	2483.249699
480.333739	2482.231386
480.703226	2481.515543
481.072653	2483.216932
481.442022	2483.965543
481.811333	2480.348515
482.180584	2478.687455
482.549777	2479.569657
482.918912	2476.335757
483.287988	2482.004534
483.657005	2482.843887
484.025964	2484.136943
484.394864	2483.514360
484.763706	2483.232055
485.132489	2482.480923
485.501213	2484.235245
485.869879	2482.034781
486.238487	2482.990080
486.607036	2482.354895
486.975527	2486.632314
487.343959	2480.706437
487.712333	2483.547127
488.080648	2484.941007
488.448905	2483.095944
488.817104	2486.085348
489.185244	2488.426964
489.553326	2479.012610
489.921350	2485.578713
490.289315	2483.925214
490.657222	2484.013434
491.025070	2481.896150
491.392861	2483.292549
491.760593	2486.062663
492.128267	2483.547128
492.495883	2483.164000
492.863440	2484.986377
493.230939	2485.104844
493.598380	2485.127529
493.965763	2483.658033
494.333088	2482.788434
494.700354	2484.552838
495.067563	2484.008393
495.434713	2485.152735
495.801805	2484.530153
496.168839	2482.251551
496.535815	2485.737509
496.902733	2486.617190
497.269593	2485.714824
497.636395	2482.077631
498.003139	2485.130050
498.369825	2482.002014
498.736453	2485.540904
499.103023	2481.586119
499.469535	2485.956799
499.835989	2484.096613
500.202385	2482.453197
500.568723	2481.384473
500.935003	2481.933958
501.301226	2481.245841
501.667390	2486.970071
502.033497	2485.886223
502.399546	2483.718527
502.765537	2485.656850
503.131470	2486.712972
503.497345	2483.968064
503.863163	2486.526449
504.228923	2485.714824
504.594625	2485.944196
504.960269	2486.554176
505.325856	2484.270533
505.691385	2485.092241
506.056856	2485.581233
506.422270	2486.778507
506.787625	2486.710452
507.152924	2484.159628
507.518164	2486.092910
507.883347	2485.825729
508.248472	2484.719196
508.613540	2487.028044
508.978550	2485.671974
509.343503	2484.595687
509.708398	2486.050060
510.073236	2486.216418
510.438016	2484.726757
510.802738	2487.277581
511.167403	2484.880513
511.532010	2484.857828
511.896561	2483.834473
512.261053	2486.589464
512.625488	2485.631645
512.989866	2485.936634
513.354186	2486.198774
513.718449	2484.966212
514.082655	2485.606439
514.446803	2484.706593
514.810894	2482.571664
515.174927	2486.977633
515.538904	2487.547283
515.902822	2486.410503
516.266684	2486.266830
516.630488	2483.748774
516.994235	2485.795482
517.357925	2486.697849
517.721558	2489.473004
518.085133	2487.285143
518.448651	2485.465287
518.812112	2482.110399
519.175516	2486.352530
519.538863	2481.775162
519.902152	2485.263640
520.265385	2486.554176
520.628560	2486.798672
520.991678	2486.554176
521.354739	2485.291367
521.717743	2485.041830
522.080690	2487.121306
522.443580	2487.728765
522.806413	2487.819505
523.169189	2486.523929
523.531908	2487.575009
523.894569	2487.075935
524.257174	2485.757673
524.619722	2486.677684
524.982213	2489.644403
525.344647	2487.781697
525.707025	2487.832108
526.069345	2486.934783
526.431608	2489.082314
526.793815	2487.595174
527.155964	2487.441419
527.518057	2486.720534
527.880093	2487.751450
528.242072	2485.838332
528.603995	2487.428816
528.965860	2485.798003
529.327669	2485.982005
529.689421	2485.271202
530.051117	2487.519557
530.412755	2487.156594
530.774337	2487.743888
531.135862	2485.432519
531.497331	2487.670791
531.858743	2486.743219
532.220098	2488.162304
532.581396	2488.323621
532.942638	2485.608959
533.303824	2488.220277
533.664953	2486.463435
534.026025	2487.842191
534.387040	2486.407982
534.747999	2486.685246
535.108902	2488.558034
535.469748	2485.548466
535.830537	2487.759012
536.191270	2491.318066
536.551947	2484.459576
536.912567	2482.004534
537.273131	2484.257930
537.633638	2485.182982
537.994089	2485.437560
538.354483	2492.210350
538.714821	2487.196923
539.075103	2488.555514
539.435328	2488.984012
539.795497	2487.943014
540.155609	2488.119454
540.515665	2485.119967
540.875665	2485.036788
541.235609	2488.255565
541.595496	2487.522077
541.955328	2487.567448
542.315102	2488.769763
542.674821	2487.179279
543.034483	2488.948724
543.394090	2488.008549
543.753640	2487.592653
544.113134	2488.351347
544.472571	2488.560555
544.831953	2487.564927
545.191278	2486.420585
545.550548	2487.963178
545.909761	2488.479897
546.268918	2488.386635
546.628019	2489.495689
546.987064	2490.826554
547.346053	2487.043168
547.704986	2488.681543
548.063863	2488.084166
548.422684	2486.032416
548.781449	2487.948055
549.140158	2486.675163
549.498811	2488.447129
549.857408	2488.973930
550.215949	2487.864876
550.574434	2487.073415
550.932864	2488.308497
551.291237	2489.972078
551.649555	2489.190699
552.007817	2490.201451
552.366022	2488.316059
552.724173	2488.537870
553.082267	2488.565596
553.440305	2486.395379
553.798288	2490.665237
554.156215	2487.940493
554.514086	2485.213229
554.871902	2486.052581
555.229661	2484.857827
555.587365	2481.697024
555.945014	2490.375370
556.302606	2487.701038
556.660143	2487.544763
557.017625	2489.344454
557.375050	2489.951913
557.732421	2486.188692
558.089735	2489.629280
558.446994	2484.056284
558.804197	2489.452839
559.161345	2487.824547
559.518437	2488.696666
559.875474	2487.640544
560.232455	2487.544762
560.589381	2487.580051
560.946251	2486.607108
561.303065	2489.815802
561.659825	2488.086687
562.016528	2488.978971
562.373177	2489.117603
562.729770	2487.829588
563.086307	2487.801861
563.442789	2488.351347
563.799216	2487.045688
564.155587	2487.547283
564.511904	2488.283292
564.868164	2487.655668
565.224370	2490.156080
565.580520	2486.171048
565.936615	2493.957110
566.292654	2488.432006
566.648638	2489.621718
567.004567	2487.653147
567.360441	2487.575009
567.716260	2486.667602
568.072023	2489.500730
568.427732	2488.759681
568.783385	2490.929897
569.138982	2488.895792
569.494525	2489.289002
569.850013	2488.240442
570.205445	2488.936121
570.560823	2488.368991
570.916145	2487.262458
571.271412	2489.331852
571.626625	2490.448467
571.981782	2488.038796
572.336884	2487.459063
572.691931	2485.384628
573.046923	2488.986532
573.401860	2482.637199
573.756743	2487.587612
574.111570	2486.024855
574.466342	2488.946203
574.821059	2490.307315
575.175722	2485.838332
575.530330	2489.649444
575.884882	2486.768425
576.239380	2491.509630
576.593823	2490.196409
576.948211	2487.194402
577.302544	2489.004177
577.656823	2489.712459
578.011047	2486.745740
578.365216	2490.055257
578.719330	2489.014259
579.073389	2489.152891
579.427394	2490.589619
579.781344	2487.481748
580.135239	2488.810092
580.489080	2485.992087
580.842866	2489.241111
581.196597	2494.335197
581.550273	2488.837818
581.903895	2489.974599
582.257463	2491.426451
582.610975	2490.902171
582.964434	2487.643065
583.317837	2487.973261
583.671186	2487.370843
584.024481	2487.421254
584.377721	2489.389825
584.730906	2486.793631
585.084037	2487.164155
585.437113	2488.298415
585.790135	2488.963847
586.143103	2489.379743
586.496016	2488.890751
586.848874	2487.998466
587.201679	2491.328148
587.554428	2488.883189
587.907124	2487.330513
588.259765	2486.755822
588.612352	2490.072901
588.964884	2488.852942
589.317362	2488.840339
589.669786	2484.741881
590.022155	2485.132570
590.374470	2484.394041
590.726731	2489.057109
591.078937	2485.409834
591.431090	2492.298571
591.783188	2486.549135
592.135232	2486.765904
592.487222	2489.616677
592.839157	2490.274547
593.191038	2489.329331
593.542866	2492.999291
593.894639	2491.244969
594.246358	2490.443426
594.598022	2488.321100
594.949633	2488.517705
595.301190	2487.086018
595.652692	2489.289002
596.004141	2488.474855
596.355535	2488.666419
596.706876	2487.547283
597.058162	2488.260606
597.409395	2487.116264
597.760573	2488.489979
598.111698	2489.301605
598.462768	2492.129692
598.813785	2491.766729
599.164748	2486.942345
599.515657	2489.546101
599.866511	2488.439567
600.217312	2490.350165
600.568060	2487.305308
600.918753	2492.666575
601.269392	2490.556852
601.619978	2489.813282
601.970510	2489.059629
602.320988	2487.759012
602.671412	2491.615494
603.021783	2488.938642
603.372100	2489.896461
603.722363	2488.578199
604.072572	2489.813282
604.422728	2488.457211
604.772830	2486.879330
605.122878	2488.966368
605.472872	2490.476193
605.822813	2488.981491
606.172701	2489.233549
606.522534	2487.789258
606.872314	2486.160966
607.222041	2488.028713
607.571714	2486.292036
607.921333	2486.907057
608.270899	2486.753301
608.620411	2485.704741
608.969870	2488.812613
609.319276	2487.443939
609.668627	2490.997953
610.017926	2489.841008
610.367171	2490.095586
610.716362	2489.523415
611.065500	2489.634321
611.414585	2488.558034
611.763616	2490.161121
612.112594	2488.079125
612.461518	2487.748929
612.810389	2489.185658
613.159207	2491.053406
613.507971	2488.918477
613.856682	2489.604074
614.205340	2488.414362
614.553945	2489.455360
614.902496	2493.395022
615.250994	2490.093066
615.599439	2491.544918
615.947830	2490.844198
616.296169	2488.981491
616.644454	2489.291522
616.992686	2491.464260
617.340864	2489.155411
617.688990	2489.573827
618.037063	2489.765391
618.385082	2489.954434
618.733048	2489.049547
619.080961	2492.835453
619.428821	2486.581902
619.776628	2489.047026
620.124382	2489.999804
620.472083	2490.357726
620.819731	2489.402428
621.167326	2490.395535
621.514868	2490.420741
621.862357	2490.478714
622.209793	2491.764208
622.557176	2490.193889
622.904506	2491.398725
623.251783	2488.931080
623.599007	2489.946872
623.946179	2489.596512
624.293297	2492.800165
624.640363	2490.345123
624.987376	2487.887561
625.334336	2486.191213
625.681243	2488.031234
626.028097	2482.977477
626.374899	2491.378560
626.721647	2489.059629
627.068343	2490.793786
627.414987	2488.552993
627.761577	2490.609784
628.108115	2489.805720
628.454600	2492.233036
628.801032	2489.304125
629.147412	2491.381081
629.493739	2493.332007
629.840014	2490.735813
630.186236	2488.298415
630.532405	2490.972747
630.878521	2492.669095
631.224585	2493.389980
631.570597	2489.783035
631.916556	2492.086842
632.262462	2490.622387
632.608316	2492.462408
632.954117	2489.649444
633.299866	2493.062305
633.645562	2490.556852
633.991206	2491.439054
634.336797	2490.884527
634.682336	2490.362768
635.027823	2490.629949
635.373257	2487.564927
635.718639	2491.081132
636.063968	2491.055926
636.409245	2490.813951
636.754470	2491.345792
637.099642	2491.171873
637.444762	2491.111379
637.789829	2490.277068
638.134845	2492.280927
638.479808	2490.997953
638.824719	2492.608602
639.169577	2491.091214
639.514383	2493.185814
639.859137	2491.968375
640.203839	2490.377891
640.548489	2491.078611
640.893086	2490.592140
641.237632	2489.412510
641.582125	2490.597181
641.926566	2493.828561
642.270955	2490.231697
642.615292	2487.902684
642.959576	2490.609784
643.303809	2487.811944
643.647990	2489.571306
643.992118	2489.883858
644.336195	2491.623056
644.680219	2491.544918
645.024192	2493.763026
645.368112	2490.314877
645.711981	2489.876296
646.055797	2490.014928
646.399562	2491.199599
646.743274	2489.412510
647.086935	2489.725062
647.430544	2490.703045
647.774101	2492.585916
648.117606	2491.388642
648.461059	2494.493993
648.804460	2495.580362
649.147810	2493.826040
649.491108	2492.104486
649.834354	2494.677995
650.177548	2494.758654
650.520690	2493.205978
650.863781	2491.615494
651.206820	2492.447285
651.549807	2492.210350
651.892742	2493.904178
652.235626	2493.170690
652.578458	2492.656493
652.921238	2492.394353
653.263967	2493.395022
653.606644	2491.265134
653.949269	2494.642707
654.291843	2493.768067
654.634365	2495.353510
654.976836	2490.942500
655.319255	2493.977275
655.661622	2494.327635
656.003938	2496.177738
656.346203	2496.334014
656.688416	2492.217912
657.030577	2494.453664
657.372687	2494.176400
657.714746	2493.455515
658.056753	2492.348982
658.398708	2493.463077
658.740612	2493.488283
659.082465	2494.219250
659.424266	2493.334528
659.766016	2489.667088
660.107715	2493.624394
660.449362	2489.162973
660.790958	2497.254025
661.132503	2492.074239
661.473996	2496.051710
661.815438	2494.604898
662.156829	2496.787718
662.498168	2496.747389
662.839456	2493.452995
663.180693	2493.281596
663.521879	2495.519868
663.863013	2495.444251
664.204097	2495.968531
664.545129	2497.745537
664.886110	2495.270331
665.227040	2498.509272
665.567918	2496.875938
665.908746	2496.644045
666.249522	2498.161432
666.590248	2494.771257
666.930922	2498.917606
667.271545	2497.196052
667.612118	2499.499859
667.952639	2499.961124
668.293109	2496.444920
668.633528	2498.267297
668.973896	2498.232009
669.314213	2496.084477
669.654480	2500.321567
669.994695	2498.526916
670.334859	2499.502379
670.674973	2497.753099
671.015035	2499.497338
671.355047	2501.617143
671.695008	2500.971876
672.034918	2498.766371
672.374777	2501.044972
672.714585	2500.140085
673.054342	2499.951042
673.394049	2499.386433
673.733705	2501.864160
674.073310	2503.348780
674.412864	2499.767040
674.752368	2501.443224
675.091820	2501.475991
675.431223	2503.134531
675.770574	2501.118069
676.109875	2499.199910
676.449125	2499.787205
676.788324	2497.843840
677.127473	2500.213182
677.466571	2499.567914
677.805619	2502.998420
678.144616	2502.915241
678.483562	2503.530261
678.822458	2502.612771
679.161303	2502.007833
679.500098	2503.053872
679.838842	2503.005981
680.177535	2502.055724
680.516179	2502.534633
680.854771	2502.459016
681.193314	2505.211486
681.531805	2506.562515
681.870247	2507.689213
682.208638	2506.333143
682.546978	2509.645181
682.885268	2509.758607
683.223508	2508.803308
683.561697	2506.605365
683.899836	2507.142248
684.237925	2507.981600
684.575963	2507.802639
684.913951	2511.051663
685.251889	2511.339009
685.589776	2510.711385
685.927614	2507.853051
686.265401	2510.229955
686.603137	2510.776920
686.940824	2509.156189
687.278460	2513.660460
687.616046	2513.723474
687.953582	2515.455111
688.291068	2517.806809
688.628504	2517.330420
688.965889	2516.695235
689.303224	2519.888806
689.640510	2517.252282
689.977745	2515.881088
690.314930	2515.946623
690.652065	2515.928979
690.989150	2515.939062
691.326185	2512.380007
691.663170	2514.250275
692.000105	2513.531911
692.336990	2510.834893
692.673825	2514.265398
693.010610	2510.555109
693.347345	2508.889008
693.684030	2507.434635
694.020665	2507.903462
694.357251	2504.689727
694.693786	2510.401354
695.030272	2511.081910
695.366707	2512.619462
695.703093	2510.754235
696.039429	2509.347753
696.375716	2513.988135
696.711952	2513.252127
697.048139	2510.875223
697.384276	2509.110819
697.720363	2511.013854
698.056400	2511.318844
698.392388	2512.866478
698.728326	2512.977384
699.064214	2511.956550
699.400053	2515.124915
699.735842	2509.539317
700.071581	2513.494102
700.407270	2511.480161
700.742910	2513.100892
701.078501	2511.739780
701.414042	2507.898421
701.749533	2509.783813
702.084974	2509.675428
702.420366	2511.580984
702.755709	2510.686179
703.091002	2511.371776
703.426246	2511.467558
703.761440	2508.490757
704.096584	2510.658453
704.431679	2508.654594
704.766725	2509.685510
705.101721	2508.276508
705.436668	2512.899246
705.771565	2508.810870
706.106413	2511.565861
706.441212	2510.038391
706.775961	2513.554596
707.110661	2511.689369
707.445311	2514.315810
707.779913	2513.040398
708.114465	2509.342712
708.448967	2513.675583
708.783421	2514.842611
709.117825	2519.160359
709.452180	2518.628517
709.786485	2522.721934
710.120742	2520.400483
710.454949	2518.003414
710.789107	2523.412572
711.123216	2522.817716
711.457275	2526.543129
711.791286	2528.844415
712.125247	2531.980013
712.459159	2528.569673
712.793023	2531.586803
713.126837	2530.238294
713.460602	2528.907430
713.794318	2529.446833
714.127985	2528.683098
714.461602	2528.221833
714.795171	2526.759898
715.128691	2526.964065
715.462162	2523.447860
715.795584	2523.369722
716.128957	2524.204033
716.462281	2521.209588
716.795556	2520.186234
717.128782	2519.689680
717.461960	2518.636079
717.795088	2520.571882
718.128167	2522.769825
718.461198	2516.551562
718.794180	2520.571882
719.127113	2516.354957
719.459997	2521.663292
719.792833	2518.757067
720.125619	2517.774042
720.458357	2516.354957
720.791046	2517.184227
721.123686	2516.012158
721.456278	2518.951151
721.788821	2515.273629
722.121315	2516.448218
722.453761	2516.564165
722.786158	2517.068280
723.118506	2517.514422
723.450805	2515.170286
723.783056	2517.280008
724.115259	2517.655574
724.447412	2516.869154
724.779518	2519.697242
725.111574	2517.403517
725.443582	2516.942251
725.775542	2520.140863
726.107453	2521.413755
726.439315	2521.930473
726.771129	2525.290402
727.102895	2519.246058
727.434612	2521.123888
727.766281	2520.924763
728.097901	2528.859539
728.429473	2526.412059
728.760996	2526.338962
729.092471	2528.642769
729.423897	2525.872655
729.755276	2527.480783
730.086606	2527.538757
730.417887	2529.038500
730.749120	2533.152081
731.080305	2530.956659
731.411442	2534.182997
731.742530	2533.462112
732.073570	2531.685106
732.404562	2535.523944
732.735506	2536.675848
733.066401	2535.201310
733.397249	2533.928419
733.728048	2534.684592
734.058798	2529.658562
734.389501	2526.419620
734.720156	2525.920546
735.050762	2524.312418
735.381320	2523.858714
735.711831	2526.172604
736.042293	2519.931655
736.372707	2521.282685
736.703073	2522.351409
737.033391	2525.539939
737.363661	2522.759743
737.693883	2525.048427
738.024056	2526.485155
738.354182	2528.355423
738.684260	2525.968437
739.014290	2525.676050
739.344272	2530.167718
739.674207	2530.024045
740.004093	2533.041176
740.333931	2533.620909
740.663722	2535.067720
740.993464	2533.648635
741.323159	2531.322142
741.652806	2532.315250
741.982405	2532.900024
742.311956	2530.293747
742.641460	2529.882893
742.970915	2531.138140
743.300323	2526.485155
743.629683	2525.900382
743.958996	2526.293592
744.288260	2521.416275
744.617477	2523.641945
744.946647	2523.142870
745.275768	2525.343334
745.604842	2523.304187
745.933869	2523.039527
746.262847	2525.071112
746.591778	2523.533560
746.920662	2523.871317
747.249498	2522.759743
747.578286	2522.946265
747.907027	2526.850639
748.235720	2526.795186
748.564365	2525.839888
748.892963	2527.211082
749.221514	2525.479445
749.550017	2527.392563
749.878473	2526.185207
750.206881	2526.875845
750.535242	2524.965248
750.863555	2529.328366
751.191821	2526.520443
751.520039	2525.282840
751.848210	2523.268899
752.176334	2527.649662
752.504411	2524.947603
752.832440	2524.337624
753.160421	2526.689322
753.488356	2527.044723
753.816243	2526.699404
754.144082	2525.668488
754.471875	2524.637573
754.799620	2521.582633
755.127318	2525.950793
755.454969	2525.182017
755.782572	2525.542460
756.110129	2522.802593
756.437638	2527.629497
756.765100	2524.841739
757.092515	2527.712676
757.419882	2527.231246
757.747203	2527.410207
758.074477	2528.236956
758.401703	2529.366175
758.728882	2530.291227
759.056014	2530.886083
759.383099	2531.974972
759.710138	2529.628315
760.037129	2528.869621
760.364073	2529.829961
760.690970	2525.371060
761.017820	2531.362472
761.344623	2533.560415
761.671379	2537.064017
761.998088	2536.824562
762.324751	2546.357384
762.651366	2557.291647
762.977935	2579.727302
763.304456	2591.957141
763.630931	2599.977617
763.957359	2595.155753
764.283740	2587.765422
764.610074	2575.722105
764.936362	2566.322874
765.262602	2559.948335
765.588796	2549.934082
765.914943	2542.453010
766.241044	2538.747762
766.567097	2536.943029
766.893104	2531.296937
767.219064	2531.894313
767.544978	2528.196627
767.870845	2525.439116
768.196665	2525.166894
768.522438	2525.865093
768.848165	2523.331914
769.173846	2522.787469
769.499479	2520.821419
769.825066	2519.954341
770.150607	2521.839732
770.476101	2520.357633
770.801548	2517.262364
771.126949	2519.036851
771.452303	2519.707324
771.777611	2519.349402
772.102872	2517.590039
772.428087	2518.459638
772.753256	2517.670698
773.078378	2518.081552
773.403453	2514.882940
773.728482	2512.445542
774.053465	2516.367560
774.378401	2513.768845
774.703291	2513.569719
775.028135	2513.141221
775.352932	2516.486027
775.677683	2512.437980
776.002388	2509.199039
776.327046	2508.362207
776.651658	2508.576456
776.976224	2506.617968
777.300743	2512.082579
777.625216	2511.558299
777.949643	2511.628875
778.274024	2512.874040
778.598359	2512.637106
778.922647	2511.502846
779.246889	2512.299348
779.571086	2508.233658
779.895236	2511.316323
780.219339	2511.898577
780.543397	2514.036026
780.867409	2511.848165
781.191374	2513.781448
781.515294	2515.364370
781.839167	2517.083403
782.162995	2514.613238
782.486776	2511.744822
782.810511	2512.306910
783.134201	2514.023423
783.457844	2513.446211
783.781441	2513.226921
784.104993	2514.250275
784.428498	2513.584843
784.751958	2509.700634
785.075372	2511.331447
785.398739	2512.848834
785.722061	2510.408916
786.045337	2510.333298
786.368568	2513.957888
786.691752	2513.027795
787.014891	2517.285050
787.337983	2516.591891
787.661030	2520.057684
787.984031	2526.225536
788.306987	2528.408356
788.629897	2529.295599
788.952760	2528.942718
789.275579	2527.241328
789.598351	2526.807789
789.921078	2525.867614
790.243759	2522.316121
790.566395	2517.695904
790.888984	2516.057529
791.211529	2519.538445
791.534027	2516.173475
791.856480	2515.457631
792.178888	2515.394617
792.501249	2507.822804
792.823566	2508.168123
793.145836	2508.669718
793.468062	2512.979904
793.790241	2509.685510
794.112375	2512.586694
794.434464	2513.108454
794.756507	2515.387055
795.078505	2514.893022
795.400457	2518.263033
795.722364	2520.755884
796.044226	2524.146060
796.366042	2525.030783
796.687812	2528.937677
797.009538	2524.962727
797.331218	2525.950793
797.652852	2525.232429
797.974442	2524.998015
798.295986	2520.551717
798.617484	2525.386184
798.938938	2519.861079
799.260346	2519.946779
799.581709	2517.186747
799.903026	2519.997190
800.224299	2517.239679
800.545526	2517.375790
800.866708	2518.263033
801.187845	2518.101717
801.508936	2516.738084
801.829983	2516.584329
802.150984	2514.030985
802.471940	2514.525018
802.792851	2514.527538
803.113717	2514.630882
803.434538	2512.861437
803.755314	2513.983094
804.076045	2513.307579
804.396731	2515.306397
804.717372	2513.020233
805.037967	2514.744308
805.358518	2514.925790
805.679024	2512.130470
805.999485	2514.230110
806.319901	2516.014679
806.640272	2515.765142
806.960598	2518.661285
807.280879	2515.631551
807.601115	2516.294463
807.921306	2517.421161
808.241453	2515.626510
808.561554	2513.909997
808.881611	2515.071983
809.201623	2514.283043
809.521590	2516.715399
809.841513	2516.816222
810.161390	2519.276305
810.481223	2518.005935
810.801011	2519.382170
811.120755	2519.989629
811.440453	2516.513753
811.760107	2518.031140
812.079716	2518.731861
812.399281	2515.578619
812.718801	2519.334279
813.038276	2514.164575
813.357707	2516.816222
813.677093	2513.917559
813.996434	2514.824967
814.315731	2514.401510
814.634983	2514.416633
814.954191	2516.977539
815.273354	2517.239679
815.592473	2517.516943
815.911547	2520.733199
816.230577	2521.718744
816.549562	2522.066584
816.868502	2518.817560
817.187399	2523.049609
817.506250	2524.448529
817.825058	2524.841739
818.143821	2523.825947
818.462539	2529.252749
818.781213	2533.235260
819.099843	2533.918337
819.418429	2544.146838
819.736970	2549.797971
820.055466	2561.541339
820.373919	2574.544996
820.692327	2593.782039
821.010691	2624.359157
821.329011	2682.771007
821.647286	2772.669903
821.965517	2888.908829
822.283704	2972.627271
822.601847	3023.074097
822.919945	3000.777074
823.237999	2950.806636
823.556010	2897.536764
823.873976	2838.431755
824.191897	2782.464865
824.509775	2740.343504
824.827609	2704.639532
825.145398	2678.279339
825.463144	2668.701147
825.780845	2668.186949
826.098502	2676.822445
826.416116	2706.381251
826.733685	2742.102867
827.051210	2755.461925
827.368692	2747.595204
827.686129	2720.922459
828.003522	2685.100020
828.320872	2654.235556
828.638177	2630.431227
828.955439	2609.235696
829.272656	2589.282809
829.589830	2580.128073
829.906960	2565.443192
830.224046	2554.929866
830.541088	2544.303114
830.858086	2541.830428
831.175041	2537.684079
831.491952	2537.525282
831.808819	2538.357073
832.125642	2539.652649
832.442421	2547.897456
832.759157	2564.379509
833.075849	2590.023858
833.392497	2618.065277
833.709101	2643.760038
834.025662	2650.545431
834.342179	2639.646456
834.658653	2616.144597
834.975083	2597.517534
835.291469	2582.520101
835.607811	2567.623491
835.924110	2559.247614
836.240366	2548.799823
836.556578	2540.537372
836.872746	2532.297606
837.188871	2528.418438
837.504952	2523.518436
837.820990	2521.922911
838.136984	2516.745646
838.452935	2516.607014
838.768842	2514.472086
839.084706	2523.100021
839.400526	2532.617719
839.716303	2546.715306
840.032037	2562.100907
840.347727	2561.848850
840.663373	2554.007335
840.978977	2538.122659
841.294537	2532.166536
841.610054	2528.496576
841.925527	2522.825278
842.240957	2521.368384
842.556344	2517.476613
842.871687	2510.935716
843.186987	2509.940088
843.502244	2508.130314
843.817458	2507.449758
844.132629	2505.816425
844.447756	2500.276197
844.762840	2500.795435
845.077881	2499.588079
845.392879	2499.101608
845.707833	2501.415497
846.022745	2501.755775
846.337613	2499.565394
846.652438	2497.871566
846.967221	2500.308964
847.281960	2497.526247
847.596656	2497.032214
847.911309	2497.773264
848.225919	2493.480721
848.540485	2497.077584
848.855009	2493.468118
849.169490	2495.608088
849.483928	2495.945845
849.798323	2495.293016
850.112675	2495.860146
850.426984	2497.806031
850.741251	2496.286123
851.055474	2496.313850
851.369654	2495.436689
851.683792	2494.625063
851.997887	2496.633963
852.311938	2497.654797
852.625947	2496.263438
852.939914	2498.743686
853.253837	2496.853253
853.567718	2498.022801
853.881555	2498.431134
854.195350	2495.857625
854.509103	2497.702688
854.822812	2497.967348
855.136479	2497.248984
855.450103	2496.414673
855.763685	2494.141112
856.077224	2495.245125
856.390720	2496.618839
856.704173	2490.687922
857.017584	2501.118069
857.330953	2498.174035
857.644278	2497.896772
857.957561	2500.417349
858.270802	2499.525065
858.584000	2496.654128
858.897155	2499.789725
859.210268	2497.327122
859.523339	2497.221257
859.836367	2498.695795
860.149352	2495.850063
860.462295	2495.361072
860.775195	2497.054899
861.088054	2497.803511
861.400869	2498.166474
861.713642	2496.399549
862.026373	2496.394508
862.339062	2495.529950
862.651708	2498.083295
862.964312	2500.596310
863.276873	2498.771412
863.589392	2500.266114
863.901869	2499.464571
864.214303	2502.905158
864.526696	2498.728562
864.839045	2498.416011
865.151353	2503.154695
865.463619	2504.135200
865.775842	2503.842813
866.088023	2502.610251
866.400162	2503.394150
866.712258	2501.032370
867.024313	2504.687206
867.336325	2501.269304
867.648296	2503.419356
867.960224	2500.001454
868.272110	2506.146620
868.583954	2501.904489
868.895755	2503.651249
869.207515	2504.959428
869.519233	2504.288955
869.830909	2503.555467
870.142542	2505.720643
870.454134	2504.092350
870.765684	2506.020591
871.077191	2505.801301
871.388657	2505.614778
871.700081	2503.981445
872.011463	2506.015550
872.322803	2506.065962
872.634101	2506.524707
872.945357	2509.083092
873.256571	2507.994203
873.567744	2506.071003
873.878874	2510.045953
874.189963	2509.589728
874.501010	2510.098885
874.812015	2512.085099
875.122979	2507.507732
875.433900	2510.955881
875.744780	2514.814884
876.055618	2513.829339
876.366415	2513.171468
876.677169	2511.563340
876.987882	2514.315810
877.298554	2514.507374
877.609183	2516.039885
877.919771	2516.896881
878.230317	2522.482479
878.540822	2523.452901
878.851285	2527.440454
879.161707	2531.367513
879.472087	2542.185829
879.782425	2556.790052
880.092722	2583.583784
880.402977	2615.496809
880.713191	2649.106182
881.023363	2680.807478
881.333494	2702.905375
881.643583	2721.741647
881.953631	2727.521330
882.263637	2727.874210
882.573602	2719.836091
882.883526	2706.595500
883.193408	2691.373736
883.503248	2675.904955
883.813048	2659.211174
884.122806	2643.026550
884.432522	2624.898561
884.742197	2610.445573
885.051831	2599.062647
885.361424	2582.116809
885.670975	2572.614234
885.980485	2563.031000
886.289954	2556.812737
886.599382	2547.799154
886.908768	2542.571477
887.218113	2536.126362
887.527417	2533.545291
887.836680	2524.932480
888.145901	2527.206040
888.455082	2525.489527
888.764221	2523.296626
889.073319	2521.287726
889.382376	2517.819412
889.691392	2519.336799
890.000366	2518.099196
890.309300	2514.882940
890.618193	2514.056191
890.927044	2518.441994
891.235855	2515.747498
891.544625	2518.295801
891.853353	2517.980729
892.162041	2519.112468
892.470687	2521.819568
892.779293	2527.939528
893.087858	2532.421114
893.396381	2537.845396
893.704864	2549.198074
894.013306	2561.402707
894.321707	2580.690162
894.630068	2594.419745
894.938387	2600.688419
895.246665	2597.257914
895.554903	2595.067533
895.863100	2586.610997
896.171256	2574.287897
896.479371	2567.925961
896.787446	2559.562686
897.095480	2555.141594
897.403473	2548.749411
897.711425	2543.735984
898.019336	2540.824718
898.327207	2538.039480
898.635038	2534.291382
898.942827	2531.327184
899.250576	2524.413241
899.558284	2521.653209
899.865952	2519.266223
900.173579	2518.399145
900.481165	2516.483506
900.788711	2513.085768
901.096216	2515.077024
901.403681	2511.172651
901.711105	2513.287415
902.018489	2512.468227
902.325832	2512.190964
902.633135	2511.197856
902.940397	2515.991994
903.247619	2525.466842
903.554800	2545.381921
903.861941	2568.719942
904.169041	2592.983016
904.476101	2606.768051
904.783121	2607.425922
905.090100	2598.127513
905.397039	2586.714341
905.703938	2575.001220
906.010796	2568.089798
906.317614	2558.874569
906.624391	2549.525749
906.931129	2544.552651
907.237826	2539.498894
907.544483	2531.400280
907.851099	2527.422810
908.157675	2520.856707
908.464211	2511.749863
908.770707	2514.005779
909.077163	2509.441014
909.383578	2503.721825
909.689954	2504.067144
909.996289	2501.508759
910.302584	2500.518172
910.608839	2499.129334
910.915054	2498.768892
911.221229	2499.862822
911.527363	2498.058089
911.833458	2500.772750
912.139513	2502.232164
912.445527	2501.627226
912.751502	2503.111846
913.057436	2505.415653
913.363331	2506.978411
913.669186	2506.083606
913.975000	2513.647857
914.280775	2519.193126
914.586510	2526.832995
914.892205	2537.681558
915.197859	2554.549259
915.503475	2569.599624
915.809050	2584.753332
916.114585	2593.277923
916.420081	2599.513831
916.725536	2603.350149
917.030952	2600.577514
917.336328	2593.792121
917.641665	2589.098807
917.946961	2580.339802
918.252218	2574.499625
918.557435	2563.933367
918.862612	2563.759447
919.167750	2557.447922
919.472848	2552.023641
919.777906	2543.985521
920.082925	2538.102494
920.387904	2531.927081
920.692843	2530.321473
920.997743	2525.451719
921.302603	2520.173631
921.607423	2514.842611
921.912204	2514.434277
922.216946	2512.528721
922.521647	2510.910511
922.826310	2507.265756
923.130932	2507.878257
923.435516	2502.005312
923.740059	2504.747700
924.044564	2502.212000
924.349028	2502.020436
924.653454	2499.336021
924.957840	2497.881648
925.262186	2497.685043
925.566493	2494.015083
925.870761	2495.545074
926.174989	2493.478201
926.479178	2492.979126
926.783328	2492.883344
927.087438	2495.711432
927.391509	2494.052892
927.695541	2494.521719
927.999533	2492.711945
928.303486	2490.801348
928.607400	2490.781183
928.911275	2490.725731
929.215110	2489.846049
929.518906	2491.227325
929.822663	2488.920998
930.126381	2493.251349
930.430060	2488.008549
930.733699	2488.903353
931.037299	2490.556852
931.340861	2490.821513
931.644383	2488.545432
931.947866	2488.641213
932.251309	2490.599702
932.554714	2491.365957
932.858080	2487.791779
933.161407	2488.033754
933.464694	2486.871768
933.767943	2486.392859
934.071153	2489.200782
934.374323	2489.725062
934.677455	2491.544918
934.980548	2487.335555
935.283602	2486.140801
935.586617	2488.560555
935.889593	2489.465442
936.192530	2487.358240
936.495428	2489.513333
936.798287	2490.226656
937.101108	2491.764208
937.403890	2490.332521
937.706632	2494.350320
938.009336	2497.286792
938.312002	2493.389980
938.614628	2495.018273
938.917216	2498.310147
939.219765	2499.235198
939.522275	2502.406084
939.824747	2499.378871
940.127179	2499.799807
940.429573	2496.860815
940.731929	2501.478512
941.034246	2499.802328
941.336524	2500.649242
941.638763	2498.148830
941.940964	2498.678151
942.243126	2496.046668
942.545250	2496.986844
942.847335	2499.028511
943.149381	2493.450474
943.451389	2498.118583
943.753359	2495.885352
944.055290	2494.758654
944.357182	2494.015083
944.659036	2492.263283
944.960851	2494.783859
945.262628	2492.878303
945.564367	2493.168170
945.866067	2489.621718
946.167729	2492.409476
946.469352	2492.452326
946.770937	2491.292860
947.072484	2491.494507
947.373992	2491.829743
947.675462	2492.742192
947.976893	2488.825216
948.278286	2488.754639
948.579641	2488.424444
948.880958	2487.335555
949.182236	2491.481904
949.483476	2489.929228
949.784678	2490.037613
950.085841	2490.387973
950.386967	2490.554331
950.688054	2492.258241
950.989103	2493.667244
951.290114	2493.538694
951.591087	2492.341420
951.892021	2493.402583
952.192917	2493.629435
952.493776	2493.067347
952.794596	2496.283603
953.095378	2494.463746
953.396122	2495.802173
953.696828	2494.345279
953.997496	2493.367295
954.298126	2491.819661
954.598718	2491.915443
954.899272	2491.822182
955.199788	2491.255052
955.500266	2492.711945
955.800706	2493.309322
956.101108	2490.629949
956.401472	2489.190699
956.701798	2490.188848
957.002087	2489.064670
957.302337	2487.454022
957.602550	2487.363281
957.902724	2485.031747
958.202861	2487.126347
958.502960	2487.353199
958.803022	2484.991418
959.103045	2485.278764
959.403031	2484.646099
959.702979	2483.804226
960.002889	2485.130050
960.302762	2484.903198
960.602596	2483.960502
960.902393	2485.172900
961.202153	2481.286170
961.501875	2483.239617
961.801559	2481.180306
962.101205	2483.388331
962.400814	2482.112919
962.700385	2482.843887
962.999918	2479.564616
963.299414	2477.747280
963.598873	2480.335912
963.898293	2477.956488
964.197677	2481.092086
964.497022	2480.429174
964.796331	2480.580408
965.095601	2482.647282
965.394835	2483.216932
965.694030	2482.806078
965.993189	2483.458907
966.292309	2480.890439
966.591393	2484.646099
966.890439	2479.315079
967.189447	2481.145018
967.488419	2477.976652
967.787353	2483.970584
968.086249	2479.466313
968.385108	2480.081334
968.683930	2482.712817
968.982714	2480.340954
969.281462	2484.215080
969.580172	2479.725933
969.878844	2484.976295
970.177480	2483.108547
970.476078	2481.145018
970.774639	2483.073259
971.073162	2482.992601
971.371649	2484.666264
971.670098	2482.669967
971.968510	2481.583598
972.266885	2481.757518
972.565223	2481.981849
972.863524	2482.024699
973.161788	2485.228352
973.460014	2480.903042
973.758204	2483.456387
974.056356	2480.323310
974.354471	2485.321614
974.652550	2482.359936
974.950591	2483.300111
975.248595	2484.842704
975.546563	2482.957313
975.844493	2484.628455
976.142386	2482.518732
976.440243	2483.627786
976.738062	2482.564102
977.035845	2481.732312
977.333590	2484.409165
977.631299	2479.325161
977.928971	2480.492188
978.226606	2478.221148
978.524204	2479.151241
978.821765	2478.019502
979.119290	2482.780872
979.416777	2483.945379
979.714228	2480.890439
980.011642	2481.815491
980.309020	2480.766931
980.606360	2482.117960
980.903664	2484.933445
981.200931	2485.009062
981.498162	2482.246510
981.795356	2483.262302
982.092513	2488.502582
982.389633	2488.900833
982.686717	2492.442243
982.983764	2490.345123
983.280775	2490.887048
983.577749	2490.818992
983.874686	2493.556338
984.171587	2495.590444
984.468451	2488.595843
984.765279	2492.868221
985.062070	2490.992912
985.358824	2490.932418
985.655543	2490.332521
985.952224	2486.065184
986.248869	2489.077273
986.545478	2484.041161
986.842050	2481.707106
987.138586	2484.227683
987.435086	2480.411530
987.731549	2481.505460
988.027975	2480.794658
988.324366	2479.841879
988.620719	2483.297590
988.917037	2478.332054
989.213318	2482.375059
989.509563	2480.199801
989.805772	2481.921355
990.101944	2478.528659
990.398080	2479.244503
990.694180	2478.125367
990.990244	2481.654174
991.286271	2475.466158
991.582262	2481.301293
991.878217	2479.483957
992.174136	2478.760552
992.470019	2480.003196
992.765865	2477.626292
993.061676	2477.207877
993.357450	2476.827269
993.653188	2475.740901
993.948890	2481.049236
994.244556	2481.916314
994.540186	2479.804071
994.835780	2482.869092
995.131337	2482.871613
995.426859	2482.241469
995.722345	2484.767087
996.017795	2484.333547
996.313208	2488.348827
996.608586	2485.424957
996.903928	2485.896305
997.199234	2486.367653
997.494504	2488.555514
997.789738	2485.654330
998.084936	2485.888743
998.380099	2484.757004
998.675225	2485.876141
998.970316	2483.370687
999.265371	2485.906387
999.560390	2483.836994
999.855373	2485.409834
1000.150320	2483.191726
1000.445232	2482.092755
1000.740108	2480.729123
1001.034948	2478.594194
1001.329752	2481.659215
1001.624521	2477.376755
1001.919254	2483.007724
1002.213951	2477.321302
1002.508613	2478.422795
1002.803239	2477.870788
1003.097829	2477.961529
1003.392384	2479.415902
1003.686903	2479.103350
1003.981386	2478.296766
1004.275834	2479.294914
1004.570246	2480.499750
1004.864623	2477.911117
1005.158964	2477.424646
1005.453270	2477.260809
1005.747540	2479.350367
1006.041775	2481.258444
1006.335974	2478.934472
1006.630138	2477.195274
1006.924266	2481.109730
1007.218359	2477.795171
1007.512416	2476.063535
1007.806438	2475.473720
1008.100425	2477.727115
1008.394376	2474.261322
1008.688292	2478.919348
1008.982172	2480.789616
1009.276017	2479.607466
1009.569827	2477.943885
1009.863602	2478.448000
1010.157341	2476.030767
1010.451045	2477.890953
1010.744714	2477.081848
1011.038347	2476.602938
1011.331945	2476.645788
1011.625508	2479.456231
1011.919036	2480.955974
1012.212528	2477.618731
1012.505986	2475.143524
1012.799408	2477.535552
1013.092795	2478.233751
1013.386147	2479.867085
1013.679464	2477.817856
1013.972745	2479.393217
1014.265992	2478.649647
1014.559204	2480.648464
1014.852380	2476.055973
1015.145521	2475.884574
1015.438628	2477.356591
1015.731699	2479.504122
1016.024736	2478.163175
1016.317737	2476.635706
1016.610703	2478.374904
1016.903635	2476.872640
1017.196531	2477.404482
1017.489393	2476.691158
1017.782219	2474.999851
1018.075011	2477.717033
1018.367768	2475.047742
1018.660490	2479.768783
1018.953177	2479.768783
1019.245829	2479.768783
