Dividing Wavelength (nm)	Counts (n)	Blue Motor Position (mm): 48.500000	Red Motor Position (mm): 0.000000	
326.493990	2064.924671
326.888308	2064.924671
327.282561	2064.924671
327.676750	2035.867460
328.070874	2040.691844
328.464933	2044.596218
328.858929	2054.769267
329.252859	2064.228992
329.646726	2077.114181
330.040528	2094.405339
330.434265	2111.716661
330.827938	2133.048303
331.221547	2151.892137
331.615091	2173.705209
332.008571	2192.065092
332.401986	2215.498895
332.795338	2234.990517
333.188625	2253.741088
333.581847	2271.180960
333.975006	2288.061264
334.368100	2306.658080
334.761129	2324.904537
335.154095	2340.224603
335.546996	2392.118241
335.939833	2500.031701
336.332606	2508.558812
336.725315	2522.109434
337.117960	2531.304498
337.510540	2542.947043
337.903056	2551.811912
338.295508	2557.692418
338.687896	2565.354972
339.080220	2567.459654
339.472480	2571.953842
339.864676	2575.976683
340.256807	2581.053125
340.648875	2581.529514
341.040879	2583.059504
341.432818	2585.532190
341.824694	2587.641913
342.216506	2588.171234
342.608253	2585.378435
342.999937	2587.215936
343.391557	2584.221490
343.783113	2584.178641
344.174605	2581.506829
344.566033	2579.409709
344.957397	2577.410892
345.348697	2575.802763
345.739934	2571.716908
346.131106	2574.000551
346.522215	2570.212124
346.913260	2571.530386
347.304241	2568.684654
347.695159	2568.145251
348.086012	2567.096691
348.476802	2567.247925
348.867528	2563.605692
349.258191	2556.911039
349.648789	2556.545556
350.039324	2553.644372
350.429796	2561.185938
350.820203	2557.311811
351.210548	2557.344579
351.600828	2557.178221
351.991045	2555.091183
352.381198	2553.898950
352.771288	2554.803837
353.161314	2556.069167
353.551276	2553.089845
353.941175	2554.390462
354.331010	2552.653785
354.720782	2558.035217
355.110490	2557.594116
355.500135	2557.256358
355.889717	2555.630586
356.279235	2557.432799
356.668689	2556.164949
357.058080	2555.426420
357.447408	2559.240052
357.836672	2558.040258
358.225873	2559.368602
358.615010	2559.968499
359.004084	2559.504713
359.393095	2561.566545
359.782043	2560.649055
360.170927	2559.348437
360.559748	2560.873386
360.948505	2561.942111
361.337199	2564.707184
361.725830	2562.675599
362.114398	2564.528223
362.502903	2563.991340
362.891344	2568.011660
363.279722	2566.295147
363.668037	2565.743141
364.056289	2563.577965
364.444478	2568.477967
364.832603	2566.159036
365.220665	2568.621640
365.608665	2570.486867
365.996601	2570.754048
366.384474	2569.743297
366.772284	2569.183728
367.160031	2569.458471
367.547715	2574.030798
367.935336	2573.614903
368.322893	2568.966959
368.710388	2567.757082
369.097820	2570.476784
369.485189	2568.450241
369.872495	2575.283525
370.259738	2571.812690
370.646918	2575.585994
371.034035	2574.991138
371.421090	2575.986766
371.808081	2576.470716
372.195010	2576.077506
372.581875	2576.954667
372.968678	2579.381983
373.355418	2577.176478
373.742096	2580.357446
374.128710	2582.504978
374.515262	2584.566809
374.901751	2585.706110
375.288177	2587.309197
375.674540	2584.629824
376.060841	2593.308170
376.447079	2592.977975
376.833254	2594.633994
377.219367	2599.549119
377.605417	2603.370313
377.991404	2607.146137
378.377329	2611.605038
378.763191	2615.643002
379.148991	2623.560134
379.534727	2628.402163
379.920402	2637.723256
380.306013	2640.468164
380.691563	2649.925369
381.077049	2659.380053
381.462474	2665.124448
381.847835	2676.323371
382.233134	2686.410720
382.618371	2694.398428
383.003545	2707.119780
383.388657	2718.855586
383.773706	2735.319995
384.158693	2747.340626
384.543618	2762.874942
384.928480	2775.233330
385.313280	2791.440640
385.698017	2804.766930
386.082692	2826.406083
386.467305	2842.933506
386.851856	2865.288503
387.236344	2887.066287
387.620770	2903.029101
388.005133	2918.878488
388.389435	2951.973663
388.773674	2965.604943
389.157851	2997.155005
389.541965	3022.706093
389.926018	3035.742517
390.310008	3066.612023
390.693936	3091.734613
391.077802	3121.336268
391.461606	3149.223931
391.845348	3168.834020
392.229027	3196.139429
392.612645	3239.674834
392.996200	3269.984772
393.379694	3306.470123
393.763125	3348.465455
394.146494	3377.462172
394.529801	3415.805188
394.913047	3458.350006
395.296230	3466.516675
395.679351	3494.371570
396.062410	3549.012637
396.445408	3531.890358
396.828343	3578.142944
397.211217	3609.894652
397.594028	3591.557455
397.976778	3638.190648
398.359466	3674.678520
398.742092	3691.213505
399.124656	3704.280175
399.507158	3767.047582
399.889598	3776.189714
400.271977	3844.308306
400.654294	3833.432016
401.036549	3892.776479
401.418742	3896.993405
401.800874	3963.012355
402.182944	3991.578054
402.564952	4080.128442
402.946898	4073.043100
403.328783	4070.749375
403.710606	4121.690234
404.092367	4193.902243
404.474067	4254.554885
404.855705	4240.578286
405.237282	4217.164647
405.618797	4309.485818
406.000250	4389.004979
406.381642	4473.189727
406.762972	4476.842043
407.144240	4440.951549
407.525447	4503.726517
407.906593	4521.526831
408.287677	4601.073718
408.668700	4630.753512
409.049661	4670.112320
409.430560	4706.466601
409.811399	4689.669477
410.192176	4738.666971
410.572891	4821.374662
410.953545	4928.327782
411.334138	4823.050846
411.714669	4930.339202
412.095139	4849.027911
412.475547	4955.068583
412.855894	4963.293225
413.236180	5061.583122
413.616405	4988.456144
413.996568	5092.263584
414.376670	5095.966312
414.756711	5090.108491
415.136691	5162.398637
415.516609	5245.151698
415.896466	5279.013129
416.276262	5356.276373
416.655997	5471.149146
417.035670	5565.086007
417.415283	5703.024579
417.794834	5772.219456
418.174324	5732.094392
418.553753	5730.551799
418.933121	5894.570781
419.312428	5904.234673
419.691674	5832.282284
420.070859	6056.290996
420.449983	5935.336071
420.829045	6130.965608
421.208047	6059.174536
421.586988	6211.452670
421.965867	6289.590555
422.344686	6366.173244
422.723444	6536.135746
423.102141	6156.980482
423.480777	6539.054574
423.859352	6356.882397
424.237866	6723.021401
424.616319	6718.562500
424.994712	6877.331120
425.373044	6785.350227
425.751314	7100.064421
426.129524	6825.140054
426.507673	7086.924653
426.885762	7132.524410
427.263789	7167.862899
427.641756	7262.326560
428.019662	7332.322981
428.397508	7378.782255
428.775292	7355.524892
429.153016	7530.188270
429.530679	7460.075902
429.908282	7512.319900
430.285824	7452.105838
430.663305	7735.698468
431.040726	7614.690611
431.418086	7621.062629
431.795385	7757.302333
432.172624	7942.842000
432.549802	7823.800193
432.926920	7956.611912
433.303977	7901.958242
433.680974	7948.785520
434.057910	8145.831621
434.434786	8195.721400
434.811601	8151.704566
435.188355	8486.318714
435.565050	8376.028350
435.941683	8384.457159
436.318257	8719.404024
436.694770	8675.021705
437.071222	8895.299964
437.447614	8664.548708
437.823946	8639.035428
438.200218	8782.612531
438.576429	8669.206734
438.952580	8829.538112
439.328670	8834.430552
439.704700	8919.310979
440.080670	8813.396337
440.456580	9079.286956
440.832429	9047.048777
441.208218	8793.146022
441.583947	8908.308661
441.959616	9020.822174
442.335224	9056.488337
442.710773	9137.555132
443.086261	9317.244541
443.461689	9034.874390
443.837057	9207.874187
444.212365	9410.233664
444.587612	9396.798989
444.962800	9294.760994
445.337927	9425.614225
445.712995	8973.160585
446.088002	9639.777564
446.462949	9697.685298
446.837837	9683.275160
447.212664	9702.524806
447.587431	10535.794769
447.962139	11542.500589
448.336786	12460.124180
448.711374	12234.913152
449.085901	11025.890705
449.460369	10952.229365
449.834776	10727.225024
450.209124	11648.692495
450.583412	11469.731533
450.957640	11778.116558
451.331808	11368.046419
451.705917	10804.238732
452.079965	10684.841523
452.453954	10884.143541
452.827883	10818.517800
453.201752	10793.571650
453.575562	10799.946189
453.949311	11142.149795
454.323001	11205.708662
454.696632	11119.489808
455.070202	11707.109386
455.443713	11769.077769
455.817164	11935.826536
456.190556	12252.663055
456.563888	12110.048812
456.937160	12369.390972
457.310373	11857.794515
457.683526	11861.386337
458.056619	11886.496325
458.429653	11945.283740
458.802628	12094.330495
459.175542	12137.190385
459.548398	12684.400073
459.921194	13264.848609
460.293930	13542.303635
460.666607	14405.835644
461.039224	15191.393607
461.411782	15530.295257
461.784280	15191.275140
462.156719	15123.043123
462.529099	15021.592422
462.901419	14389.696390
463.273680	13994.623684
463.645882	14204.257546
464.018024	14097.624539
464.390106	14466.221106
464.762130	15538.255239
465.134094	17079.691371
465.505999	19394.069978
465.877845	21636.982668
466.249631	22838.889527
466.621358	22340.069874
466.993026	21509.481805
467.364634	20750.626834
467.736184	19954.316090
468.107674	19347.956023
468.479105	19203.728612
468.850477	18934.873795
469.221790	18505.750615
469.593043	17840.414089
469.964238	17445.651414
470.335373	17517.528185
470.706449	18228.298110
471.077467	19093.919678
471.448425	21555.920914
471.819324	23418.455861
472.190164	23309.309839
472.560945	21565.831823
472.931667	20003.905921
473.302330	19668.008799
473.672934	19122.992012
474.043479	19539.492143
474.413965	19332.368776
474.784393	19149.735333
475.154761	19816.276695
475.525070	19947.659247
475.895321	19787.514392
476.265513	20299.062958
476.635645	20880.358408
477.005719	20940.695978
477.375734	21316.297228
477.745691	21936.893513
478.115588	22564.890212
478.485427	23755.797273
478.855207	25566.567132
479.224928	27373.397329
479.594591	28761.663043
479.964194	28404.923270
480.333739	28836.693056
480.703226	29059.393589
481.072653	29492.847120
481.442022	30003.536169
481.811333	30411.055484
482.180584	29973.664812
482.549777	29748.539484
482.918912	29518.506593
483.287988	29450.803897
483.657005	29303.584561
484.025964	28918.989892
484.394864	29114.982392
484.763706	29042.117555
485.132489	28502.227622
485.501213	28572.564321
485.869879	28743.328366
486.238487	28660.729060
486.607036	28944.525857
486.975527	28633.559762
487.343959	28979.544233
487.712333	29325.198508
488.080648	29281.859708
488.448905	29721.579393
488.817104	29599.376783
489.185244	30417.180486
489.553326	31359.861132
489.921350	33261.475104
490.289315	35763.621568
490.657222	36674.031268
491.025070	37227.673468
491.392861	36940.610004
491.760593	36141.133415
492.128267	35150.743289
492.495883	34156.237062
492.863440	33255.869341
493.230939	32303.386171
493.598380	31720.165000
493.965763	31564.453840
494.333088	31069.949416
494.700354	30886.539636
495.067563	30833.988128
495.434713	30712.017410
495.801805	31008.500271
496.168839	30836.942244
496.535815	30676.164724
496.902733	30801.419753
497.269593	30633.536727
497.636395	30780.274633
498.003139	31041.512267
498.369825	30796.716357
498.736453	31195.484229
499.103023	31029.073220
499.469535	31118.775511
499.835989	31230.419425
500.202385	31093.615112
500.568723	31121.792642
500.935003	31433.953491
501.301226	31291.987037
501.667390	32025.522812
502.033497	32228.789697
502.399546	32002.819976
502.765537	31602.237288
503.131470	32078.401996
503.497345	32498.362878
503.863163	31454.491152
504.228923	32211.369990
504.594625	32602.578652
504.960269	32078.223035
505.325856	32730.704618
505.691385	32387.891033
506.056856	32709.746021
506.422270	33190.288970
506.787625	32713.756259
507.152924	33174.817669
507.518164	33321.699248
507.883347	32913.602721
508.248472	33046.779923
508.613540	33712.970924
508.978550	33922.587143
509.343503	33774.921664
509.708398	34130.232269
510.073236	34704.591092
510.438016	34793.509484
510.802738	34464.095286
511.167403	35002.666957
511.532010	35251.853712
511.896561	35757.867091
512.261053	36492.426221
512.625488	36264.568588
512.989866	36184.872987
513.354186	36244.025886
513.718449	36198.731118
514.082655	37046.373411
514.446803	36742.099447
514.810894	37354.405555
515.174927	37359.628191
515.538904	37353.052006
515.902822	37993.427258
516.266684	37668.436672
516.630488	38016.079683
516.994235	38023.565796
517.357925	38590.993032
517.721558	38828.464146
518.085133	39204.453564
518.448651	39395.767873
518.812112	39279.594483
519.175516	39439.535171
519.538863	39859.649809
519.902152	39914.036297
520.265385	40459.486623
520.628560	40473.813582
520.991678	40430.537797
521.354739	40637.625876
521.717743	41020.846830
522.080690	40891.815977
522.443580	41573.228742
522.806413	41575.257807
523.169189	41710.685884
523.531908	41920.758327
523.894569	41783.896041
524.257174	41972.457880
524.619722	42292.271200
524.982213	42449.013276
525.344647	42494.638239
525.707025	42621.637508
526.069345	43036.917679
526.431608	42963.455465
526.793815	43336.760469
527.155964	42891.757654
527.518057	43139.245540
527.880093	42999.436700
528.242072	43634.755675
528.603995	43341.234493
528.965860	43260.233233
529.327669	43491.813758
529.689421	43551.987491
530.051117	43509.868651
530.412755	43778.302531
530.774337	43828.870345
531.135862	43764.530099
531.497331	43940.957881
531.858743	43922.353502
532.220098	44328.347868
532.581396	44039.736770
532.942638	43819.294674
533.303824	44064.148557
533.664953	44136.579856
534.026025	43793.254593
534.387040	44375.114653
534.747999	44428.792859
535.108902	44748.699441
535.469748	44082.798306
535.830537	44362.224422
536.191270	44591.987612
536.551947	44343.814128
536.912567	44615.464265
537.273131	44753.130615
537.633638	44377.783944
537.994089	44541.959201
538.354483	44319.404862
538.714821	44957.506554
539.075103	45228.302215
539.435328	45100.347648
539.795497	44863.133633
540.155609	44974.880890
540.515665	45568.378453
540.875665	44875.542433
541.235609	45144.170398
541.595496	45272.593793
541.955328	45834.495924
542.315102	45264.074243
542.674821	45175.138206
543.034483	45081.143372
543.394090	45095.677019
543.753640	45079.389051
544.113134	46124.649616
544.472571	45261.409993
544.831953	46373.334776
545.191278	45640.572818
545.550548	45350.766965
545.909761	45954.820704
546.268918	46105.969620
546.628019	46489.934144
546.987064	45942.716894
547.346053	45259.970743
547.704986	46153.863102
548.063863	45807.460216
548.422684	46024.539862
548.781449	45590.292349
549.140158	46101.369567
549.498811	45870.981275
549.857408	45286.197346
550.215949	46125.836807
550.574434	45949.235106
550.932864	45907.028045
551.291237	46611.246991
551.649555	46352.086313
552.007817	46517.607558
552.366022	46233.818323
552.724173	46288.915614
553.082267	46679.305088
553.440305	47057.026143
553.798288	46310.758933
554.156215	46695.887964
554.514086	46883.499545
554.871902	46482.750500
555.229661	46671.816454
555.587365	46371.484673
555.945014	46486.982548
556.302606	46500.200454
556.660143	46599.095289
557.017625	46833.725713
557.375050	46522.106788
557.732421	46907.354285
558.089735	46983.148033
558.446994	46861.305865
558.804197	47328.709047
559.161345	47175.891509
559.518437	46537.878038
559.875474	46762.206863
560.232455	46995.362749
560.589381	47044.415697
560.946251	46877.949235
561.303065	47528.817649
561.659825	47186.727470
562.016528	47003.105961
562.373177	46587.354442
562.729770	47221.186277
563.086307	46746.231447
563.442789	47276.460008
563.799216	47117.036038
564.155587	47029.201494
564.511904	46988.965525
564.868164	47052.443734
565.224370	47367.389821
565.580520	47078.153619
565.936615	47280.979403
566.292654	46916.849298
566.648638	47298.015982
567.004567	47230.802278
567.360441	47317.764702
567.716260	47020.775206
568.072023	47416.785567
568.427732	47340.485182
568.783385	46898.870023
569.138982	47293.035322
569.494525	47438.548228
569.850013	47037.438740
570.205445	47157.899631
570.560823	46933.613656
570.916145	46815.660738
571.271412	47058.329281
571.626625	46701.113120
571.981782	46771.432175
572.336884	46372.886113
572.691931	46679.572269
573.046923	46365.621811
573.401860	46191.654112
573.756743	46197.648044
574.111570	46340.824375
574.466342	46274.412214
574.821059	46442.721218
575.175722	45928.891529
575.530330	45989.299676
575.884882	45662.196847
576.239380	45561.978708
576.593823	45665.035017
576.948211	45603.709380
577.302544	45160.367626
577.656823	45155.966698
578.011047	45433.134378
578.365216	45267.567762
578.719330	44973.663452
579.073389	44944.943998
579.427394	44987.047715
579.781344	44912.731025
580.135239	44656.272406
580.489080	44733.560856
580.842866	44229.024535
581.196597	44728.618004
581.550273	44711.601590
581.903895	44643.661959
582.257463	45094.545280
582.610975	44514.928534
582.964434	44846.402043
583.317837	44349.021640
583.671186	44313.267257
584.024481	44582.192650
584.377721	44148.381197
584.730906	44360.066808
585.084037	44501.735834
585.437113	44231.867746
585.790135	44336.658211
586.143103	43909.301955
586.496016	44083.342750
586.848874	44185.526939
587.201679	44199.616964
587.554428	43691.070405
587.907124	43961.639214
588.259765	43745.386317
588.612352	43906.216769
588.964884	43364.171743
589.317362	43668.793546
589.669786	43672.516438
590.022155	43557.247935
590.374470	43998.346376
590.726731	43589.541567
591.078937	42935.943367
591.431090	43293.459478
591.783188	42779.511322
592.135232	42603.862399
592.487222	42875.494892
592.839157	43030.921227
593.191038	42690.799618
593.542866	42501.683252
593.894639	41877.689229
594.246358	42181.075949
594.598022	42178.328521
594.949633	41745.795000
595.301190	41740.617735
595.652692	41696.356404
596.004141	42175.011441
596.355535	41087.536254
596.706876	41114.093053
597.058162	40800.223253
597.409395	41321.453354
597.760573	41549.174877
598.111698	41136.977371
598.462768	41071.936404
598.813785	41076.145767
599.164748	40695.457993
599.515657	40981.926602
599.866511	40478.806845
600.217312	41155.433035
600.568060	40109.736410
600.918753	40930.723602
601.269392	40849.876097
601.619978	40589.508063
601.970510	40784.222630
602.320988	40915.416138
602.671412	41181.914216
603.021783	41047.844729
603.372100	40618.913113
603.722363	40724.832797
604.072572	40760.188929
604.422728	40747.722156
604.772830	40528.709227
605.122878	40722.226520
605.472872	40559.586294
605.822813	40831.551503
606.172701	40586.833731
606.522534	40911.073184
606.872314	41107.358071
607.222041	40945.174070
607.571714	41287.717953
607.921333	40781.921343
608.270899	40948.082815
608.620411	41344.012518
608.969870	41115.214709
609.319276	41122.446245
609.668627	41148.564463
610.017926	41547.728065
610.367171	41685.578417
610.716362	41736.282343
611.065500	41625.349232
611.414585	41860.138452
611.763616	42028.938968
612.112594	41926.336363
612.461518	42054.517782
612.810389	42435.351749
613.159207	42208.215001
613.507971	42187.672299
613.856682	42698.913355
614.205340	42532.081409
614.553945	43230.883635
614.902496	42565.179105
615.250994	42974.919048
615.599439	43066.536978
615.947830	43181.722303
616.296169	43170.258719
616.644454	43183.988301
616.992686	43366.692320
617.340864	43806.066686
617.688990	43296.824448
618.037063	43983.089324
618.385082	43789.100683
618.733048	44134.931398
619.080961	44027.118762
619.428821	44059.319132
619.776628	44110.968273
620.124382	43930.068988
620.472083	44059.871138
620.819731	44180.034602
621.167326	43742.507818
621.514868	43730.376282
621.862357	43172.418853
622.209793	43268.440231
622.557176	42847.607229
622.904506	42629.804177
623.251783	42261.202569
623.599007	41929.464399
623.946179	41860.153575
624.293297	41604.171344
624.640363	41053.553836
624.987376	40914.168453
625.334336	40735.583057
625.681243	40315.750724
626.028097	40226.751673
626.374899	40057.250437
626.721647	40023.504953
627.068343	39783.845979
627.414987	39501.803503
627.761577	39257.781410
628.108115	39574.476777
628.454600	38828.718724
628.801032	39063.981812
629.147412	38965.805341
629.493739	38845.498205
629.840014	38404.919002
630.186236	38832.403807
630.532405	38281.806464
630.878521	38513.462607
631.224585	38297.814648
631.570597	37952.319169
631.916556	38136.759865
632.262462	38028.473360
632.608316	37972.135945
632.954117	37837.713578
633.299866	37800.184708
633.645562	37715.090031
633.991206	37198.195321
634.336797	36781.750643
634.682336	36657.753382
635.027823	36437.084434
635.373257	36327.157033
635.718639	35998.350294
636.063968	35882.852418
636.409245	35247.402373
636.754470	35198.261206
637.099642	34973.239221
637.444762	34410.107049
637.789829	34546.732400
638.134845	34162.185623
638.479808	34076.977520
638.824719	34032.567475
639.169577	33532.830333
639.514383	33637.635921
639.859137	33255.183744
640.203839	33402.009870
640.548489	33134.475835
640.893086	33124.015441
641.237632	32834.721266
641.582125	32920.647733
641.926566	32706.255022
642.270955	32740.096288
642.615292	32670.107428
642.959576	32554.498647
643.303809	32555.494275
643.647990	32654.757115
643.992118	32623.156642
644.336195	32448.568881
644.680219	32507.242871
645.024192	32708.785681
645.368112	33236.377719
645.711981	33230.971082
646.055797	33930.010242
646.399562	33731.991198
646.743274	34596.186119
647.086935	35001.547821
647.430544	34990.842931
647.774101	35018.483577
648.117606	35339.418554
648.461059	35468.633410
648.804460	35103.149756
649.147810	34581.385292
649.491108	34266.960965
649.834354	34175.632901
650.177548	33367.215826
650.520690	32849.017978
650.863781	32810.314520
651.206820	32649.663029
651.549807	32235.575090
651.892742	31640.134163
652.235626	31561.731617
652.578458	31424.808838
652.921238	30735.630175
653.263967	31025.110873
653.606644	30715.125282
653.949269	30625.758227
654.291843	30232.510418
654.634365	30578.489848
654.976836	30109.460894
655.319255	30206.921521
655.661622	30073.454452
656.003938	29931.200653
656.346203	29748.363044
656.688416	30013.668888
657.030577	29800.864141
657.372687	29601.720920
657.714746	29748.289947
658.056753	29935.982187
658.398708	29314.256683
658.740612	29378.271775
659.082465	29582.957745
659.424266	29478.583175
659.766016	29458.027870
660.107715	29307.667895
660.449362	29404.768080
660.790958	29385.778053
661.132503	29318.513938
661.473996	29401.627441
661.815438	29495.655043
662.156829	29602.340982
662.498168	29392.878519
662.839456	29360.148827
663.180693	29491.609517
663.521879	29557.308354
663.863013	29526.496822
664.204097	29506.324645
664.545129	29891.862009
664.886110	29842.859473
665.227040	29951.614805
665.567918	29944.136253
665.908746	29989.317595
666.249522	30086.097666
666.590248	30101.528638
666.930922	30224.505066
667.271545	30230.710726
667.612118	30294.705654
667.952639	30107.265471
668.293109	30120.006988
668.633528	29995.230868
668.973896	29951.879466
669.314213	29941.661047
669.654480	29759.856875
669.994695	29726.345804
670.334859	29657.692851
670.674973	29454.299937
671.015035	29641.402362
671.355047	29565.404447
671.695008	29487.876542
672.034918	29401.115764
672.374777	29497.847945
672.714585	29380.137002
673.054342	29493.131945
673.394049	29367.047646
673.733705	29588.618961
674.073310	29282.895665
674.412864	29367.203922
674.752368	29087.208155
675.091820	29312.514965
675.431223	28925.266129
675.770574	28719.836589
676.109875	28566.514936
676.449125	28346.274486
676.788324	28238.804648
677.127473	27752.910514
677.466571	27670.961517
677.805619	27393.977840
678.144616	27346.578391
678.483562	27268.911854
678.822458	26948.092823
679.161303	26890.974029
679.500098	26814.653481
679.838842	26729.407569
680.177535	26776.572605
680.516179	26993.967323
680.854771	27057.448053
681.193314	27758.004600
681.531805	28694.227528
681.870247	29456.253384
682.208638	30261.711302
682.546978	30613.402359
682.885268	30790.167898
683.223508	30387.004139
683.561697	30136.602466
683.899836	29981.879372
684.237925	29576.515150
684.575963	29388.462468
684.913951	29012.228553
685.251889	29162.172633
685.589776	29151.036725
685.927614	29121.553536
686.265401	29309.631425
686.603137	29399.731967
686.940824	29893.054242
687.278460	30189.257318
687.616046	30388.496321
687.953582	31069.205845
688.291068	30993.641470
688.628504	31351.182786
688.965889	31371.317154
689.303224	31142.461372
689.640510	30865.318899
689.977745	30262.527969
690.314930	29547.871314
690.652065	29141.720672
690.989150	28467.811664
691.326185	27630.796124
691.663170	27003.048962
692.000105	26294.323225
692.336990	25685.248497
692.673825	25270.437152
693.010610	24764.423773
693.347345	24268.328864
693.684030	23647.276355
694.020665	23449.532054
694.357251	22776.404425
694.693786	22783.257873
695.030272	22555.143141
695.366707	22055.027912
695.703093	21764.377667
696.039429	21826.938386
696.375716	21589.190009
696.711952	21574.127041
697.048139	21439.112338
697.384276	21290.705810
697.720363	21397.467366
698.056400	21290.584823
698.392388	21132.446347
698.728326	21133.131944
699.064214	20982.570323
699.400053	21007.350114
699.735842	20617.941144
700.071581	20441.367169
700.407270	20203.281035
700.742910	20024.166318
701.078501	19766.727194
701.414042	19558.308250
701.749533	19267.718498
702.084974	18957.763154
702.420366	19187.153298
702.755709	18776.238766
703.091002	18488.726638
703.426246	18529.411270
703.761440	18467.742835
704.096584	18244.512981
704.431679	18173.107558
704.766725	18130.426629
705.101721	18042.423206
705.436668	18157.767327
705.771565	17868.059777
706.106413	18173.039502
706.441212	18247.227643
706.775961	18327.553388
707.110661	18398.946209
707.445311	18771.104350
707.779913	18653.272420
708.114465	18929.837682
708.448967	19233.768848
708.783421	19842.704944
709.117825	20190.206802
709.452180	20400.596837
709.786485	20844.218376
710.120742	21576.771126
710.454949	21665.692039
710.789107	22190.481196
711.123216	22895.980594
711.457275	23119.487712
711.791286	23665.021216
712.125247	23854.258570
712.459159	23612.084060
712.793023	24377.124526
713.126837	23400.718561
713.460602	23667.536752
713.794318	23347.312577
714.127985	23079.559253
714.461602	22189.069673
714.795171	22182.150689
715.128691	21220.676622
715.462162	20707.247705
715.795584	20275.800553
716.128957	20005.705612
716.462281	19635.188367
716.795556	19347.184727
717.128782	18877.686946
717.461960	18271.389893
717.795088	18256.072347
718.128167	17923.371317
718.461198	17471.071432
718.794180	17353.957866
719.127113	17022.769182
719.459997	16819.971125
719.792833	16448.649815
720.125619	16493.208573
720.458357	16148.930533
720.791046	16020.297931
721.123686	15867.803027
721.456278	15635.070598
721.788821	15634.742923
722.121315	15370.805752
722.453761	15467.411904
722.786158	15349.713564
723.118506	15433.338745
723.450805	15317.094778
723.783056	15498.697304
724.115259	15376.169540
724.447412	15362.250914
724.779518	15571.453757
725.111574	15622.172806
725.443582	15869.466608
725.775542	15825.835422
726.107453	16323.598952
726.439315	16237.979995
726.771129	16623.406454
727.102895	17033.400976
727.434612	17302.835525
727.766281	17481.136096
728.097901	17823.327098
728.429473	17927.048838
728.760996	17956.045555
729.092471	18074.636179
729.423897	17946.578268
729.755276	17780.240356
730.086606	17875.712248
730.417887	18422.259025
730.749120	18963.948650
731.080305	19196.570173
731.411442	19602.030177
731.742530	19712.844821
732.073570	19865.485918
732.404562	20183.403765
732.735506	20068.425128
733.066401	19946.882909
733.397249	19508.307565
733.728048	18917.766639
734.058798	18071.997135
734.389501	17321.114749
734.720156	16793.557999
735.050762	16219.224383
735.381320	15815.155737
735.711831	15530.411203
736.042293	15140.891328
736.372707	15165.023331
736.703073	14947.832780
737.033391	15130.957734
737.363661	15119.100940
737.693883	15228.360388
738.024056	15423.097641
738.354182	15616.551920
738.684260	15962.818695
739.014290	16235.708956
739.344272	16464.373173
739.674207	16810.592058
740.004093	16987.178636
740.333931	17054.362093
740.663722	17151.714336
740.993464	17204.263323
741.323159	17078.789004
741.652806	16790.629089
741.982405	16627.330992
742.311956	16262.159890
742.641460	16176.079667
742.970915	15848.475243
743.300323	15504.209806
743.629683	15300.889989
743.958996	14980.406195
744.288260	14681.092727
744.617477	14372.311971
744.946647	14331.554243
745.275768	14019.549669
745.604842	13823.297550
745.933869	13642.090754
746.262847	13606.767389
746.591778	13512.112164
746.920662	13383.731620
747.249498	13382.630128
747.578286	13521.904606
747.907027	13685.333772
748.235720	13946.954533
748.564365	14038.839644
748.892963	13968.969252
749.221514	14076.653339
749.550017	13960.061533
749.878473	13934.371813
750.206881	13720.082446
750.535242	13651.280778
750.863555	13570.569384
751.191821	13466.850164
751.520039	13479.715189
751.848210	13407.067121
752.176334	13438.244137
752.504411	13370.286863
752.832440	13191.643494
753.160421	13313.520950
753.488356	13207.921379
753.816243	13115.474180
754.144082	12956.340076
754.471875	12898.833114
754.799620	12856.295858
755.127318	12831.722753
755.454969	12823.361999
755.782572	12781.815330
756.110129	12796.026343
756.437638	12699.493288
756.765100	12710.034340
757.092515	12732.507804
757.419882	12765.754214
757.747203	12774.248558
758.074477	12844.741533
758.401703	12830.437259
758.728882	13017.242256
759.056014	13059.938308
759.383099	13227.334863
759.710138	13350.880941
760.037129	13484.078308
760.364073	13556.801993
760.690970	13573.548706
761.017820	13584.545983
761.344623	13774.070683
761.671379	14091.491976
761.998088	14633.524399
762.324751	16039.383740
762.651366	18977.494230
762.977935	23292.048928
763.304456	26578.581287
763.630931	28180.329784
763.957359	27393.720741
764.283740	25365.044487
764.610074	23205.812430
764.936362	20583.968808
765.262602	18673.222787
765.588796	16696.084769
765.914943	15369.923550
766.241044	14223.358478
766.567097	13407.389755
766.893104	12662.924758
767.219064	12191.014784
767.544978	11695.131604
767.870845	11301.717437
768.196665	11071.898795
768.522438	10835.622435
768.848165	10633.502413
769.173846	10417.544423
769.499479	10296.103027
769.825066	10126.251430
770.150607	9910.091795
770.476101	9823.313372
770.801548	9705.181494
771.126949	9545.684427
771.452303	9434.645452
771.777611	9244.067151
772.102872	9223.587464
772.428087	9095.131302
772.753256	8940.430893
773.078378	8857.095579
773.403453	8679.130246
773.728482	8558.071977
774.053465	8483.450297
774.378401	8385.241059
774.703291	8261.977285
775.028135	8153.355543
775.352932	8116.111499
775.677683	8010.733739
776.002388	7907.770693
776.327046	7911.801095
776.651658	7816.641755
776.976224	7713.726599
777.300743	7718.354378
777.625216	7631.570915
777.949643	7584.751198
778.274024	7602.158303
778.598359	7509.146493
778.922647	7530.768002
779.246889	7482.209088
779.571086	7488.550859
779.895236	7495.028742
780.219339	7494.577559
780.543397	7503.560895
780.867409	7586.077022
781.191374	7598.374917
781.515294	7563.530461
781.839167	7657.449678
782.162995	7624.054554
782.486776	7574.608397
782.810511	7527.594596
783.134201	7446.399252
783.457844	7443.291380
783.781441	7387.919346
784.104993	7321.459295
784.428498	7298.625388
784.751958	7283.993439
785.075372	7249.464056
785.398739	7195.841302
785.722061	7238.890236
786.045337	7237.939978
786.368568	7371.260853
786.691752	7378.699076
787.014891	7673.893922
787.337983	7981.263154
787.661030	8537.458699
787.984031	9156.162031
788.306987	9596.597560
788.629897	9851.750521
788.952760	9858.914001
789.275579	9679.645529
789.598351	9307.968818
789.921078	8966.397877
790.243759	8559.763284
790.566395	8259.870083
790.888984	8009.470930
791.211529	7798.816235
791.534027	7567.981800
791.856480	7364.956891
792.178888	7289.566435
792.501249	7193.494645
792.823566	7033.226282
793.145836	7028.618668
793.468062	6994.593400
793.790241	6938.369411
794.112375	7003.785944
794.434464	7144.739126
794.756507	7172.911614
795.078505	7307.018909
795.400457	7587.513751
795.722364	7923.093280
796.044226	8210.607928
796.366042	8509.568515
796.687812	8481.627920
797.009538	8575.547137
797.331218	8490.023962
797.652852	8409.080675
797.974442	8264.533150
798.295986	8177.986621
798.617484	7999.595310
798.938938	7859.715894
799.260346	7759.341479
799.581709	7558.978299
799.903026	7481.725137
800.224299	7375.417285
800.545526	7203.967642
800.866708	7105.629854
801.187845	7041.397993
801.508936	6936.239523
801.829983	6898.156127
802.150984	6752.199599
802.471940	6708.006324
802.792851	6693.712133
803.113717	6656.145454
803.434538	6624.804601
803.755314	6567.947947
804.076045	6562.881587
804.396731	6510.085583
804.717372	6539.097423
805.037967	6540.589605
805.358518	6579.275420
805.679024	6650.585061
805.999485	6665.350601
806.319901	6707.106478
806.640272	6719.192645
806.960598	6803.838659
807.280879	6808.441232
807.601115	6889.429889
807.921306	6839.953485
808.241453	6849.640062
808.561554	6879.312294
808.881611	6842.453897
809.201623	6848.657037
809.521590	6793.766433
809.841513	6781.339989
810.161390	6822.405228
810.481223	6690.122831
810.801011	6672.690521
811.120755	6650.978271
811.440453	6568.298307
811.760107	6542.051540
812.079716	6512.127250
812.399281	6450.599968
812.718801	6436.169665
813.038276	6393.587038
813.357707	6326.675803
813.677093	6372.993925
813.996434	6269.161279
814.315731	6314.244318
814.634983	6305.165200
814.954191	6309.407331
815.273354	6412.093114
815.592473	6464.311906
815.911547	6584.125010
816.230577	6656.994888
816.549562	6797.564943
816.868502	6893.833337
817.187399	6989.143913
817.506250	7128.783874
817.825058	7156.797566
818.143821	7400.829741
818.462539	7640.115670
818.781213	7965.761606
819.099843	8437.754758
819.418429	9344.980969
819.736970	10251.022509
820.055466	11358.851354
820.373919	12727.867422
820.692327	14724.998656
821.010691	18047.960913
821.329011	25477.275695
821.647286	37151.942735
821.965517	51187.631658
822.283704	58628.029416
822.601847	61800.944249
822.919945	59650.990437
823.237999	55802.888663
823.556010	49826.656231
823.873976	43180.794730
824.191897	36672.224014
824.509775	31800.611733
824.827609	27147.750242
825.145398	24333.347146
825.463144	22658.194408
825.780845	22532.838556
826.098502	23774.252938
826.416116	27095.453312
826.733685	30840.181185
827.051210	32700.881152
827.368692	31752.015010
827.686129	28236.382374
828.003522	24211.182344
828.320872	20441.261305
828.638177	17537.191206
828.955439	15329.092724
829.272656	13499.806708
829.589830	12008.283040
829.906960	10711.990658
830.224046	9730.452798
830.541088	8942.976676
830.858086	8451.711193
831.175041	8047.642547
831.491952	7879.441929
831.808819	7869.042028
832.125642	8167.538830
832.442421	8869.776602
832.759157	10347.439617
833.075849	12923.582658
833.392497	16052.344546
833.709101	18555.196772
834.025662	18941.873437
834.342179	17598.055577
834.658653	15525.617066
834.975083	13597.758847
835.291469	11940.766866
835.607811	10605.496283
835.924110	9683.491929
836.240366	8820.680804
836.556578	8010.108636
836.872746	7348.822678
837.188871	6837.138001
837.504952	6403.447535
837.820990	6082.331076
838.136984	5845.386763
838.452935	5729.162961
838.768842	5711.488676
839.084706	5985.051931
839.400526	6949.946421
839.716303	8457.997512
840.032037	9707.273572
840.347727	9940.028687
840.663373	9144.262388
840.978977	8099.011905
841.294537	7263.327229
841.610054	6643.139277
841.925527	6210.930911
842.240957	5844.769222
842.556344	5523.945150
842.871687	5237.554679
843.186987	4953.614210
843.502244	4722.139548
843.817458	4551.541861
844.132629	4409.850150
844.447756	4314.915141
844.762840	4235.882451
845.077881	4161.079290
845.392879	4099.970423
845.707833	4051.792116
846.022745	4004.385105
846.337613	3975.305209
846.652438	3935.782563
846.967221	3917.112650
847.281960	3883.122670
847.596656	3865.987788
847.911309	3844.220086
848.225919	3823.246365
848.540485	3804.422697
848.855009	3792.195378
849.169490	3770.740227
849.483928	3759.574071
849.798323	3752.629882
850.112675	3737.173704
850.426984	3738.801997
850.741251	3724.865727
851.055474	3720.734502
851.369654	3723.885223
851.683792	3719.592680
851.997887	3726.410841
852.311938	3728.316397
852.625947	3732.361923
852.939914	3722.766087
853.253837	3732.981985
853.567718	3731.187334
853.881555	3720.537897
854.195350	3734.436358
854.509103	3726.793968
854.822812	3729.125502
855.136479	3719.622927
855.450103	3730.169021
855.763685	3720.084193
856.077224	3720.505129
856.390720	3731.096593
856.704173	3752.118205
857.017584	3766.248559
857.330953	3774.858850
857.644278	3798.466573
857.957561	3803.611071
858.270802	3801.892037
858.584000	3808.112821
858.897155	3801.161070
859.210268	3786.360242
859.523339	3760.685646
859.836367	3765.918363
860.149352	3757.401334
860.462295	3749.398502
860.775195	3741.665372
861.088054	3734.459043
861.400869	3729.730441
861.713642	3731.202457
862.026373	3739.071699
862.339062	3741.965321
862.651708	3763.586830
862.964312	3790.373001
863.276873	3800.203251
863.589392	3850.849203
863.901869	3895.108013
864.214303	3941.315229
864.526696	3974.309581
864.839045	4018.916231
865.151353	4048.653997
865.463619	4055.474679
865.775842	4063.175041
866.088023	4083.944595
866.400162	4073.030497
866.712258	4083.541303
867.024313	4085.787137
867.336325	4082.089450
867.648296	4088.244699
867.960224	4089.036160
868.272110	4099.947738
868.583954	4095.834156
868.895755	4112.744707
869.207515	4106.236577
869.519233	4143.233605
869.830909	4158.430164
870.142542	4182.350439
870.454134	4193.781255
870.765684	4224.239907
871.077191	4258.781893
871.388657	4279.911889
871.700081	4314.085871
872.011463	4353.946274
872.322803	4384.984659
872.634101	4419.511521
872.945357	4457.219352
873.256571	4510.489225
873.567744	4538.586096
873.878874	4554.236358
874.189963	4597.532308
874.501010	4602.190334
874.812015	4602.822999
875.122979	4647.119618
875.433900	4644.175584
875.744780	4657.522038
876.055618	4680.779402
876.366415	4680.113969
876.677169	4696.608625
876.987882	4737.779728
877.298554	4787.341832
877.609183	4857.794478
877.919771	4943.247077
878.230317	5072.487138
878.540822	5256.832052
878.851285	5537.775556
879.161707	5931.502274
879.472087	6573.251241
879.782425	7602.175947
880.092722	9424.210263
880.402977	12287.507510
880.713191	15842.083060
881.023363	19593.485421
881.333494	22080.752920
881.643583	23559.454413
881.953631	23795.206494
882.263637	23131.992294
882.573602	21813.473464
882.883526	20361.658965
883.193408	18777.118447
883.503248	17143.479611
883.813048	15657.370142
884.122806	14279.695893
884.432522	12838.125018
884.742197	11597.890267
885.051831	10510.026911
885.361424	9502.751440
885.670975	8675.493053
885.980485	7983.622414
886.289954	7406.495998
886.599382	6928.513955
886.908768	6547.904319
887.218113	6186.088105
887.527417	5896.546913
887.836680	5628.657477
888.145901	5409.039610
888.455082	5248.849385
888.764221	5093.541517
889.073319	4956.636381
889.382376	4878.755596
889.691392	4814.627077
890.000366	4786.613386
890.309300	4767.227628
890.618193	4768.397176
890.927044	4754.385289
891.235855	4771.439512
891.544625	4794.323830
891.853353	4840.924257
892.162041	4935.067805
892.470687	5096.777938
892.779293	5313.850022
893.087858	5630.976408
893.396381	6125.019567
893.704864	6814.336862
894.013306	7842.492792
894.321707	8986.691042
894.630068	9887.010872
894.938387	10234.661444
895.246665	10122.510894
895.554903	9595.299463
895.863100	8941.055997
896.171256	8406.555057
896.479371	7918.253772
896.787446	7428.064575
897.095480	6996.690520
897.403473	6686.810793
897.711425	6376.348813
898.019336	6119.665862
898.327207	5850.727866
898.635038	5620.732783
898.942827	5376.035176
899.250576	5180.173746
899.558284	4983.805680
899.865952	4862.074417
900.173579	4717.065627
900.481165	4608.393474
900.788711	4516.659597
901.096216	4444.029173
901.403681	4372.873287
901.711105	4344.012681
902.018489	4322.192046
902.325832	4378.529461
902.633135	4459.979384
902.940397	4721.794229
903.247619	5334.276778
903.554800	6540.438370
903.861941	8306.818349
904.169041	9902.252800
904.476101	10751.848540
904.783121	10624.423295
905.090100	9991.115740
905.397039	9202.356644
905.703938	8471.497722
906.010796	7792.469422
906.317614	7260.640294
906.624391	6736.856848
906.931129	6323.026008
907.237826	5933.047388
907.544483	5565.912756
907.851099	5203.602508
908.157675	4856.261967
908.464211	4526.515053
908.770707	4281.252836
909.077163	4073.650559
909.383578	3925.299483
909.689954	3800.934218
909.996289	3728.024010
910.302584	3660.709483
910.608839	3624.904687
910.915054	3593.944441
911.221229	3578.634457
911.527363	3584.769541
911.833458	3594.078032
912.139513	3618.225159
912.445527	3636.985813
912.751502	3710.352245
913.057436	3796.941624
913.363331	3912.676434
913.669186	4090.571192
913.975000	4308.477587
914.280775	4668.673071
914.586510	5168.619421
914.892205	5865.140525
915.197859	6801.925541
915.503475	7951.326262
915.809050	9014.044342
916.114585	9734.752902
916.420081	10102.535322
916.725536	10153.095575
917.030952	9791.972519
917.336328	9426.829143
917.641665	9045.685145
917.946961	8593.387780
918.252218	8190.944907
918.557435	7697.849485
918.862612	7284.278264
919.167750	6927.493122
919.472848	6521.080340
919.777906	6158.079454
920.082925	5806.945445
920.387904	5437.580102
920.692843	5167.631355
920.997743	4914.278086
921.302603	4680.819731
921.607423	4519.585987
921.912204	4354.657077
922.216946	4243.053493
922.521647	4121.796099
922.826310	4015.773072
923.130932	3923.819905
923.435516	3827.417920
923.740059	3757.098865
924.044564	3683.429963
924.349028	3628.143629
924.653454	3564.524267
924.957840	3496.211592
925.262186	3449.517904
925.566493	3392.119326
925.870761	3332.048937
926.174989	3299.770429
926.479178	3262.362547
926.783328	3219.795044
927.087438	3195.345448
927.391509	3162.000736
927.695541	3133.939153
927.999533	3103.266252
928.303486	3087.489961
928.607400	3070.569328
928.911275	3057.144736
929.215110	3039.994730
929.518906	3032.100283
929.822663	3028.793286
930.126381	3026.512164
930.430060	3034.242774
930.733699	3034.509955
931.037299	3042.243085
931.340861	3043.694937
931.644383	3048.940258
931.947866	3050.707182
932.251309	3045.177036
932.554714	3043.614279
932.858080	3037.905172
933.161407	3034.157074
933.464694	3024.034437
933.767943	3019.331041
934.071153	3013.437932
934.374323	3002.828823
934.677455	3001.631549
934.980548	2992.517143
935.283602	2985.106647
935.586617	2980.718323
935.889593	2988.438850
936.192530	2991.985302
936.495428	3003.786643
936.798287	3023.001001
937.101108	3048.662994
937.403890	3094.280395
937.706632	3150.925321
938.009336	3224.735375
938.312002	3294.789769
938.614628	3361.113710
938.917216	3416.672266
939.219765	3449.517904
939.522275	3482.592914
939.824747	3490.641117
940.127179	3492.909636
940.429573	3481.443531
940.731929	3484.092658
941.034246	3473.483549
941.336524	3461.160449
941.638763	3446.329374
941.940964	3433.592899
942.243126	3396.283319
942.545250	3374.800442
942.847335	3339.444310
943.149381	3303.795790
943.451389	3274.274793
943.753359	3240.856985
944.055290	3215.061400
944.357182	3188.580219
944.659036	3176.289886
944.960851	3163.412259
945.262628	3147.653612
945.564367	3151.290804
945.866067	3145.896770
946.167729	3141.458034
946.469352	3141.435348
946.770937	3138.675317
947.072484	3121.174951
947.373992	3122.959520
947.675462	3117.699076
947.976893	3099.737444
948.278286	3094.184613
948.579641	3091.154880
948.880958	3076.553178
949.182236	3086.688418
949.483476	3075.280287
949.784678	3074.884556
950.085841	3075.481933
950.386967	3085.334868
950.688054	3099.286261
950.989103	3116.194291
951.290114	3134.211375
951.591087	3159.843122
951.892021	3186.450332
952.192917	3214.542162
952.493776	3240.945205
952.794596	3252.058428
953.095378	3256.298039
953.396122	3255.372987
953.696828	3252.539859
953.997496	3237.827251
954.298126	3217.143397
954.598718	3200.253011
954.899272	3179.727953
955.199788	3152.059580
955.500266	3125.464973
955.800706	3090.514653
956.101108	3057.051474
956.401472	3023.079138
956.701798	2994.667195
957.002087	2952.828139
957.302337	2925.479879
957.602550	2896.742782
957.902724	2870.606920
958.202861	2842.295800
958.502960	2821.838797
958.803022	2802.952115
959.103045	2782.893363
959.403031	2763.840322
959.702979	2749.354567
960.002889	2739.549523
960.302762	2727.317163
960.602596	2716.380380
960.902393	2709.421067
961.202153	2697.133254
961.501875	2688.764939
961.801559	2685.415092
962.101205	2679.758917
962.400814	2672.895387
962.700385	2664.408604
962.999918	2659.334683
963.299414	2654.812768
963.598873	2652.072901
963.898293	2642.676190
964.197677	2645.869761
964.497022	2644.649802
964.796331	2641.317599
965.095601	2638.734008
965.394835	2637.730818
965.694030	2635.618574
965.993189	2637.163688
966.292309	2631.875518
966.591393	2633.614716
966.890439	2630.292595
967.189447	2631.159674
967.488419	2631.570528
967.787353	2632.669499
968.086249	2633.670168
968.385108	2637.022536
968.683930	2631.207565
968.982714	2640.778195
969.281462	2642.381282
969.580172	2649.985863
969.878844	2654.686739
970.177480	2663.181083
970.476078	2668.970848
970.774639	2675.612568
971.073162	2683.494412
971.371649	2689.594209
971.670098	2694.418593
971.968510	2699.157277
972.266885	2704.425283
972.565223	2707.994420
972.863524	2711.689586
973.161788	2712.244113
973.460014	2716.138404
973.758204	2720.801472
974.056356	2720.562017
974.354471	2723.934549
974.652550	2724.748695
974.950591	2725.023438
975.248595	2725.192317
975.546563	2719.768035
975.844493	2718.432129
976.142386	2711.112374
976.440243	2707.512990
976.738062	2705.476364
977.035845	2697.007225
977.333590	2690.257120
977.631299	2684.321162
977.928971	2682.675225
978.226606	2675.403361
978.524204	2670.954542
978.821765	2664.275013
979.119290	2667.224088
979.416777	2667.697957
979.714228	2670.480674
980.011642	2674.233813
980.309020	2676.119204
980.606360	2689.294260
980.903664	2707.616334
981.200931	2739.705798
981.498162	2778.810029
981.795356	2844.191274
982.092513	2925.653799
982.389633	3021.791124
982.686717	3120.489354
982.983764	3200.406766
983.280775	3253.046495
983.577749	3271.426542
983.874686	3264.873042
984.171587	3235.460429
984.468451	3201.455326
984.765279	3158.043430
985.062070	3119.493726
985.358824	3078.350349
985.655543	3023.787421
985.952224	2977.260091
986.248869	2916.650298
986.545478	2856.340454
986.842050	2800.439099
987.138586	2755.903026
987.435086	2714.787375
987.731549	2684.527849
988.027975	2659.127995
988.324366	2641.438587
988.620719	2625.896709
988.917037	2616.119391
989.213318	2606.369800
989.509563	2595.402770
989.805772	2594.623911
990.101944	2590.709455
990.398080	2585.607808
990.694180	2585.796851
990.990244	2583.727457
991.286271	2584.294587
991.582262	2583.727457
991.878217	2586.868096
992.174136	2591.586616
992.470019	2590.409507
992.765865	2597.157091
993.061676	2596.521906
993.357450	2605.593462
993.653188	2612.320882
993.948890	2631.691516
994.244556	2644.352373
994.540186	2667.153512
994.835780	2695.061340
995.131337	2726.460167
995.426859	2766.486928
995.722345	2809.982004
996.017795	2857.114272
996.313208	2896.873852
996.608586	2927.798810
996.903928	2947.371090
997.199234	2947.663477
997.494504	2947.396296
997.789738	2935.148813
998.084936	2914.671646
998.380099	2885.042264
998.675225	2863.579551
998.970316	2832.142916
999.265371	2794.886268
999.560390	2763.126999
999.855373	2734.659603
1000.150320	2701.902186
1000.445232	2674.702640
1000.740108	2657.713952
1001.034948	2637.440952
1001.329752	2622.254476
1001.624521	2607.836776
1001.919254	2599.327308
1002.213951	2590.187696
1002.508613	2583.246027
1002.803239	2575.059193
1003.097829	2568.089798
1003.392384	2562.756257
1003.686903	2558.879610
1003.981386	2556.492624
1004.275834	2551.285112
1004.570246	2550.312169
1004.864623	2549.588763
1005.158964	2544.839997
1005.453270	2542.939482
1005.747540	2542.707588
1006.041775	2543.163813
1006.335974	2540.829759
1006.630138	2537.782381
1006.924266	2537.598379
1007.218359	2538.097453
1007.512416	2536.627957
1007.806438	2531.339787
1008.100425	2531.627132
1008.394376	2529.794673
1008.688292	2535.614685
1008.982172	2531.843902
1009.276017	2534.979500
1009.569827	2528.690660
1009.863602	2533.736855
1010.157341	2529.472039
1010.451045	2530.233253
1010.744714	2528.650331
1011.038347	2529.184693
1011.331945	2528.957841
1011.625508	2526.391894
1011.919036	2527.788294
1012.212528	2524.206554
1012.505986	2523.780576
1012.799408	2524.093128
1013.092795	2523.616739
1013.386147	2522.290915
1013.679464	2523.031965
1013.972745	2521.998528
1014.265992	2523.715041
1014.559204	2520.997859
1014.852380	2522.157325
1015.145521	2523.031965
1015.438628	2523.208405
1015.731699	2521.723786
1016.024736	2522.041378
1016.317737	2519.233456
1016.610703	2524.521626
1016.903635	2526.142357
1017.196531	2525.421472
1017.489393	2528.743592
1017.782219	2530.306350
1018.075011	2533.648635
1018.367768	2530.114786
1018.660490	2532.627801
1018.953177	2532.627801
1019.245829	2532.627801
