Dividing Wavelength (nm)	Counts (n)	Blue Motor Position (mm): 26.000000	Red Motor Position (mm): 0.000000	
326.493990	2067.286452
326.888308	2067.286452
327.282561	2067.286452
327.676750	2042.368028
328.070874	2045.566640
328.464933	2051.008566
328.858929	2059.122303
329.252859	2066.784857
329.646726	2080.879923
330.040528	2098.695361
330.434265	2113.886878
330.827938	2137.464354
331.221547	2158.231388
331.615091	2175.618327
332.008571	2197.030628
332.401986	2216.129039
332.795338	2237.483367
333.188625	2258.361306
333.581847	2277.381579
333.975006	2293.538477
334.368100	2310.963226
334.761129	2327.588951
335.154095	2343.319872
335.546996	2389.330483
335.939833	2497.372492
336.332606	2502.998420
336.725315	2517.564834
337.117960	2525.343334
337.510540	2535.833975
337.903056	2544.174564
338.295508	2554.214022
338.687896	2560.649055
339.080220	2563.686350
339.472480	2569.387895
339.864676	2572.314285
340.256807	2575.714543
340.648875	2580.848958
341.040879	2577.486509
341.432818	2579.714699
341.824694	2579.850810
342.216506	2581.063207
342.608253	2580.246541
342.999937	2578.184709
343.391557	2581.179154
343.783113	2576.468196
344.174605	2574.650860
344.566033	2573.950139
344.957397	2574.174471
345.348697	2572.347053
345.739934	2568.742628
346.131106	2568.026784
346.522215	2568.193142
346.913260	2566.537123
347.304241	2563.585527
347.695159	2560.414641
348.086012	2560.039075
348.476802	2555.960782
348.867528	2555.209650
349.258191	2547.726057
349.648789	2552.305945
350.039324	2547.005172
350.429796	2551.015410
350.820203	2553.921635
351.210548	2550.932231
351.600828	2549.414844
351.991045	2549.402241
352.381198	2546.581715
352.771288	2550.753270
353.161314	2547.698331
353.551276	2545.696993
353.941175	2544.769420
354.331010	2547.259750
354.720782	2550.034906
355.110490	2553.621687
355.500135	2547.201777
355.889717	2548.953578
356.279235	2548.938455
356.668689	2549.462735
357.058080	2549.082128
357.447408	2550.523898
357.836672	2551.073383
358.225873	2551.650595
358.615010	2550.680173
359.004084	2550.962478
359.393095	2553.795606
359.782043	2552.900802
360.170927	2551.552293
360.559748	2554.183775
360.948505	2551.484237
361.337199	2554.541697
361.725830	2555.360885
362.114398	2555.348282
362.502903	2554.766028
362.891344	2558.194013
363.279722	2555.469269
363.668037	2558.199054
364.056289	2557.707542
364.444478	2558.262069
364.832603	2558.839281
365.220665	2558.614949
365.608665	2561.851370
365.996601	2559.224929
366.384474	2558.872048
366.772284	2561.659806
367.160031	2559.681153
367.547715	2564.273645
367.935336	2559.502192
368.322893	2559.718962
368.710388	2557.548745
369.097820	2560.089487
369.485189	2559.540001
369.872495	2562.297512
370.259738	2563.106617
370.646918	2564.815569
371.034035	2566.776577
371.421090	2564.213151
371.808081	2562.806669
372.195010	2565.080229
372.581875	2567.154664
372.968678	2563.724159
373.355418	2562.136195
373.742096	2565.922102
374.128710	2567.005950
374.515262	2567.714232
374.901751	2567.479818
375.288177	2569.098029
375.674540	2566.005281
376.060841	2569.579459
376.447079	2567.666341
376.833254	2571.147258
377.219367	2568.629202
377.605417	2566.761454
377.991404	2569.619788
378.377329	2570.670869
378.763191	2567.598286
379.148991	2569.902093
379.534727	2570.824624
379.920402	2569.518965
380.306013	2570.885118
380.691563	2571.606003
381.077049	2568.964438
381.462474	2569.813873
381.847835	2570.368400
382.233134	2570.749007
382.618371	2570.605334
383.003545	2570.532237
383.388657	2571.018708
383.773706	2569.934860
384.158693	2573.604820
384.543618	2572.785633
384.928480	2573.317475
385.313280	2573.408215
385.698017	2573.456106
386.082692	2574.015674
386.467305	2575.853175
386.851856	2574.174471
387.236344	2576.690007
387.620770	2571.921075
388.005133	2571.938719
388.389435	2572.077351
388.773674	2574.305541
389.157851	2576.236303
389.541965	2575.424677
389.926018	2581.073290
390.310008	2580.871644
390.693936	2583.162848
391.077802	2580.002045
391.461606	2578.668659
391.845348	2580.438104
392.229027	2577.294945
392.612645	2579.364339
392.996200	2579.550861
393.379694	2581.539597
393.763125	2580.415419
394.146494	2583.046902
394.529801	2582.212591
394.913047	2583.379618
395.296230	2584.153435
395.679351	2581.894998
396.062410	2582.084041
396.445408	2581.058166
396.828343	2584.660071
397.211217	2582.668815
397.594028	2584.213929
397.976778	2582.457087
398.359466	2586.295925
398.742092	2584.980184
399.124656	2583.087231
399.507158	2584.879361
399.889598	2586.253075
400.271977	2585.847262
400.654294	2584.725606
401.036549	2584.276943
401.418742	2585.295256
401.800874	2584.226532
402.182944	2586.689135
402.564952	2586.129567
402.946898	2586.311049
403.328783	2586.096800
403.710606	2587.097469
404.092367	2587.684763
404.474067	2585.925400
404.855705	2588.889599
405.237282	2589.854980
405.618797	2589.862542
406.000250	2591.616863
406.381642	2589.434043
406.762972	2589.003025
407.144240	2585.471697
407.525447	2589.156780
407.906593	2584.977663
408.287677	2592.178952
408.668700	2592.395721
409.049661	2592.108376
409.430560	2590.265834
409.811399	2592.834302
410.192176	2592.846905
410.572891	2593.121647
410.953545	2595.007039
411.334138	2591.584096
411.714669	2593.030907
412.095139	2593.819847
412.475547	2592.617532
412.855894	2595.216247
413.236180	2593.721545
413.616405	2596.595002
413.996568	2592.312542
414.376670	2598.049375
414.756711	2594.865887
415.136691	2595.329673
415.516609	2596.209354
415.896466	2599.435693
416.276262	2592.123499
416.655997	2596.403439
417.035670	2595.349837
417.415283	2600.254880
417.794834	2597.038624
418.174324	2597.565425
418.553753	2600.199427
418.933121	2599.004674
419.312428	2600.161619
419.691674	2599.478543
420.070859	2598.805548
420.449983	2600.769078
420.829045	2601.341249
421.208047	2596.342945
421.586988	2597.920826
421.965867	2601.341249
422.344686	2601.421907
422.723444	2602.387288
423.102141	2599.869232
423.480777	2602.578852
423.859352	2601.648759
424.237866	2604.802001
424.616319	2604.562546
424.994712	2601.535333
425.373044	2601.837802
425.751314	2601.885693
426.129524	2600.322936
426.507673	2600.718666
426.885762	2599.672627
427.263789	2603.634974
427.641756	2606.357197
428.019662	2605.782505
428.397508	2607.453648
428.775292	2603.466095
429.153016	2609.560850
429.530679	2608.108998
429.908282	2606.649584
430.285824	2610.284256
430.663305	2611.486571
431.040726	2607.763679
431.418086	2611.327775
431.795385	2610.770727
432.172624	2609.747373
432.549802	2611.940275
432.926920	2610.987497
433.303977	2613.356839
433.680974	2617.548558
434.057910	2616.081583
434.434786	2615.443877
434.811601	2617.205760
435.188355	2618.002262
435.565050	2617.921604
435.941683	2615.655605
436.318257	2620.290946
436.694770	2619.849845
437.071222	2621.044599
437.447614	2620.580812
437.823946	2622.256996
438.200218	2624.709517
438.576429	2626.242028
438.952580	2626.461318
439.328670	2623.572737
439.704700	2625.367388
440.080670	2625.392594
440.456580	2628.873511
440.832429	2629.634725
441.208218	2629.808645
441.583947	2632.974489
441.959616	2632.361989
442.335224	2632.916516
442.710773	2637.254429
443.086261	2636.684778
443.461689	2640.183339
443.837057	2641.012609
444.212365	2643.190387
444.587612	2644.543937
444.962800	2641.673000
445.337927	2646.141983
445.712995	2645.373207
446.088002	2656.655309
446.462949	2660.035403
446.837837	2663.695281
447.212664	2667.763492
447.587431	2678.402847
447.962139	2692.941535
448.336786	2704.432845
448.711374	2711.230841
449.085901	2706.532486
449.460369	2708.586756
449.834776	2715.198229
450.209124	2734.901579
450.583412	2744.996489
450.957640	2759.497368
451.331808	2764.576331
451.705917	2767.727052
452.079965	2777.980759
452.453954	2792.574899
452.827883	2806.738021
453.201752	2822.350475
453.575562	2837.915037
453.949311	2863.710621
454.323001	2886.882285
454.696632	2903.855850
455.070202	2944.938733
455.443713	2971.777836
455.817164	3006.536592
456.190556	3043.387427
456.563888	3069.629153
456.937160	3107.311778
457.310373	3115.216307
457.683526	3147.792243
458.056619	3182.092254
458.429653	3222.671022
458.802628	3270.753547
459.175542	3310.553457
459.548398	3395.708628
459.921194	3482.635764
460.293930	3560.786252
460.666607	3690.890871
461.039224	3815.011640
461.411782	3906.120414
461.784280	3933.425823
462.156719	3981.299141
462.529099	4027.065256
462.901419	4024.743805
463.273680	4034.879045
463.645882	4120.913897
464.018024	4184.613917
464.390106	4296.575423
464.762130	4522.643447
465.134094	4840.911654
465.505999	5276.548004
465.877845	5720.025870
466.249631	6005.582030
466.621358	6028.289907
466.993026	6000.936606
467.364634	5984.900696
467.736184	5949.942815
468.107674	5951.377023
468.479105	6030.092120
468.850477	6082.129430
469.221790	6100.756494
469.593043	6065.380197
469.964238	6085.378454
470.335373	6202.020672
470.706449	6473.509491
471.077467	6805.247661
471.448425	7536.875360
471.819324	8136.157647
472.190164	8241.091785
472.560945	7910.881085
472.931667	7613.654654
473.302330	7637.640464
473.672934	7606.987728
474.043479	7860.613219
474.413965	7916.645644
474.784393	7987.990574
475.154761	8317.079618
475.525070	8492.582347
475.895321	8560.269920
476.265513	8867.772743
476.635645	9201.731541
477.005719	9363.850008
477.375734	9634.764136
477.745691	9998.679991
478.115588	10384.723991
478.485427	10991.255457
478.855207	11859.069927
479.224928	12771.453238
479.594591	13528.140513
479.964194	13576.618769
480.333739	13933.948356
480.703226	14229.884252
481.072653	14626.144150
481.442022	15058.743205
481.811333	15448.189984
482.180584	15452.404389
482.549777	15542.111721
482.918912	15639.784077
483.287988	15811.120293
483.657005	15938.364058
484.025964	15952.194463
484.394864	16246.522231
484.763706	16405.860501
485.132489	16333.524984
485.501213	16571.608598
485.869879	16850.502873
486.238487	17004.205133
486.607036	17353.630191
486.975527	17374.606432
487.343959	17772.053522
487.712333	18176.701900
488.080648	18345.618363
488.448905	18801.618455
488.817104	18939.504095
489.185244	19641.688934
489.553326	20440.021181
489.921350	21847.438238
490.289315	23666.357122
490.657222	24472.193126
491.025070	25064.400153
491.392861	25122.718742
491.760593	24837.278529
492.128267	24393.357042
492.495883	23941.914153
492.863440	23551.837230
493.230939	23096.109361
493.598380	22911.598089
493.965763	23010.071988
494.333088	22841.740299
494.700354	22895.874730
495.067563	23046.108676
495.434713	23140.509323
495.801805	23545.770201
496.168839	23603.171300
496.535815	23667.042719
496.902733	23936.739408
497.269593	23984.211954
497.636395	24272.724751
498.003139	24646.291895
498.369825	24623.175684
498.736453	25110.113337
499.103023	25140.461083
499.469535	25367.486926
499.835989	25621.346830
500.202385	25684.472159
500.568723	25863.004622
500.935003	26254.200681
501.301226	26304.985265
501.667390	27039.342749
502.033497	27361.495165
502.399546	27342.096805
502.765537	27144.954922
503.131470	27687.315020
503.497345	28194.402165
503.863163	27432.512420
504.228923	28215.927892
504.594625	28686.030612
504.960269	28357.944757
505.325856	29069.027234
505.691385	28879.875580
506.056856	29290.177612
506.422270	29837.069708
506.787625	29523.383909
507.152924	30028.752021
507.518164	30297.727825
507.883347	30030.037515
508.248472	30245.733365
508.613540	30959.669134
508.978550	31258.382705
509.343503	31214.287732
509.708398	31634.046969
510.073236	32267.931736
510.438016	32441.473457
510.802738	32226.347258
511.167403	32800.166677
511.532010	33127.703045
511.896561	33659.017975
512.261053	34430.311993
512.625488	34312.820341
512.989866	34298.924401
513.354186	34415.695168
513.718449	34447.804797
514.082655	35335.269685
514.446803	35102.983398
514.810894	35729.732412
515.174927	35790.024612
515.538904	35852.194641
515.902822	36510.927256
516.266684	36259.371158
516.630488	36635.216904
516.994235	36692.847374
517.357925	37294.554456
517.721558	37550.307314
518.085133	37954.123902
518.448651	38183.622431
518.812112	38119.425857
519.175516	38302.666758
519.538863	38768.068602
519.902152	38863.585865
520.265385	39416.245040
520.628560	39458.570568
520.991678	39419.713354
521.354739	39667.208802
521.717743	40055.594418
522.080690	39988.005148
522.443580	40666.330206
522.806413	40688.949864
523.169189	40857.919258
523.531908	41097.487492
523.894569	40971.320014
524.257174	41174.279388
524.619722	41533.572505
524.982213	41695.575025
525.344647	41745.994126
525.707025	41889.558625
526.069345	42321.146930
526.431608	42238.708941
526.793815	42641.862617
527.155964	42202.117726
527.518057	42460.393681
527.880093	42328.461644
528.242072	42957.045637
528.603995	42714.462794
528.965860	42654.778053
529.327669	42877.125705
529.689421	42923.756378
530.051117	42900.120928
530.412755	43165.555322
530.774337	43239.256992
531.135862	43183.070811
531.497331	43350.482489
531.858743	43345.186757
532.220098	43744.846914
532.581396	43487.856452
532.942638	43261.546453
533.303824	43510.977704
533.664953	43585.569137
534.026025	43267.673976
534.387040	43834.710522
534.747999	43903.890276
535.108902	44249.642854
535.469748	43555.085280
535.830537	43843.174619
536.191270	44085.429788
536.551947	43831.607692
536.912567	44124.062671
537.273131	44256.423206
537.633638	43881.288263
537.994089	44058.701590
538.354483	43826.269110
538.714821	44458.666737
539.075103	44748.074338
539.435328	44643.210776
539.795497	44390.853135
540.155609	44523.707703
540.515665	45095.508140
540.875665	44413.621506
541.235609	44686.471438
541.595496	44823.253065
541.955328	45385.838273
542.315102	44843.805849
542.674821	44760.619249
543.034483	44665.200289
543.394090	44671.869736
543.753640	44673.641701
544.113134	45722.375621
544.472571	44826.484445
544.831953	45926.000428
545.191278	45230.737092
545.550548	44933.170383
545.909761	45557.862606
546.268918	45702.216047
546.628019	46099.688342
546.987064	45530.829419
547.346053	44872.406836
547.704986	45760.242248
548.063863	45407.351397
548.422684	45620.355270
548.781449	45205.243977
549.140158	45731.346354
549.498811	45487.372152
549.857408	44906.321198
550.215949	45747.110042
550.574434	45587.590291
550.932864	45517.142686
551.291237	46232.953765
551.649555	45988.760273
552.007817	46159.673032
552.366022	45875.485546
552.724173	45939.067098
553.082267	46319.775037
553.440305	46702.660754
553.798288	45964.179606
554.156215	46351.735952
554.514086	46531.735392
554.871902	46149.643656
555.229661	46326.610842
555.587365	46012.612492
555.945014	46149.126938
556.302606	46174.355392
556.660143	46254.126611
557.017625	46493.266347
557.375050	46184.578853
557.732421	46580.808504
558.089735	46659.170720
558.446994	46518.058741
558.804197	46982.585945
559.161345	46854.921244
559.518437	46239.716473
559.875474	46449.287320
560.232455	46671.622370
560.589381	46725.222438
560.946251	46551.839513
561.303065	47179.132971
561.659825	46885.243784
562.016528	46698.123715
562.373177	46292.220090
562.729770	46931.932431
563.086307	46432.167562
563.442789	46989.633478
563.799216	46823.681214
564.155587	46730.414826
564.511904	46702.804427
564.868164	46747.743793
565.224370	47071.416117
565.580520	46792.373128
565.936615	46985.661048
566.292654	46644.024573
566.648638	47023.840227
567.004567	46954.030329
567.360441	47017.379988
567.716260	46746.362517
568.072023	47149.753127
568.427732	47082.514217
568.783385	46607.498893
569.138982	47028.493212
569.494525	47159.701844
569.850013	46761.864065
570.205445	46895.527738
570.560823	46657.887746
570.916145	46527.954526
571.271412	46751.025584
571.626625	46401.242604
571.981782	46489.109915
572.336884	46113.054962
572.691931	46446.945704
573.046923	46105.069774
573.401860	45946.429704
573.756743	45955.768441
574.111570	46107.106400
574.466342	46009.797007
574.821059	46166.758374
575.175722	45672.019535
575.530330	45761.132012
575.884882	45403.631025
576.239380	45316.925699
576.593823	45396.381846
576.948211	45349.368045
577.302544	44904.322381
577.656823	44890.023148
578.011047	45168.355334
578.365216	45011.774575
578.719330	44724.128857
579.073389	44687.628382
579.427394	44757.985246
579.781344	44678.826528
580.135239	44428.538281
580.489080	44488.520450
580.842866	43974.564733
581.196597	44485.379811
581.550273	44462.515658
581.903895	44414.092854
582.257463	44842.853071
582.610975	44286.624759
582.964434	44617.034585
583.317837	44106.537099
583.671186	44074.140124
584.024481	44349.823184
584.377721	43912.435032
584.730906	44141.684024
585.084037	44278.616886
585.437113	43998.343855
585.790135	44119.124860
586.143103	43694.639542
586.496016	43876.690731
586.848874	43980.737626
587.201679	43999.052138
587.554428	43495.818955
587.907124	43751.140794
588.259765	43546.464907
588.612352	43697.172722
588.964884	43168.900128
589.317362	43455.580465
589.669786	43456.198006
590.022155	43346.633568
590.374470	43804.027539
590.726731	43406.502312
591.078937	42750.809513
591.431090	43096.572173
591.783188	42598.833848
592.135232	42426.756582
592.487222	42681.430633
592.839157	42815.608505
593.191038	42466.460710
593.542866	42281.563790
593.894639	41661.920282
594.246358	41982.441885
594.598022	41987.611588
594.949633	41558.175857
595.301190	41574.136150
595.652692	41522.212265
596.004141	41999.105419
596.355535	40919.857395
596.706876	40922.022571
597.058162	40649.008802
597.409395	41148.516572
597.760573	41362.664787
598.111698	40980.016004
598.462768	40912.920767
598.813785	40930.111102
599.164748	40543.142050
599.515657	40806.567545
599.866511	40318.026805
600.217312	40986.629998
600.568060	39957.062545
600.918753	40763.808478
601.269392	40677.148522
601.619978	40420.763000
601.970510	40634.908694
602.320988	40770.354416
602.671412	41026.530731
603.021783	40891.710112
603.372100	40475.197379
603.722363	40591.038053
604.072572	40623.203135
604.422728	40613.057813
604.772830	40382.475436
605.122878	40570.916287
605.472872	40427.361870
605.822813	40676.914109
606.172701	40420.972207
606.522534	40744.226116
606.872314	40941.415889
607.222041	40784.073916
607.571714	41127.560495
607.921333	40623.848403
608.270899	40816.750675
608.620411	41187.802284
608.969870	40962.929013
609.319276	40972.250107
609.668627	41012.128154
610.017926	41392.158058
610.367171	41550.104969
610.716362	41579.225195
611.065500	41470.671508
611.414585	41717.647718
611.763616	41884.759447
612.112594	41782.277830
612.461518	41907.797520
612.810389	42289.750623
613.159207	42084.832761
613.507971	42063.034812
613.856682	42563.117273
614.205340	42397.220462
614.553945	43077.115840
614.902496	42423.782301
615.250994	42834.311185
615.599439	42896.478695
615.947830	42999.560208
616.296169	43015.354143
616.644454	43081.748660
616.992686	43225.323242
617.340864	43655.268130
617.688990	43154.127027
618.037063	43833.435110
618.385082	43653.324766
618.733048	44027.171694
619.080961	43879.725505
619.428821	43938.172643
619.776628	43966.672806
620.124382	43780.886122
620.472083	43885.109458
620.819731	44010.361966
621.167326	43592.485600
621.514868	43585.584261
621.862357	43037.920869
622.209793	43153.932942
622.557176	42733.793098
622.904506	42493.929957
623.251783	42142.395176
623.599007	41814.009373
623.946179	41746.505803
624.293297	41494.506084
624.640363	40958.699485
624.987376	40805.695425
625.334336	40609.652514
625.681243	40207.217202
626.028097	40116.662956
626.374899	39933.406931
626.721647	39894.811857
627.068343	39667.556642
627.414987	39396.435826
627.761577	39145.449379
628.108115	39471.175973
628.454600	38703.914878
628.801032	38953.451994
629.147412	38849.939461
629.493739	38721.432888
629.840014	38311.047677
630.186236	38739.812935
630.532405	38159.835747
630.878521	38412.821011
631.224585	38186.039664
631.570597	37875.093733
631.916556	38023.941362
632.262462	37911.511029
632.608316	37877.505925
632.954117	37729.452278
633.299866	37670.407764
633.645562	37617.642006
633.991206	37103.688810
634.336797	36700.310803
634.682336	36598.534948
635.027823	36363.251695
635.373257	36262.088340
635.718639	35913.676554
636.063968	35814.577551
636.409245	35189.013209
636.754470	35128.216893
637.099642	34903.295732
637.444762	34330.802137
637.789829	34479.821165
638.134845	34069.062909
638.479808	33985.576360
638.824719	33950.111843
639.169577	33445.502425
639.514383	33549.211562
639.859137	33170.845240
640.203839	33324.988601
640.548489	33045.312947
640.893086	33018.675490
641.237632	32742.795826
641.582125	32835.948787
641.926566	32631.376243
642.270955	32654.983967
642.615292	32605.197531
642.959576	32472.290031
643.303809	32475.614672
643.647990	32577.856833
643.992118	32561.599112
644.336195	32370.708260
644.680219	32433.747889
645.024192	32635.240288
645.368112	33164.478263
645.711981	33166.666123
646.055797	33875.926223
646.399562	33649.031450
646.743274	34522.643247
647.086935	34914.640849
647.430544	34902.978140
647.774101	34932.428560
648.117606	35250.111993
648.461059	35399.982977
648.804460	35012.114079
649.147810	34496.212477
649.491108	34194.668298
649.834354	34084.728294
650.177548	33299.092194
650.520690	32782.842752
650.863781	32753.067177
651.206820	32576.291555
651.549807	32160.197237
651.892742	31563.652297
652.235626	31479.543166
652.578458	31346.655830
652.921238	30643.046864
653.263967	30915.959810
653.606644	30613.155342
653.949269	30542.952234
654.291843	30137.280501
654.634365	30502.580153
654.976836	30040.276098
655.319255	30134.278494
655.661622	30002.928710
656.003938	29870.336282
656.346203	29696.928151
656.688416	29949.484918
657.030577	29740.992877
657.372687	29552.872139
657.714746	29691.491267
658.056753	29873.933145
658.398708	29237.800023
658.740612	29327.648508
659.082465	29522.950370
659.424266	29420.138558
659.766016	29408.518698
660.107715	29265.344888
660.449362	29364.181750
660.790958	29336.180661
661.132503	29270.433933
661.473996	29341.967906
661.815438	29419.868856
662.156829	29532.684838
662.498168	29341.201651
662.839456	29308.434151
663.180693	29434.831001
663.521879	29491.493570
663.863013	29441.598750
664.204097	29419.092519
664.545129	29844.626397
664.886110	29758.551216
665.227040	29877.948424
665.567918	29866.018533
665.908746	29934.174933
666.249522	30016.232315
666.590248	30053.516689
666.930922	30152.608130
667.271545	30163.764203
667.612118	30213.396883
667.952639	30040.765090
668.293109	30065.479347
668.633528	29920.773026
668.973896	29877.535049
669.314213	29862.802277
669.654480	29664.931948
669.994695	29653.372582
670.334859	29571.630272
670.674973	29383.993485
671.015035	29577.740151
671.355047	29512.454688
671.695008	29418.187632
672.034918	29330.436267
672.374777	29422.638970
672.714585	29305.608584
673.054342	29438.057339
673.394049	29292.486460
673.733705	29508.877989
674.073310	29219.074658
674.412864	29285.373392
674.752368	29007.416772
675.091820	29240.562576
675.431223	28840.627677
675.770574	28650.477874
676.109875	28483.396392
676.449125	28277.800494
676.788324	28172.505913
677.127473	27711.310913
677.466571	27604.599768
677.805619	27327.338827
678.144616	27248.837979
678.483562	27200.619343
678.822458	26876.853758
679.161303	26829.650913
679.500098	26750.807267
679.838842	26673.286924
680.177535	26715.932565
680.516179	26934.630422
680.854771	26997.758271
681.193314	27698.176186
681.531805	28633.945410
681.870247	29395.220135
682.208638	30176.611584
682.546978	30541.530628
682.885268	30712.070342
683.223508	30306.791820
683.561697	30054.552646
683.899836	29885.091739
684.237925	29479.886313
684.575963	29313.162753
684.913951	28920.696323
685.251889	29054.269256
685.589776	29051.179029
685.927614	29046.863801
686.265401	29236.562420
686.603137	29312.837598
686.940824	29794.943305
687.278460	30105.705234
687.616046	30293.498297
687.953582	30964.004526
688.291068	30901.534548
688.628504	31259.025452
688.965889	31276.989604
689.303224	31048.113658
689.640510	30774.557965
689.977745	30187.611381
690.314930	29452.618712
690.652065	29047.322546
690.989150	28369.645276
691.326185	27536.811372
691.663170	26926.108351
692.000105	26222.814458
692.336990	25608.973318
692.673825	25194.761871
693.010610	24695.428021
693.347345	24192.862791
693.684030	23570.086207
694.020665	23368.281257
694.357251	22715.477039
694.693786	22716.737328
695.030272	22485.320640
695.366707	21989.898725
695.703093	21697.496679
696.039429	21771.150457
696.375716	21521.346160
696.711952	21511.281497
697.048139	21394.130122
697.384276	21219.607897
697.720363	21328.214515
698.056400	21225.838763
698.392388	21065.005791
698.728326	21061.030841
699.064214	20906.423694
699.400053	20935.377561
699.735842	20545.842562
700.071581	20348.549444
700.407270	20121.218612
700.742910	19943.681776
701.078501	19693.673313
701.414042	19494.038579
701.749533	19209.578871
702.084974	18899.968846
702.420366	19113.910374
702.755709	18710.983550
703.091002	18408.816788
703.426246	18470.591087
703.761440	18413.265606
704.096584	18164.663625
704.431679	18111.779401
704.766725	18053.390236
705.101721	17975.632959
705.436668	18082.535667
705.771565	17802.547462
706.106413	18101.485364
706.441212	18169.510694
706.775961	18262.819932
707.110661	18330.167226
707.445311	18683.937759
707.779913	18577.183765
708.114465	18851.853553
708.448967	19163.628753
708.783421	19751.951572
709.117825	20108.204873
709.452180	20309.851027
709.786485	20743.526369
710.120742	21484.399544
710.454949	21573.166701
710.789107	22077.982806
711.123216	22783.693933
711.457275	23009.499817
711.791286	23572.004366
712.125247	23744.608432
712.459159	23506.756712
712.793023	24262.720581
713.126837	23288.371407
713.460602	23564.974477
713.794318	23242.476742
714.127985	22975.764415
714.461602	22099.435437
714.795171	22083.336512
715.128691	21119.241044
715.462162	20600.329873
715.795584	20183.398724
716.128957	19902.019160
716.462281	19533.694816
716.795556	19256.154091
717.128782	18788.319891
717.461960	18192.112708
717.795088	18161.969128
718.128167	17831.728181
718.461198	17383.080612
718.794180	17257.727281
719.127113	16937.354392
719.459997	16749.974703
719.792833	16372.157867
720.125619	16416.998930
720.458357	16084.055924
720.791046	15936.108141
721.123686	15790.224711
721.456278	15569.356637
721.788821	15553.265274
722.121315	15304.965762
722.453761	15386.491302
722.786158	15280.380055
723.118506	15366.296440
723.450805	15256.447177
723.783056	15426.679381
724.115259	15312.590507
724.447412	15287.346929
724.779518	15498.457850
725.111574	15542.701536
725.443582	15793.130936
725.775542	15751.803557
726.107453	16245.319915
726.439315	16143.798639
726.771129	16541.318825
727.102895	16944.603571
727.434612	17221.708236
727.766281	17385.752424
728.097901	17709.462556
728.429473	17816.357703
728.760996	17845.919029
729.092471	17961.381617
729.423897	17848.086725
729.755276	17697.391513
730.086606	17782.960059
730.417887	18312.248445
730.749120	18846.567903
731.080305	19072.328416
731.411442	19488.387446
731.742530	19606.163923
732.073570	19735.852647
732.404562	20059.403983
732.735506	19961.925712
733.066401	19838.626651
733.397249	19408.550693
733.728048	18815.945414
734.058798	17986.463878
734.389501	17228.556644
734.720156	16710.588168
735.050762	16131.707431
735.381320	15727.487551
735.711831	15440.978613
736.042293	15060.442074
736.372707	15085.105919
736.703073	14872.603641
737.033391	15053.742381
737.363661	15033.396284
737.693883	15143.961391
738.024056	15327.028372
738.354182	15533.365319
738.684260	15875.901641
739.014290	16152.547561
739.344272	16360.240579
739.674207	16708.112962
740.004093	16889.057617
740.333931	16962.348433
740.663722	17054.087350
740.993464	17110.003829
741.323159	16971.430071
741.652806	16692.200560
741.982405	16539.083073
742.311956	16194.414344
742.641460	16084.320585
742.970915	15766.581699
743.300323	15420.748463
743.629683	15216.775817
743.958996	14906.061779
744.288260	14606.365183
744.617477	14289.924394
744.946647	14250.482406
745.275768	13937.938430
745.604842	13749.880706
745.933869	13563.249629
746.262847	13528.445503
746.591778	13434.357407
746.920662	13308.270588
747.249498	13306.052480
747.578286	13448.545735
747.907027	13606.991721
748.235720	13863.614178
748.564365	13944.292804
748.892963	13881.081776
749.221514	14000.116021
749.550017	13886.122930
749.878473	13853.516747
750.206881	13637.324343
750.535242	13574.798912
750.863555	13493.664062
751.191821	13388.402249
751.520039	13391.260583
751.848210	13318.788955
752.176334	13356.075850
752.504411	13295.544195
752.832440	13118.882000
753.160421	13235.965318
753.488356	13128.167805
753.816243	13047.884909
754.144082	12871.449566
754.471875	12813.884630
754.799620	12776.801903
755.127318	12753.098397
755.454969	12739.751942
755.782572	12711.062736
756.110129	12715.319990
756.437638	12626.056279
756.765100	12639.553968
757.092515	12656.693892
757.419882	12689.239581
757.747203	12687.901154
758.074477	12771.601952
758.401703	12750.494641
758.728882	12932.772682
759.056014	12984.315959
759.383099	13147.291422
759.710138	13263.623609
760.037129	13396.694947
760.364073	13467.185401
760.690970	13485.378925
761.017820	13493.346469
761.344623	13683.415613
761.671379	13999.553932
761.998088	14546.294793
762.324751	15942.296158
762.651366	18855.016877
762.977935	23132.299804
763.304456	26400.557980
763.630931	27975.507703
763.957359	27187.653495
764.283740	25164.197356
764.610074	23035.302963
764.936362	20432.247722
765.262602	18540.753867
765.588796	16580.380206
765.914943	15262.917498
766.241044	14128.123520
766.567097	13311.018017
766.893104	12572.420923
767.219064	12105.612597
767.544978	11621.172836
767.870845	11232.966181
768.196665	11000.284164
768.522438	10774.125399
768.848165	10565.590509
769.173846	10368.234377
769.499479	10234.737061
769.825066	10077.095139
770.150607	9839.608902
770.476101	9769.872100
770.801548	9656.607456
771.126949	9495.545111
771.452303	9388.566785
771.777611	9193.315335
772.102872	9176.883694
772.428087	9044.760093
772.753256	8897.699553
773.078378	8808.357704
773.403453	8636.174574
773.728482	8514.960029
774.053465	8435.748379
774.378401	8340.089964
774.703291	8217.342909
775.028135	8097.852440
775.352932	8073.599448
775.677683	7963.503169
776.002388	7860.023404
776.327046	7868.706792
776.651658	7767.591328
776.976224	7668.545258
777.300743	7674.027512
777.625216	7587.622135
777.949643	7543.259982
778.274024	7556.835809
778.598359	7468.860113
778.922647	7487.565314
779.246889	7438.101512
779.571086	7443.747605
779.895236	7447.707431
780.219339	7456.978113
780.543397	7459.168494
780.867409	7536.832510
781.191374	7555.658699
781.515294	7520.995726
781.839167	7609.437729
782.162995	7583.521157
782.486776	7534.402674
782.810511	7486.620097
783.134201	7398.828403
783.457844	7402.500884
783.781441	7343.647933
784.104993	7279.743747
784.428498	7256.448575
784.751958	7246.613283
785.075372	7210.874023
785.398739	7161.155643
785.722061	7197.429266
786.045337	7194.512958
786.368568	7336.834814
786.691752	7342.574168
787.014891	7632.979917
787.337983	7928.346162
787.661030	8482.739495
787.984031	9096.230274
788.306987	9533.048775
788.629897	9786.429770
788.952760	9790.104771
789.275579	9610.309499
789.598351	9233.682374
789.921078	8907.239937
790.243759	8505.535592
790.566395	8206.892597
790.888984	7967.639436
791.211529	7757.546829
791.534027	7527.229112
791.856480	7327.123031
792.178888	7246.550269
792.501249	7147.710886
792.823566	6995.510890
793.145836	6985.549570
793.468062	6952.426668
793.790241	6899.086220
794.112375	6955.892462
794.434464	7099.182219
794.756507	7123.762885
795.078505	7258.555777
795.400457	7543.317955
795.722364	7876.195426
796.044226	8163.024477
796.366042	8456.379301
796.687812	8426.520547
797.009538	8519.401286
797.331218	8429.993902
797.652852	8365.636011
797.974442	8215.765028
798.295986	8131.625650
798.617484	7947.121940
798.938938	7805.382338
799.260346	7708.141000
799.581709	7511.052050
799.903026	7435.283507
800.224299	7326.298802
800.545526	7165.057497
800.866708	7066.238278
801.187845	6995.745303
801.508936	6896.608492
801.829983	6857.176587
802.150984	6710.458846
802.471940	6669.945613
802.792851	6656.924312
803.113717	6623.128417
803.434538	6592.067348
803.755314	6528.634509
804.076045	6535.813112
804.396731	6469.635365
804.717372	6502.475961
805.037967	6494.904148
805.358518	6537.184306
805.679024	6614.470235
805.999485	6620.081039
806.319901	6661.237019
806.640272	6685.482449
806.960598	6764.021105
807.280879	6769.100068
807.601115	6846.461615
807.921306	6788.516072
808.241453	6806.444935
808.561554	6833.689851
808.881611	6799.110057
809.201623	6807.601880
809.521590	6755.511638
809.841513	6739.057311
810.161390	6777.884278
810.481223	6650.307798
810.801011	6634.770962
811.120755	6608.743484
811.440453	6534.356218
811.760107	6494.649570
812.079716	6471.329192
812.399281	6407.762763
812.718801	6399.094499
813.038276	6357.096646
813.357707	6294.898890
813.677093	6330.965825
813.996434	6235.246917
814.315731	6278.346261
814.634983	6265.413181
814.954191	6268.579026
815.273354	6372.820005
815.592473	6419.700215
815.911547	6538.777310
816.230577	6614.485359
816.549562	6759.446258
816.868502	6854.751792
817.187399	6947.476255
817.506250	7086.516320
817.825058	7110.043385
818.143821	7353.712597
818.462539	7591.987775
818.781213	7912.269922
819.099843	8387.368426
819.418429	9289.969378
819.736970	10176.995685
820.055466	11255.232958
820.373919	12620.001853
820.692327	14605.908958
821.010691	17901.449859
821.329011	25299.678365
821.647286	36926.383867
821.965517	50833.397339
822.283704	58348.333597
822.601847	61519.688194
822.919945	59312.464353
823.237999	55435.615399
823.556010	49429.004974
823.873976	42803.666011
824.191897	36327.570408
824.509775	31508.986025
824.827609	26882.383903
825.145398	24089.435958
825.463144	22442.632149
825.780845	22338.504596
826.098502	23557.616913
826.416116	26835.881780
826.733685	30550.791228
827.051210	32343.309589
827.368692	31409.849214
827.686129	27929.366022
828.003522	23946.267189
828.320872	20240.010882
828.638177	17353.027773
828.955439	15178.984807
829.272656	13367.582283
829.589830	11894.778940
829.906960	10608.455440
830.224046	9642.441813
830.541088	8867.802990
830.858086	8383.325420
831.175041	7978.619069
831.491952	7826.676171
831.808819	7813.685118
832.125642	8107.554140
832.442421	8807.142786
832.759157	10275.313308
833.075849	12820.256649
833.392497	15923.114567
833.709101	18380.999701
834.025662	18745.797758
834.342179	17415.671672
834.658653	15370.926740
834.975083	13457.387919
835.291469	11830.849548
835.607811	10505.484831
835.924110	9605.454868
836.240366	8738.613340
836.556578	7941.062473
836.872746	7297.314688
837.188871	6781.702952
837.504952	6352.231933
837.820990	6035.037492
838.136984	5810.096166
838.452935	5689.544533
838.768842	5675.482235
839.084706	5950.555315
839.400526	6909.977632
839.716303	8393.891679
840.032037	9625.942117
840.347727	9848.403195
840.663373	9059.286178
840.978977	8033.529837
841.294537	7202.742642
841.610054	6591.338901
841.925527	6163.044991
842.240957	5802.151307
842.556344	5481.959900
842.871687	5204.565369
843.186987	4927.876599
843.502244	4693.972101
843.817458	4526.126884
844.132629	4389.776275
844.447756	4296.575423
844.762840	4213.182136
845.077881	4143.263852
845.392879	4084.673042
845.707833	4031.078015
846.022745	3988.079493
846.337613	3958.218218
846.652438	3917.387392
846.967221	3900.358375
847.281960	3866.829661
847.596656	3851.580170
847.911309	3832.207016
848.225919	3808.795898
848.540485	3795.333496
848.855009	3781.722381
849.169490	3759.236314
849.483928	3748.458327
849.798323	3738.433993
850.112675	3716.331054
850.426984	3730.816809
850.741251	3711.201680
851.055474	3707.977862
851.369654	3710.735373
851.683792	3706.543653
851.997887	3715.935323
852.311938	3716.129408
852.625947	3720.258113
852.939914	3705.613561
853.253837	3720.374059
853.567718	3719.088565
853.881555	3705.565670
854.195350	3720.878174
854.509103	3715.869788
854.822812	3718.501270
855.136479	3707.219168
855.450103	3715.847103
855.763685	3704.615412
856.077224	3704.996019
856.390720	3716.835169
856.704173	3735.842840
857.017584	3748.057555
857.330953	3759.085079
857.644278	3782.120632
857.957561	3787.645737
858.270802	3785.500726
858.584000	3793.231335
858.897155	3788.182619
859.210268	3770.354579
859.523339	3748.680138
859.836367	3746.754417
860.149352	3742.749220
860.462295	3737.481215
860.775195	3727.058629
861.088054	3717.992114
861.400869	3715.882391
861.713642	3713.213100
862.026373	3725.334554
862.339062	3725.884040
862.651708	3746.336001
862.964312	3778.581742
863.276873	3786.203967
863.589392	3836.154239
863.901869	3878.391547
864.214303	3924.881068
864.526696	3956.358032
864.839045	4004.672451
865.151353	4027.735730
865.463619	4039.345507
865.775842	4046.783729
866.088023	4062.214701
866.400162	4053.775810
866.712258	4062.912901
867.024313	4062.610432
867.336325	4061.423240
867.648296	4068.407759
867.960224	4065.191503
868.272110	4075.528389
868.583954	4077.691044
868.895755	4090.823249
869.207515	4086.021550
869.519233	4127.205257
869.830909	4132.024600
870.142542	4159.695493
870.454134	4170.980116
870.765684	4198.398952
871.077191	4232.013366
871.388657	4257.579578
871.700081	4292.537459
872.011463	4331.555990
872.322803	4362.191082
872.634101	4390.172006
872.945357	4430.405455
873.256571	4481.921006
873.567744	4507.101569
873.878874	4530.905898
874.189963	4571.096497
874.501010	4577.700408
874.812015	4574.469029
875.122979	4618.175833
875.433900	4614.629381
875.744780	4628.048932
876.055618	4652.765710
876.366415	4652.082633
876.677169	4665.426568
876.987882	4708.682188
877.298554	4751.763889
877.609183	4822.077903
877.919771	4917.073406
878.230317	5041.000091
878.540822	5223.890632
878.851285	5500.528990
879.161707	5887.303958
879.472087	6518.108579
879.782425	7531.103239
880.092722	9342.601544
880.402977	12173.791682
880.713191	15683.841241
881.023363	19377.194716
881.333494	21836.597237
881.643583	23288.812508
881.953631	23511.124872
882.263637	22849.203727
882.573602	21565.625135
882.883526	20114.292066
883.193408	18550.924394
883.503248	16951.426773
883.813048	15483.485623
884.122806	14115.571047
884.432522	12683.026359
884.742197	11470.122223
885.051831	10397.253779
885.361424	9410.077389
885.670975	8588.258406
885.980485	7900.662666
886.289954	7328.927764
886.599382	6858.996444
886.908768	6485.383929
887.218113	6130.947964
887.527417	5844.474314
887.836680	5577.940949
888.145901	5367.767683
888.455082	5205.679464
888.764221	5054.187749
889.073319	4922.046504
889.382376	4844.140513
889.691392	4780.705153
890.000366	4751.317747
890.309300	4732.468873
890.618193	4734.129933
890.927044	4720.733067
891.235855	4735.186055
891.544625	4757.583901
891.853353	4805.608453
892.162041	4899.320983
892.470687	5059.400303
892.779293	5270.289412
893.087858	5584.151650
893.396381	6073.052833
893.704864	6751.713128
894.013306	7772.677852
894.321707	8899.340448
894.630068	9772.876628
894.938387	10118.397313
895.246665	10006.660138
895.554903	9488.507660
895.863100	8837.503135
896.171256	8312.174575
896.479371	7823.084349
896.787446	7344.134405
897.095480	6934.298679
897.403473	6617.215143
897.711425	6316.439740
898.019336	6058.100770
898.327207	5794.597138
898.635038	5569.479372
898.942827	5323.589532
899.250576	5137.770080
899.558284	4946.937201
899.865952	4828.341537
900.173579	4680.527344
900.481165	4577.922219
900.788711	4487.181450
901.096216	4412.960542
901.403681	4345.635932
901.711105	4318.015450
902.018489	4296.323365
902.325832	4348.950491
902.633135	4430.385290
902.940397	4689.041853
903.247619	5298.981139
903.554800	6480.582230
903.861941	8233.250270
904.169041	9796.186923
904.476101	10636.753957
904.783121	10497.930662
905.090100	9879.529799
905.397039	9096.104245
905.703938	8379.350470
906.010796	7716.922690
906.317614	7185.217071
906.624391	6673.378638
906.931129	6261.591987
907.237826	5875.986567
907.544483	5517.179922
907.851099	5160.677083
908.157675	4814.367458
908.464211	4490.488447
908.770707	4253.478599
909.077163	4046.955129
909.383578	3904.638314
909.689954	3783.075931
909.996289	3710.818552
910.302584	3644.855054
910.608839	3607.953808
910.915054	3577.386771
911.221229	3559.974626
911.527363	3570.969383
911.833458	3579.539344
912.139513	3600.001387
912.445527	3620.723050
912.751502	3688.735777
913.057436	3779.027884
913.363331	3893.857807
913.669186	4070.862801
913.975000	4283.934730
914.280775	4638.753823
914.586510	5134.805882
914.892205	5812.039531
915.197859	6738.490182
915.503475	7865.069599
915.809050	8916.689579
916.114585	9617.777968
916.420081	9982.233227
916.725536	10034.242811
917.030952	9673.926340
917.336328	9305.654928
917.641665	8938.467364
917.946961	8492.521854
918.252218	8091.563600
918.557435	7610.806402
918.862612	7203.773558
919.167750	6852.463108
919.472848	6453.634742
919.777906	6094.855823
920.082925	5747.631228
920.387904	5385.326022
920.692843	5122.119818
920.997743	4875.763671
921.302603	4639.048730
921.607423	4481.631140
921.912204	4323.545596
922.216946	4207.861198
922.521647	4091.763425
922.826310	3989.748115
923.130932	3902.699991
923.435516	3808.243891
923.740059	3737.783684
924.044564	3668.009073
924.349028	3611.870784
924.653454	3545.120866
924.957840	3479.253150
925.262186	3434.948969
925.566493	3377.590721
925.870761	3323.909994
926.174989	3289.418420
926.479178	3253.026330
926.783328	3211.242726
927.087438	3184.746422
927.391509	3153.060249
927.695541	3122.732668
927.999533	3094.678647
928.303486	3076.969073
928.607400	3062.884089
928.911275	3046.427243
929.215110	3034.043648
929.518906	3024.780528
929.822663	3022.625435
930.126381	3018.501771
930.430060	3026.192051
930.733699	3026.502082
931.037299	3035.687064
931.340861	3034.910727
931.644383	3041.660832
931.947866	3044.138559
932.251309	3035.024152
932.554714	3037.174205
932.858080	3032.362423
933.161407	3026.696166
933.464694	3016.593694
933.767943	3009.808301
934.071153	3005.994668
934.374323	2998.193483
934.677455	2993.631238
934.980548	2985.739312
935.283602	2979.498363
935.586617	2972.362610
935.889593	2981.010710
936.192530	2985.066318
936.495428	2995.677947
936.798287	3014.226872
937.101108	3038.832744
937.403890	3087.434508
937.706632	3139.413846
938.009336	3211.388920
938.312002	3284.790640
938.614628	3345.357583
938.917216	3402.378074
939.219765	3436.544495
939.522275	3467.164463
939.824747	3472.906337
940.127179	3471.336018
940.429573	3468.908702
940.731929	3466.420893
941.034246	3452.958492
941.336524	3443.657563
941.638763	3431.614246
941.940964	3421.867175
942.243126	3379.120711
942.545250	3359.616487
942.847335	3325.807989
943.149381	3292.422947
943.451389	3263.683329
943.753359	3226.416599
944.055290	3201.125131
944.357182	3177.000689
944.659036	3162.449398
944.960851	3153.604694
945.262628	3137.349493
945.564367	3141.546254
945.866067	3132.996457
946.167729	3131.274903
946.469352	3129.949079
946.770937	3126.919346
947.072484	3108.183898
947.373992	3112.083230
947.675462	3107.495780
947.976893	3089.012390
948.278286	3085.576843
948.579641	3078.352870
948.880958	3070.924730
949.182236	3073.374730
949.483476	3063.645303
949.784678	3066.261662
950.085841	3067.486663
950.386967	3073.430183
950.688054	3089.372832
950.989103	3104.347580
951.290114	3125.238121
951.591087	3149.629744
951.892021	3175.758044
952.192917	3205.697457
952.493776	3228.354923
952.794596	3237.353383
953.095378	3248.874940
953.396122	3243.717839
953.696828	3239.528641
953.997496	3227.860890
954.298126	3207.948332
954.598718	3190.954603
954.899272	3169.514575
955.199788	3143.416522
955.500266	3112.342850
955.800706	3079.063672
956.101108	3043.165616
956.401472	3016.455062
956.701798	2985.124291
957.002087	2945.122735
957.302337	2918.155083
957.602550	2892.724982
957.902724	2863.798842
958.202861	2840.256653
958.502960	2818.466266
958.803022	2801.215437
959.103045	2778.036212
959.403031	2761.738161
959.702979	2749.213415
960.002889	2734.647001
960.302762	2722.865824
960.602596	2713.075903
960.902393	2707.097095
961.202153	2696.868594
961.501875	2686.481296
961.801559	2682.403003
962.101205	2677.114832
962.400814	2672.187104
962.700385	2667.539161
962.999918	2660.090856
963.299414	2657.421565
963.598873	2652.758497
963.898293	2644.793474
964.197677	2647.513177
964.497022	2644.498567
964.796331	2643.598721
965.095601	2639.535551
965.394835	2637.700571
965.694030	2636.495735
965.993189	2636.957001
966.292309	2632.966927
966.591393	2633.181177
966.890439	2632.848460
967.189447	2632.548512
967.488419	2630.307719
967.787353	2632.853502
968.086249	2631.283182
968.385108	2638.023205
968.683930	2635.280817
968.982714	2640.332053
969.281462	2642.918165
969.580172	2647.976963
969.878844	2653.421409
970.177480	2660.479025
970.476078	2669.837927
970.774639	2678.730522
971.073162	2682.632375
971.371649	2688.689322
971.670098	2693.995136
971.968510	2697.730631
972.266885	2700.929243
972.565223	2704.319419
972.863524	2711.490460
973.161788	2713.353167
973.460014	2716.153528
973.758204	2717.801985
974.056356	2719.415154
974.354471	2722.283571
974.652550	2723.201061
974.950591	2723.924466
975.248595	2721.308107
975.546563	2715.256202
975.844493	2717.302911
976.142386	2710.429297
976.440243	2706.285469
976.738062	2703.800180
977.035845	2693.566638
977.333590	2691.338448
977.631299	2683.151614
977.928971	2681.104906
978.226606	2671.025118
978.524204	2670.672238
978.821765	2664.522030
979.119290	2668.887669
979.416777	2666.440189
979.714228	2670.049655
980.011642	2671.667866
980.309020	2674.987465
980.606360	2688.223015
980.903664	2706.807228
981.200931	2737.593555
981.498162	2777.466561
981.795356	2842.794874
982.092513	2920.980650
982.389633	3014.531862
982.686717	3107.417642
982.983764	3185.684076
983.280775	3237.870101
983.577749	3259.847011
983.874686	3251.095568
984.171587	3221.912328
984.468451	3191.388142
984.765279	3153.571926
985.062070	3110.127262
985.358824	3065.729821
985.655543	3014.136132
985.952224	2967.124851
986.248869	2907.553536
986.545478	2850.976667
986.842050	2796.280147
987.138586	2752.832963
987.435086	2712.062631
987.731549	2684.963909
988.027975	2660.126144
988.324366	2641.103350
988.620719	2625.659775
988.917037	2616.212653
989.213318	2605.502721
989.509563	2595.939652
989.805772	2594.828078
990.101944	2588.133426
990.398080	2587.465473
990.694180	2587.616707
990.990244	2587.094948
991.286271	2584.954978
991.582262	2586.986563
991.878217	2590.278437
992.174136	2590.706935
992.470019	2595.070053
992.765865	2595.523757
993.061676	2600.038111
993.357450	2607.274687
993.653188	2614.909514
993.948890	2628.719755
994.244556	2643.659215
994.540186	2665.016063
994.835780	2689.833663
995.131337	2725.051164
995.426859	2759.935949
995.722345	2806.596869
996.017795	2852.458766
996.313208	2891.157183
996.608586	2922.737492
996.903928	2938.337342
997.199234	2940.714246
997.494504	2941.669545
997.789738	2928.975920
998.084936	2904.480953
998.380099	2881.979763
998.675225	2850.938858
998.970316	2823.346102
999.265371	2792.892492
999.560390	2757.138108
999.855373	2727.475959
1000.150320	2700.810776
1000.445232	2674.203566
1000.740108	2653.363436
1001.034948	2637.735859
1001.329752	2623.572737
1001.624521	2611.733587
1001.919254	2598.578697
1002.213951	2591.334558
1002.508613	2584.077817
1002.803239	2576.145562
1003.097829	2570.935529
1003.392384	2567.865467
1003.686903	2561.962276
1003.981386	2560.449929
1004.275834	2555.023127
1004.570246	2551.753939
1004.864623	2549.540873
1005.158964	2551.847200
1005.453270	2549.676984
1005.747540	2545.722198
1006.041775	2543.030222
1006.335974	2541.288504
1006.630138	2542.919317
1006.924266	2544.323278
1007.218359	2540.234903
1007.512416	2535.821372
1007.806438	2531.236443
1008.100425	2535.665097
1008.394376	2531.412883
1008.688292	2533.986392
1008.982172	2536.103677
1009.276017	2536.169212
1009.569827	2536.837165
1009.863602	2534.697195
1010.157341	2534.840868
1010.451045	2529.686288
1010.744714	2529.688809
1011.038347	2529.272913
1011.331945	2533.663758
1011.625508	2530.991947
1011.919036	2526.333921
1012.212528	2527.657224
1012.505986	2527.881555
1012.799408	2526.475073
1013.092795	2528.305012
1013.386147	2522.268230
1013.679464	2527.498427
1013.972745	2524.887110
1014.265992	2525.154291
1014.559204	2524.582120
1014.852380	2524.929959
1015.145521	2523.790659
1015.438628	2524.947603
1015.731699	2523.699918
1016.024736	2525.000536
1016.317737	2524.942562
1016.610703	2527.062368
1016.903635	2529.648479
1017.196531	2529.472039
1017.489393	2529.270393
1017.782219	2533.603265
1018.075011	2534.664428
1018.367768	2534.137627
1018.660490	2535.803728
1018.953177	2535.803728
1019.245829	2535.803728
