Dividing Wavelength (nm)	Counts (n)	Blue Motor Position (mm): 20.000000	Red Motor Position (mm): 0.000000	
326.493990	2068.176215
326.888308	2068.176215
327.282561	2068.176215
327.676750	2043.623275
328.070874	2044.049253
328.464933	2050.862372
328.858929	2060.299412
329.252859	2065.960628
329.646726	2081.384038
330.040528	2100.013622
330.434265	2112.351846
330.827938	2138.349077
331.221547	2156.547642
331.615091	2177.102947
332.008571	2198.379137
332.401986	2219.720862
332.795338	2236.323902
333.188625	2258.847777
333.581847	2277.615993
333.975006	2293.803138
334.368100	2314.096303
334.761129	2328.264466
335.154095	2341.452124
335.546996	2390.545401
335.939833	2480.320789
336.332606	2490.408138
336.725315	2505.708040
337.117960	2512.737929
337.510540	2522.910977
337.903056	2530.984385
338.295508	2539.140972
338.687896	2546.594318
339.080220	2549.848383
339.472480	2551.958106
339.864676	2557.087480
340.256807	2563.288099
340.648875	2562.332800
341.040879	2563.686350
341.432818	2566.806824
341.824694	2568.649366
342.216506	2568.470405
342.608253	2567.726835
342.999937	2566.806824
343.391557	2564.999571
343.783113	2567.091650
344.174605	2560.976730
344.566033	2561.138047
344.957397	2557.926832
345.348697	2557.324414
345.739934	2555.595298
346.131106	2554.335010
346.522215	2554.660164
346.913260	2550.594474
347.304241	2549.961809
347.695159	2548.701520
348.086012	2546.475851
348.476802	2544.318237
348.867528	2539.057793
349.258191	2538.180632
349.648789	2534.999664
350.039324	2533.169725
350.429796	2537.066537
350.820203	2537.399253
351.210548	2539.181301
351.600828	2536.897659
351.991045	2533.625950
352.381198	2534.823224
352.771288	2535.712987
353.161314	2534.369520
353.551276	2534.475384
353.941175	2530.601258
354.331010	2534.059489
354.720782	2538.289017
355.110490	2538.208359
355.500135	2534.853471
355.889717	2535.299613
356.279235	2534.651825
356.668689	2534.430014
357.058080	2536.040662
357.447408	2535.937319
357.836672	2537.326157
358.225873	2536.010416
358.615010	2536.854809
359.004084	2537.232895
359.393095	2539.299768
359.782043	2539.060314
360.170927	2538.964532
360.559748	2540.391178
360.948505	2539.236754
361.337199	2542.798329
361.725830	2541.596014
362.114398	2542.773123
362.502903	2541.790098
362.891344	2543.269677
363.279722	2544.847558
363.668037	2542.510983
364.056289	2543.491488
364.444478	2545.565923
364.832603	2543.955274
365.220665	2545.873433
365.608665	2546.231355
365.996601	2548.343598
366.384474	2544.469472
366.772284	2548.504915
367.160031	2546.639688
367.547715	2546.415357
367.935336	2545.260933
368.322893	2544.887887
368.710388	2546.092723
369.097820	2545.094575
369.485189	2541.059131
369.872495	2546.143135
370.259738	2547.153886
370.646918	2548.860317
371.034035	2549.407282
371.421090	2547.784030
371.808081	2548.018444
372.195010	2546.090203
372.581875	2550.425595
372.968678	2548.709082
373.355418	2549.001469
373.742096	2548.315872
374.128710	2549.256047
374.515262	2550.261758
374.901751	2550.140770
375.288177	2552.371480
375.674540	2550.793599
376.060841	2555.431461
376.447079	2551.229659
376.833254	2554.264434
377.219367	2554.655123
377.605417	2551.837118
377.991404	2552.605894
378.377329	2554.559341
378.763191	2553.276368
379.148991	2554.667726
379.534727	2554.758467
379.920402	2554.110678
380.306013	2553.707386
380.691563	2554.806358
381.077049	2554.171172
381.462474	2555.088662
381.847835	2557.430278
382.233134	2556.805175
382.618371	2553.593960
383.003545	2557.674774
383.388657	2555.885165
383.773706	2556.112017
384.158693	2557.536142
384.543618	2557.727706
384.928480	2556.255689
385.313280	2559.018242
385.698017	2556.122099
386.082692	2558.302398
386.467305	2558.345248
386.851856	2559.887841
387.236344	2558.035217
387.620770	2555.980947
388.005133	2555.912891
388.389435	2555.933056
388.773674	2554.012376
389.157851	2559.527398
389.541965	2558.551935
389.926018	2560.260886
390.310008	2561.024621
390.693936	2558.776266
391.077802	2564.986968
391.461606	2563.787173
391.845348	2562.199210
392.229027	2562.481514
392.612645	2560.651576
392.996200	2563.066288
393.379694	2563.076371
393.763125	2560.961607
394.146494	2562.723490
394.529801	2565.337328
394.913047	2562.466391
395.296230	2562.554611
395.679351	2565.105435
396.062410	2565.095353
396.445408	2563.585527
396.828343	2564.838254
397.211217	2563.308264
397.594028	2566.053172
397.976778	2564.921433
398.359466	2567.482339
398.742092	2566.471588
399.124656	2566.670713
399.507158	2567.376475
399.889598	2569.793708
400.271977	2566.103583
400.654294	2568.639284
401.036549	2565.801114
401.418742	2564.359344
401.800874	2568.130127
402.182944	2567.225240
402.564952	2567.570559
402.946898	2567.447051
403.328783	2571.580797
403.710606	2568.808162
404.092367	2569.208934
404.474067	2569.831517
404.855705	2566.176680
405.237282	2570.403688
405.618797	2568.399829
406.000250	2568.818245
406.381642	2573.158678
406.762972	2569.007288
407.144240	2567.585683
407.525447	2567.716753
407.906593	2564.979406
408.287677	2570.499470
408.668700	2569.720611
409.049661	2570.754048
409.430560	2569.909655
409.811399	2569.249263
410.192176	2572.178174
410.572891	2570.552402
410.953545	2571.240519
411.334138	2570.169274
411.714669	2573.564491
412.095139	2571.001064
412.475547	2570.880077
412.855894	2571.260684
413.236180	2572.601631
413.616405	2573.524162
413.996568	2572.415108
414.376670	2575.202866
414.756711	2572.301682
415.136691	2572.997361
415.516609	2575.704461
415.896466	2572.624316
416.276262	2574.728998
416.655997	2574.058524
417.035670	2571.666497
417.415283	2575.391909
417.794834	2571.578277
418.174324	2574.076168
418.553753	2573.007444
418.933121	2574.056004
419.312428	2572.601631
419.691674	2575.885942
420.070859	2577.146231
420.449983	2577.357959
420.829045	2573.483833
421.208047	2572.289079
421.586988	2575.059193
421.965867	2575.366704
422.344686	2576.135480
422.723444	2577.037846
423.102141	2574.297979
423.480777	2576.057342
423.859352	2574.590366
424.237866	2576.987435
424.616319	2578.759400
424.994712	2577.468865
425.373044	2574.003072
425.751314	2577.836869
426.129524	2570.449058
426.507673	2570.953173
426.885762	2571.578277
427.263789	2579.964236
427.641756	2577.166396
428.019662	2577.168916
428.397508	2577.567167
428.775292	2576.742939
429.153016	2576.294276
429.530679	2578.048598
429.908282	2579.190419
430.285824	2578.109091
430.663305	2576.740418
431.040726	2576.909297
431.418086	2579.427353
431.795385	2577.534400
432.172624	2578.799729
432.549802	2577.897363
432.926920	2578.711509
433.303977	2579.628999
433.680974	2581.136304
434.057910	2580.264185
434.434786	2581.844586
434.811601	2579.694534
435.188355	2579.853331
435.565050	2580.680080
435.941683	2581.148907
436.318257	2583.167889
436.694770	2582.121850
437.071222	2579.755028
437.447614	2583.215780
437.823946	2581.516911
438.200218	2581.441294
438.576429	2581.398444
438.952580	2582.368866
439.328670	2580.841397
439.704700	2580.917014
440.080670	2581.194277
440.456580	2580.869123
440.832429	2583.508167
441.208218	2582.656212
441.583947	2585.610328
441.959616	2583.140163
442.335224	2581.781572
442.710773	2583.372056
443.086261	2580.733012
443.461689	2583.982036
443.837057	2584.327355
444.212365	2583.054463
444.587612	2579.853331
444.962800	2580.954823
445.337927	2581.355594
445.712995	2575.759914
446.088002	2584.166038
446.462949	2585.232242
446.837837	2585.338106
447.212664	2583.198136
447.587431	2583.470358
447.962139	2588.035123
448.336786	2588.158632
448.711374	2585.383476
449.085901	2585.411203
449.460369	2587.150401
449.834776	2588.498909
450.209124	2587.407500
450.583412	2586.547983
450.957640	2586.706779
451.331808	2586.769794
451.705917	2585.887592
452.079965	2587.566296
452.453954	2587.425144
452.827883	2589.630648
453.201752	2587.447829
453.575562	2588.829105
453.949311	2589.988570
454.323001	2590.225505
454.696632	2588.692994
455.070202	2586.661409
455.443713	2590.790114
455.817164	2594.200454
456.190556	2588.919846
456.563888	2591.576534
456.937160	2590.182655
457.310373	2590.026379
457.683526	2590.094435
458.056619	2589.751636
458.429653	2589.862542
458.802628	2591.206009
459.175542	2589.930597
459.548398	2591.140474
459.921194	2594.061823
460.293930	2593.620722
460.666607	2594.424786
461.039224	2598.046855
461.411782	2596.408480
461.784280	2598.636670
462.156719	2596.814293
462.529099	2598.679520
462.901419	2596.405959
463.273680	2596.098449
463.645882	2592.035279
464.018024	2598.041814
464.390106	2597.656165
464.762130	2600.166660
465.134094	2602.399891
465.505999	2604.650766
465.877845	2608.751745
466.249631	2608.648401
466.621358	2608.396344
466.993026	2610.806015
467.364634	2612.328444
467.736184	2610.937085
468.107674	2609.762496
468.479105	2609.366766
468.850477	2610.085130
469.221790	2607.564553
469.593043	2606.851230
469.964238	2613.003958
470.335373	2610.145624
470.706449	2613.074534
471.077467	2612.635954
471.448425	2616.333640
471.819324	2620.749691
472.190164	2622.042747
472.560945	2618.909670
472.931667	2616.807509
473.302330	2619.340689
473.672934	2618.599639
474.043479	2618.944958
474.413965	2620.822788
474.784393	2620.265740
475.154761	2621.175669
475.525070	2622.458642
475.895321	2622.982922
476.265513	2625.054837
476.635645	2627.441823
477.005719	2627.010804
477.375734	2629.480970
477.745691	2632.535909
478.115588	2634.305354
478.485427	2635.253091
478.855207	2642.111581
479.224928	2644.967394
479.594591	2647.787920
479.964194	2649.658188
480.333739	2651.868734
480.703226	2655.785710
481.072653	2658.739827
481.442022	2661.779642
481.811333	2664.418686
482.180584	2659.712769
482.549777	2666.281393
482.918912	2665.134530
483.287988	2672.156857
483.657005	2673.255829
484.025964	2677.492919
484.394864	2677.843279
484.763706	2684.250586
485.132489	2682.655060
485.501213	2688.764939
485.869879	2694.952955
486.238487	2697.042513
486.607036	2703.051569
486.975527	2704.465612
487.343959	2711.072045
487.712333	2720.002449
488.080648	2726.261041
488.448905	2732.834706
488.817104	2741.593711
489.185244	2752.285998
489.553326	2768.173194
489.921350	2790.271092
490.289315	2818.267140
490.657222	2832.473112
491.025070	2850.918693
491.392861	2861.966382
491.760593	2868.519882
492.128267	2873.888711
492.495883	2878.897097
492.863440	2885.253992
493.230939	2893.970147
493.598380	2905.199318
493.965763	2916.977973
494.333088	2932.010694
494.700354	2950.214301
495.067563	2968.559060
495.434713	2989.101762
495.801805	3015.066224
496.168839	3036.390305
496.535815	3056.920404
496.902733	3085.181113
497.269593	3109.729011
497.636395	3140.457365
498.003139	3176.037828
498.369825	3201.442723
498.736453	3244.506780
499.103023	3273.969804
499.469535	3312.181750
499.835989	3348.558716
500.202385	3385.611197
500.568723	3423.757608
500.935003	3475.469764
501.301226	3517.820498
501.667390	3590.271961
502.033497	3646.150630
502.399546	3687.014223
502.765537	3724.059142
503.131470	3793.448105
503.497345	3868.863766
503.863163	3880.284500
504.228923	3972.608192
504.594625	4051.706416
504.960269	4092.885081
505.325856	4188.563661
505.691385	4239.716249
506.056856	4326.106502
506.422270	4421.711985
506.787625	4471.367350
507.152924	4572.066919
507.518164	4660.874406
507.883347	4713.531778
508.248472	4802.722393
508.613540	4931.307104
508.978550	5034.892733
509.343503	5111.205720
509.708398	5226.713678
510.073236	5362.792064
510.438016	5472.961441
510.802738	5540.258324
511.167403	5684.142937
511.532010	5813.221681
511.896561	5966.301359
512.261053	6147.911447
512.625488	6239.668008
512.989866	6344.196333
513.354186	6462.766792
513.718449	6568.930972
514.082655	6784.357120
514.446803	6875.140739
514.810894	7069.603248
515.174927	7203.518980
515.538904	7328.279976
515.902822	7546.725775
516.266684	7641.685990
516.630488	7824.107703
516.994235	7964.148437
517.357925	8188.275616
517.721558	8369.444603
518.085133	8575.221983
518.448651	8753.910722
518.812112	8886.707317
519.175516	9063.624091
519.538863	9291.010376
519.902152	9465.129309
520.265385	9725.497344
520.628560	9888.308969
520.991678	10049.545233
521.354739	10254.165668
521.717743	10500.642803
522.080690	10654.425722
522.443580	10967.405758
522.806413	11145.557615
523.169189	11356.902948
523.531908	11581.002402
523.894569	11735.692728
524.257174	11961.191101
524.619722	12239.896333
524.982213	12466.980149
525.344647	12682.194568
525.707025	12916.872883
526.069345	13238.075041
526.431608	13410.091813
526.793815	13708.697000
527.155964	13794.366368
527.518057	14065.101535
527.880093	14228.288727
528.242072	14617.072593
528.603995	14740.714453
528.965860	14934.695533
529.327669	15215.268512
529.689421	15443.902483
530.051117	15650.093237
530.412755	15943.634584
530.774337	16181.423290
531.135862	16385.935340
531.497331	16656.453738
531.858743	16868.772014
532.220098	17240.564672
532.581396	17373.817492
532.942638	17517.044234
533.303824	17825.971183
533.664953	18088.229650
534.026025	18193.967852
534.387040	18656.468512
534.747999	18913.758922
535.108902	19270.430639
535.469748	19225.304750
535.830537	19557.781449
536.191270	19892.146060
536.551947	20021.928046
536.912567	20378.572036
537.273131	20661.836991
537.633638	20725.834439
537.994089	21030.123527
538.354483	21158.226808
538.714821	21679.739214
539.075103	22055.506822
539.435328	22218.567984
539.795497	22346.494825
540.155609	22641.714876
540.515665	23167.759280
540.875665	23042.161453
541.235609	23416.963679
541.595496	23729.336257
541.955328	24257.500466
542.315102	24196.421846
542.674821	24377.820205
543.034483	24556.866867
543.394090	24801.874505
543.753640	25018.051785
544.113134	25827.318294
544.472571	25575.326137
544.831953	26435.251201
545.191278	26257.280826
545.550548	26310.472561
545.909761	26904.529692
546.268918	27202.552625
546.628019	27693.112347
546.987064	27560.933293
547.346053	27382.302527
547.704986	28165.120623
548.063863	28162.957968
548.422684	28514.538119
548.781449	28478.135947
549.140158	29034.777635
549.498811	29103.354971
549.857408	28943.842781
550.215949	29695.375476
550.574434	29801.955550
550.932864	29985.420783
551.291237	30679.091114
551.649555	30715.463039
552.007817	31054.949462
552.366022	31063.557232
552.724173	31300.831741
553.082267	31801.935036
553.440305	32265.461571
553.798288	31936.034770
554.156215	32410.273756
554.514086	32767.114352
554.871902	32684.426826
555.229661	33025.660009
555.587365	32986.523011
555.945014	33287.222797
556.302606	33485.246882
556.660143	33749.229423
557.017625	34123.023419
557.375050	34076.869135
557.732421	34564.545317
558.089735	34804.358047
558.446994	34896.749794
558.804197	35442.190037
559.161345	35540.230397
559.518437	35222.637705
559.875474	35596.194767
560.232455	35945.960103
560.589381	36148.501062
560.946251	36192.638884
561.303065	36879.314614
561.659825	36800.541544
562.016528	36834.942378
562.373177	36661.314957
562.729770	37370.328040
563.086307	37127.334342
563.442789	37733.633915
563.799216	37771.273690
564.155587	37848.327727
564.511904	37975.984866
564.868164	38180.905249
565.224370	38616.728123
565.580520	38514.259109
565.936615	38847.335705
566.292654	38692.990698
566.648638	39154.258795
567.004567	39283.992890
567.360441	39483.408333
567.716260	39361.997184
568.072023	39863.460921
568.427732	39926.387124
568.783385	39662.064305
569.138982	40140.041307
569.494525	40396.280636
569.850013	40185.205004
570.205445	40412.142627
570.560823	40341.193427
570.916145	40346.521927
571.271412	40669.680053
571.626625	40476.984468
571.981782	40673.115599
572.336884	40442.437441
572.691931	40843.677999
573.046923	40642.510754
573.401860	40627.667077
573.756743	40743.916085
574.111570	40979.403504
574.466342	41012.055058
574.821059	41260.798191
575.175722	40899.692780
575.530330	41086.102046
575.884882	40884.894472
576.239380	40878.356096
576.593823	41063.401730
576.948211	41113.989709
577.302544	40780.411518
577.656823	40865.816226
578.011047	41198.517256
578.365216	41149.580255
578.719330	40960.670577
579.073389	41018.921109
579.427394	41155.327171
579.781344	41149.469350
580.135239	41005.826712
580.489080	41150.333908
580.842866	40744.642011
581.196597	41270.567948
581.550273	41324.220948
581.903895	41341.083607
582.257463	41809.298415
582.610975	41360.648326
582.964434	41721.637791
583.317837	41318.665596
583.671186	41352.776564
584.024481	41666.112002
584.377721	41334.895591
584.730906	41599.041970
585.084037	41795.556230
585.437113	41597.572474
585.790135	41755.622729
586.143103	41412.252097
586.496016	41624.429221
586.848874	41785.045424
587.201679	41857.320447
587.554428	41436.396703
587.907124	41718.736607
588.259765	41568.832856
588.612352	41760.537854
588.964884	41301.407206
589.317362	41633.747794
589.669786	41675.725482
590.022155	41591.407143
590.374470	42091.527413
590.726731	41737.555234
591.078937	41148.088074
591.431090	41529.254757
591.783188	41083.198341
592.135232	40951.160440
592.487222	41244.094328
592.839157	41425.951432
593.191038	41126.980763
593.542866	40967.760959
593.894639	40414.385940
594.246358	40738.998439
594.598022	40777.724583
594.949633	40391.897353
595.301190	40425.544534
595.652692	40384.590200
596.004141	40900.622873
596.355535	39873.006346
596.706876	39910.973796
597.058162	39653.534672
597.409395	40158.441518
597.760573	40414.585066
598.111698	40053.809849
598.462768	39995.531590
598.813785	40059.811343
599.164748	39704.982168
599.515657	39983.115228
599.866511	39499.466928
600.217312	40201.268641
600.568060	39195.762615
600.918753	40018.736022
601.269392	39954.952822
601.619978	39706.247498
601.970510	39942.165936
602.320988	40080.787584
602.671412	40344.162667
603.021783	40240.022511
603.372100	39841.403353
603.722363	39945.384713
604.072572	40004.835040
604.422728	40017.314416
604.772830	39819.890229
605.122878	40007.317808
605.472872	39854.086896
605.822813	40125.424481
606.172701	39884.616123
606.522534	40231.828115
606.872314	40442.641607
607.222041	40293.247013
607.571714	40620.080140
607.921333	40154.942957
608.270899	40346.889931
608.620411	40742.071022
608.969870	40514.997288
609.319276	40534.856914
609.668627	40577.709242
610.017926	40967.206433
610.367171	41113.273865
610.716362	41164.484427
611.065500	41078.063926
611.414585	41330.154386
611.763616	41492.550116
612.112594	41406.258165
612.461518	41535.402444
612.810389	41925.086157
613.159207	41723.124931
613.507971	41691.290045
613.856682	42199.574463
614.205340	42037.892057
614.553945	42709.913153
614.902496	42062.056828
615.250994	42487.396622
615.599439	42584.174173
615.947830	42682.315356
616.296169	42689.514123
616.644454	42757.307560
616.992686	42926.506327
617.340864	43355.057337
617.688990	42861.601472
618.037063	43524.359447
618.385082	43363.813821
618.733048	43730.121703
619.080961	43623.539108
619.428821	43680.310062
619.776628	43703.335532
620.124382	43538.280594
620.472083	43656.377184
620.819731	43753.560548
621.167326	43346.426881
621.514868	43340.964791
621.862357	42816.256293
622.209793	42923.325359
622.557176	42485.972496
622.904506	42271.168930
623.251783	41924.440889
623.599007	41599.732608
623.946179	41551.829044
624.293297	41286.561008
624.640363	40754.696592
624.987376	40614.343307
625.334336	40429.421181
625.681243	40030.025686
626.028097	39954.143717
626.374899	39768.921643
626.721647	39744.729145
627.068343	39493.304118
627.414987	39221.454856
627.761577	38973.798091
628.108115	39302.899737
628.454600	38548.947288
628.801032	38791.358733
629.147412	38686.633803
629.493739	38578.581711
629.840014	38150.476844
630.186236	38580.411650
630.532405	38015.338633
630.878521	38271.376317
631.224585	38047.619662
631.570597	37714.890905
631.916556	37877.911738
632.262462	37804.512538
632.608316	37729.515293
632.954117	37604.308154
633.299866	37551.605412
633.645562	37479.078331
633.991206	36978.121229
634.336797	36597.332632
634.682336	36468.717674
635.027823	36237.111943
635.373257	36132.770141
635.718639	35793.790353
636.063968	35688.780598
636.409245	35085.422538
636.754470	35025.064803
637.099642	34806.608922
637.444762	34231.834205
637.789829	34355.549161
638.134845	33973.928774
638.479808	33882.076430
638.824719	33857.747822
639.169577	33352.435163
639.514383	33469.856239
639.859137	33080.669080
640.203839	33249.540172
640.548489	32956.936479
640.893086	32953.450521
641.237632	32655.301559
641.582125	32753.606580
641.926566	32533.562735
642.270955	32575.605958
642.615292	32521.189223
642.959576	32394.721797
643.303809	32413.578233
643.647990	32500.273476
643.992118	32467.105204
644.336195	32292.351085
644.680219	32367.141644
645.024192	32548.547565
645.368112	33080.848041
645.711981	33093.740792
646.055797	33780.038435
646.399562	33577.671396
646.743274	34436.086635
647.086935	34849.330180
647.430544	34831.242520
647.774101	34874.621649
648.117606	35177.557187
648.461059	35317.935677
648.804460	34941.863080
649.147810	34439.665854
649.491108	34135.623783
649.834354	34027.652350
650.177548	33222.040678
650.520690	32729.290574
650.863781	32687.587629
651.206820	32519.066897
651.549807	32101.031735
651.892742	31518.107992
652.235626	31432.103387
652.578458	31281.607301
652.921238	30593.431828
653.263967	30871.806864
653.606644	30560.172815
653.949269	30481.934108
654.291843	30104.215573
654.634365	30433.806212
654.976836	30001.819656
655.319255	30080.302860
655.661622	29940.695666
656.003938	29830.891773
656.346203	29626.304106
656.688416	29885.449661
657.030577	29666.892957
657.372687	29492.496760
657.714746	29644.086777
658.056753	29828.998820
658.398708	29205.546721
658.740612	29279.661765
659.082465	29482.936212
659.424266	29371.614932
659.766016	29370.599139
660.107715	29211.349089
660.449362	29310.773246
660.790958	29288.652663
661.132503	29221.446520
661.473996	29292.826738
661.815438	29377.530726
662.156829	29496.754014
662.498168	29292.778847
662.839456	29270.312945
663.180693	29394.882377
663.521879	29447.428844
663.863013	29412.130685
664.204097	29376.920746
664.545129	29805.736416
664.886110	29726.030732
665.227040	29829.850775
665.567918	29828.625775
665.908746	29873.003052
666.249522	29976.112292
666.590248	29997.338071
666.930922	30100.021333
667.271545	30124.579314
667.612118	30168.180254
667.952639	29988.074950
668.293109	30020.456802
668.633528	29882.649300
668.973896	29846.554638
669.314213	29822.440279
669.654480	29627.642533
669.994695	29605.937845
670.334859	29526.025474
670.674973	29350.762199
671.015035	29548.191428
671.355047	29471.210488
671.695008	29374.974861
672.034918	29293.325813
672.374777	29382.579441
672.714585	29276.785787
673.054342	29404.957123
673.394049	29269.445867
673.733705	29475.634100
674.073310	29194.713282
674.412864	29251.673279
674.752368	28969.227511
675.091820	29202.862307
675.431223	28813.675148
675.770574	28604.915926
676.109875	28450.906155
676.449125	28240.926974
676.788324	28143.627663
677.127473	27657.720927
677.466571	27576.918792
677.805619	27276.836548
678.144616	27217.471920
678.483562	27175.075816
678.822458	26849.021547
679.161303	26797.392570
679.500098	26715.917442
679.838842	26633.663455
680.177535	26682.497112
680.516179	26904.627995
680.854771	26968.640566
681.193314	27657.892326
681.531805	28605.788045
681.870247	29355.286634
682.208638	30158.917134
682.546978	30512.039878
682.885268	30689.669975
683.223508	30281.170156
683.561697	30018.430258
683.899836	29855.817759
684.237925	29439.458780
684.575963	29279.197979
684.913951	28884.236178
685.251889	29029.156748
685.589776	29023.848413
685.927614	29039.559169
686.265401	29194.236892
686.603137	29295.107860
686.940824	29773.644430
687.278460	30086.916854
687.616046	30277.938776
687.953582	30946.806630
688.291068	30878.889685
688.628504	31231.674672
688.965889	31267.996186
689.303224	31031.969362
689.640510	30753.662382
689.977745	30154.175928
690.314930	29435.443501
690.652065	29021.479071
690.989150	28354.821763
691.326185	27511.053597
691.663170	26907.783757
692.000105	26184.350454
692.336990	25582.429123
692.673825	25171.653222
693.010610	24682.920918
693.347345	24164.670138
693.684030	23555.645822
694.020665	23355.075954
694.357251	22694.626827
694.693786	22689.192463
695.030272	22453.105146
695.366707	21969.277885
695.703093	21680.881036
696.039429	21744.452506
696.375716	21504.647338
696.711952	21493.352633
697.048139	21358.017817
697.384276	21205.147347
697.720363	21319.541210
698.056400	21213.651774
698.392388	21055.059594
698.728326	21055.261240
699.064214	20892.633617
699.400053	20908.092316
699.735842	20526.539984
700.071581	20344.566933
700.407270	20110.485995
700.742910	19930.358007
701.078501	19681.335089
701.414042	19487.467435
701.749533	19192.885090
702.084974	18882.574344
702.420366	19101.695658
702.755709	18712.478252
703.091002	18403.896622
703.426246	18464.186301
703.761440	18392.233912
704.096584	18158.294127
704.431679	18096.078727
704.766725	18038.060087
705.101721	17958.775340
705.436668	18062.814673
705.771565	17791.802243
706.106413	18093.086802
706.441212	18166.052463
706.775961	18242.390656
707.110661	18319.003591
707.445311	18680.219908
707.779913	18566.756138
708.114465	18843.686883
708.448967	19154.647938
708.783421	19757.302757
709.117825	20101.134655
709.452180	20302.561518
709.786485	20734.424566
710.120742	21471.297585
710.454949	21582.691962
710.789107	22080.732756
711.123216	22769.843363
711.457275	23005.938242
711.791286	23570.396238
712.125247	23728.093613
712.459159	23501.198840
712.793023	24276.253558
713.126837	23288.278145
713.460602	23562.403488
713.794318	23234.940217
714.127985	22974.801555
714.461602	22112.499587
714.795171	22074.390984
715.128691	21112.541351
715.462162	20588.813357
715.795584	20162.321660
716.128957	19907.680376
716.462281	19529.810607
716.795556	19254.966899
717.128782	18788.077915
717.461960	18189.382923
717.795088	18162.405188
718.128167	17816.549267
718.461198	17375.844036
718.794180	17250.972134
719.127113	16922.878719
719.459997	16740.514978
719.792833	16363.093872
720.125619	16411.042807
720.458357	16071.148050
720.791046	15926.098930
721.123686	15779.575273
721.456278	15560.910184
721.788821	15554.013886
722.121315	15294.462518
722.453761	15388.094389
722.786158	15274.547440
723.118506	15356.599780
723.450805	15239.287089
723.783056	15413.889973
724.115259	15298.981912
724.447412	15281.544561
724.779518	15481.741383
725.111574	15527.517581
725.443582	15781.324554
725.775542	15737.647997
726.107453	16240.850933
726.439315	16140.272352
726.771129	16542.831171
727.102895	16944.401925
727.434612	17216.369654
727.766281	17396.036378
728.097901	17710.291826
728.429473	17815.278896
728.760996	17844.618411
729.092471	17956.158981
729.423897	17837.802771
729.755276	17686.943722
730.086606	17766.190660
730.417887	18311.935893
730.749120	18848.574282
731.080305	19076.174817
731.411442	19485.781169
731.742530	19596.363920
732.073570	19732.964066
732.404562	20051.416275
732.735506	19955.226018
733.066401	19832.415949
733.397249	19402.312265
733.728048	18808.930648
734.058798	17968.729098
734.389501	17225.504225
734.720156	16706.603136
735.050762	16126.656195
735.381320	15732.460649
735.711831	15432.358240
736.042293	15059.484255
736.372707	15071.920782
736.703073	14859.743657
737.033391	15048.239961
737.363661	15034.583476
737.693883	15140.276307
738.024056	15322.135932
738.354182	15522.947775
738.684260	15868.521392
739.014290	16148.751572
739.344272	16366.970519
739.674207	16706.915688
740.004093	16897.098258
740.333931	16959.288452
740.663722	17052.872432
740.993464	17099.021675
741.323159	16980.897358
741.652806	16693.682659
741.982405	16544.557767
742.311956	16186.524938
742.641460	16092.341061
742.970915	15765.575989
743.300323	15408.871505
743.629683	15209.773654
743.958996	14908.597479
744.288260	14593.759777
744.617477	14286.098158
744.946647	14242.552671
745.275768	13936.325260
745.604842	13734.081730
745.933869	13555.783680
746.262847	13523.517775
746.591778	13427.297271
746.920662	13301.835555
747.249498	13296.156695
747.578286	13433.775154
747.907027	13599.639198
748.235720	13857.305174
748.564365	13940.416157
748.892963	13879.493813
749.221514	13987.722344
749.550017	13870.500394
749.878473	13853.783928
750.206881	13627.698260
750.535242	13562.180904
750.863555	13490.946880
751.191821	13382.052916
751.520039	13393.944998
751.848210	13306.281853
752.176334	13352.053009
752.504411	13284.330148
752.832440	13110.347326
753.160421	13236.419022
753.488356	13128.518165
753.816243	13035.980225
754.144082	12865.276673
754.471875	12813.771204
754.799620	12767.105243
755.127318	12741.286974
755.454969	12728.643760
755.782572	12701.338350
756.110129	12713.331255
756.437638	12623.611319
756.765100	12622.827420
757.092515	12646.581337
757.419882	12686.008201
757.747203	12682.441585
758.074477	12764.942588
758.401703	12744.430133
758.728882	12934.973146
759.056014	12975.766163
759.383099	13141.088282
759.710138	13260.412394
760.037129	13399.936409
760.364073	13461.720790
760.690970	13486.235922
761.017820	13492.839833
761.344623	13687.264534
761.671379	13996.196524
761.998088	14539.438824
762.324751	15942.898576
762.651366	18851.977061
762.977935	23130.744608
763.304456	26404.900934
763.630931	27979.255801
763.957359	27192.518208
764.283740	25146.122298
764.610074	23020.960880
764.936362	20418.873541
765.262602	18534.008803
765.588796	16575.218064
765.914943	15255.065901
766.241044	14117.733702
766.567097	13306.019713
766.893104	12567.851117
767.219064	12092.571132
767.544978	11619.678134
767.870845	11222.198277
768.196665	10992.281332
768.522438	10773.316294
768.848165	10567.934645
769.173846	10358.205001
769.499479	10227.376977
769.825066	10066.211288
770.150607	9841.022946
770.476101	9758.988249
770.801548	9635.517789
771.126949	9486.952464
771.452303	9377.763593
771.777611	9181.778654
772.102872	9171.479577
772.428087	9034.135861
772.753256	8890.556238
773.078378	8804.276890
773.403453	8626.979509
773.728482	8511.685800
774.053465	8434.800642
774.378401	8328.510434
774.703291	8212.019451
775.028135	8097.739014
775.352932	8064.260711
775.677683	7965.141544
776.002388	7850.243566
776.327046	7859.189093
776.651658	7761.015143
776.976224	7661.936305
777.300743	7662.175760
777.625216	7573.708551
777.949643	7536.119187
778.274024	7552.480252
778.598359	7466.611758
778.922647	7481.742781
779.246889	7427.608351
779.571086	7438.623272
779.895236	7440.254085
780.219339	7448.269520
780.543397	7450.485107
780.867409	7532.958384
781.191374	7541.672018
781.515294	7506.441914
781.839167	7600.739218
782.162995	7575.931700
782.486776	7518.807865
782.810511	7480.656413
783.134201	7395.539050
783.457844	7386.195272
783.781441	7336.214752
784.104993	7273.749815
784.428498	7254.543018
784.751958	7237.723209
785.075372	7207.377983
785.398739	7149.480331
785.722061	7185.481731
786.045337	7187.165477
786.368568	7329.134451
786.691752	7336.673497
787.014891	7615.398893
787.337983	7925.099659
787.661030	8475.802867
787.984031	9091.189120
788.306987	9521.484368
788.629897	9779.813256
788.952760	9777.426269
789.275579	9596.688301
789.598351	9227.035613
789.921078	8902.115604
790.243759	8493.613263
790.566395	8196.724590
790.888984	7947.416847
791.211529	7744.250785
791.534027	7520.330293
791.856480	7312.176010
792.178888	7239.832932
792.501249	7139.065307
792.823566	6983.535629
793.145836	6978.612942
793.468062	6947.609846
793.790241	6891.436269
794.112375	6949.071781
794.434464	7089.500683
794.756507	7115.497913
795.078505	7249.413644
795.400457	7534.480812
795.722364	7870.284673
796.044226	8151.187847
796.366042	8443.872198
796.687812	8414.073938
797.009538	8506.453082
797.331218	8423.889065
797.652852	8352.395421
797.974442	8201.755662
798.295986	8119.640307
798.617484	7938.357894
798.938938	7795.574773
799.260346	7699.026594
799.581709	7502.656008
799.903026	7422.501662
800.224299	7320.877041
800.545526	7154.266907
800.866708	7060.335087
801.187845	6983.515464
801.508936	6885.921246
801.829983	6848.662078
802.150984	6699.340581
802.471940	6655.328787
802.792851	6643.676160
803.113717	6611.304391
803.434538	6581.420431
803.755314	6518.322828
804.076045	6520.198138
804.396731	6459.769827
804.717372	6486.719835
805.037967	6484.874773
805.358518	6530.260281
805.679024	6609.156859
805.999485	6615.239011
806.319901	6654.328118
806.640272	6678.455080
806.960598	6758.707729
807.280879	6760.754438
807.601115	6837.730336
807.921306	6789.713346
808.241453	6801.073586
808.561554	6819.153684
808.881611	6793.559746
809.201623	6796.539068
809.521590	6745.089052
809.841513	6726.540126
810.161390	6764.757114
810.481223	6635.670808
810.801011	6625.855681
811.120755	6602.104285
811.440453	6526.411360
811.760107	6496.444221
812.079716	6459.306040
812.399281	6396.216000
812.718801	6388.243415
813.038276	6344.861766
813.357707	6280.486231
813.677093	6321.680020
813.996434	6227.546554
814.315731	6264.190701
814.634983	6255.290544
814.954191	6261.937306
815.273354	6355.221337
815.592473	6409.665798
815.911547	6527.593510
816.230577	6604.418174
816.549562	6748.053250
816.868502	6839.956006
817.187399	6931.246261
817.506250	7071.392858
817.825058	7100.634071
818.143821	7339.899835
818.462539	7572.017244
818.781213	7892.440544
819.099843	8368.680868
819.418429	9266.444833
819.736970	10152.946861
820.055466	11237.921635
820.373919	12590.352307
820.692327	14579.057252
821.010691	17859.378910
821.329011	25234.566822
821.647286	36800.118087
821.965517	50640.502628
822.283704	58178.144244
822.601847	61379.460938
822.919945	59153.723459
823.237999	55241.092396
823.556010	49218.866997
823.873976	42629.048004
824.191897	36201.382765
824.509775	31412.589081
824.827609	26811.109550
825.145398	24031.576115
825.463144	22374.034648
825.780845	22264.137494
826.098502	23504.468028
826.416116	26775.312316
826.733685	30455.896548
827.051210	32247.366349
827.368692	31317.142394
827.686129	27852.301903
828.003522	23875.169276
828.320872	20190.060609
828.638177	17324.562898
828.955439	15145.251926
829.272656	13331.719515
829.589830	11861.368693
829.906960	10582.095246
830.224046	9619.645716
830.541088	8846.302469
830.858086	8363.279272
831.175041	7962.918395
831.491952	7808.480127
831.808819	7791.418341
832.125642	8095.984692
832.442421	8787.988922
832.759157	10256.477037
833.075849	12786.034776
833.392497	15891.740946
833.709101	18338.492692
834.025662	18701.803608
834.342179	17374.480404
834.658653	15330.103476
834.975083	13423.307198
835.291469	11797.010803
835.607811	10485.332819
835.924110	9578.908152
836.240366	8719.046102
836.556578	7924.129237
836.872746	7278.856503
837.188871	6764.184943
837.504952	6339.732392
837.820990	6021.388567
838.136984	5794.138393
838.452935	5675.235218
838.768842	5660.068907
839.084706	5937.465959
839.400526	6896.880715
839.716303	8378.664873
840.032037	9605.442265
840.347727	9823.414195
840.663373	9041.644660
840.978977	8010.161568
841.294537	7188.145981
841.610054	6583.978816
841.925527	6148.065202
842.240957	5789.621519
842.556344	5469.949351
842.871687	5192.408626
843.186987	4911.427314
843.502244	4686.186039
843.817458	4519.076830
844.132629	4381.077764
844.447756	4285.779792
844.762840	4201.799210
845.077881	4128.732726
845.392879	4070.648552
845.707833	4021.383876
846.022745	3977.518276
846.337613	3953.174544
846.652438	3909.311464
846.967221	3892.035430
847.281960	3861.995194
847.596656	3844.819983
847.911309	3824.383145
848.225919	3801.332469
848.540485	3786.176240
848.855009	3773.217954
849.169490	3754.779934
849.483928	3739.200248
849.798323	3726.400758
850.112675	3711.015157
850.426984	3720.245510
850.741251	3704.375957
851.055474	3697.847663
851.369654	3706.415104
851.683792	3696.121068
851.997887	3703.665155
852.311938	3704.910320
852.625947	3710.730332
852.939914	3703.004763
853.253837	3710.601782
853.567718	3712.474571
853.881555	3695.780790
854.195350	3713.056824
854.509103	3707.995506
854.822812	3705.858057
855.136479	3699.120554
855.450103	3710.062379
855.763685	3692.829194
856.077224	3694.462528
856.390720	3712.388871
856.704173	3727.938310
857.017584	3741.556988
857.330953	3752.498812
857.644278	3772.239970
857.957561	3776.146865
858.270802	3779.597534
858.584000	3786.377886
858.897155	3779.272380
859.210268	3765.038682
859.523339	3740.747882
859.836367	3743.535640
860.149352	3734.617839
860.462295	3725.301787
860.775195	3714.629664
861.088054	3709.013819
861.400869	3707.277141
861.713642	3710.838717
862.026373	3711.879715
862.339062	3720.880695
862.651708	3738.759147
862.964312	3766.054475
863.276873	3774.243829
863.589392	3826.772652
863.901869	3872.911813
864.214303	3913.964449
864.526696	3949.779327
864.839045	3989.531345
865.151353	4018.094523
865.463619	4024.990821
865.775842	4037.424827
866.088023	4054.030388
866.400162	4046.173750
866.712258	4050.728432
867.024313	4058.454001
867.336325	4050.420922
867.648296	4057.796130
867.960224	4054.680697
868.272110	4065.657809
868.583954	4066.119075
868.895755	4081.134152
869.207515	4078.366558
869.519233	4112.101960
869.830909	4124.765338
870.142542	4145.660921
870.454134	4158.594001
870.765684	4190.534752
871.077191	4224.738981
871.388657	4242.637598
871.700081	4280.315181
872.011463	4314.728618
872.322803	4348.325388
872.634101	4377.271693
872.945357	4418.533537
873.256571	4467.873831
873.567744	4497.430116
873.878874	4519.154968
874.189963	4554.397675
874.501010	4564.033840
874.812015	4564.485024
875.122979	4606.361889
875.433900	4604.529429
875.744780	4614.896562
876.055618	4638.360613
876.366415	4635.867762
876.677169	4655.051873
876.987882	4694.544272
877.298554	4737.936004
877.609183	4800.320283
877.919771	4898.990787
878.230317	5021.258933
878.540822	5204.368764
878.851285	5475.998736
879.161707	5863.013158
879.472087	6489.820145
879.782425	7496.430183
880.092722	9301.022107
880.402977	12115.836057
880.713191	15579.524645
881.023363	19226.161746
881.333494	21657.774907
881.643583	23113.161063
881.953631	23325.902797
882.263637	22682.031504
882.573602	21391.607025
882.883526	19976.608073
883.193408	18416.718797
883.503248	16830.418916
883.813048	15380.772113
884.122806	14028.321277
884.432522	12602.892177
884.742197	11405.764332
885.051831	10332.701804
885.361424	9354.249130
885.670975	8539.923823
885.980485	7860.749330
886.289954	7294.874770
886.599382	6831.935530
886.908768	6462.000537
887.218113	6103.660198
887.527417	5822.555378
887.836680	5558.265325
888.145901	5348.157595
888.455082	5186.671793
888.764221	5034.683525
889.073319	4904.725100
889.382376	4826.062935
889.691392	4762.476341
890.000366	4735.007094
890.309300	4717.579825
890.618193	4714.787026
890.927044	4703.303277
891.235855	4720.612079
891.544625	4741.500100
891.853353	4791.531031
892.162041	4886.100557
892.470687	5045.574938
892.779293	5254.513121
893.087858	5563.248506
893.396381	6050.246653
893.704864	6720.710032
894.013306	7730.861481
894.321707	8851.252882
894.630068	9728.814423
894.938387	10069.296474
895.246665	9953.342374
895.554903	9432.399618
895.863100	8794.875138
896.171256	8274.933051
896.479371	7783.602032
896.787446	7311.339178
897.095480	6897.077320
897.403473	6593.007523
897.711425	6289.772037
898.019336	6033.381473
898.327207	5766.676708
898.635038	5551.633687
898.942827	5309.703673
899.250576	5120.902379
899.558284	4930.492958
899.865952	4810.889062
900.173579	4666.636445
900.481165	4560.038726
900.788711	4469.514726
901.096216	4399.238521
901.403681	4331.634127
901.711105	4304.192607
902.018489	4283.067651
902.325832	4329.388293
902.633135	4416.910286
902.940397	4673.368906
903.247619	5277.616729
903.554800	6453.019722
903.861941	8187.164042
904.169041	9738.979910
904.476101	10574.513351
904.783121	10433.897926
905.090100	9820.661725
905.397039	9042.728508
905.703938	8327.567738
906.010796	7667.360586
906.317614	7144.171996
906.624391	6632.910776
906.931129	6229.603345
907.237826	5846.044634
907.544483	5492.642105
907.851099	5136.023320
908.157675	4795.805930
908.464211	4476.153926
908.770707	4235.877410
909.077163	4037.160167
909.383578	3889.509812
909.689954	3771.942542
909.996289	3695.863969
910.302584	3633.877941
910.608839	3596.969133
910.915054	3567.148188
911.221229	3549.841907
911.527363	3558.553021
911.833458	3566.938980
912.139513	3584.719130
912.445527	3607.353910
912.751502	3681.617668
913.057436	3763.218826
913.363331	3877.194273
913.669186	4051.540058
913.975000	4266.157101
914.280775	4623.232110
914.586510	5111.520792
914.892205	5791.096057
915.197859	6700.046342
915.503475	7814.683266
915.809050	8859.659006
916.114585	9560.916273
916.420081	9911.016846
916.725536	9958.643147
917.030952	9611.332853
917.336328	9246.907842
917.641665	8881.227583
917.946961	8436.930530
918.252218	8043.229017
918.557435	7562.096253
918.862612	7166.285017
919.167750	6816.776780
919.472848	6418.565956
919.777906	6060.946502
920.082925	5719.131065
920.387904	5357.760993
920.692843	5096.669553
920.997743	4851.997151
921.302603	4621.339157
921.607423	4463.457780
921.912204	4306.617402
922.216946	4194.038354
922.521647	4075.205755
922.826310	3977.031804
923.130932	3888.211715
923.435516	3794.685708
923.740059	3729.385122
924.044564	3653.488030
924.349028	3597.765636
924.653454	3533.601830
924.957840	3469.606902
925.262186	3425.143925
925.566493	3364.287116
925.870761	3312.133859
926.174989	3279.366359
926.479178	3243.332191
926.783328	3202.927343
927.087438	3178.659228
927.391509	3143.396357
927.695541	3113.890484
927.999533	3090.852411
928.303486	3067.227043
928.607400	3054.049467
928.911275	3042.757283
929.215110	3024.755322
929.518906	3018.647964
929.822663	3013.556399
930.126381	3010.859382
930.430060	3017.175947
930.733699	3020.293901
931.037299	3030.703884
931.340861	3025.912267
931.644383	3036.266797
931.947866	3034.026004
932.251309	3030.613143
932.554714	3030.381250
932.858080	3023.737009
933.161407	3015.464476
933.464694	3009.589011
933.767943	3003.973165
934.071153	3000.545181
934.374323	2994.152998
934.677455	2986.213180
934.980548	2979.369814
935.283602	2970.048721
935.586617	2969.721046
935.889593	2975.435193
936.192530	2978.669094
936.495428	2989.845332
936.798287	3006.929802
937.101108	3032.783360
937.403890	3077.334557
937.706632	3133.810603
938.009336	3205.170657
938.312002	3273.223713
938.614628	3338.680575
938.917216	3387.844428
939.219765	3421.131167
939.522275	3451.602421
939.824747	3463.257569
940.127179	3459.756488
940.429573	3459.070891
940.731929	3457.074594
941.034246	3442.044393
941.336524	3430.797579
941.638763	3419.417174
941.940964	3407.646080
942.243126	3371.143085
942.545250	3348.291535
942.847335	3316.418840
943.149381	3280.919034
943.451389	3254.268974
943.753359	3219.051474
944.055290	3193.873431
944.357182	3170.164884
944.659036	3154.557472
944.960851	3143.114053
945.262628	3127.882206
945.564367	3130.896816
945.866067	3125.676702
946.167729	3121.366515
946.469352	3121.348871
946.770937	3116.360649
947.072484	3102.011005
947.373992	3107.924278
947.675462	3098.451950
947.976893	3082.375711
948.278286	3075.481933
948.579641	3069.818196
948.880958	3064.207392
949.182236	3065.248390
949.483476	3059.796382
949.784678	3055.975188
950.085841	3058.064746
950.386967	3066.354924
950.688054	3080.765062
950.989103	3097.337855
951.290114	3117.673870
951.591087	3139.015595
951.892021	3165.000222
952.192917	3194.017104
952.493776	3220.778069
952.794596	3228.695201
953.095378	3235.750296
953.396122	3228.904409
953.696828	3227.893657
953.997496	3216.256154
954.298126	3199.148998
954.598718	3179.934640
954.899272	3156.657112
955.199788	3134.977630
955.500266	3104.201386
955.800706	3073.137796
956.101108	3037.910213
956.401472	3008.621109
956.701798	2978.732108
957.002087	2940.489915
957.302337	2911.868764
957.602550	2888.553428
957.902724	2858.283819
958.202861	2834.514779
958.502960	2813.422591
958.803022	2794.185548
959.103045	2776.128135
959.403031	2757.899323
959.702979	2744.709144
960.002889	2733.197669
960.302762	2721.850032
960.602596	2710.220090
960.902393	2703.270859
961.202153	2690.189065
961.501875	2685.823426
961.801559	2677.818073
962.101205	2675.506704
962.400814	2668.764161
962.700385	2663.171001
962.999918	2654.873262
963.299414	2649.080976
963.598873	2648.314720
963.898293	2642.782054
964.197677	2643.386992
964.497022	2641.609986
964.796331	2637.468678
965.095601	2636.858698
965.394835	2633.246712
965.694030	2631.522637
965.993189	2631.794859
966.292309	2632.114972
966.591393	2629.218830
966.890439	2627.414097
967.189447	2627.129271
967.488419	2630.804272
967.787353	2629.881741
968.086249	2628.208078
968.385108	2630.600106
968.683930	2632.674541
968.982714	2639.180150
969.281462	2639.207876
969.580172	2643.676859
969.878844	2651.558703
970.177480	2657.529950
970.476078	2662.709735
970.774639	2672.010664
971.073162	2678.702796
971.371649	2684.873168
971.670098	2689.289219
971.968510	2694.622760
972.266885	2699.061496
972.565223	2703.512834
972.863524	2706.507280
973.161788	2710.976263
973.460014	2712.634802
973.758204	2714.258054
974.056356	2718.293497
974.354471	2719.810885
974.652550	2719.047150
974.950591	2717.996069
975.248595	2715.291490
975.546563	2715.984649
975.844493	2709.456355
976.142386	2708.952239
976.440243	2702.781867
976.738062	2697.342462
977.035845	2691.444312
977.333590	2684.595905
977.631299	2680.996521
977.928971	2671.496466
978.226606	2671.466219
978.524204	2665.913388
978.821765	2658.515495
979.119290	2665.290806
979.416777	2663.249139
979.714228	2666.878769
980.011642	2664.827020
980.309020	2673.795232
980.606360	2683.131449
980.903664	2702.232381
981.200931	2732.688512
981.498162	2772.286776
981.795356	2833.564521
982.092513	2912.997983
982.389633	3003.968124
982.686717	3097.176538
982.983764	3173.996161
983.280775	3229.206878
983.577749	3247.435690
983.874686	3243.284300
984.171587	3211.424208
984.468451	3180.332892
984.765279	3143.600524
985.062070	3099.830706
985.358824	3058.967113
985.655543	3005.152795
985.952224	2961.957669
986.248869	2902.484656
986.545478	2845.771675
986.842050	2791.332255
987.138586	2746.839031
987.435086	2711.465255
987.731549	2680.137004
988.027975	2654.568272
988.324366	2637.587145
988.620719	2623.671040
988.917037	2614.337343
989.213318	2603.665221
989.509563	2597.396546
989.805772	2589.973447
990.101944	2584.682756
990.398080	2585.791810
990.694180	2583.790472
990.990244	2585.733837
991.286271	2580.627148
991.582262	2583.180492
991.878217	2585.950606
992.174136	2589.058477
992.470019	2590.812799
992.765865	2593.018304
993.061676	2594.964189
993.357450	2606.047166
993.653188	2608.681169
993.948890	2625.236318
994.244556	2640.493370
994.540186	2660.471463
994.835780	2691.895495
995.131337	2720.151163
995.426859	2755.845052
995.722345	2802.064872
996.017795	2847.107581
996.313208	2884.462531
996.608586	2916.158786
996.903928	2930.064809
997.199234	2933.339038
997.494504	2933.404573
997.789738	2922.314035
998.084936	2901.380643
998.380099	2875.368290
998.675225	2850.291070
998.970316	2821.029692
999.265371	2788.267233
999.560390	2750.602252
999.855373	2726.629045
1000.150320	2696.084694
1000.445232	2671.982938
1000.740108	2653.204640
1001.034948	2634.297792
1001.329752	2620.084259
1001.624521	2607.856940
1001.919254	2595.952255
1002.213951	2589.766760
1002.508613	2578.832497
1002.803239	2575.039029
1003.097829	2568.213306
1003.392384	2562.564693
1003.686903	2557.823488
1003.981386	2557.306770
1004.275834	2551.748898
1004.570246	2553.447767
1004.864623	2549.339226
1005.158964	2546.493495
1005.453270	2546.165820
1005.747540	2542.208514
1006.041775	2543.307486
1006.335974	2541.548123
1006.630138	2537.792463
1006.924266	2540.103833
1007.218359	2539.657690
1007.512416	2535.909593
1007.806438	2533.527647
1008.100425	2534.538399
1008.394376	2530.122348
1008.688292	2534.556043
1008.982172	2535.254243
1009.276017	2534.679551
1009.569827	2532.874818
1009.863602	2531.178470
1010.157341	2531.531350
1010.451045	2532.905065
1010.744714	2531.498583
1011.038347	2529.882893
1011.331945	2529.063706
1011.625508	2530.339117
1011.919036	2527.722759
1012.212528	2528.337779
1012.505986	2526.036493
1012.799408	2526.122192
1013.092795	2524.609846
1013.386147	2524.133457
1013.679464	2525.618077
1013.972745	2522.605988
1014.265992	2522.585823
1014.559204	2522.278313
1014.852380	2523.284023
1015.145521	2524.735875
1015.438628	2522.487520
1015.731699	2524.307377
1016.024736	2522.142201
1016.317737	2528.176463
1016.610703	2525.454239
1016.903635	2529.373737
1017.196531	2527.334590
1017.489393	2529.111597
1017.782219	2531.627132
1018.075011	2533.124355
1018.367768	2533.328522
1018.660490	2532.685775
1018.953177	2532.685775
1019.245829	2532.685775
